Data from blue_shiny_book_FLMS001491_00052.txt Node
Date: Wed Feb 08 15:27:12 GMT 2017
User: dcchb
Spectrometer: FLMS00149
Trigger mode: 0
Integration Time (sec): 2.000000E-2
Scans to average: 10
Electric dark correction enabled: true
Nonlinearity correction enabled: false
Boxcar width: 0
XAxis mode: Wavelengths
Number of Pixels in Spectrum: 2048
>>>>>Begin Spectral Data<<<<<
341.393	-9.53
341.776	-9.53
342.16	-9.53
342.543	-47.27
342.927	-76.65
343.31	-70.32
343.693	-54.96
344.077	-49.76
344.46	-75.07
344.843	-65.8
345.226	-45.46
345.61	-16.77
345.993	-21.74
346.376	-13.15
346.759	1.31
347.142	24.36
347.525	42.89
347.908	56.45
348.291	86.06
348.674	93.74
349.057	108.2
349.44	146.17
349.823	137.81
350.206	161.54
350.588	210.35
350.971	216.9
351.354	250.57
351.737	257.8
352.119	265.04
352.502	265.71
352.884	296.45
353.267	307.97
353.65	310.01
354.032	327.86
354.414	321.76
354.797	339.84
355.179	331.02
355.562	345.94
355.944	344.58
356.326	359.95
356.709	337.58
357.091	347.97
357.473	369.21
357.855	374.41
358.238	374.64
358.62	359.5
359.002	355.43
359.384	354.52
359.766	361.76
360.148	361.76
360.53	367.86
360.912	371.93
361.294	346.16
361.676	357.69
362.057	348.2
362.439	362.43
362.821	365.6
363.203	350.91
363.584	338.71
363.966	368.76
364.348	358.37
364.729	353.17
365.111	346.16
365.493	361.08
365.874	360.17
366.256	355.2
366.637	374.41
367.019	359.72
367.4	356.33
367.781	351.13
368.163	356.33
368.544	334.19
368.925	381.42
369.306	371.93
369.688	363.34
370.069	358.37
370.45	354.75
370.831	345.94
371.212	347.07
371.593	363.11
371.974	384.58
372.355	355.43
372.736	366.5
373.117	380.29
373.498	369.44
373.879	356.33
374.26	362.89
374.641	370.34
375.021	364.24
375.402	373.06
375.783	386.84
376.163	387.74
376.544	413.51
376.925	388.42
377.305	397.91
377.686	399.95
378.066	421.64
378.447	387.97
378.827	404.24
379.208	405.37
379.588	410.57
379.968	413.05
380.349	408.99
380.729	415.77
381.109	432.49
381.489	443.34
381.87	438.59
382.25	431.58
382.63	449.66
383.01	448.99
383.39	438.36
383.77	448.76
384.15	455.54
384.53	477.91
384.91	457.8
385.29	454.18
385.67	472.71
386.049	488.31
386.429	477.69
386.809	472.49
387.189	493.5
387.568	470.23
387.948	478.82
388.328	517.01
388.707	523.56
389.087	496.67
389.466	522.2
389.846	506.84
390.225	537.8
390.605	512.71
390.984	526.72
391.363	520.85
391.743	549.32
392.122	549.32
392.501	566.27
392.881	574.86
393.26	566.95
393.639	592.71
394.018	571.69
394.397	569.89
394.776	590
395.155	606.04
395.534	605.14
395.913	627.74
396.292	639.26
396.671	631.58
397.05	629.32
397.429	608.76
397.808	642.65
398.186	665.48
398.565	653.27
398.944	671.8
399.323	672.26
399.701	682.43
400.08	676.78
400.458	719.71
400.837	704.12
401.215	745.25
401.594	684.01
401.972	738.92
402.351	737.34
402.729	741.63
403.107	769.88
403.486	761.75
403.864	773.95
404.242	783.21
404.62	780.5
404.999	815.76
405.377	806.26
405.755	793.16
406.133	833.38
406.511	813.72
406.889	830.22
407.267	863.66
407.645	885.58
408.023	882.19
408.401	888.3
408.779	911.35
409.156	915.41
409.534	937.79
409.912	929.88
410.29	953.38
410.667	984.34
411.045	982.53
411.422	1001.51
411.8	1020.27
412.178	1018.24
412.555	1061.62
412.933	1055.3
413.31	1082.87
413.687	1117.89
414.065	1114.73
414.442	1112.02
414.819	1130.78
415.197	1136.88
415.574	1162.64
415.951	1182.53
416.328	1179.81
416.705	1215.29
417.082	1212.36
417.46	1257.78
417.837	1268.17
418.214	1243.09
418.591	1242.18
418.967	1274.73
419.344	1300.71
419.721	1293.03
420.098	1324.67
420.475	1375.97
420.852	1365.12
421.228	1377.55
421.605	1407.6
421.982	1455.29
422.358	1431.78
422.735	1419.13
423.111	1439.02
423.488	1434.27
423.864	1455.51
424.241	1486.47
424.617	1534.61
424.994	1562.4
425.37	1583.42
425.746	1600.37
426.123	1589.29
426.499	1587.03
426.875	1638.78
427.251	1698.9
427.627	1708.84
428.003	1698.44
428.379	1749.52
428.756	1736.41
429.132	1796.52
429.507	1807.14
429.883	1846.91
430.259	1834.03
430.635	1868.16
431.011	1948.38
431.387	1933.24
431.763	2017.08
432.138	2009.85
432.514	2039.45
432.89	2061.6
433.265	2103.41
433.641	2120.58
434.016	2134.59
434.392	2173.91
434.767	2226.11
435.143	2246.9
435.518	2260.69
435.894	2329.39
436.269	2323.74
436.644	2370.74
437.02	2409.16
437.395	2409.61
437.77	2416.62
438.145	2485.77
438.52	2472.43
438.895	2509.04
439.271	2532.32
439.646	2616.84
440.021	2626.78
440.395	2655.48
440.77	2647.8
441.145	2669.27
441.52	2731.86
441.895	2724.41
442.27	2794.91
442.645	2736.83
443.019	2812.09
443.394	2799.88
443.769	2834.46
444.143	2864.52
444.518	2914.46
444.892	2915.14
445.267	2952.2
445.641	2968.69
446.016	3003.72
446.39	2995.13
446.764	3073.55
447.139	3036.26
447.513	3099.31
447.887	3108.12
448.262	3118.07
448.636	3132.98
449.01	3146.09
449.384	3224.96
449.758	3247.56
450.132	3326.42
450.506	3323.94
450.88	3313.54
451.254	3375.01
451.628	3433.31
452.002	3464.5
452.376	3483.48
452.75	3503.59
453.123	3541.56
453.497	3595.12
453.871	3662.91
454.244	3725.74
454.618	3748.33
454.992	3806.64
455.365	3786.75
455.739	3919.4
456.112	3939.29
456.486	4022.68
456.859	4042.79
457.232	4146.06
457.606	4156.23
457.979	4163.92
458.352	4287.98
458.725	4340.86
459.099	4356.23
459.472	4460.86
459.845	4524.36
460.218	4539.27
460.591	4594.41
460.964	4620.4
461.337	4750.57
461.71	4845.25
462.083	4899.26
462.456	4918.25
462.829	4950.56
463.201	5048.19
463.574	5068.07
463.947	5113.5
464.32	5234.62
464.692	5290.89
465.065	5323.43
465.438	5406.37
465.81	5463.32
466.183	5572.47
466.555	5689.98
466.928	5691.11
467.3	5700.15
467.672	5859.24
468.045	6015.84
468.417	6011.78
468.789	6098.33
469.161	6127.25
469.534	6245.67
469.906	6376.06
470.278	6405.44
470.65	6542.84
471.022	6606.11
471.394	6783.51
471.766	6813.79
472.138	6924.07
472.51	7101.24
472.882	7166.1
473.253	7257.62
473.625	7411.51
473.997	7480.89
474.369	7582.81
474.74	7701.45
475.112	7801.11
475.484	7971.73
475.855	8105.51
476.227	8115.9
476.598	8345.05
476.97	8483.58
477.341	8706.17
477.713	8763.12
478.084	8896.9
478.455	9135.08
478.827	9248.53
479.198	9511.35
479.569	9531.91
479.94	9775.07
480.311	9845.12
480.682	10084.44
481.053	10309.29
481.424	10449.17
481.795	10513.13
482.166	10756.28
482.537	10894.13
482.908	11239.89
483.279	11248.93
483.65	11494.34
484.021	11759.42
484.391	11876.71
484.762	12003.03
485.133	12059.75
485.503	12346.53
485.874	12543.13
486.244	12722.79
486.615	12804.82
486.985	13149.22
487.356	13238.03
487.726	13457
488.097	13703.78
488.467	13760.05
488.837	14098.57
489.207	14293.14
489.578	14542.4
489.948	14658.56
490.318	14879.79
490.688	14969.51
491.058	15258.09
491.428	15503.5
491.798	15542.37
492.168	15890.16
492.538	15913.89
492.908	16067.78
493.278	16304.16
493.648	16358.4
494.017	16526.3
494.387	16847.2
494.757	17012.17
495.126	17290.58
495.496	17313.17
495.866	17510.68
496.235	17755.65
496.605	17942.76
496.974	18137.33
497.344	18182.76
497.713	18378.01
498.082	18584.1
498.452	18651.44
498.821	18724.21
499.19	18787.26
499.559	18878.33
499.928	19080.13
500.298	19178.66
500.667	19446
501.036	19479.67
501.405	19824.75
501.774	19840.79
502.143	20076.72
502.512	20162.59
502.88	20399.42
503.249	20411.4
503.618	20439.42
503.987	20685.74
504.356	20676.7
504.724	20815
505.093	21009.12
505.462	21044.6
505.83	21203.24
506.199	21364.82
506.567	21638.48
506.936	21565.27
507.304	21931.58
507.672	22053.84
508.041	22127.29
508.409	22510.78
508.777	22681.17
509.145	22880.49
509.514	23002.74
509.882	23175.39
510.25	23277.31
510.618	23332.23
510.986	23493.8
511.354	23665.32
511.722	23767.47
512.09	24199.55
512.458	24025.77
512.826	24282.93
513.193	24318.41
513.561	24486.77
513.929	24658.52
514.297	24997.04
514.664	25109.13
515.032	25325.62
515.4	25586.86
515.767	25791.6
516.135	26085.6
516.502	25936.9
516.869	26310.45
517.237	26546.6
517.604	26458.02
517.972	26812.81
518.339	26974.84
518.706	26923.77
519.073	27032.92
519.44	27167.6
519.808	27527.14
520.175	27429.74
520.542	27866.34
520.909	27909.28
521.276	27964.19
521.643	28316.73
522.009	28601.01
522.376	28864.28
522.743	29137.5
523.11	29550.14
523.477	29853.86
523.843	30098.83
524.21	30320.06
524.577	30440.29
524.943	30705.82
525.31	30822.42
525.676	31127.95
526.043	31191
526.409	31340.6
526.776	31648.84
527.142	31683.87
527.508	31913.69
527.874	32110.98
528.241	32318.88
528.607	32426.45
528.973	32819.89
529.339	32917.06
529.705	33378.52
530.071	33773.08
530.437	34010.36
530.803	34210.36
531.169	34544.81
531.535	34463.68
531.901	34693.96
532.267	34799.49
532.632	35061.63
532.998	35132.82
533.364	35347.28
533.73	35233.83
534.095	35564.22
534.461	35487.39
534.826	35649.19
535.192	35886.47
535.557	36095.51
535.923	36054.15
536.288	36182.28
536.653	36392.22
537.019	36502.5
537.384	36726.68
537.749	37016.84
538.114	37140.45
538.479	37233.55
538.845	37651.85
539.21	37532.53
539.575	37770.94
539.94	37879.87
540.305	37969.13
540.67	37966.19
541.034	37956.25
541.399	38137.03
541.764	38215.68
542.129	38154.43
542.494	38380.19
542.858	38376.12
543.223	38477.36
543.587	38786.28
543.952	38749
544.316	39038.03
544.681	39051.13
545.045	39389.43
545.41	39593.94
545.774	39838.23
546.138	39749.42
546.503	40282.29
546.867	40234.61
547.231	40587.82
547.595	40644.54
547.959	40754.14
548.324	40650.87
548.688	40556.86
549.052	40727.7
549.416	40851.76
549.779	40860.13
550.143	40811.99
550.507	41047.24
550.871	41148.48
551.235	41010.4
551.599	41291.53
551.962	41371.3
552.326	41563.61
552.689	41836.82
553.053	41665.98
553.417	41975.13
553.78	42665.95
554.143	42407.43
554.507	42712.28
554.87	42790.47
555.234	43255.09
555.597	43014.42
555.96	43209.67
556.323	43359.27
556.686	43374.86
557.05	43466.39
557.413	43533.28
557.776	43555.2
558.139	43693.72
558.502	43630.9
558.865	43647.4
559.228	43885.58
559.59	43986.6
559.953	44149.53
560.316	44527.37
560.679	44587.71
561.041	44953.13
561.404	45138.21
561.767	45545.88
562.129	45587.46
562.492	45998.52
562.854	46106.32
563.217	46155.13
563.579	46427.21
563.941	46661.33
564.304	46748.56
564.666	46850.7
565.028	46970.7
565.39	47205.27
565.753	47254.53
566.115	47221.09
566.477	47438.94
566.839	47369.33
567.201	47607.75
567.563	47582.21
567.925	47783.33
568.287	47870.56
568.648	47938.81
569.01	48168.41
569.372	48393.71
569.734	48392.58
570.095	48647.72
570.457	48900.82
570.819	48967.03
571.18	49089.51
571.542	49383.07
571.903	49511.2
572.265	49688.82
572.626	49698.76
572.987	49867.57
573.349	49946.67
573.71	50063.27
574.071	49971.75
574.432	49978.98
574.794	50120.9
575.155	50128.81
575.516	49871.41
575.877	49979.43
576.238	50004.97
576.599	50099.66
576.96	50004.29
577.32	50132.88
577.681	50271.4
578.042	50425.75
578.403	50403.38
578.763	50618.97
579.124	50625.07
579.485	50858.06
579.845	51000.42
580.206	51005.85
580.566	51096.47
580.927	51181.44
581.287	51467.98
581.648	51384.37
582.008	51511.82
582.368	51465.27
582.728	51453.97
583.089	51443.12
583.449	51313.18
583.809	51420.75
584.169	51337.59
584.529	51298.72
584.889	51499.85
585.249	51225.5
585.609	51133.75
585.969	51345.05
586.329	51181.44
586.688	51302.79
587.048	51309.12
587.408	51348.89
587.768	51415.78
588.127	51480.19
588.487	51564.25
588.846	51818.71
589.206	51683.57
589.565	51771.48
589.925	51959.5
590.284	51817.13
590.643	51881.76
591.003	52048.53
591.362	52128.3
591.721	52107.51
592.08	52039.72
592.44	52067.06
592.799	52029.1
593.158	51987.97
593.517	51870.01
593.876	51867.97
594.235	51773.96
594.593	51786.39
594.952	51827.3
595.311	51611.26
595.67	51614.19
596.029	51819.16
596.387	51897.8
596.746	51886.5
597.104	51708.65
597.463	51771.25
597.822	51913.62
598.18	51908.2
598.538	51944.58
598.897	52108.64
599.255	51930.34
599.613	52360.16
599.972	52254.4
600.33	52432.93
600.688	52298.7
601.046	52410.33
601.404	52567.39
601.762	52477.22
602.12	52603.32
602.478	52631.12
602.836	52500.05
603.194	52330.11
603.552	52464.34
603.91	52325.59
604.268	52425.02
604.625	52154.52
604.983	52377.79
605.341	52062.09
605.698	52314.29
606.056	52280.62
606.413	52353.84
606.771	52486.26
607.128	52483.32
607.485	52385.92
607.843	52483.1
608.2	52742.75
608.557	52885.57
608.914	52811.9
609.272	53028.62
609.629	53099.8
609.986	53223.19
610.343	53134.61
610.7	53382.51
611.057	53339.12
611.414	53321.27
611.771	53411.21
612.127	53601.03
612.484	53459.34
612.841	53553.35
613.198	53487.14
613.554	53468.83
613.911	53447.37
614.267	53405.56
614.624	53389.74
614.98	53435.39
615.337	53620.47
615.693	53438.33
616.05	53341.61
616.406	53522.17
616.762	53357.2
617.118	53435.84
617.475	53380.93
617.831	53472.22
618.187	53492.79
618.543	53540.7
618.899	53748.15
619.255	53650.3
619.611	53664.08
619.967	53819.11
620.323	53905.88
620.678	53779.79
621.034	53810.29
621.39	53827.02
621.746	53871.99
622.101	54199.66
622.457	53996.05
622.812	53974.58
623.168	53984.98
623.523	53971.87
623.879	54064.52
624.234	53663.63
624.589	53737.75
624.945	53801.48
625.3	53761.26
625.655	53771.65
626.01	53661.6
626.365	53709.73
626.72	53606.23
627.075	53570.53
627.43	53632.22
627.785	53516.52
628.14	53619.34
628.495	53589.28
628.85	53673.57
629.205	53497.76
629.559	53634.48
629.914	53599.45
630.269	53724.42
630.623	53750.18
630.978	53684.65
631.332	53847.13
631.687	53935.94
632.041	53864.08
632.396	53941.82
632.75	53816.17
633.104	53907.01
633.459	53789.05
633.813	53886
634.167	53855.94
634.521	53706.79
634.875	53746.79
635.229	53594.93
635.583	53546.12
635.937	53457.76
636.291	53437.42
636.645	53333.7
636.999	53172.12
637.352	53154.94
637.706	53086.7
638.06	53178.22
638.413	53059.58
638.767	52899.36
639.121	52940.49
639.474	52693.49
639.828	52753.15
640.181	52764.67
640.534	52757.67
640.888	52740.04
641.241	52679.93
641.594	52690.55
641.947	52773.94
642.301	52748.18
642.654	52821.39
643.007	52783.65
643.36	52862.75
643.713	52767.84
644.066	52879.92
644.419	52869.75
644.771	52777.1
645.124	52630.21
645.477	52620.95
645.83	52300.5
646.182	51795.88
646.535	51597.7
646.888	51609.22
647.24	51178.95
647.593	51538.49
647.945	51159.97
648.298	51095.34
648.65	50919.52
649.002	50823.93
649.355	50848.34
649.707	50900.54
650.059	51004.49
650.411	51400.64
650.763	51505.04
651.115	51794.3
651.467	51617.13
651.819	51651.71
652.171	51637.92
652.523	51647.41
652.875	51659.62
653.227	51557.92
653.578	51769.44
653.93	51890.8
654.282	51831.14
654.633	51815.54
654.985	51758.82
655.337	51898.48
655.688	51873.62
656.039	52072.03
656.391	51754.98
656.742	51906.39
657.094	51964.24
657.445	52028.65
657.796	51940.29
658.147	51811.25
658.498	51754.08
658.849	51814.19
659.2	51770.12
659.551	51594.99
659.902	51733.06
660.253	51583.91
660.604	51630.69
660.955	51380.98
661.306	51423.92
661.656	51376.69
662.007	51298.5
662.358	51164.94
662.708	51260.76
663.059	51219.63
663.409	51043.14
663.76	51277.03
664.11	51097.37
664.461	51195.9
664.811	51221.66
665.161	51142.12
665.511	51197.03
665.862	51373.97
666.212	51470.69
666.562	51524.25
666.912	51453.75
667.262	51497.13
667.612	51522.22
667.962	51536
668.312	51555.89
668.662	51686.96
669.011	51619.17
669.361	51530.13
669.711	51484.25
670.06	51366.97
670.41	51275.9
670.76	51267.31
671.109	51334.65
671.459	51184.83
671.808	50887.66
672.157	51134.66
672.507	50806.76
672.856	50783.48
673.205	50837.49
673.554	50796.14
673.904	50507.78
674.253	50810.6
674.602	50474.11
674.951	49947.12
675.3	49780.34
675.649	50366.77
675.998	50190.5
676.346	50166.32
676.695	50330.61
677.044	50040.9
677.393	50225.08
677.741	50352.31
678.09	50303.27
678.438	50394.34
678.787	50402.7
679.135	50406.77
679.484	50230.73
679.832	50405.86
680.181	50264.4
680.529	50460.1
680.877	50478.63
681.225	50496.26
681.573	50541.68
681.922	50290.61
682.27	50284.74
682.618	50228.69
682.966	50097.62
683.314	50117.06
683.661	50106.66
684.009	49806.33
684.357	49821.7
684.705	49647.69
685.053	49662.61
685.4	49564.98
685.748	49247.02
686.095	49193.69
686.443	49099.23
686.79	48976.52
687.138	48971.1
687.485	48856.3
687.832	48653.37
688.18	48634.61
688.527	48452.69
688.874	48367.27
689.221	48292.02
689.568	48177
689.915	48209.09
690.262	48136.55
690.609	48124.57
690.956	48171.57
691.303	48126.38
691.65	48002.76
691.997	48010.9
692.344	47838.25
692.69	47849.77
693.037	47827.63
693.383	47548.99
693.73	47976.1
694.077	47580.18
694.423	47672.38
694.769	47413.4
695.116	47307.19
695.462	47200.3
695.808	47094.31
696.155	47088.66
696.501	46911.94
696.847	46915.11
697.193	46539.07
697.539	46658.84
697.885	46222.25
698.231	46052.76
698.577	45909.03
698.923	45810.28
699.269	45502.94
699.614	45440.12
699.96	45207.36
700.306	45064.54
700.651	44763.98
700.997	44786.8
701.342	44614.38
701.688	44470.65
702.033	44318.11
702.379	44274.73
702.724	44263.88
703.069	44357.21
703.415	43837.68
703.76	43917.9
704.105	43867.5
704.45	43757.45
704.795	43607.62
705.14	43545.71
705.485	43396.1
705.83	43362.66
706.175	43580.05
706.52	43381.87
706.865	43377.35
707.209	43491.24
707.554	43518.59
707.899	43452.15
708.243	43166.05
708.588	43184.36
708.932	42949.11
709.277	42922.44
709.621	42968.09
709.966	42498.73
710.31	42816.01
710.654	42333.76
710.998	42434.77
711.342	42311.16
711.687	42184.16
712.031	42028.68
712.375	41787.79
712.719	41872.08
713.063	41678.41
713.407	41703.49
713.75	41380.34
714.094	41393.22
714.438	41228.25
714.782	41099.89
715.125	40866.23
715.469	40918.2
715.812	40694.48
716.156	40567.93
716.499	40493.58
716.843	40358.44
717.186	40216.3
717.53	40435.5
717.873	40520.02
718.216	40379.46
718.559	40309.41
718.902	40123.42
719.246	40448.39
719.589	40462.17
719.932	40340.37
720.275	40439.57
720.617	40416.3
720.96	40307.6
721.303	40313.7
721.646	40256.3
721.989	40205
722.331	40432.34
722.674	40367.48
723.016	40346.69
723.359	40330.42
723.701	40346.69
724.044	40096.53
724.386	39756.65
724.729	39847.27
725.071	39889.08
725.413	39833.03
725.755	39820.61
726.097	39581.52
726.439	39233.73
726.782	39359.37
727.124	39362.76
727.465	38975.88
727.807	38898.82
728.149	38894.75
728.491	38724.82
728.833	38661.09
729.175	38550.13
729.516	38353.98
729.858	38473.52
730.199	38473.3
730.541	38338.38
730.882	38280.08
731.224	38426.29
731.565	38124.15
731.906	38104.27
732.248	38313.75
732.589	37954.89
732.93	38015.91
733.271	38088.67
733.612	38108.33
733.953	38271.27
734.294	38138.62
734.635	38226.07
734.976	38271.95
735.317	38044.38
735.658	38216.81
735.999	38234.88
736.339	38226.52
736.68	38345.62
737.021	38176.13
737.361	38247.31
737.702	38185.85
738.042	38121.44
738.383	38053.87
738.723	38018.17
739.063	37992.86
739.404	38079.63
739.744	37993.76
740.084	37850.71
740.424	38015.23
740.764	37813.88
741.104	37932.52
741.444	37642.13
741.784	37590.38
742.124	37528.01
742.464	37426.32
742.804	37436.71
743.143	37375.7
743.483	37435.13
743.823	37148.59
744.162	37149.04
744.502	37267.45
744.841	37161.69
745.181	37181.35
745.52	37046.89
745.86	37166.66
746.199	37198.75
746.538	37048.48
746.877	37131.86
747.216	37116.5
747.556	37153.78
747.895	37034.01
748.234	36900
748.573	37019.32
748.911	37140.22
749.25	37026.33
749.589	37094.35
749.928	37408.69
750.267	37408.92
750.605	37314
750.944	37438.07
751.283	37306.55
751.621	37518.07
751.96	37405.3
752.298	37397.62
752.636	37611.62
752.975	37484.85
753.313	37397.62
