Data from blue_shiny_book_FLMS001491_00049.txt Node
Date: Wed Feb 08 15:27:02 GMT 2017
User: dcchb
Spectrometer: FLMS00149
Trigger mode: 0
Integration Time (sec): 2.000000E-2
Scans to average: 10
Electric dark correction enabled: true
Nonlinearity correction enabled: false
Boxcar width: 0
XAxis mode: Wavelengths
Number of Pixels in Spectrum: 2048
>>>>>Begin Spectral Data<<<<<
341.393	-12.64
341.776	-12.64
342.16	-12.64
342.543	-65.75
342.927	-75.92
343.31	-65.07
343.693	-55.58
344.077	-64.84
344.46	-48.57
344.843	-55.13
345.226	-57.16
345.61	-42.47
345.993	-5.41
346.376	-5.41
346.759	7.92
347.142	22.39
347.525	45.89
347.908	38.66
348.291	84.98
348.674	79.79
349.057	120.01
349.44	136.73
349.823	127.92
350.206	174.02
350.588	211.99
350.971	228.26
351.354	229.61
351.737	234.13
352.119	260.8
352.502	275.71
352.884	272.55
353.267	282.27
353.65	293.57
354.032	310.51
354.414	322.04
354.797	332.66
355.179	329.05
355.562	343.96
355.944	343.06
356.326	360
356.709	343.96
357.091	345.99
357.473	357.74
357.855	357.97
358.238	349.84
358.62	350.74
359.002	342.6
359.384	355.49
359.766	360.46
360.148	336.95
360.53	339.21
360.912	371.3
361.294	343.73
361.676	354.36
362.057	340.34
362.439	353.68
362.821	354.13
363.203	342.15
363.584	343.28
363.966	349.84
364.348	339.21
364.729	306.45
365.111	344.64
365.493	351.19
365.874	339.67
366.256	318.88
366.637	330.4
367.019	343.06
367.4	335.6
367.781	298.31
368.163	320.91
368.544	326.79
368.925	344.64
369.306	342.38
369.688	344.64
370.069	346.22
370.45	331.3
370.831	339.21
371.212	362.49
371.593	334.69
371.974	349.16
372.355	343.51
372.736	353.45
373.117	323.62
373.498	332.21
373.879	351.19
374.26	367.91
374.641	338.31
375.021	355.49
375.402	353
375.783	361.81
376.163	379.44
376.544	371.76
376.925	362.49
377.305	383.28
377.686	375.6
378.066	376.95
378.447	364.75
378.827	393.22
379.208	365.43
379.588	387.12
379.968	384.18
380.349	393.9
380.729	399.33
381.109	379.67
381.489	386.44
381.87	392.09
382.25	418.31
382.63	397.07
383.01	422.6
383.39	418.53
383.77	425.54
384.15	416.05
384.53	426.44
384.91	426.67
385.29	410.85
385.67	448.82
386.049	430.29
386.429	446.33
386.809	458.53
387.189	448.14
387.568	459.21
387.948	448.82
388.328	455.37
388.707	482.94
389.087	474.8
389.466	468.93
389.846	461.02
390.225	475.26
390.605	498.98
390.984	494.01
391.363	487.68
391.743	491.75
392.122	504.18
392.501	497.18
392.881	530.17
393.26	516.61
393.639	537.4
394.018	515.71
394.397	518.64
394.776	541.02
395.155	531.53
395.534	554.58
395.913	552.32
396.292	561.36
396.671	571.98
397.05	554.12
397.429	565.42
397.808	548.93
398.186	567.68
398.565	577.4
398.944	560
399.323	589.6
399.701	582.6
400.08	590.96
400.458	612.88
400.837	609.49
401.215	620.79
401.594	611.98
401.972	621.24
402.351	642.48
402.729	645.42
403.107	662.37
403.486	649.26
403.864	663.95
404.242	675.48
404.62	688.58
404.999	693.78
405.377	680
405.755	699.88
406.133	700.33
406.511	717.06
406.889	739.88
407.267	714.57
407.645	758.86
408.023	734.91
408.401	771.97
408.779	783.27
409.156	771.07
409.534	788.92
409.912	805.64
410.29	822.37
410.667	833.21
411.045	848.13
411.422	865.3
411.8	839.99
412.178	872.99
412.555	880.67
412.933	872.08
413.31	912.31
413.687	909.14
414.065	954.34
414.442	934.23
414.819	964.28
415.197	988.01
415.574	987.11
415.951	977.62
416.328	989.59
416.705	1007.22
417.082	1025.75
417.46	1036.6
417.837	1070.27
418.214	1082.92
418.591	1084.73
418.967	1082.25
419.344	1090.83
419.721	1117.05
420.098	1117.05
420.475	1141.91
420.852	1113.88
421.228	1127.89
421.605	1177.61
421.982	1200.21
422.358	1192.98
422.735	1209.02
423.111	1184.84
423.488	1223.94
423.864	1243.6
424.241	1244.73
424.617	1264.61
424.994	1282.24
425.37	1292.18
425.746	1305.52
426.123	1328.79
426.499	1341
426.875	1384.84
427.251	1379.86
427.627	1411.95
428.003	1425.97
428.379	1449.69
428.756	1428.9
429.132	1492.18
429.507	1492.18
429.883	1514.32
430.259	1520.2
430.635	1543.7
431.011	1584.61
431.387	1611.5
431.763	1665.96
432.138	1638.39
432.514	1669.57
432.89	1690.59
433.265	1738.27
433.641	1747.09
434.016	1757.26
434.392	1784.6
434.767	1817.59
435.143	1811.49
435.518	1851.94
435.894	1885.84
436.269	1889.91
436.644	1910.02
437.02	1928.1
437.395	1963.35
437.77	2003.8
438.145	2029.11
438.52	2047.64
438.895	2086.96
439.271	2097.59
439.646	2147.53
440.021	2169.9
440.395	2127.19
440.77	2143.69
441.145	2178.04
441.52	2256
441.895	2232.27
442.27	2283.34
442.645	2261.65
443.019	2318.82
443.394	2321.08
443.769	2306.62
444.143	2309.78
444.518	2382.78
444.892	2343.46
445.267	2352.49
445.641	2392.72
446.016	2429.78
446.39	2481.3
446.764	2475.43
447.139	2452.61
447.513	2498.48
447.887	2516.33
448.262	2585.71
448.636	2549.1
449.01	2592.04
449.384	2599.95
449.758	2625.71
450.132	2645.14
450.506	2673.62
450.88	2667.97
451.254	2706.38
451.628	2742.09
452.002	2830.22
452.376	2812.37
452.75	2893.95
453.123	2888.98
453.497	2930.11
453.871	2949.32
454.244	3036.09
454.618	3007.62
454.992	3022.99
455.365	3082.42
455.739	3171.68
456.112	3167.39
456.486	3192.25
456.859	3262.98
457.232	3312.02
457.606	3323.77
457.979	3373.94
458.352	3419.59
458.725	3550.43
459.099	3547.94
459.472	3597.21
459.845	3622.07
460.218	3643.53
460.591	3681.27
460.964	3693.7
461.337	3747.03
461.71	3825.45
462.083	3919.46
462.456	3911.78
462.829	3959.68
463.201	4006.01
463.574	4013.02
463.947	4096.4
464.32	4253.01
464.692	4282.61
465.065	4301.14
465.438	4330.52
465.81	4373.46
466.183	4421.14
466.555	4548.82
466.928	4510.63
467.3	4530.29
467.672	4626.56
468.045	4806.22
468.417	4793.11
468.789	4823.62
469.161	4899.32
469.534	5012.54
469.906	5124.17
470.278	5133.89
470.65	5194.91
471.022	5295.02
471.394	5364.39
471.766	5430.61
472.138	5490.49
472.51	5553.31
472.882	5666.31
473.253	5688.23
473.625	5832.18
473.997	5978.84
474.369	5980.42
474.74	6062.45
475.112	6220.42
475.484	6351.49
475.855	6440.3
476.227	6479.62
476.598	6698.6
476.97	6688.88
477.341	6857.91
477.713	7020.85
478.084	6980.85
478.455	7196.44
478.827	7273.04
479.198	7511.46
479.569	7522.75
479.94	7726.82
480.311	7792.8
480.682	7933.14
481.053	8252.45
481.424	8292.68
481.795	8416.29
482.166	8576.51
482.537	8614.48
482.908	8864.41
483.279	8942.15
483.65	9064.41
484.021	9260.11
484.391	9329.94
484.762	9439.99
485.133	9517.28
485.503	9666.43
485.874	9888.79
486.244	10009.92
486.615	10244.94
486.985	10357.48
487.356	10475.44
487.726	10642.67
488.097	10905.26
488.467	10874.76
488.837	11142.55
489.207	11289.89
489.578	11440.39
489.948	11584.57
490.318	11725.58
490.688	11666.83
491.058	11938.68
491.428	12133.71
491.798	12293.02
492.168	12535.28
492.538	12572.56
492.908	12752.9
493.278	12874.03
493.648	12985.89
494.017	13134.81
494.387	13310.62
494.757	13400.11
495.126	13597.17
495.496	13602.14
495.866	13760.33
496.235	13886.88
496.605	14100.43
496.974	14176.59
497.344	14318.06
497.713	14322.35
498.082	14499.29
498.452	14664.71
498.821	14759.63
499.19	14851.6
499.559	14888.44
499.928	15077.58
500.298	15149.22
500.667	15284.36
501.036	15293.62
501.405	15462.66
501.774	15591.92
502.143	15625.14
502.512	15827.17
502.88	15933.61
503.249	15940.16
503.618	16071.68
503.987	16187.84
504.356	16307.61
504.724	16334.95
505.093	16466.7
505.462	16577.43
505.83	16717.09
506.199	16828.72
506.567	17035.27
506.936	17046.8
507.304	17300.8
507.672	17357.07
508.041	17480.23
508.409	17680.45
508.777	17643.62
509.145	17952.31
509.514	17928.13
509.882	18103.94
510.25	18239.08
510.618	18348.01
510.986	18491.51
511.354	18609.92
511.722	18725.62
512.09	18846.98
512.458	18964.26
512.826	19116.35
513.193	19184.37
513.561	19313.18
513.929	19487.41
514.297	19718.14
514.664	19751.59
515.032	19915.87
515.4	20072.25
515.767	20159.26
516.135	20271.35
516.502	20135.76
516.869	20559.25
517.237	20713.59
517.604	20636.08
517.972	21050.31
518.339	21002.4
518.706	21236.29
519.073	21196.74
519.44	21321.49
519.808	21643.29
520.175	21619.78
520.542	21960.34
520.909	22121.01
521.276	22064.52
521.643	22345.87
522.009	22528.46
522.376	22693.43
522.743	22879.19
523.11	23000.31
523.477	23146.07
523.843	23438.27
524.21	23701.09
524.577	23917.58
524.943	23974.3
525.31	24068.08
525.676	24219.72
526.043	24478.47
526.409	24609.31
526.776	24918.91
527.142	24946.02
527.508	25208.16
527.874	25292
528.241	25485.22
528.607	25568.16
528.973	25815.15
529.339	25752.33
529.705	26038.43
530.071	26245.65
530.437	26343.28
530.803	26685.64
531.169	26868.23
531.535	26777.62
531.901	26950.49
532.267	27080.43
532.632	27377.15
532.998	27545.73
533.364	27628.89
533.73	27717.7
534.095	28130.35
534.461	28037.24
534.826	28168.99
535.192	28266.39
535.557	28372.83
535.923	28493.28
536.288	28569.88
536.653	28698.92
537.019	28560.62
537.384	28800.39
537.749	29054.17
538.114	29096.65
538.479	29284.22
538.845	29471.1
539.21	29413.93
539.575	29599.91
539.94	29670.87
540.305	29881.26
540.67	29772.34
541.034	30079.45
541.399	30184.08
541.764	30182.72
542.129	30436.28
542.494	30382.49
542.858	30483.28
543.223	30505.65
543.587	30564.63
543.952	30693.44
544.316	30817.73
544.681	30662.26
545.045	30789.49
545.41	31043.49
545.774	31103.15
546.138	31173.66
546.503	31344.73
546.867	31303.15
547.231	31752.17
547.595	31824.26
547.959	31848.89
548.324	31913.53
548.688	32045.73
549.052	32122.33
549.416	32176.12
549.779	32229
550.143	32327.3
550.507	32536.79
550.871	32541.31
551.235	32379.28
551.599	32591.02
551.962	32685.03
552.326	32798.25
552.689	32809.77
553.053	32669.89
553.417	32965.93
553.78	33248.86
554.143	33302.87
554.507	33483.43
554.87	33619.92
555.234	33983.08
555.597	33762.06
555.96	33985.11
556.323	34266.01
556.686	34231.2
557.05	34567.92
557.413	34687.24
557.776	34753
558.139	34729.95
558.502	34764.07
558.865	34907.34
559.228	34986.89
559.59	34998.64
559.953	35035.7
560.316	35381
560.679	35541.45
561.041	35532.64
561.404	35731.28
561.767	35970.14
562.129	35815.12
562.492	36113.64
562.854	36277.25
563.217	36308.89
563.579	36641.31
563.941	36824.58
564.304	36942.09
564.666	37211.47
565.028	37372.14
565.39	37479.93
565.753	37716.99
566.115	37890.09
566.477	37948.17
566.839	38025.68
567.201	38168.5
567.563	38050.77
567.925	38364.43
568.287	38283.98
568.648	38293.02
569.01	38361.04
569.372	38533.92
569.734	38352.45
570.095	38681.26
570.457	38866.56
570.819	39056.16
571.18	39085.99
571.542	39235.59
571.903	39427.9
572.265	39713.55
572.626	39760.32
572.987	39870.15
573.349	40030.83
573.71	40413.87
574.071	40581.32
574.432	40655.89
574.794	40732.28
575.155	40711.49
575.516	40464.26
575.877	40715.33
576.238	40629.45
576.599	40833.52
576.96	40710.36
577.32	40825.38
577.681	40857.24
578.042	40826.96
578.403	41009.78
578.763	40965.94
579.124	40914.19
579.485	41131.59
579.845	41322.32
580.206	41248.65
580.566	41378.14
580.927	41486.83
581.287	41769.99
581.648	41646.6
582.008	41908.52
582.368	41873.49
582.728	42121.39
583.089	42093.14
583.449	42008.63
583.809	42172.92
584.169	42317.09
584.529	42083.2
584.889	42376.98
585.249	42058.57
585.609	42042.75
585.969	42142.86
586.329	42006.37
586.688	41926.14
587.048	41907.84
587.408	41819.48
587.768	41786.03
588.127	41801.63
588.487	41721.85
588.846	42039.36
589.206	41881.85
589.565	41871.68
589.925	42245.46
590.284	41974.28
590.643	42074.84
591.003	42282.74
591.362	42517.54
591.721	42509.4
592.08	42434.15
592.44	42696.07
592.799	42792.56
593.158	42859.68
593.517	42727.93
593.876	42795.05
594.235	42623.98
594.593	42706.91
594.952	42701.49
595.311	42596.41
595.67	42610.65
596.029	42765.22
596.387	42655.84
596.746	42746.46
597.104	42258.34
597.463	42370.43
597.822	42491.33
598.18	42548.05
598.538	42413.36
598.897	42626.24
599.255	42445.68
599.613	42896.51
599.972	42786.46
600.33	43082.5
600.688	42956.17
601.046	43226.45
601.404	43305.09
601.762	43291.98
602.12	43606.55
602.478	43536.95
602.836	43639.77
603.194	43425.09
603.552	43653.78
603.91	43432.77
604.268	43637.28
604.625	43376.05
604.983	43447.91
605.341	43045.21
605.698	43326.33
606.056	43454.46
606.413	43317.52
606.771	43426.22
607.128	43336.73
607.485	43174.25
607.843	43144.19
608.2	43344.19
608.557	43572.88
608.914	43425.31
609.272	43686.1
609.629	43717.51
609.986	43973.77
610.343	43880.22
610.7	44201.79
611.057	44282.69
611.414	44389.81
611.771	44424.83
612.127	44580.99
612.484	44577.37
612.841	44788.89
613.198	44600.2
613.554	44726.75
613.911	44816.91
614.267	44741.89
614.624	44725.39
614.98	44824.15
615.337	45016.91
615.693	44925.61
616.05	44604.94
616.406	44797.71
616.762	44673.42
617.118	44513.65
617.475	44444.27
617.831	44535.79
618.187	44557.03
618.543	44693.98
618.899	44905.05
619.255	44920.41
619.611	44827.31
619.967	44930.13
620.323	45071.6
620.678	44966.97
621.034	45157.24
621.39	45270.24
621.746	45308.43
622.101	45433.4
622.457	45361.31
622.812	45468.88
623.168	45423.9
623.523	45602.2
623.879	45670.9
624.234	45386.17
624.589	45509.1
624.945	45590.45
625.3	45478.82
625.655	45367.41
626.01	45348.65
626.365	45389.56
626.72	45219.39
627.075	45094.2
627.43	45149.34
627.785	44925.84
628.14	45041.09
628.495	44955.89
628.85	44902.79
629.205	44920.41
629.559	45130.13
629.914	44787.31
630.269	44902.34
630.623	44906.18
630.978	44815.33
631.332	44958.15
631.687	45232.5
632.041	45048.32
632.396	45190.01
632.75	44966.29
633.104	45218.94
633.459	45005.38
633.813	45251.93
634.167	45175.78
634.521	44995.44
634.875	45073.86
635.229	45051.48
635.583	45011.71
635.937	44912.28
636.291	44860.08
636.645	45054.42
636.999	44601.1
637.352	44562.46
637.706	44339.64
638.06	44415.34
638.413	44256.93
638.767	44061.45
639.121	44055.8
639.474	43673.67
639.828	43800.9
640.181	43812.87
640.534	43872.98
640.888	43747.11
641.241	43619.66
641.594	43630.28
641.947	43633.22
642.301	43764.51
642.654	43776.72
643.007	43780.33
643.36	43809.71
643.713	43746.66
644.066	43808.58
644.419	43808.13
644.771	43791.86
645.124	43776.94
645.477	43713.67
645.83	43368.14
646.182	42964.53
646.535	42703.07
646.888	42586.92
647.24	42306.25
647.593	42651.1
647.945	42318.45
648.298	42121.17
648.65	42063.77
649.002	41800.95
649.355	42136.99
649.707	41939.48
650.059	42146.25
650.411	42643.64
650.763	42809.28
651.115	43079.33
651.467	42807.02
651.819	42817.87
652.171	42582.85
652.523	42647.71
652.875	42522.51
653.227	42485.45
653.578	42949.85
653.93	42866.68
654.282	42534.26
654.633	42480.71
654.985	42642.51
655.337	42503.98
655.688	42803.18
656.039	42925.89
656.391	42606.35
656.742	42707.37
657.094	42724.54
657.445	42944.65
657.796	42997.53
658.147	42911.65
658.498	42743.3
658.849	43003.63
659.2	42785.33
659.551	42635.05
659.902	42881.15
660.253	42713.02
660.604	42741.49
660.955	42506.47
661.306	42553.47
661.656	42445.45
662.007	42311.44
662.358	42255.85
662.708	42329.97
663.059	42114.84
663.409	41778.8
663.76	41974.73
664.11	42002.07
664.461	42005.46
664.811	41903.09
665.161	41866.94
665.511	41866.26
665.862	42008.18
666.212	42044.56
666.562	42129.08
666.912	42118.23
667.262	42070.77
667.612	42339.01
667.962	42433.47
668.312	42293.14
668.662	42529.74
669.011	42419.46
669.361	42490.87
669.711	42518.67
670.06	42423.76
670.41	42453.14
670.76	42268.51
671.109	42408.39
671.459	42155.97
671.808	42162.97
672.157	42462.63
672.507	42174.27
672.856	42029.87
673.205	42040.26
673.554	42063.09
673.904	41882.98
674.253	42110.09
674.602	41716.88
674.951	41043.68
675.3	40683.69
675.649	41267.18
675.998	41186.5
676.346	41181.53
676.695	41316.67
677.044	40932.27
677.393	41089.1
677.741	41051.59
678.09	41065.6
678.438	40829.68
678.787	40903.57
679.135	41024.47
679.484	40786.74
679.832	41056.79
680.181	40789
680.529	41114.41
680.877	40892.5
681.225	41050.91
681.573	41350.57
681.922	41230.12
682.27	41042.78
682.618	40998.48
682.966	40947.41
683.314	40988.54
683.661	40833.06
684.009	40825.16
684.357	40556.24
684.705	40687.31
685.053	40597.36
685.4	40633.97
685.748	40213.87
686.095	40163.25
686.443	39785.63
686.79	39719.87
687.138	39735.24
687.485	39626.32
687.832	39375.48
688.18	39631.29
688.527	39156.95
688.874	39120.34
689.221	38838.31
689.568	38848.94
689.915	38632.44
690.262	38689.39
690.609	38656.62
690.956	38480.58
691.303	38463.86
691.65	38403.52
691.997	38347.93
692.344	38046.47
692.69	37960.37
693.037	38118.56
693.383	37880.15
693.73	38167.6
694.077	37877.66
694.423	38094.61
694.769	37914.27
695.116	37760.38
695.462	37695.52
695.808	37779.59
696.155	37849.41
696.501	37524.45
696.847	37604.45
697.193	37349.09
697.539	37371.69
697.885	37152.03
698.231	37110.45
698.577	36965.6
698.923	36890.57
699.269	36604.93
699.614	36484.48
699.96	36207.88
700.306	36182.11
700.651	36016.24
700.997	35766.98
701.342	35653.31
701.688	35592.07
702.033	35354.56
702.379	35213.55
702.724	35223.04
703.069	35135.59
703.415	34735.6
703.76	34955.71
704.105	34797.29
704.45	34676.16
704.795	34565.66
705.14	34491.54
705.485	34312.11
705.83	34385.78
706.175	34297.42
706.52	34272.11
706.865	34185.78
707.209	34301.94
707.554	34238.21
707.899	34306
708.243	34186.91
708.588	34174.93
708.932	34013.81
709.277	34055.62
709.621	34174.93
709.966	33846.13
710.31	34155.05
710.654	33774.95
710.998	33847.26
711.342	33795.74
711.687	33725.23
712.031	33552.13
712.375	33415.86
712.719	33455.41
713.063	33230.78
713.407	33368.4
713.75	33120.5
714.094	33163.44
714.438	32779.72
714.782	32763.67
715.125	32627.18
715.469	32599.61
715.812	32383.34
716.156	32136.34
716.499	32180.86
716.843	32105.38
717.186	31992.17
717.53	31882.34
717.873	31895.45
718.216	31771.16
718.559	31625.4
718.902	31529.35
719.246	31555.57
719.589	31654.1
719.932	31500.65
720.275	31544.72
720.617	31622.91
720.96	31589.01
721.303	31724.6
721.646	31610.71
721.989	31680.99
722.331	31775.45
722.674	31680.99
723.016	31802.57
723.359	31845.5
723.701	31645.06
724.044	31508.79
724.386	31360.77
724.729	31646.41
725.071	31611.39
725.413	31637.15
725.755	31581.78
726.097	31441.9
726.439	31360.32
726.782	31216.59
727.124	31397.61
727.465	31109.7
727.807	31100.89
728.149	30970.73
728.491	30901.8
728.833	30897.05
729.175	30779.09
729.516	30759.88
729.858	30616.16
730.199	30730.96
730.541	30657.06
730.882	30572.54
731.224	30704.29
731.565	30325.32
731.906	30330.52
732.248	30256.62
732.589	30290.97
732.93	30213.91
733.271	30361.48
733.612	30277.41
733.953	30443.51
734.294	30306.34
734.635	30273.79
734.976	30400.12
735.317	30287.35
735.658	30363.96
735.999	30369.16
736.339	30306.79
736.68	30460
737.021	30471.3
737.361	30410.97
737.702	30464.3
738.042	30614.8
738.383	30470.17
738.723	30599.21
739.063	30539.1
739.404	30551.53
739.744	30690.28
740.084	30568.93
740.424	30633.11
740.764	30559.89
741.104	30788.58
741.444	30466.33
741.784	30504.3
742.124	30605.99
742.464	30429.27
742.804	30380.01
743.143	30380.68
743.483	30414.58
743.823	30255.72
744.162	30128.04
744.502	30248.94
744.841	29978.43
745.181	30197.64
745.52	30063.4
745.86	30005.78
746.199	29832.45
746.538	29879
746.877	30125.55
747.216	29998.77
747.556	30035.16
747.895	29989.73
748.234	30027.25
748.573	29929.4
748.911	29949.74
749.25	30004.42
749.589	29997.64
749.928	30115.61
750.267	30050.07
750.605	30075.61
750.944	30023.63
751.283	30050.07
751.621	30302.72
751.96	30145.66
752.298	30232.44
752.636	30378.2
752.975	30307.01
753.313	30388.82
753.651	30565.31
