Data from blue_chair_FLMS001491_00028.txt Node
Date: Wed Feb 08 10:30:04 GMT 2017
User: dcchb
Spectrometer: FLMS00149
Trigger mode: 0
Integration Time (sec): 2.000000E-2
Scans to average: 10
Electric dark correction enabled: true
Nonlinearity correction enabled: false
Boxcar width: 0
XAxis mode: Wavelengths
Number of Pixels in Spectrum: 2048
>>>>>Begin Spectral Data<<<<<
341.393	-17.58
341.776	-17.58
342.16	-17.58
342.543	-53.52
342.927	-75.44
343.31	-78.83
343.693	-63.01
344.077	-61.42
344.46	-55.55
344.843	-52.61
345.226	-32.27
345.61	-19.39
345.993	-3.57
346.376	-17.36
346.759	5.24
347.142	19.02
347.525	29.65
347.908	73.49
348.291	59.48
348.674	94.5
349.057	102.64
349.44	113.71
349.823	125.24
350.206	166.37
350.588	178.34
350.971	183.09
351.354	203.65
351.737	232.13
352.119	217.66
352.502	260.6
352.884	247.72
353.267	259.7
353.65	258.11
354.032	275.52
354.414	288.85
354.797	291.79
355.179	295.63
355.562	285.91
355.944	316.19
356.326	318.45
356.709	296.53
357.091	312.35
357.473	318.23
357.855	318.9
358.238	317.55
358.62	328.85
359.002	309.86
359.384	337.43
359.766	304.67
360.148	319.36
360.53	299.24
360.912	337.89
361.294	312.35
361.676	317.55
362.057	304.67
362.439	323.2
362.821	285.23
363.203	309.19
363.584	310.99
363.966	290.2
364.348	303.99
364.729	295.18
365.111	278.91
365.493	288.4
365.874	285.23
366.256	289.75
366.637	297.44
367.019	286.59
367.4	296.76
367.781	290.88
368.163	295.63
368.544	285.01
368.925	278.91
369.306	292.46
369.688	290.2
370.069	279.81
370.45	273.03
370.831	280.94
371.212	296.08
371.593	295.4
371.974	283.2
372.355	294.5
372.736	278.45
373.117	308.51
373.498	284.1
373.879	278.91
374.26	297.21
374.641	285.91
375.021	271
375.402	300.83
375.783	309.64
376.163	300.6
376.544	296.76
376.925	301.28
377.305	298.34
377.686	285.46
378.066	310.09
378.447	307.15
378.827	303.99
379.208	310.99
379.588	299.47
379.968	289.3
380.349	304.44
380.729	311.45
381.109	311.45
381.489	312.12
381.87	292.24
382.25	289.53
382.63	304.44
383.01	285.46
383.39	297.89
383.77	295.85
384.15	289.75
384.53	299.24
384.91	319.36
385.29	314.16
385.67	310.77
386.049	307.6
386.429	331.33
386.809	316.87
387.189	306.25
387.568	313.48
387.948	312.12
388.328	317.32
388.707	310.54
389.087	310.09
389.466	324.78
389.846	324.78
390.225	339.47
390.605	324.1
390.984	313.48
391.363	319.81
391.743	338.56
392.122	331.56
392.501	332.69
392.881	330.66
393.26	349.19
393.639	315.29
394.018	358.45
394.397	349.64
394.776	350.54
395.155	362.07
395.534	346.47
395.913	346.7
396.292	343.99
396.671	368.85
397.05	361.16
397.429	359.35
397.808	377.89
398.186	359.35
398.565	369.52
398.944	348.51
399.323	369.07
399.701	358.9
400.08	367.26
400.458	367.26
400.837	381.05
401.215	381.95
401.594	372.24
401.972	365.23
402.351	390.99
402.729	376.76
403.107	397.55
403.486	393.93
403.864	376.3
404.242	373.37
404.62	371.33
404.999	400.48
405.377	391.67
405.755	400.26
406.133	382.63
406.511	408.39
406.889	434.38
407.267	406.13
407.645	432.12
408.023	414.49
408.401	445.23
408.779	410.65
409.156	447.26
409.534	427.15
409.912	423.31
410.29	440.48
410.667	430.09
411.045	439.13
411.422	446.13
411.8	451.1
412.178	461.73
412.555	478.67
412.933	477.09
413.31	479.13
413.687	474.15
414.065	473.93
414.442	465.11
414.819	468.5
415.197	490.42
415.574	470.76
415.951	482.29
416.328	480.26
416.705	503.53
417.082	494.49
417.46	521.61
417.837	504.21
418.214	506.47
418.591	517.77
418.967	510.76
419.344	517.32
419.721	514.83
420.098	511.67
420.475	542.63
420.852	506.92
421.228	534.72
421.605	559.58
421.982	544.43
422.358	536.75
422.735	550.31
423.111	544.66
423.488	559.58
423.864	554.15
424.241	584.43
424.617	590.31
424.994	572.23
425.37	601.38
425.746	588.95
426.123	590.31
426.499	612.91
426.875	611.1
427.251	614.26
427.627	626.69
428.003	633.25
428.379	629.4
428.756	617.2
429.132	626.92
429.507	629.86
429.883	638.67
430.259	647.93
430.635	650.42
431.011	656.75
431.387	673.47
431.763	669.86
432.138	687.93
432.514	701.27
432.89	717.99
433.265	721.15
433.641	723.64
434.016	716.63
434.392	743.75
434.767	754.82
435.143	756.86
435.518	773.13
435.894	772.9
436.269	780.81
436.644	801.83
437.02	815.61
437.395	810.64
437.77	801.15
438.145	846.57
438.52	844.77
438.895	850.64
439.271	854.48
439.646	874.14
440.021	846.8
440.395	875.73
440.77	880.92
441.145	874.14
441.52	908.49
441.895	908.49
442.27	939
442.645	916.85
443.019	918.21
443.394	960.24
443.769	958.89
444.143	943.97
444.518	963.86
444.892	949.17
445.267	960.02
445.641	1003.63
446.016	999.34
446.39	983.52
446.764	972.67
447.139	1011.99
447.513	1013.8
447.887	1035.27
448.262	1024.65
448.636	1007.7
449.01	1015.83
449.384	1052.67
449.758	1033.69
450.132	1046.12
450.506	1061.71
450.88	1077.98
451.254	1063.97
451.628	1103.52
452.002	1110.75
452.376	1100.35
452.75	1114.36
453.123	1121.37
453.497	1132.22
453.871	1136.51
454.244	1178.99
454.618	1166.79
454.992	1162.05
455.365	1187.58
455.739	1210.63
456.112	1198.65
456.486	1247.24
456.859	1235.26
457.232	1226.45
457.606	1231.42
457.979	1263.74
458.352	1282.95
458.725	1297.86
459.099	1286.56
459.472	1322.95
459.845	1357.29
460.218	1322.04
460.591	1328.37
460.964	1337.18
461.337	1385.32
461.71	1395.26
462.083	1374.24
462.456	1414.24
462.829	1406.56
463.201	1443.17
463.574	1421.7
463.947	1457.41
464.32	1478.2
464.692	1463.73
465.065	1486.1
465.438	1489.72
465.81	1526.56
466.183	1517.97
466.555	1549.15
466.928	1531.08
467.3	1565.2
467.672	1566.1
468.045	1601.36
468.417	1599.55
468.789	1604.29
469.161	1612.2
469.534	1651.75
469.906	1690.62
470.278	1693.33
470.65	1711.86
471.022	1709.15
471.394	1735.59
471.766	1733.33
472.138	1774.91
472.51	1792.09
472.882	1815.36
473.253	1844.97
473.625	1878.41
473.997	1875.02
474.369	1887
474.74	1898.75
475.112	1919.31
475.484	1957.96
475.855	1949.82
476.227	1952.53
476.598	2017.84
476.97	2013.1
477.341	2028.24
477.713	2093.55
478.084	2090.61
478.455	2106.2
478.827	2126.77
479.198	2168.35
479.569	2178.52
479.94	2215.58
480.311	2235.92
480.682	2264.62
481.053	2314.56
481.424	2342.81
481.795	2321.56
482.166	2352.75
482.537	2373.54
482.908	2432.29
483.279	2431.39
483.65	2434.55
484.021	2481.11
484.391	2477.72
484.762	2512.07
485.133	2475.23
485.503	2497.15
485.874	2551.39
486.244	2572.63
486.615	2555.46
486.985	2610.14
487.356	2654.66
487.726	2651.95
488.097	2682.01
488.467	2629.13
488.837	2663.48
489.207	2705.73
489.578	2724.94
489.948	2741.44
490.318	2757.48
490.688	2754.55
491.058	2814.66
491.428	2772.62
491.798	2815.11
492.168	2828.67
492.538	2820.31
492.908	2849.68
493.278	2849.91
493.648	2852.17
494.017	2880.64
494.387	2902.11
494.757	2902.79
495.126	2891.04
495.496	2860.08
495.866	2885.39
496.235	2892.85
496.605	2922.45
496.974	2919.74
497.344	2932.39
497.713	2906.41
498.082	2949.12
498.452	2921.55
498.821	2933.3
499.19	2907.31
499.559	2914.32
499.928	2906.41
500.298	2910.02
500.667	2949.57
501.036	2923.81
501.405	2925.39
501.774	2897.14
502.143	2949.12
502.512	2920.19
502.88	2915.9
503.249	2929
503.618	2933.98
503.987	2920.19
504.356	2908.21
504.724	2912.28
505.093	2936.69
505.462	2926.97
505.83	2923.36
506.199	2923.13
506.567	2915.9
506.936	2930.13
507.304	2899.85
507.672	2918.61
508.041	2924.26
508.409	2914.99
508.777	2943.47
509.145	2916.12
509.514	2921.32
509.882	2882
510.25	2913.19
510.618	2909.8
510.986	2909.8
511.354	2917.48
511.722	2914.77
512.09	2923.81
512.458	2850.36
512.826	2900.98
513.193	2913.86
513.561	2873.64
513.929	2887.2
514.297	2911.83
514.664	2906.18
515.032	2844.49
515.4	2905.28
515.767	2867.09
516.135	2833.64
516.502	2849.68
516.869	2840.42
517.237	2878.38
517.604	2853.07
517.972	2890.14
518.339	2867.31
518.706	2813.98
519.073	2799.06
519.44	2821.21
519.808	2849.91
520.175	2849.46
520.542	2844.71
520.909	2838.39
521.276	2817.82
521.643	2807.65
522.009	2789.57
522.376	2806.3
522.743	2818.27
523.11	2823.02
523.477	2805.39
523.843	2871.83
524.21	2817.82
524.577	2879.29
524.943	2809.23
525.31	2839.06
525.676	2821.66
526.043	2792.06
526.409	2821.66
526.776	2818.05
527.142	2813.98
527.508	2851.72
527.874	2834.32
528.241	2856.46
528.607	2839.06
528.973	2871.83
529.339	2824.15
529.705	2851.72
530.071	2833.19
530.437	2866.41
530.803	2870.02
531.169	2853.98
531.535	2838.61
531.901	2876.35
532.267	2848.33
532.632	2813.98
532.998	2865.05
533.364	2849.91
533.73	2820.31
534.095	2860.31
534.461	2882.23
534.826	2872.96
535.192	2851.94
535.557	2882.68
535.923	2866.18
536.288	2869.35
536.653	2886.52
537.019	2878.84
537.384	2861.44
537.749	2884.71
538.114	2851.49
538.479	2868.22
538.845	2855.11
539.21	2862.11
539.575	2888.55
539.94	2860.31
540.305	2865.05
540.67	2856.01
541.034	2849.01
541.399	2838.39
541.764	2881.55
542.129	2851.04
542.494	2846.52
542.858	2882.23
543.223	2868.67
543.587	2848.56
543.952	2838.16
544.316	2861.89
544.681	2878.61
545.045	2847.65
545.41	2861.89
545.774	2853.98
546.138	2841.55
546.503	2840.42
546.867	2819.4
547.231	2840.19
547.595	2855.79
547.959	2827.09
548.324	2833.41
548.688	2819.63
549.052	2820.99
549.416	2839.52
549.779	2873.19
550.143	2796.8
550.507	2802
550.871	2818.95
551.235	2792.06
551.599	2867.76
551.962	2820.31
552.326	2806.07
552.689	2803.58
553.053	2815.56
553.417	2775.79
553.78	2796.8
554.143	2792.74
554.507	2799.52
554.87	2810.82
555.234	2839.06
555.597	2745.51
555.96	2830.02
556.323	2795.68
556.686	2769.91
557.05	2827.99
557.413	2804.49
557.776	2780.08
558.139	2804.94
558.502	2795.68
558.865	2804.26
559.228	2847.88
559.59	2802.68
559.953	2802.91
560.316	2839.52
560.679	2801.55
561.041	2822.12
561.404	2823.7
561.767	2808.78
562.129	2814.88
562.492	2806.75
562.854	2786.64
563.217	2837.93
563.579	2875.45
563.941	2833.41
564.304	2863.92
564.666	2910.47
565.028	2852.4
565.39	2865.5
565.753	2878.61
566.115	2848.56
566.477	2893.98
566.839	2869.57
567.201	2889.23
567.563	2912.06
567.925	2915.45
568.287	2935.11
568.648	2921.1
569.01	2945.95
569.372	2951.15
569.734	2916.8
570.095	2940.76
570.457	2919.74
570.819	2937.14
571.18	2979.63
571.542	2988.66
571.903	2985.73
572.265	3006.52
572.626	2952.73
572.987	3014.88
573.349	2980.75
573.71	3017.36
574.071	3034.09
574.432	3047.42
574.794	3066.85
575.155	3063.24
575.516	3049.23
575.877	3087.87
576.238	3089.68
576.599	3094.42
576.96	3106.85
577.32	3076.12
577.681	3112.73
578.042	3086.06
578.403	3103.24
578.763	3138.26
579.124	3117.47
579.485	3160.19
579.845	3115.44
580.206	3172.39
580.566	3179.62
580.927	3149.34
581.287	3144.14
581.648	3167.64
582.008	3180.98
582.368	3188.66
582.728	3181.88
583.089	3220.3
583.449	3193.4
583.809	3190.01
584.169	3190.01
584.529	3189.34
584.889	3238.6
585.249	3214.65
585.609	3197.25
585.969	3233.18
586.329	3256.68
586.688	3238.38
587.048	3226.17
587.408	3230.47
587.768	3241.99
588.127	3254.65
588.487	3216.91
588.846	3233.18
589.206	3245.61
589.565	3215.33
589.925	3285.15
590.284	3196.34
590.643	3215.33
591.003	3216
591.362	3289.9
591.721	3244.93
592.08	3226.85
592.44	3250.8
592.799	3276.34
593.158	3240.64
593.517	3209.45
593.876	3251.71
594.235	3264.82
594.593	3217.36
594.952	3198.6
595.311	3206.51
595.67	3272.95
596.029	3221.43
596.387	3254.87
596.746	3260.97
597.104	3269.79
597.463	3260.97
597.822	3249.9
598.18	3242.67
598.538	3227.75
598.897	3258.49
599.255	3219.62
599.613	3236.57
599.972	3234.53
600.33	3232.95
600.688	3232.05
601.046	3233.86
601.404	3265.95
601.762	3230.24
602.12	3255.1
602.478	3267.3
602.836	3302.1
603.194	3248.09
603.552	3254.87
603.91	3274.53
604.268	3250.8
604.625	3254.19
604.983	3225.49
605.341	3252.39
605.698	3237.47
606.056	3310.92
606.413	3262.33
606.771	3274.31
607.128	3267.53
607.485	3230.69
607.843	3234.08
608.2	3251.48
608.557	3312.27
608.914	3279.96
609.272	3260.3
609.629	3295.55
609.986	3268.88
610.343	3248.09
610.7	3279.73
611.057	3256.45
611.414	3293.52
611.771	3279.73
612.127	3319.05
612.484	3290.35
612.841	3316.57
613.198	3278.6
613.554	3310.92
613.911	3276.11
614.267	3312.72
614.624	3302.1
614.98	3310.92
615.337	3359.28
615.693	3299.62
616.05	3298.49
616.406	3296.23
616.762	3303.46
617.118	3320.18
617.475	3333.06
617.831	3322.44
618.187	3322.21
618.543	3329.9
618.899	3382.1
619.255	3363.57
619.611	3349.33
619.967	3338.26
620.323	3370.58
620.678	3331.93
621.034	3331.93
621.39	3327.86
621.746	3314.76
622.101	3347.3
622.457	3346.85
622.812	3305.04
623.168	3381.42
623.523	3341.42
623.879	3368.99
624.234	3375.77
624.589	3316.11
624.945	3346.17
625.3	3386.17
625.655	3383.23
626.01	3375.32
626.365	3381.87
626.72	3311.37
627.075	3338.71
627.43	3307.3
627.785	3361.08
628.14	3331.93
628.495	3379.39
628.85	3377.35
629.205	3368.54
629.559	3389.11
629.914	3361.08
630.269	3339.84
630.623	3367.64
630.978	3388.43
631.332	3385.94
631.687	3371.25
632.041	3359.05
632.396	3360.63
632.75	3368.54
633.104	3390.46
633.459	3365.38
633.813	3376.22
634.167	3349.11
634.521	3405.38
634.875	3403.57
635.229	3384.13
635.583	3355.66
635.937	3390.46
636.291	3404.25
636.645	3362.89
636.999	3318.15
637.352	3393.4
637.706	3329.9
638.06	3364.93
638.413	3369.9
638.767	3333.74
639.121	3359.73
639.474	3341.2
639.828	3398.15
640.181	3385.94
640.534	3363.8
640.888	3337.36
641.241	3332.84
641.594	3369.67
641.947	3394.3
642.301	3358.15
642.654	3411.93
643.007	3354.53
643.36	3400.86
643.713	3366.51
644.066	3396.11
644.419	3366.06
644.771	3331.71
645.124	3368.32
645.477	3346.17
645.83	3327.41
646.182	3322.67
646.535	3315.21
646.888	3332.84
647.24	3321.08
647.593	3282.67
647.945	3337.58
648.298	3292.84
648.65	3269.56
649.002	3304.81
649.355	3310.92
649.707	3288.32
650.059	3301.42
650.411	3364.47
650.763	3391.82
651.115	3434.08
651.467	3419.16
651.819	3432.95
652.171	3455.54
652.523	3447.86
652.875	3416.9
653.227	3437.01
653.578	3488.76
653.93	3447.86
654.282	3468.43
654.633	3447.41
654.985	3439.5
655.337	3469.56
655.688	3399.73
656.039	3484.24
656.391	3453.28
656.742	3492.38
657.094	3447.41
657.445	3442.21
657.796	3480.63
658.147	3515.88
658.498	3466.39
658.849	3494.64
659.2	3483.11
659.551	3502.1
659.902	3505.03
660.253	3480.63
660.604	3530.35
660.955	3459.61
661.306	3503.68
661.656	3551.59
662.007	3504.13
662.358	3499.61
662.708	3494.19
663.059	3562.43
663.409	3509.55
663.76	3500.74
664.11	3537.35
664.461	3545.03
664.811	3581.87
665.161	3585.03
665.511	3575.32
665.862	3528.54
666.212	3532.15
666.562	3504.36
666.912	3533.06
667.262	3527.41
667.612	3509.78
667.962	3530.8
668.312	3477.47
668.662	3531.25
669.011	3598.37
669.361	3550.91
669.711	3528.99
670.06	3529.22
670.41	3546.84
670.76	3509.33
671.109	3491.25
671.459	3502.78
671.808	3468.88
672.157	3471.59
672.507	3473.85
672.856	3483.79
673.205	3493.06
673.554	3484.47
673.904	3495.32
674.253	3510.23
674.602	3495.32
674.951	3432.72
675.3	3407.18
675.649	3459.16
675.998	3450.8
676.346	3432.27
676.695	3445.83
677.044	3437.24
677.393	3414.42
677.741	3425.26
678.09	3408.54
678.438	3423.23
678.787	3402.21
679.135	3377.13
679.484	3383.46
679.832	3362.67
680.181	3321.31
680.529	3347.07
680.877	3369.9
681.225	3373.51
681.573	3348.2
681.922	3352.5
682.27	3351.59
682.618	3351.37
682.966	3313.18
683.314	3339.84
683.661	3332.61
684.009	3293.52
684.357	3311.14
684.705	3283.8
685.053	3293.06
685.4	3272.27
685.748	3229.79
686.095	3284.93
686.443	3238.15
686.79	3243.35
687.138	3224.59
687.485	3176.91
687.832	3201.77
688.18	3180.52
688.527	3206.06
688.874	3184.59
689.221	3172.39
689.568	3147.53
689.915	3131.71
690.262	3142.33
690.609	3121.54
690.956	3123.8
691.303	3119.06
691.65	3110.47
691.997	3100.07
692.344	3093.07
692.69	3089
693.037	3056.46
693.383	3017.82
693.73	3042.45
694.077	3045.39
694.423	3055.56
694.769	3059.85
695.116	3046.74
695.462	2994.99
695.808	3020.08
696.155	2997.48
696.501	2986.86
696.847	2948.89
697.193	2968.55
697.539	2929
697.885	2948.67
698.231	2936.01
698.577	2925.16
698.923	2929.68
699.269	2914.32
699.614	2898.95
699.96	2890.36
700.306	2895.79
700.651	2894.88
700.997	2903.02
701.342	2858.05
701.688	2906.18
702.033	2893.98
702.379	2886.75
702.724	2870.25
703.069	2850.36
703.415	2836.8
703.76	2880.64
704.105	2841.32
704.45	2833.41
704.795	2797.03
705.14	2835
705.485	2804.49
705.83	2776.24
706.175	2780.99
706.52	2819.18
706.865	2809.23
707.209	2754.55
707.554	2807.43
707.899	2799.29
708.243	2740.08
708.588	2751.38
708.932	2749.8
709.277	2798.84
709.621	2773.98
709.966	2792.74
710.31	2790.03
710.654	2820.76
710.998	2807.2
711.342	2775.34
711.687	2744.15
712.031	2761.55
712.375	2750.93
712.719	2764.94
713.063	2768.56
713.407	2764.04
713.75	2785.05
714.094	2730.37
714.438	2785.73
714.782	2774.21
715.125	2804.71
715.469	2813.3
715.812	2762.68
716.156	2793.87
716.499	2763.81
716.843	2794.32
717.186	2809.69
717.53	2806.97
717.873	2795
718.216	2805.39
718.559	2799.74
718.902	2793.19
719.246	2804.94
719.589	2835
719.932	2805.17
720.275	2811.95
720.617	2837.93
720.96	2837.26
721.303	2844.71
721.646	2830.25
721.989	2840.87
722.331	2867.99
722.674	2875.9
723.016	2903.69
723.359	2900.31
723.701	2893.3
724.044	2894.88
724.386	2896.92
724.729	2913.19
725.071	2894.43
725.413	2943.24
725.755	2903.92
726.097	2961.09
726.439	2899.18
726.782	2952.06
727.124	2953.41
727.465	2935.56
727.807	2960.87
728.149	2965.39
728.491	2967.42
728.833	3004.71
729.175	3000.42
729.516	2981.43
729.858	3017.36
730.199	3054.65
730.541	3071.83
730.882	3069.34
731.224	3098.72
731.565	3079.28
731.906	3063.46
732.248	3136.01
732.589	3143.24
732.93	3126.74
733.271	3168.32
733.612	3148.43
733.953	3186.85
734.294	3204.93
734.635	3211.94
734.976	3204.93
735.317	3214.87
735.658	3207.64
735.999	3259.17
736.339	3294.19
736.68	3321.99
737.021	3320.41
737.361	3352.5
737.702	3384.13
738.042	3364.25
738.383	3361.08
738.723	3420.07
739.063	3441.31
739.404	3463.68
739.744	3487.41
740.084	3538.93
740.424	3531.47
740.764	3518.59
741.104	3602.21
741.444	3559.95
741.784	3590.23
742.124	3674.52
742.464	3718.59
742.804	3705.93
743.143	3716.55
743.483	3786.38
743.823	3780.28
744.162	3823.44
744.502	3905.48
744.841	3925.14
745.181	3969.66
745.52	3999.71
745.86	4026.38
746.199	4083.55
746.538	4177.11
746.877	4194.06
747.216	4213.49
747.556	4269.08
747.895	4302.98
748.234	4317.44
748.573	4461.62
748.911	4487.38
749.25	4544.56
749.589	4556.08
749.928	4616.19
750.267	4674.95
750.605	4785.68
750.944	4815.06
751.283	4864.55
751.621	4954.94
751.96	5024.09
752.298	5052.56
752.636	5142.05
752.975	5189.06
753.313	5246.23
753.651	5373.23
753.989	5439.45
754.327	5484.87
754.666	5508.15
755.004	5599.9
755.342	5694.13
755.679	5780.91
756.017	5794.47
756.355	5940
756.693	5990.85
757.031	6071.97
757.368	6099.54
757.706	6199.2
758.044	6224.74
758.381	6347.67
758.719	6421.12
759.056	6487.56
759.394	6556.71
759.731	6574.11
760.068	6656.36
760.405	6785.17
760.743	6809.35
761.08	6897.49
761.417	7006.64
761.754	7029.24
762.091	7135.22
762.428	7178.84
762.765	7158.5
763.102	7257.25
763.438	7363.46
763.775	7418.38
764.112	7499.05
764.449	7546.74
764.785	7596
765.122	7603.23
765.458	7634.87
765.795	7789.44
766.131	7832.83
766.467	7908.53
766.804	7876.45
767.14	7930.23
767.476	8040.51
767.812	8030.11
768.148	8092.03
768.485	8099.26
768.821	8146.04
769.157	8224.01
769.492	8213.84
769.828	8344
770.164	8328.64
770.5	8386.49
