Data from blue_shiny_book_FLMS001491_00004.txt Node
Date: Wed Feb 08 15:26:26 GMT 2017
User: dcchb
Spectrometer: FLMS00149
Trigger mode: 0
Integration Time (sec): 2.000000E-2
Scans to average: 10
Electric dark correction enabled: true
Nonlinearity correction enabled: false
Boxcar width: 0
XAxis mode: Wavelengths
Number of Pixels in Spectrum: 2048
>>>>>Begin Spectral Data<<<<<
341.393	-12.85
341.776	-12.85
342.16	-12.85
342.543	-52.63
342.927	-41.33
343.31	-64.38
343.693	-50.14
344.077	-52.17
344.46	-56.02
344.843	-44.94
345.226	-41.55
345.61	-30.03
345.993	-33.42
346.376	-11.95
346.759	30.08
347.142	28.73
347.525	37.32
347.908	59.69
348.291	45.45
348.674	85
349.057	98.33
349.44	144.66
349.823	152.57
350.206	170.42
350.588	207.25
350.971	236.86
351.354	241.15
351.737	267.59
352.119	271.43
352.502	278.44
352.884	290.42
353.267	279.12
353.65	313.92
354.032	310.75
354.414	318.89
354.797	322.96
355.179	345.78
355.562	322.96
355.944	359.34
356.326	339.23
356.709	347.14
357.091	365.44
357.473	373.58
357.855	352.79
358.238	343.75
358.62	363.18
359.002	365.89
359.384	351.88
359.766	346.91
360.148	356.4
360.53	348.27
360.912	344.2
361.294	350.98
361.676	362.5
362.057	340.58
362.439	364.76
362.821	368.83
363.203	352.56
363.584	365.89
363.966	350.3
364.348	339.23
364.729	338.78
365.111	347.36
365.493	364.09
365.874	343.52
366.256	337.42
366.637	338.1
367.019	343.52
367.4	350.75
367.781	351.66
368.163	319.57
368.544	345.33
368.925	331.32
369.306	357.53
369.688	346.69
370.069	333.8
370.45	358.44
370.831	356.4
371.212	358.44
371.593	339.68
371.974	362.28
372.355	363.41
372.736	372.22
373.117	359.34
373.498	374.03
373.879	372
374.26	360.02
374.641	362.96
375.021	366.8
375.402	371.09
375.783	364.09
376.163	380.58
376.544	378.32
376.925	369.28
377.305	391.43
377.686	376.06
378.066	391.88
378.447	396.18
378.827	391.43
379.208	401.6
379.588	399.79
379.968	396.18
380.349	424.88
380.729	397.31
381.109	395.5
381.489	412.45
381.87	427.36
382.25	411.54
382.63	444.99
383.01	432.79
383.39	436.85
383.77	445.89
384.15	412.9
384.53	440.92
384.91	441.6
385.29	434.59
385.67	440.69
386.049	466.91
386.429	454.71
386.809	440.02
387.189	473.69
387.568	463.52
387.948	492.67
388.328	497.87
388.707	463.52
389.087	482.95
389.466	520.01
389.846	506.46
390.225	509.17
390.605	506.46
390.984	534.7
391.363	515.27
391.743	508.04
392.122	512.11
392.501	535.16
392.881	568.15
393.26	535.38
393.639	567.24
394.018	533.12
394.397	563.18
394.776	548.94
395.155	554.36
395.534	571.31
395.913	562.95
396.292	594.14
396.671	591.43
397.05	588.04
397.429	618.09
397.808	602.95
398.186	619.22
398.565	621.48
398.944	623.29
399.323	625.32
399.701	642.5
400.08	652.44
400.458	663.51
400.837	673.46
401.215	654.93
401.594	657.41
401.972	674.81
402.351	681.37
402.729	690.86
403.107	718.43
403.486	707.81
403.864	718.65
404.242	714.13
404.62	729.05
404.999	760.91
405.377	748.71
405.755	760.23
406.133	764.98
406.511	762.49
406.889	788.48
407.267	777.86
407.645	804.3
408.023	832.32
408.401	831.87
408.779	811.98
409.156	854.92
409.534	858.54
409.912	874.81
410.29	892.66
410.667	891.08
411.045	904.41
411.422	931.76
411.8	929.5
412.178	915.48
412.555	948.93
412.933	969.49
413.31	1000.45
413.687	995.93
414.065	1017.85
414.442	1037.74
414.819	1003.62
415.197	1048.81
415.574	1080.45
415.951	1066.89
416.328	1069.83
416.705	1101.69
417.082	1097.4
417.46	1099.21
417.837	1136.27
418.214	1163.39
418.591	1148.25
418.967	1171.52
419.344	1197.06
419.721	1241.8
420.098	1214.01
420.475	1211.07
420.852	1247.45
421.228	1275.25
421.605	1267.34
421.982	1262.37
422.358	1288.58
422.735	1328.13
423.111	1322.93
423.488	1348.02
423.864	1358.86
424.241	1384.4
424.617	1385.98
424.994	1411.06
425.37	1445.19
425.746	1429.14
426.123	1430.27
426.499	1462.14
426.875	1475.92
427.251	1519.99
427.627	1552.76
428.003	1584.17
428.379	1583.72
428.756	1625.75
429.132	1624.17
429.507	1663.04
429.883	1672.07
430.259	1689.02
430.635	1741.23
431.011	1733.54
431.387	1773.09
431.763	1790.94
432.138	1822.81
432.514	1827.32
432.89	1843.6
433.265	1891.73
433.641	1916.14
434.016	1959.07
434.392	1978.06
434.767	2053.08
435.143	2025.96
435.518	2050.37
435.894	2072.52
436.269	2068
436.644	2115.68
437.02	2147.54
437.395	2166.52
437.77	2204.04
438.145	2220.76
438.52	2273.19
438.895	2322.68
439.271	2325.84
439.646	2371.04
440.021	2352.06
440.395	2367.2
440.77	2342.57
441.145	2399.74
441.52	2436.8
441.895	2448.55
442.27	2527.65
442.645	2478.61
443.019	2581.66
443.394	2572.62
443.769	2587.98
444.143	2575.33
444.518	2676.57
444.892	2627.53
445.267	2639.51
445.641	2650.35
446.016	2657.81
446.39	2703.69
446.764	2719.5
447.139	2727.41
447.513	2753.63
447.887	2779.84
448.262	2783.23
448.636	2825.94
449.01	2949.1
449.384	2919.95
449.758	2938.26
450.132	2961.08
450.506	2940.52
450.88	2985.03
451.254	2991.81
451.628	3063.22
452.002	3048.99
452.376	3082.43
452.75	3157.91
453.123	3194.29
453.497	3272.26
453.871	3283.11
454.244	3357.68
454.618	3371.24
454.992	3420.96
455.365	3436.32
455.739	3524.23
456.112	3539.6
456.486	3585.24
456.859	3560.61
457.232	3636.77
457.606	3661.63
457.979	3746.6
458.352	3809.42
458.725	3841.06
459.099	3891.68
459.472	3997.66
459.845	4042.18
460.218	4139.81
460.591	4081.05
460.964	4132.12
461.337	4218
461.71	4295.96
462.083	4330.76
462.456	4323.3
462.829	4342.96
463.201	4451.89
463.574	4510.64
463.947	4556.97
464.32	4676.74
464.692	4730.53
465.065	4777.53
465.438	4915.15
465.81	4945.89
466.183	4999.44
466.555	5022.27
466.928	5099.1
467.3	5131.19
467.672	5162.6
468.045	5283.05
468.417	5334.13
468.789	5377.29
469.161	5429.49
469.534	5576.38
469.906	5716.71
470.278	5722.59
470.65	5799.65
471.022	5909.48
471.394	6150.38
471.766	6143.82
472.138	6158.74
472.51	6294.33
472.882	6368.45
473.253	6435.57
473.625	6513.98
473.997	6633.75
474.369	6710.36
474.74	6809.34
475.112	6908.32
475.484	7059.05
475.855	7184.7
476.227	7247.75
476.598	7514.86
476.97	7622.43
477.341	7785.13
477.713	7922.08
478.084	7946.94
478.455	8108.97
478.827	8180.6
479.198	8397.77
479.569	8448.85
479.94	8657.2
480.311	8706.47
480.682	8875.95
481.053	9160.47
481.424	9359.1
481.795	9402.72
482.166	9621.02
482.537	9776.95
482.908	9972.87
483.279	10136.94
483.65	10291.06
484.021	10490.37
484.391	10475.69
484.762	10591.61
485.133	10718.62
485.503	10856.24
485.874	11137.36
486.244	11229.11
486.615	11369.9
486.985	11555.88
487.356	11806.05
487.726	11975.76
488.097	12284.23
488.467	12293.49
488.837	12715.63
489.207	12820.71
489.578	12928.95
489.948	13100.47
490.318	13334.37
490.688	13314.25
491.058	13607.13
491.428	13773.9
491.798	13897.29
492.168	14183.16
492.538	14093.44
492.908	14313.78
493.278	14464.28
493.648	14602.58
494.017	14836.02
494.387	15053.42
494.757	15115.79
495.126	15401.66
495.496	15462.9
495.866	15644.59
496.235	15799.61
496.605	15861.98
496.974	15959.83
497.344	16121.64
497.713	16234.18
498.082	16246.61
498.452	16444.57
498.821	16586.48
499.19	16609.31
499.559	16909.19
499.928	16944.22
500.298	17099.01
500.667	17173.36
501.036	17419.46
501.405	17617.64
501.774	17729.05
502.143	17882.72
502.512	17926.56
502.88	18105.54
503.249	18084.75
503.618	18235.03
503.987	18282.49
504.356	18375.82
504.724	18449.71
505.093	18584.62
505.462	18714.34
505.83	18872.53
506.199	18979.64
506.567	19287.88
506.936	19222.35
507.304	19584.37
507.672	19641.09
508.041	19840.64
508.409	20081.53
508.777	20133.51
509.145	20298.03
509.514	20312.49
509.882	20401.53
510.25	20544.12
510.618	20719.26
510.986	20643.1
511.354	20985.69
511.722	21027.5
512.09	21356.08
512.458	21177.78
512.826	21580.48
513.193	21601.95
513.561	21776.63
513.929	21949.51
514.297	22161.25
514.664	22374.13
515.032	22369.61
515.4	22631.75
515.767	22811.86
516.135	22905.19
516.502	22887.56
516.869	23251.17
517.237	23354.89
517.604	23332.3
517.972	23575.45
518.339	23745.62
518.706	23797.82
519.073	23979.74
519.44	24148.09
519.808	24466.73
520.175	24408.2
520.542	24885.7
520.909	24997.56
521.276	25062.87
521.643	25367.04
522.009	25570.66
522.376	25701.27
522.743	25784.21
523.11	26003.19
523.477	26249.73
523.843	26466.45
524.21	26735.14
524.577	27006.78
524.943	27155.92
525.31	27176.71
525.676	27435.24
526.043	27584.16
526.409	27704.38
526.776	28007.88
527.142	28132.4
527.508	28416.68
527.874	28622.1
528.241	28830
528.607	28950.23
528.973	29282.65
529.339	29306.15
529.705	29416.2
530.071	29653.94
530.437	29785.69
530.803	30010.09
531.169	30171.44
531.535	30111.1
531.901	30403.07
532.267	30555.38
532.632	30751.31
532.998	30925.09
533.364	31123.28
533.73	31334.8
534.095	31584.06
534.461	31567.33
534.826	31906.53
535.192	31999.64
535.557	32150.6
535.923	32216.58
536.288	32407.09
536.653	32468.55
537.019	32415.22
537.384	32515.56
537.749	32735.89
538.114	32854.08
538.479	32944.25
538.845	33087.97
539.21	32975.43
539.575	33296.78
539.94	33295.65
540.305	33523.89
540.67	33526.6
541.034	33738.8
541.399	33901.74
541.764	34042.97
542.129	34294.72
542.494	34350.54
542.858	34500.36
543.223	34511.89
543.587	34727.93
543.952	34756.63
544.316	34885.66
544.681	34712.56
545.045	34963.4
545.41	35191.42
545.774	35011.76
546.138	35180.57
546.503	35274.35
546.867	35284.98
547.231	35541.01
547.595	35612.2
547.959	35796.38
548.324	35810.39
548.688	35941.91
549.052	36281.33
549.416	36326.76
549.779	36421.44
550.143	36613.75
550.507	36851.04
550.871	36884.93
551.235	36878.83
551.599	37193.63
551.962	37315.21
552.326	37217.58
552.689	37380.29
553.053	37205.6
553.417	37280.18
553.78	37645.14
554.143	37643.11
554.507	37671.58
554.87	37846.49
555.234	38095.07
555.597	37934.62
555.96	38274.95
556.323	38391.34
556.686	38591.33
557.05	38860.48
557.413	39055.5
557.776	39264.53
558.139	39472.21
558.502	39453.91
558.865	39609.61
559.228	39924.63
559.59	40079.88
559.953	40022.03
560.316	40257.27
560.679	40172.53
561.041	40382.02
561.404	40322.36
561.767	40640.77
562.129	40472.18
562.492	40909.69
562.854	40800.54
563.217	40898.84
563.579	41267.19
563.941	41370.24
564.304	41502.44
564.666	41749.44
565.028	42063.78
565.39	42187.17
565.753	42453.38
566.115	42614.27
566.477	43006.58
566.839	43013.81
567.201	43285.22
567.563	43322.28
567.925	43517.75
568.287	43348.49
568.648	43525.66
569.01	43579.67
569.372	43780.57
569.734	43533.8
570.095	43919.1
570.457	43979.21
570.819	43905.54
571.18	43891.76
571.542	44191.86
571.903	44222.37
572.265	44472.76
572.626	44428.69
572.987	44631.85
573.349	44960.65
573.71	45149.35
574.071	45226.86
574.432	45410.36
574.794	45874.08
575.155	45786.17
575.516	45767.64
575.877	45905.71
576.238	46124.47
576.599	46108.65
576.96	46173.73
577.32	46259.15
577.681	46170.57
578.042	46352.71
578.403	46283.78
578.763	46284.69
579.124	46173.05
579.485	46281.07
579.845	46311.13
580.206	46079.04
580.566	46309.32
580.927	46180.96
581.287	46446.49
581.648	46326.27
582.008	46764.67
582.368	46730.55
582.728	46931
583.089	47046.25
583.449	46996.08
583.809	47253.93
584.169	47278.11
584.529	47314.26
584.889	47725.78
585.249	47455.5
585.609	47245.34
585.969	47493.92
586.329	47374.83
586.688	47470.64
587.048	47308.39
587.408	47143.65
587.768	47076.53
588.127	46953.82
588.487	46873.15
588.846	47163.53
589.206	46894.16
589.565	46886.25
589.925	47109.07
590.284	46946.82
590.643	47021.16
591.003	47155.85
591.362	47355.39
591.721	47322.4
592.08	47438.78
592.44	47660.24
592.799	47694.14
593.158	47716.97
593.517	47981.37
593.876	47889.84
594.235	47926.23
594.593	47960.58
594.952	48208.7
595.311	47955.6
595.67	48043.96
596.029	48018.88
596.387	48016.17
596.746	48074.02
597.104	47723.97
597.463	47602.39
597.822	47768.04
598.18	47548.83
598.538	47507.25
598.897	47718.77
599.255	47312.68
599.613	47833.12
599.972	47462.74
600.33	47686.23
600.688	47595.84
601.046	47790.18
601.404	48087.58
601.762	48048.48
602.12	48375.25
602.478	48328.25
602.836	48487.11
603.194	48247.8
603.552	48516.49
603.91	48365.31
604.268	48653.66
604.625	48384.52
604.983	48559.88
605.341	48395.82
605.698	48573.21
606.056	48615.93
606.413	48608.69
606.771	48633.33
607.128	48673.32
607.485	48273.56
607.843	48271.53
608.2	48444.18
608.557	48506.32
608.914	48297.29
609.272	48585.42
609.629	48541.35
609.986	48577.96
610.343	48558.98
610.7	48783.15
611.057	48825.86
611.414	48856.37
611.771	49150.6
612.127	49308.11
612.484	49356.02
612.841	49504.94
613.198	49429.01
613.554	49560.53
613.911	49747.42
614.267	49698.61
614.624	49678.27
614.98	49804.82
615.337	49777.48
615.693	49729.57
616.05	49773.18
616.406	49925.04
616.762	49618.16
617.118	49671.72
617.475	49467.88
617.831	49561.21
618.187	49564.6
618.543	49520.99
618.899	49660.42
619.255	49492.96
619.611	49602.79
619.967	49759.17
620.323	49606.18
620.678	49540.87
621.034	49546.52
621.39	49589.01
621.746	49654.54
622.101	50010.24
622.457	49817.7
622.812	50016.34
623.168	50133.17
623.523	50235.77
623.879	50272.15
624.234	50126.85
624.589	50363.22
624.945	50287.75
625.3	50338.37
625.655	50386.05
626.01	50352.6
626.365	50312.15
626.72	50182.89
627.075	50064.02
627.43	50095.89
627.785	49824.48
628.14	49904.48
628.495	49869
628.85	49723.69
629.205	49610.48
629.559	49809.11
629.914	49572.96
630.269	49562.11
630.623	49542.91
630.978	49280.09
631.332	49748.78
631.687	49761.43
632.041	49651.6
632.396	49847.76
632.75	49738.61
633.104	49797.14
633.459	49588.55
633.813	49751.71
634.167	49722.11
634.521	49802.79
634.875	49847.08
635.229	49782.45
635.583	49616.35
635.937	49693.18
636.291	49588.33
636.645	49650.25
636.999	49538.39
637.352	49621.1
637.706	49451.61
638.06	49553.53
638.413	49342.01
638.767	49066.76
639.121	49079.87
639.474	48756.94
639.828	48813.21
640.181	48687.56
640.534	48715.36
640.888	48558.3
641.241	48406.21
641.594	48396.95
641.947	48561.92
642.301	48365.76
642.654	48435.36
643.007	48384.97
643.36	48374.12
643.713	48358.3
644.066	48646.21
644.419	48418.19
644.771	48470.39
645.124	48459.09
645.477	48497.51
645.83	48182.49
646.182	47825.89
646.535	47608.95
646.888	47547.25
647.24	47318.78
647.593	47436.52
647.945	47389.97
648.298	47300.93
648.65	47131.44
649.002	46888.06
649.355	47065.23
649.707	47111.11
650.059	47304.77
650.411	47811.2
650.763	47767.59
651.115	48036.96
651.467	47663.63
651.819	47562.62
652.171	47565.56
652.523	47529.63
652.875	47431.1
653.227	47377.09
653.578	47607.36
653.93	47496.18
654.282	47386.35
654.633	47133.48
654.985	47336.64
655.337	47404.21
655.688	47346.58
656.039	47517.2
656.391	47139.58
656.742	47229.29
657.094	47472.9
657.445	47675.16
657.796	47714.48
658.147	47603.52
658.498	47663.63
658.849	47739.79
659.2	47617.99
659.551	47604.43
659.902	47710.41
660.253	47723.29
660.604	47748.83
660.955	47480.36
661.306	47509.74
661.656	47334.83
662.007	47301.16
662.358	47206.24
662.708	47170.31
663.059	47245.11
663.409	47067.49
663.76	47254.6
664.11	46940.94
664.461	46807.16
664.811	46751.79
665.161	46676.32
665.511	46576.66
665.862	46748.18
666.212	46782.75
666.562	46872.47
666.912	46755.86
667.262	46739.59
667.612	46777.56
667.962	47021.62
668.312	46876.31
668.662	47068.62
669.011	47039.02
669.361	46895.52
669.711	47062.97
670.06	47073.82
670.41	47086.25
670.76	47072.24
671.109	47314.04
671.459	47078.34
671.808	47075.85
672.157	47187.49
672.507	46904.33
672.856	46921.51
673.205	47043.31
673.554	47079.92
673.904	46811.23
674.253	47085.57
674.602	46898.68
674.951	46157.68
675.3	45900.74
675.649	46400.16
675.998	46182.54
676.346	46149.78
676.695	46183.45
677.044	45777.58
677.393	45994.98
677.741	45965.37
678.09	45784.14
678.438	45598.15
678.787	45782.1
679.135	45790.69
679.484	45427.08
679.832	45719.05
680.181	45531.03
680.529	45678.6
680.877	45631.82
681.225	45518.15
681.573	45950.01
681.922	45791.14
682.27	45616
682.618	45786.39
682.966	45714.76
683.314	45948.65
683.661	45801.31
684.009	45575.33
684.357	45513.63
684.705	45504.37
685.053	45512.28
685.4	45560.64
685.748	45164.26
686.095	45273.41
686.443	44962.24
686.79	44823.93
687.138	44898.06
687.485	44827.1
687.832	44481.8
688.18	44512.98
688.527	44082.03
688.874	44036.16
689.221	43972.43
689.568	43794.81
689.915	43654.7
690.262	43635.04
690.609	43469.62
690.956	43284.31
691.303	43157.76
691.65	43002.51
691.997	42871.9
692.344	42723.42
692.69	42707.38
693.037	42673.71
693.383	42494.96
693.73	42575.86
694.077	42419.25
694.423	42536.76
694.769	42384.68
695.116	42342.87
695.462	42392.59
695.808	42304.45
696.155	42287.96
696.501	42058.13
696.847	42288.63
697.193	41959.83
697.539	42090.22
697.885	41843.22
698.231	41802.09
698.577	41830.11
698.923	41644.58
699.269	41587.41
699.614	41303.12
699.96	41231.03
700.306	41149.68
700.651	40892.74
700.997	40753.98
701.342	40506.08
701.688	40250.72
702.033	40207.11
702.379	40004.85
702.724	39674.01
703.069	39864.74
703.415	39224.08
703.76	39271.99
704.105	39142.95
704.45	39095.05
704.795	38760.59
705.14	38580.26
705.485	38700.25
705.83	38555.85
706.175	38688.95
706.52	38531.67
706.865	38503.87
707.209	38431.56
707.554	38398.11
707.899	38467.94
708.243	38267.04
708.588	38263.2
708.932	38154.96
709.277	38302.98
709.621	38273.82
709.966	38074.51
710.31	38451.45
710.654	37989.76
710.998	38282.19
711.342	38260.94
711.687	38108.4
712.031	37969.88
712.375	37925.58
712.719	37938.47
713.063	37824.34
713.407	37761.3
713.75	37478.59
714.094	37587.29
714.438	37312.49
714.782	37235.43
715.125	37156.34
715.469	37057.36
715.812	36689.69
716.156	36454.44
716.499	36591.38
716.843	36460.31
717.186	36050.83
717.53	36171.28
717.873	36060.77
718.216	35839.31
718.559	35776.94
718.902	35712.31
719.246	35771.52
719.589	35461.69
719.932	35424.63
720.275	35500.56
720.617	35381.7
720.96	35401.81
721.303	35400.45
721.646	35441.58
721.989	35360.45
722.331	35556.61
722.674	35404.97
723.016	35630.96
723.359	35553.22
723.701	35642.93
724.044	35327.91
724.386	35397.29
724.729	35518.19
725.071	35552.77
725.413	35457.63
725.755	35446.78
726.097	35396.39
726.439	35317.52
726.782	35253.34
727.124	35331.75
727.465	35131.53
727.807	35060.58
728.149	35057.19
728.491	34979.67
728.833	34948.94
729.175	34762.73
729.516	34596.41
729.858	34637.54
730.199	34583.98
730.541	34432.34
730.882	34317.09
731.224	34403.87
731.565	34224.44
731.906	34089.98
732.248	34026.7
732.589	33806.37
732.93	33869.65
733.271	33853.6
733.612	33816.09
733.953	33879.36
734.294	33719.82
734.635	33593.72
734.976	33751.68
735.317	33638.24
735.658	33770.21
735.999	33898.35
736.339	33833.26
736.68	33984.9
737.021	33720.72
737.361	33803.43
737.702	34037.33
738.042	33933.15
738.383	34116.19
738.723	34066.25
739.063	34119.36
739.404	34217.66
739.744	34279.58
740.084	34238.22
740.424	34335.17
740.764	34356.19
741.104	34368.62
741.444	34094.72
741.784	34171.33
742.124	34203.87
742.464	34115.06
742.804	34019.7
743.143	33998.46
743.483	33985.8
743.823	33699.71
744.162	33938.12
744.502	33755.52
744.841	33690.89
745.181	33837.78
745.52	33599.6
745.86	33622.65
746.199	33435.53
746.538	33478.47
746.877	33440.28
747.216	33463.1
747.556	33343.33
747.895	33340.17
748.234	33287.97
748.573	33103.11
748.911	33242.09
749.25	33241.19
749.589	33128.87
749.928	33192.38
750.267	33278.48
750.605	33374.74
750.944	33209.55
751.283	33238.48
751.621	33221.53
751.96	33033.96
752.298	33276.22
752.636	33468.98
752.975	33361.41
