Data from blue_chair_FLMS001491_00096.txt Node
Date: Wed Feb 08 10:32:19 GMT 2017
User: dcchb
Spectrometer: FLMS00149
Trigger mode: 0
Integration Time (sec): 2.000000E-2
Scans to average: 10
Electric dark correction enabled: true
Nonlinearity correction enabled: false
Boxcar width: 0
XAxis mode: Wavelengths
Number of Pixels in Spectrum: 2048
>>>>>Begin Spectral Data<<<<<
341.393	-24.55
341.776	-24.55
342.16	-24.55
342.543	-55.28
342.927	-71.78
343.31	-66.58
343.693	-80.59
344.077	-69.74
344.46	-53.47
344.843	-42.4
345.226	-30.2
345.61	-17.09
345.993	-7.15
346.376	-4.66
346.759	3.25
347.142	16.36
347.525	36.69
347.908	63.13
348.291	66.52
348.674	94.55
349.057	91.38
349.44	121.44
349.823	133.87
350.206	164.6
350.588	158.95
350.971	178.39
351.354	212.28
351.737	211.15
352.119	215.45
352.502	228.33
352.884	247.54
353.267	255.45
353.65	272.62
354.032	259.96
354.414	258.38
354.797	287.08
355.179	309.91
355.562	296.8
355.944	293.86
356.326	308.33
356.709	291.38
357.091	290.47
357.473	312.39
357.855	301.55
358.238	313.07
358.62	293.64
359.002	316.23
359.384	323.69
359.766	295.67
360.148	317.36
360.53	321.66
360.912	305.16
361.294	330.92
361.676	296.12
362.057	290.92
362.439	308.33
362.821	296.57
363.203	293.18
363.584	305.61
363.966	296.8
364.348	307.2
364.729	283.92
365.111	297.7
365.493	280.76
365.874	280.98
366.256	300.64
366.637	289.57
367.019	298.38
367.4	281.21
367.781	265.84
368.163	263.58
368.544	291.15
368.925	292.51
369.306	288.21
369.688	268.78
370.069	271.26
370.45	277.59
370.831	284.6
371.212	281.89
371.593	296.35
371.974	276.46
372.355	267.65
372.736	286.4
373.117	257.03
373.498	270.59
373.879	278.5
374.26	293.86
374.641	280.76
375.021	288.89
375.402	279.85
375.783	268.78
376.163	259.51
376.544	292.28
376.925	293.18
377.305	282.79
377.686	287.53
378.066	290.25
378.447	291.83
378.827	293.41
379.208	284.15
379.588	292.05
379.968	292.96
380.349	293.64
380.729	277.14
381.109	297.7
381.489	290.02
381.87	281.66
382.25	274.43
382.63	302.45
383.01	288.44
383.39	304.94
383.77	278.27
384.15	287.99
384.53	311.26
384.91	307.42
385.29	297.25
385.67	297.93
386.049	283.47
386.429	327.76
386.809	301.77
387.189	283.69
387.568	300.19
387.948	319.17
388.328	315.33
388.707	309.46
389.087	323.47
389.466	307.42
389.846	320.75
390.225	325.27
390.605	312.39
390.984	301.09
391.363	327.53
391.743	312.39
392.122	303.35
392.501	309
392.881	312.17
393.26	323.24
393.639	328.21
394.018	309.68
394.397	346.52
394.776	329.12
395.155	312.84
395.534	307.42
395.913	312.17
396.292	312.84
396.671	346.06
397.05	316.91
397.429	318.27
397.808	323.24
398.186	326.18
398.565	336.12
398.944	326.18
399.323	324.6
399.701	334.31
400.08	323.92
400.458	337.03
400.837	308.1
401.215	358.04
401.594	346.52
401.972	353.52
402.351	316.91
402.729	339.51
403.107	327.99
403.486	326.18
403.864	346.29
404.242	337.25
404.62	333.41
404.999	339.51
405.377	355.33
405.755	355.1
406.133	360.3
406.511	342.67
406.889	349.91
407.267	361.66
407.645	374.76
408.023	352.39
408.401	356.91
408.779	363.92
409.156	363.69
409.534	336.8
409.912	367.31
410.29	375.67
410.667	372.73
411.045	371.6
411.422	354.43
411.8	377.93
412.178	365.05
412.555	358.04
412.933	370.92
413.31	391.26
413.687	373.18
414.065	404.82
414.442	389.45
414.819	371.37
415.197	389.68
415.574	390.81
415.951	413.41
416.328	384.26
416.705	381.54
417.082	409.79
417.46	425.61
417.837	410.92
418.214	396.91
418.591	396.46
418.967	408.66
419.344	423.12
419.721	398.94
420.098	427.64
420.475	428.1
420.852	421.99
421.228	424.93
421.605	429.23
421.982	434.88
422.358	416.57
422.735	434.2
423.111	406.18
423.488	442.11
423.864	444.59
424.241	462.67
424.617	417.02
424.994	444.82
425.37	477.13
425.746	452.5
426.123	462.22
426.499	458.38
426.875	460.64
427.251	466.74
427.627	475.33
428.003	465.61
428.379	472.61
428.756	480.3
429.132	473.07
429.507	476.68
429.883	491.82
430.259	494.08
430.635	480.98
431.011	487.53
431.387	502.22
431.763	487.3
432.138	502.9
432.514	495.66
432.89	512.61
433.265	536.57
433.641	522.78
434.016	541.99
434.392	545.16
434.767	549.67
435.143	528.21
435.518	553.52
435.894	569.11
436.269	545.83
436.644	549.45
437.02	566.62
437.395	565.95
437.77	601.42
438.145	589
438.52	590.8
438.895	604.81
439.271	581.31
439.646	624.02
440.021	600.97
440.395	620.86
440.77	605.27
441.145	611.82
441.52	628.32
441.895	635.32
442.27	634.87
442.645	652.5
443.019	646.85
443.394	647.75
443.769	668.09
444.143	664.25
444.518	659.28
444.892	667.86
445.267	676.68
445.641	682.1
446.016	696.34
446.39	665.83
446.764	676.45
447.139	700.18
447.513	708.99
447.887	719.16
448.262	706.05
448.636	702.89
449.01	720.52
449.384	704.92
449.758	734.53
450.132	728.2
450.506	715.32
450.88	724.59
451.254	746.73
451.628	731.82
452.002	736.79
452.376	752.16
452.75	761.65
453.123	774.75
453.497	775.66
453.871	763.91
454.244	783.57
454.618	790.8
454.992	798.71
455.365	785.6
455.739	810.01
456.112	828.09
456.486	818.37
456.859	845.71
457.232	851.81
457.606	836.67
457.979	855.88
458.352	859.5
458.725	842.32
459.099	856.79
459.472	869.44
459.845	875.54
460.218	901.53
460.591	907.86
460.964	890.68
461.337	914.19
461.71	889.33
462.083	911.93
462.456	896.78
462.829	918.48
463.201	938.14
463.574	949.21
463.947	959.16
464.32	969.78
464.692	950.12
465.065	985.6
465.438	1006.61
465.81	980.85
466.183	988.99
466.555	1008.19
466.928	993.5
467.3	995.09
467.672	1028.98
468.045	1037.8
468.417	1030.34
468.789	1056.55
469.161	1071.24
469.534	1053.39
469.906	1071.92
470.278	1088.64
470.65	1063.56
471.022	1105.14
471.394	1104.91
471.766	1111.69
472.138	1146.5
472.51	1152.82
472.882	1158.7
473.253	1149.89
473.625	1203.67
473.997	1187.62
474.369	1197.79
474.74	1214.97
475.112	1195.31
475.484	1247.96
475.855	1218.81
476.227	1234.18
476.598	1263.1
476.97	1290.67
477.341	1308.3
477.713	1297
478.084	1312.37
478.455	1354.17
478.827	1318.92
479.198	1354.63
479.569	1376.55
479.94	1402.53
480.311	1359.6
480.682	1410.44
481.053	1437.56
481.424	1452.7
481.795	1444.11
482.166	1457
482.537	1467.39
482.908	1489.99
483.279	1485.92
483.65	1501.29
484.021	1503.77
484.391	1537.45
484.762	1543.55
485.133	1582.19
485.503	1567.28
485.874	1599.36
486.244	1581.29
486.615	1614.51
486.985	1633.49
487.356	1640.72
487.726	1652.47
488.097	1648.18
488.467	1658.12
488.837	1687.05
489.207	1707.61
489.578	1717.78
489.948	1709.42
490.318	1719.59
490.688	1734.73
491.058	1762.3
491.428	1778.34
491.798	1753.03
492.168	1751.9
492.538	1783.31
492.908	1771.34
493.278	1796.65
493.648	1784.22
494.017	1821.05
494.387	1834.84
494.757	1802.98
495.126	1812.47
495.496	1816.08
495.866	1831.22
496.235	1835.97
496.605	1860.37
496.974	1878
497.344	1863.99
497.713	1845.69
498.082	1856.31
498.452	1835.52
498.821	1875.74
499.19	1866.93
499.559	1856.99
499.928	1845.91
500.298	1880.04
500.667	1854.27
501.036	1874.39
501.405	1857.89
501.774	1889.07
502.143	1879.13
502.512	1892.46
502.88	1893.82
503.249	1873.26
503.618	1874.84
503.987	1887.04
504.356	1897.66
504.724	1881.84
505.093	1849.53
505.462	1890.43
505.83	1874.84
506.199	1859.24
506.567	1870.54
506.936	1877.1
507.304	1899.24
507.672	1869.41
508.041	1859.7
508.409	1903.54
508.777	1906.25
509.145	1893.14
509.514	1858.34
509.882	1909.41
510.25	1830.09
510.618	1895.63
510.986	1895.63
511.354	1884.55
511.722	1894.05
512.09	1891.33
512.458	1896.31
512.826	1895.63
513.193	1885.46
513.561	1866.93
513.929	1903.76
514.297	1886.59
514.664	1870.54
515.032	1866.93
515.4	1858.11
515.767	1843.2
516.135	1865.35
516.502	1881.62
516.869	1879.36
517.237	1847.95
517.604	1858.79
517.972	1841.62
518.339	1825.12
518.706	1862.63
519.073	1863.99
519.44	1843.2
519.808	1834.61
520.175	1810.21
520.542	1862.41
520.909	1846.36
521.276	1838.45
521.643	1827.61
522.009	1823.54
522.376	1848.62
522.743	1809.98
523.11	1830.09
523.477	1804.11
523.843	1829.64
524.21	1820.6
524.577	1823.99
524.943	1819.92
525.31	1821.96
525.676	1824.67
526.043	1822.41
526.409	1802.52
526.776	1814.27
527.142	1782.64
527.508	1808.62
527.874	1802.3
528.241	1820.38
528.607	1799.81
528.973	1820.38
529.339	1813.37
529.705	1807.72
530.071	1794.84
530.437	1798.91
530.803	1786.93
531.169	1791.68
531.535	1781.28
531.901	1770.43
532.267	1778.8
532.632	1787.38
532.998	1735.63
533.364	1767.04
533.73	1779.02
534.095	1757.33
534.461	1769.76
534.826	1755.74
535.192	1769.76
535.557	1738.34
535.923	1749.64
536.288	1749.64
536.653	1745.12
537.019	1729.98
537.384	1718.91
537.749	1751
538.114	1718.91
538.479	1711
538.845	1704.67
539.21	1705.12
539.575	1675.29
539.94	1704.9
540.305	1723.43
540.67	1688.63
541.034	1680.27
541.399	1703.32
541.764	1685.46
542.129	1684.33
542.494	1634.17
542.858	1667.84
543.223	1660.61
543.587	1668.29
543.952	1663.77
544.316	1641.62
544.681	1635.52
545.045	1643.43
545.41	1616.99
545.774	1617.44
546.138	1621.74
546.503	1611.34
546.867	1598.23
547.231	1587.39
547.595	1593.94
547.959	1605.47
548.324	1611.79
548.688	1568.41
549.052	1583.77
549.416	1575.64
549.779	1557.78
550.143	1565.02
550.507	1583.55
550.871	1550.1
551.235	1533.15
551.599	1537.67
551.962	1532.47
552.326	1527.95
552.689	1531.8
553.053	1526.6
553.417	1525.02
553.78	1547.39
554.143	1529.76
554.507	1493.83
554.87	1530.89
555.234	1494.96
555.597	1483.89
555.96	1510.33
556.323	1497.22
556.686	1494.73
557.05	1487.73
557.413	1492.7
557.776	1455.87
558.139	1484.79
558.502	1484.34
558.865	1452.02
559.228	1504.68
559.59	1474.4
559.953	1486.83
560.316	1461.74
560.679	1463.78
561.041	1487.28
561.404	1471.23
561.767	1487.96
562.129	1482.76
562.492	1489.99
562.854	1468.52
563.217	1456.54
563.579	1487.73
563.941	1469.42
564.304	1457.9
564.666	1486.83
565.028	1499.93
565.39	1502.64
565.753	1451.12
566.115	1489.31
566.477	1464.9
566.839	1473.94
567.201	1475.98
567.563	1487.73
567.925	1486.83
568.287	1490.89
568.648	1501.06
569.01	1472.36
569.372	1453.38
569.734	1491.57
570.095	1477.33
570.457	1496.99
570.819	1494.51
571.18	1475.53
571.542	1521.17
571.903	1511.23
572.265	1514.85
572.626	1494.96
572.987	1493.83
573.349	1512.59
573.71	1535.64
574.071	1529.08
574.432	1530.44
574.794	1547.61
575.155	1548.97
575.516	1544.45
575.877	1521.85
576.238	1545.13
576.599	1520.95
576.96	1540.16
577.32	1547.84
577.681	1537.45
578.042	1559.14
578.403	1564.34
578.763	1535.41
579.124	1534.28
579.485	1547.61
579.845	1564.11
580.206	1544.68
580.566	1573.6
580.927	1587.39
581.287	1605.24
581.648	1571.79
582.008	1574.05
582.368	1578.35
582.728	1568.86
583.089	1610.66
583.449	1609.31
583.809	1544.22
584.169	1577.9
584.529	1599.36
584.889	1591.46
585.249	1614.28
585.609	1586.03
585.969	1605.24
586.329	1609.99
586.688	1595.52
587.048	1616.09
587.408	1592.13
587.768	1595.52
588.127	1602.53
588.487	1567.5
588.846	1585.13
589.206	1614.73
589.565	1597.1
589.925	1588.29
590.284	1578.8
590.643	1579.7
591.003	1594.85
591.362	1569.31
591.721	1589.2
592.08	1590.1
592.44	1621.06
592.799	1605.01
593.158	1568.86
593.517	1630.78
593.876	1595.07
594.235	1613.6
594.593	1615.18
594.952	1618.8
595.311	1600.04
595.67	1578.57
596.029	1611.57
596.387	1593.26
596.746	1582.19
597.104	1594.85
597.463	1587.39
597.822	1613.83
598.18	1589.65
598.538	1576.99
598.897	1568.41
599.255	1583.09
599.613	1578.12
599.972	1582.87
600.33	1607.27
600.688	1576.31
601.046	1593.94
601.404	1586.94
601.762	1602.53
602.12	1602.98
602.478	1605.92
602.836	1620.38
603.194	1633.26
603.552	1595.3
603.91	1600.27
604.268	1577.67
604.625	1593.04
604.983	1629.19
605.341	1583.55
605.698	1585.81
606.056	1611.34
606.413	1607.05
606.771	1589.2
607.128	1601.85
607.485	1573.83
607.843	1600.27
608.2	1593.26
608.557	1591.68
608.914	1569.31
609.272	1586.71
609.629	1615.64
609.986	1621.96
610.343	1576.31
610.7	1598.69
611.057	1586.71
611.414	1584.68
611.771	1632.58
612.127	1597.56
612.484	1616.54
612.841	1617.44
613.198	1582.64
613.554	1631.45
613.911	1631.23
614.267	1596.2
614.624	1594.17
614.98	1602.98
615.337	1600.04
615.693	1635.3
616.05	1615.18
616.406	1620.83
616.762	1619.93
617.118	1618.57
617.475	1612.92
617.831	1616.31
618.187	1599.82
618.543	1643.43
618.899	1615.64
619.255	1626.26
619.611	1626.93
619.967	1639.59
620.323	1632.13
620.678	1622.19
621.034	1606.6
621.39	1604.34
621.746	1628.06
622.101	1652.7
622.457	1628.52
622.812	1601.85
623.168	1600.95
623.523	1618.35
623.879	1626.03
624.234	1634.62
624.589	1615.64
624.945	1629.87
625.3	1652.02
625.655	1626.93
626.01	1613.6
626.365	1655.18
626.72	1620.38
627.075	1600.95
627.43	1632.58
627.785	1619.7
628.14	1648.18
628.495	1650.66
628.85	1658.57
629.205	1621.74
629.559	1621.96
629.914	1616.09
630.269	1609.08
630.623	1634.17
630.978	1653.37
631.332	1646.6
631.687	1673.26
632.041	1613.6
632.396	1628.29
632.75	1610.89
633.104	1610.44
633.459	1645.47
633.813	1626.48
634.167	1602.98
634.521	1640.27
634.875	1625.13
635.229	1625.13
635.583	1640.72
635.937	1610.44
636.291	1599.36
636.645	1636.43
636.999	1613.15
637.352	1625.8
637.706	1628.29
638.06	1613.38
638.413	1629.19
638.767	1611.34
639.121	1621.96
639.474	1602.75
639.828	1640.04
640.181	1593.26
640.534	1645.01
640.888	1626.93
641.241	1605.24
641.594	1644.79
641.947	1606.82
642.301	1647.05
642.654	1621.51
643.007	1612.02
643.36	1636.43
643.713	1642.98
644.066	1627.39
644.419	1628.52
644.771	1616.99
645.124	1584.22
645.477	1591.68
645.83	1596.43
646.182	1565.24
646.535	1581.96
646.888	1579.48
647.24	1564.79
647.593	1600.95
647.945	1592.36
648.298	1572.02
648.65	1593.04
649.002	1552.59
649.355	1573.38
649.707	1609.08
650.059	1620.38
650.411	1593.72
650.763	1604.11
651.115	1643.88
651.467	1641.62
651.819	1638.69
652.171	1623.54
652.523	1644.34
652.875	1650.21
653.227	1637.56
653.578	1626.26
653.93	1646.82
654.282	1627.61
654.633	1628.06
654.985	1616.99
655.337	1647.27
655.688	1638.01
656.039	1654.05
656.391	1682.3
656.742	1626.48
657.094	1639.59
657.445	1650.66
657.796	1694.73
658.147	1638.69
658.498	1637.78
658.849	1654.5
659.2	1650.44
659.551	1647.95
659.902	1657.22
660.253	1632.81
660.604	1672.81
660.955	1637.78
661.306	1635.07
661.656	1668.29
662.007	1665.8
662.358	1642.75
662.708	1622.87
663.059	1644.79
663.409	1631
663.76	1659.48
664.11	1651.11
664.461	1659.25
664.811	1654.5
665.161	1678.46
665.511	1648.63
665.862	1674.39
666.212	1686.37
666.562	1673.49
666.912	1645.47
667.262	1672.81
667.612	1678.46
667.962	1685.24
668.312	1642.75
668.662	1664.9
669.011	1672.58
669.361	1651.79
669.711	1635.07
670.06	1637.78
670.41	1630.32
670.76	1664.22
671.109	1664.45
671.459	1681.17
671.808	1649.53
672.157	1634.39
672.507	1618.35
672.856	1649.31
673.205	1610.89
673.554	1625.13
673.904	1626.71
674.253	1640.04
674.602	1637.33
674.951	1629.19
675.3	1614.73
675.649	1637.78
675.998	1603.21
676.346	1632.81
676.695	1627.39
677.044	1609.31
677.393	1625.13
677.741	1630.1
678.09	1626.71
678.438	1611.79
678.787	1627.84
679.135	1592.36
679.484	1572.47
679.832	1620.38
680.181	1602.53
680.529	1599.59
680.877	1602.08
681.225	1590.78
681.573	1579.93
681.922	1555.75
682.27	1575.86
682.618	1579.7
682.966	1578.57
683.314	1567.28
683.661	1553.94
684.009	1580.38
684.357	1588.97
684.705	1578.35
685.053	1562.3
685.4	1536.99
685.748	1532.25
686.095	1514.17
686.443	1525.69
686.79	1546.48
687.138	1555.52
687.485	1521.85
687.832	1521.4
688.18	1545.58
688.527	1543.1
688.874	1559.14
689.221	1529.54
689.568	1508.75
689.915	1497.22
690.262	1507.39
690.609	1487.05
690.956	1504.45
691.303	1489.99
691.65	1485.47
691.997	1517.56
692.344	1467.39
692.69	1501.29
693.037	1504
693.383	1486.37
693.73	1457.67
694.077	1461.52
694.423	1473.04
694.769	1471.68
695.116	1458.58
695.462	1484.34
695.808	1490.44
696.155	1444.79
696.501	1463.1
696.847	1463.1
697.193	1443.89
697.539	1464.68
697.885	1419.03
698.231	1421.29
698.577	1432.59
698.923	1445.47
699.269	1441.85
699.614	1444.34
699.96	1408.18
700.306	1388.3
700.651	1407.28
700.997	1404.57
701.342	1394.4
701.688	1419.48
702.033	1400.27
702.379	1412.25
702.724	1362.31
703.069	1409.99
703.415	1391.23
703.76	1379.94
704.105	1398.24
704.45	1397.11
704.795	1398.69
705.14	1395.75
705.485	1379.03
705.83	1377.45
706.175	1391.01
706.52	1355.53
706.865	1364.12
707.209	1377
707.554	1364.57
707.899	1386.26
708.243	1375.64
708.588	1391.01
708.932	1370.44
709.277	1344.91
709.621	1354.63
709.966	1390.78
710.31	1374.51
710.654	1352.37
710.998	1377.22
711.342	1371.12
711.687	1381.07
712.031	1358.47
712.375	1377.68
712.719	1345.13
713.063	1367.05
713.407	1385.13
713.75	1398.47
714.094	1376.09
714.438	1363.21
714.782	1380.16
715.125	1370.67
715.469	1401.4
715.812	1393.72
716.156	1374.96
716.499	1379.26
716.843	1405.02
717.186	1405.7
717.53	1402.31
717.873	1407.05
718.216	1395.08
718.559	1409.54
718.902	1410.67
719.246	1398.92
719.589	1421.06
719.932	1426.04
720.275	1398.01
720.617	1424.45
720.96	1413.38
721.303	1394.17
721.646	1407.73
721.989	1400.27
722.331	1445.47
722.674	1431.69
723.016	1406.15
723.359	1453.83
723.701	1453.61
724.044	1441.18
724.386	1428.07
724.729	1462.87
725.071	1441.18
725.413	1459.93
725.755	1466.26
726.097	1479.59
726.439	1453.38
726.782	1476.2
727.124	1484.79
727.465	1472.36
727.807	1475.53
728.149	1478.92
728.491	1478.69
728.833	1485.7
729.175	1526.15
729.516	1524.79
729.858	1529.99
730.199	1519.82
730.541	1534.28
730.882	1548.52
731.224	1525.47
731.565	1521.4
731.906	1546.94
732.248	1532.25
732.589	1528.41
732.93	1579.25
733.271	1545.81
733.612	1561.4
733.953	1586.03
734.294	1606.6
734.635	1629.42
734.976	1623.32
735.317	1638.91
735.658	1588.07
735.999	1638.69
736.339	1646.14
736.68	1640.27
737.021	1676.65
737.361	1661.28
737.702	1693.83
738.042	1656.31
738.383	1688.85
738.723	1707.61
739.063	1713.49
739.404	1728.85
739.744	1753.48
740.084	1733.82
740.424	1743.77
740.764	1755.29
741.104	1771.11
741.444	1804.56
741.784	1794.39
742.124	1798.46
742.464	1812.92
742.804	1849.53
743.143	1853.14
743.483	1838.91
743.823	1893.14
744.162	1881.17
744.502	1985.34
744.841	1958.9
745.181	1997.32
745.52	2026.02
745.86	2032.35
746.199	2056.53
746.538	2076.87
746.877	2096.75
747.216	2105.34
747.556	2112.8
747.895	2194.6
748.234	2199.12
748.573	2211.1
748.911	2247.26
749.25	2282.06
749.589	2296.52
749.928	2352.11
750.267	2364.54
750.605	2417.87
750.944	2440.7
751.283	2469.17
751.621	2483.86
751.96	2520.47
752.298	2574.93
752.636	2630.75
752.975	2686.34
753.313	2706
753.651	2733.35
753.989	2745.32
754.327	2823.06
754.666	2808.82
755.004	2922.04
755.342	2958.2
755.679	2977.18
756.017	2978.09
756.355	3047.24
756.693	3110.51
757.031	3162.26
757.368	3192.54
757.706	3280
758.044	3292.2
758.381	3380.11
758.719	3401.13
759.056	3457.85
759.394	3504.63
759.731	3536.04
760.068	3610.16
760.405	3625.07
760.743	3686.09
761.08	3738.52
761.417	3835.46
761.754	3848.35
762.091	3865.07
762.428	3935.12
762.765	3932.41
763.102	4047.44
763.438	4020.09
763.775	4115.46
764.112	4181.9
764.449	4169.47
764.785	4263.02
765.122	4245.62
765.458	4319.97
765.795	4389.35
766.131	4442.23
766.467	4467.76
766.804	4466.41
767.14	4504.83
767.476	4525.84
767.812	4550.47
768.148	4597.25
768.485	4673.18
768.821	4608.78
769.157	4669.11
769.492	4694.42
769.828	4772.39
770.164	4751.37
770.5	4792.73
770.836	4829.11
771.171	4821.88
771.507	4893.52
