Data from blue_shiny_book_FLMS001491_00098.txt Node
Date: Wed Feb 08 15:27:49 GMT 2017
User: dcchb
Spectrometer: FLMS00149
Trigger mode: 0
Integration Time (sec): 2.000000E-2
Scans to average: 10
Electric dark correction enabled: true
Nonlinearity correction enabled: false
Boxcar width: 0
XAxis mode: Wavelengths
Number of Pixels in Spectrum: 2048
>>>>>Begin Spectral Data<<<<<
341.393	-21.03
341.776	-21.03
342.16	-21.03
342.543	-46.79
342.927	-56.28
343.31	-64.19
343.693	-61.71
344.077	-62.61
344.46	-59.9
344.843	-80.24
345.226	-32.33
345.61	-42.72
345.993	-14.03
346.376	-14.48
346.759	-0.69
347.142	28.69
347.525	46.54
347.908	55.35
348.291	80.21
348.674	105.07
349.057	117.04
349.44	117.5
349.823	159.08
350.206	160.66
350.588	200.88
350.971	208.34
351.354	240.21
351.737	258.51
352.119	240.43
352.502	263.03
352.884	306.64
353.267	284.72
353.65	288.79
354.032	290.6
354.414	308.45
354.797	312.07
355.179	332.18
355.562	304.38
355.944	332.63
356.326	329.02
356.709	335.34
357.091	341.9
357.473	363.14
357.855	339.19
358.238	324.72
358.62	343.25
359.002	343.71
359.384	324.5
359.766	316.36
360.148	330.15
360.53	345.29
360.912	338.28
361.294	323.82
361.676	324.05
362.057	346.64
362.439	343.71
362.821	314.33
363.203	328.79
363.584	344.84
363.966	331.73
364.348	325.63
364.729	318.62
365.111	312.07
365.493	317.94
365.874	317.04
366.256	312.07
366.637	325.85
367.019	328.56
367.4	324.5
367.781	331.95
368.163	319.3
368.544	329.02
368.925	322.69
369.306	339.64
369.688	325.4
370.069	314.55
370.45	308
370.831	322.24
371.212	326.53
371.593	316.14
371.974	326.98
372.355	336.02
372.736	322.24
373.117	314.1
373.498	327.89
373.879	348.45
374.26	337.38
374.641	303.25
375.021	317.04
375.402	317.04
375.783	325.18
376.163	338.28
376.544	332.41
376.925	347.55
377.305	322.46
377.686	343.93
378.066	343.03
378.447	340.77
378.827	343.93
379.208	339.86
379.588	349.13
379.968	342.58
380.349	365.4
380.729	345.29
381.109	373.54
381.489	367.66
381.87	355.23
382.25	365.63
382.63	361.33
383.01	376.7
383.39	361.33
383.77	370.6
384.15	378.96
384.53	371.5
384.91	386.42
385.29	367.66
385.67	356.13
386.049	380.77
386.429	387.32
386.809	416.47
387.189	404.04
387.568	410.37
387.948	388.45
388.328	389.58
388.707	423.7
389.087	397.94
389.466	420.09
389.846	399.98
390.225	418.96
390.605	429.13
390.984	429.81
391.363	440.43
391.743	435.91
392.122	438.62
392.501	433.42
392.881	458.5
393.26	440.2
393.639	445.17
394.018	450.6
394.397	449.01
394.776	439.07
395.155	459.86
395.534	460.76
395.913	462.35
396.292	474.1
396.671	469.58
397.05	473.87
397.429	469.58
397.808	450.37
398.186	507.32
398.565	472.97
398.944	470.03
399.323	489.46
399.701	482.46
400.08	511.61
400.458	522.68
400.837	513.19
401.215	520.2
401.594	534.44
401.972	507.54
402.351	509.58
402.729	532.63
403.107	530.37
403.486	538.5
403.864	545.06
404.242	537.15
404.62	577.82
404.999	561.55
405.377	563.81
405.755	556.36
406.133	566.07
406.511	591.16
406.889	603.13
407.267	593.19
407.645	611.72
408.023	608.78
408.401	644.94
408.779	626.18
409.156	636.35
409.534	673.41
409.912	649.46
410.29	690.82
410.667	683.13
411.045	682.45
411.422	651.04
411.8	671.15
412.178	697.59
412.555	713.64
412.933	715.9
413.31	739.18
413.687	732.62
414.065	739.18
414.442	750.25
414.819	757.25
415.197	773.07
415.574	773.3
415.951	804.71
416.328	820.98
416.705	822.79
417.082	796.35
417.46	829.34
417.837	840.64
418.214	850.81
418.591	852.62
418.967	836.8
419.344	875.9
419.721	850.58
420.098	870.25
420.475	901.88
420.852	901.43
421.228	898.49
421.605	902.11
421.982	901.66
422.358	946.63
422.735	965.16
423.111	954.76
423.488	970.81
423.864	973.52
424.241	984.37
424.617	986.63
424.994	1009.45
425.37	1003.58
425.746	1035.66
426.123	1034.31
426.499	1046.06
426.875	1069.56
427.251	1084.03
427.627	1085.83
428.003	1102.56
428.379	1146.62
428.756	1105.27
429.132	1121.99
429.507	1117.47
429.883	1163.12
430.259	1192.95
430.635	1200.63
431.011	1202.44
431.387	1265.72
431.763	1252.16
432.138	1257.13
432.514	1314.53
432.89	1312.49
433.265	1310.46
433.641	1314.08
434.016	1341.19
434.392	1364.92
434.767	1401.98
435.143	1420.97
435.518	1405.15
435.894	1435.43
436.269	1472.94
436.644	1503.9
437.02	1482.88
437.395	1549.78
437.77	1524.24
438.145	1552.04
438.52	1560.17
438.895	1575.54
439.271	1590
439.646	1641.52
440.021	1623.45
440.395	1671.35
440.77	1627.97
441.145	1658.93
441.52	1717.45
441.895	1739.6
442.27	1726.27
442.645	1700.51
443.019	1754.29
443.394	1736.66
443.769	1803.33
444.143	1750.9
444.518	1814.18
444.892	1819.37
445.267	1862.54
445.641	1825.93
446.016	1844.91
446.39	1858.02
446.764	1885.59
447.139	1907.96
447.513	1917.68
447.887	1960.16
448.262	1941.63
448.636	1964.23
449.01	1946.15
449.384	1991.12
449.758	2017.11
450.132	2067.28
450.506	2035.19
450.88	2058.46
451.254	2044.9
451.628	2107.5
452.002	2121.29
452.376	2098.69
452.75	2169.19
453.123	2212.58
453.497	2209.65
453.871	2252.13
454.244	2250.55
454.618	2277.44
454.992	2343.43
455.365	2322.41
455.739	2367.83
456.112	2394.95
456.486	2434.05
456.859	2493.93
457.232	2473.14
457.606	2505.91
457.979	2538.68
458.352	2616.41
458.725	2595.4
459.099	2660.93
459.472	2686.24
459.845	2729.86
460.218	2718.11
460.591	2771.89
460.964	2759.91
461.337	2862.28
461.71	2937.08
462.083	2941.15
462.456	2989.29
462.829	2996.07
463.201	3058.89
463.574	3087.36
463.947	3079.68
464.32	3190.41
464.692	3207.13
465.065	3227.92
465.438	3258.21
465.81	3320.12
466.183	3333.68
466.555	3429.5
466.928	3469.27
467.3	3473.57
467.672	3532.32
468.045	3606.9
468.417	3608.7
468.789	3636.27
469.161	3702.26
469.534	3725.09
469.906	3831.98
470.278	3787.91
470.65	3898.64
471.022	3938.19
471.394	4048.92
471.766	4123.27
472.138	4134.11
472.51	4206.43
472.882	4344.28
473.253	4304.05
473.625	4366.88
473.997	4509.7
474.369	4554.44
474.74	4586.98
475.112	4699.98
475.484	4696.13
475.855	4795.11
476.227	4850.25
476.598	4946.75
476.97	5043.47
477.341	5147.87
477.713	5214.99
478.084	5240.98
478.455	5446.85
478.827	5473.29
479.198	5616.56
479.569	5657.01
479.94	5794.18
480.311	5810.68
480.682	5981.98
481.053	6096.55
481.424	6178.81
481.795	6297.67
482.166	6331.57
482.537	6441.4
482.908	6550.77
483.279	6648.85
483.65	6722.29
484.021	6884.55
484.391	6967.26
484.762	7054.49
485.133	7140.36
485.503	7256.07
485.874	7431.88
486.244	7451.09
486.615	7571.54
486.985	7639.78
487.356	7830.74
487.726	7885.88
488.097	8008.81
488.467	8100.79
488.837	8208.58
489.207	8409.71
489.578	8493.55
489.948	8602.02
490.318	8759.53
490.688	8834.56
491.058	8952.07
491.428	9082.23
491.798	9227.09
492.168	9403.81
492.538	9435.44
492.908	9545.5
493.278	9601.09
493.648	9634.08
494.017	9758.83
494.387	9717.47
494.757	9926.05
495.126	10050.8
495.496	10039.95
495.866	10202.88
496.235	10367.4
496.605	10486.72
496.974	10620.72
497.344	10672.7
497.713	10740.95
498.082	10849.19
498.452	11039.24
498.821	11021.84
499.19	11025.91
499.559	11157.21
499.928	11204.89
500.298	11281.72
500.667	11311.1
501.036	11317.43
501.405	11424.09
501.774	11569.17
502.143	11725.78
502.512	11773.01
502.88	11893.01
503.249	11923.74
503.618	12075.83
503.987	12076.73
504.356	12298.65
504.724	12267.46
505.093	12444.63
505.462	12447.79
505.83	12460.45
506.199	12587.9
506.567	12637.39
506.936	12714.91
507.304	12844.39
507.672	12866.09
508.041	13004.84
508.409	13042.35
508.777	13160.09
509.145	13258.85
509.514	13350.14
509.882	13485.73
510.25	13591.72
510.618	13673.3
510.986	13800.53
511.354	13932.27
511.722	13986.06
512.09	14152.61
512.458	14134.98
512.826	14388.31
513.193	14298.82
513.561	14367.52
513.929	14359.83
514.297	14528.87
514.664	14538.13
515.032	14652.26
515.4	14748.3
515.767	14947.84
516.135	15075.07
516.502	15005.69
516.869	15362.97
517.237	15392.12
517.604	15435.51
517.972	15582.63
518.339	15802.73
518.706	15873.92
519.073	15809.97
519.44	15948.27
519.808	16048.83
520.175	16029.85
520.542	16245.21
520.909	16279.78
521.276	16328.82
521.643	16464.86
522.009	16524.3
522.376	16705.54
522.743	16817.4
523.11	16986.21
523.477	17227.33
523.843	17345.74
524.21	17631.84
524.577	17830.7
524.943	17891.72
525.31	17872.28
525.676	18147.76
526.043	18197.93
526.409	18252.84
526.776	18382.33
527.142	18440.18
527.508	18421.65
527.874	18624.58
528.241	18650.12
528.607	18696.44
528.973	19002.88
529.339	18884.69
529.705	19170.1
530.071	19218.01
530.437	19459.59
530.803	19666.36
531.169	19851.22
531.535	19859.12
531.901	20060.02
532.267	20142.96
532.632	20286.46
532.998	20425.21
533.364	20527.36
533.73	20575.49
534.095	20684.87
534.461	20790.4
534.826	20757.41
535.192	20784.98
535.557	20879.21
535.923	20769.61
536.288	20971.86
536.653	21028.59
537.019	20997.4
537.384	21207.56
537.749	21283.49
538.114	21333.21
538.479	21504.96
538.845	21653.2
539.21	21669.92
539.575	21962.8
539.94	21921.67
540.305	22087.31
540.67	22029.92
541.034	22092.96
541.399	22237.37
541.764	22199.4
542.129	22312.39
542.494	22264.71
542.858	22367.08
543.223	22382.45
543.587	22296.12
543.952	22352.84
544.316	22408.66
544.681	22467.87
545.045	22616.79
545.41	22682.1
545.774	22786.28
546.138	22870.34
546.503	22892.04
546.867	23000.51
547.231	23255.42
547.595	23310.56
547.959	23495.87
548.324	23520.05
548.688	23549.42
549.052	23749.42
549.416	23628.29
549.779	23610.66
550.143	23584.68
550.507	23695.41
550.871	23601.63
551.235	23622.87
551.599	23777.67
551.962	23819.7
552.326	23845.69
552.689	23949.19
553.053	23733.15
553.417	23932.01
553.78	24259.91
554.143	24141.27
554.507	24452
554.87	24344.2
555.234	24779
555.597	24703.52
555.96	24785.77
556.323	24992.55
556.686	25055.37
557.05	25135.6
557.413	25181.92
557.776	25173.79
558.139	25260.56
558.502	25287.23
558.865	25227.35
559.228	25266.44
559.59	25304.18
559.953	25377.62
560.316	25399.54
560.679	25526.32
561.041	25737.39
561.404	25867.33
561.767	26039.3
562.129	25999.75
562.492	26310.93
562.854	26387.77
563.217	26533.53
563.579	26622.34
563.941	26847.19
564.304	26903.91
564.666	27209.89
565.028	27183.45
565.39	27245.82
565.753	27394.07
566.115	27383.45
566.477	27514.74
566.839	27460.73
567.201	27558.13
567.563	27425.93
567.925	27654.63
568.287	27609.43
568.648	27551.13
569.01	27730.33
569.372	27800.84
569.734	27818.46
570.095	27991.79
570.457	28057.33
570.819	28203.99
571.18	28285.8
571.542	28513.59
571.903	28692.34
572.265	28801.71
572.626	28954.25
572.987	28933.01
573.349	29016.4
573.71	29228.37
574.071	29283.06
574.432	29325.77
574.794	29575.93
575.155	29364.86
575.516	29274.92
575.877	29428.36
576.238	29370.29
576.599	29505.65
576.96	29363.96
577.32	29428.59
577.681	29664.06
578.042	29588.59
578.403	29537.97
578.763	29579.32
579.124	29653.67
579.485	29890.95
579.845	30026.99
580.206	30006.2
580.566	30117.61
580.927	30361
581.287	30383.82
581.648	30408
582.008	30599.18
582.368	30554.44
582.728	30642.34
583.089	30717.37
583.449	30563.48
583.809	30549.01
584.169	30637.82
584.529	30612.29
584.889	30742
585.249	30533.87
585.609	30432.41
585.969	30439.41
586.329	30444.84
586.688	30379.98
587.048	30450.71
587.408	30438.96
587.768	30389.92
588.127	30374.78
588.487	30506.98
588.846	30819.06
589.206	30654.32
589.565	30623.14
589.925	30764.37
590.284	30743.36
590.643	30858.61
591.003	31011.37
591.362	31138.15
591.721	31025.84
592.08	31075.33
592.44	31167.53
592.799	31177.47
593.158	31255.66
593.517	31285.49
593.876	31235.1
594.235	31113.29
594.593	31133.18
594.952	31195.55
595.311	31004.82
595.67	31060.86
596.029	31129.11
596.387	31230.58
596.746	31173.18
597.104	31057.47
597.463	30926.63
597.822	31171.14
598.18	31065.84
598.538	30984.48
598.897	31224.25
599.255	31031.71
599.613	31440.52
599.972	31383.79
600.33	31566.61
600.688	31697.91
601.046	31648.42
601.404	31669.21
601.762	31572.26
602.12	31863.1
602.478	31785.36
602.836	31834.4
603.194	31755.99
603.552	31795.31
603.91	31665.14
604.268	31796.89
604.625	31606.61
604.983	31719.6
605.341	31557.8
605.698	31681.19
606.056	31792.37
606.413	31637.12
606.771	31790.56
607.128	31880.96
607.485	31631.24
607.843	31809.32
608.2	31971.35
608.557	32136.32
608.914	31969.54
609.272	32226.03
609.629	32208.86
609.986	32320.04
610.343	32173.6
610.7	32460.6
611.057	32475.97
611.414	32414.95
611.771	32562.52
612.127	32781.72
612.484	32751.44
612.841	32813.36
613.198	32752.12
613.554	32729.07
613.911	33038.67
614.267	32966.12
614.624	32840.7
614.98	32782.4
615.337	32968.16
615.693	32702.63
616.05	32740.82
616.406	32809.74
616.762	32708.05
617.118	32741.95
617.475	32743.76
617.831	32765
618.187	32828.95
618.543	32857.88
618.899	32969.51
619.255	33034.6
619.611	32991.89
619.967	33266.68
620.323	33113.01
620.678	33180.13
621.034	33173.58
621.39	33384.19
621.746	33323.18
622.101	33748.93
622.457	33355.94
622.812	33410.63
623.168	33527.01
623.523	33550.97
623.879	33706.67
624.234	33425.77
624.589	33550.29
624.945	33604.75
625.3	33666.9
625.655	33596.39
626.01	33593.45
626.365	33531.08
626.72	33460.12
627.075	33356.4
627.43	33393.68
627.785	33208.38
628.14	33321.82
628.495	33371.54
628.85	33225.78
629.205	33095.61
629.559	33349.84
629.914	33145.33
630.269	33208.38
630.623	33116.18
630.978	33078.44
631.332	33263.52
631.687	33415.15
632.041	33224.87
632.396	33219.68
632.75	33223.29
633.104	33305.55
633.459	33115.5
633.813	33232.56
634.167	33162.28
634.521	32972.45
634.875	33198.89
635.229	33192.79
635.583	32945.56
635.937	33058.78
636.291	32983.07
636.645	32920.93
636.999	32801.61
637.352	32952.79
637.706	32670.77
638.06	32807.94
638.413	32758.45
638.767	32520.71
639.121	32541.96
639.474	32284.56
639.828	32295.18
640.181	32408.17
640.534	32292.24
640.888	32086.15
641.241	32100.61
641.594	32267.39
641.947	32338.57
642.301	32252.92
642.654	32300.83
643.007	32411.56
643.36	32294.05
643.713	32336.76
644.066	32377.89
644.419	32465.35
644.771	32405.91
645.124	32191.23
645.477	32239.36
645.83	31974.29
646.182	31929.09
646.535	31651.13
646.888	31477.35
647.24	31111.26
647.593	31231.71
647.945	31030.13
648.298	31007.53
648.65	30910.13
649.002	30792.17
649.355	31051.37
649.707	31046.18
650.059	31138.6
650.411	31566.61
650.763	31658.59
651.115	31853.16
651.467	31513.51
651.819	31617.46
652.171	31379.95
652.523	31268.77
652.875	31499.72
653.227	31204.14
653.578	31671.92
653.93	31496.11
654.282	31491.36
654.633	31396.45
654.985	31522.09
655.337	31479.84
655.688	31565.48
656.039	31679.38
656.391	31500.85
656.742	31622.88
657.094	31615.43
657.445	31784.01
657.796	31664.01
658.147	31708.53
658.498	31631.7
658.849	31850
659.2	31798.25
659.551	31594.64
659.902	31745.59
660.253	31517.12
660.604	31697.91
660.955	31482.55
661.306	31553.51
661.656	31387.64
662.007	31301.99
662.358	31258.6
662.708	31208.88
663.059	31208.43
663.409	31067.19
663.76	31166.62
664.11	31015.89
664.461	31095.21
664.811	31146.06
665.161	30967.53
665.511	30882.79
665.862	31092.05
666.212	31059.96
666.562	31100.41
666.912	31217.47
667.262	31244.36
667.612	31251.59
667.962	31367.3
668.312	31378.82
668.662	31605.93
669.011	31402.32
669.361	31581.75
669.711	31387.41
670.06	31454.75
670.41	31322.78
670.76	31326.17
671.109	31269.45
671.459	31318.26
671.808	31252.05
672.157	31318.94
672.507	31104.93
672.856	31091.15
673.205	31133.63
673.554	31102.67
673.904	30832.4
674.253	30944.48
674.602	30688.22
674.951	30461.11
675.3	30141.79
675.649	30704.94
675.998	30506.53
676.346	30458.85
676.695	30534.1
677.044	30189.47
677.393	30312.64
677.741	30292.07
678.09	30368.45
678.438	30331.62
678.787	30291.17
679.135	30264.05
679.484	30052.08
679.832	30152.19
680.181	30075.13
680.529	30325.06
680.877	30243.26
681.225	30348.57
681.573	30538.62
681.922	30375.46
682.27	30431.28
682.618	30439.64
682.966	30314.22
683.314	30365.29
683.661	30144.5
684.009	30118.74
684.357	30015.02
684.705	30027.44
685.053	29872.87
685.4	29860.22
685.748	29835.59
686.095	29596.95
686.443	29490.74
686.79	29357.41
687.138	29369.84
687.485	29288.03
687.832	29225.88
688.18	29139.11
688.527	28892.56
688.874	28727.82
689.221	28630.87
689.568	28592
689.915	28510.87
690.262	28519.01
690.609	28325.34
690.956	28289.41
691.303	28237.89
691.65	28066.82
691.997	28110.43
692.344	28002.41
692.69	27951.79
693.037	28060.04
693.383	27848.07
693.73	27925.81
694.077	27817.33
694.423	27871.8
694.769	27746.83
695.116	27824.56
695.462	27749.76
695.808	27570.11
696.155	27701.86
696.501	27592.03
696.847	27607.62
697.193	27398.14
697.539	27273.85
697.885	27133.96
698.231	27065.94
698.577	27155.88
698.923	26948.88
699.269	26883.35
699.614	26717.93
699.96	26666.4
700.306	26574.88
700.651	26322.23
700.997	26216.92
701.342	26144.16
701.688	25933.77
702.033	25899.64
702.379	25798.63
702.724	25760.66
703.069	25778.74
703.415	25386.44
703.76	25496.49
704.105	25445.19
704.45	25308.7
704.795	25270.73
705.14	25235.03
705.485	25316.38
705.83	25172.21
706.175	25214.24
706.52	25073.9
706.865	25127.91
707.209	25151.41
707.554	25106.67
707.899	25207.68
708.243	25068.03
708.588	24990.74
708.932	24955.26
709.277	24942.83
709.621	24985.09
709.966	24803.18
710.31	24849.5
710.654	24675.27
710.998	24653.35
711.342	24703.29
711.687	24602.73
712.031	24397.99
712.375	24328.16
712.719	24463.52
713.063	24225.34
713.407	24322.96
713.75	24039.13
714.094	24034.38
714.438	23743.99
714.782	23835.29
715.125	23720.72
715.469	23693.6
715.812	23489.31
716.156	23285.93
716.499	23388.07
716.843	23310.56
717.186	23214.06
717.53	23365.93
717.873	23288.64
718.216	23247.06
718.559	23225.82
718.902	23090.23
719.246	23170.68
719.589	23150.11
719.932	23065.59
720.275	23106.27
720.617	23058.81
720.96	23097.01
721.303	23157.34
721.646	23181.98
721.989	23100.85
722.331	23183.56
722.674	23284.35
723.016	23236.21
723.359	23235.31
723.701	23184.91
724.044	23007.74
724.386	22951.02
724.729	23053.39
725.071	23078.25
725.413	23099.27
725.755	23082.77
726.097	22998.25
726.439	22864.47
726.782	22784.92
727.124	22919.38
727.465	22726.85
727.807	22715.55
728.149	22592.84
728.491	22584.48
728.833	22725.72
729.175	22517.59
729.516	22396.01
729.858	22594.65
730.199	22496.8
730.541	22514.42
730.882	22402.33
731.224	22384.48
731.565	22278.5
731.906	22274.2
732.248	22259.74
732.589	22163.47
732.93	22193.75
733.271	22064.94
733.612	22371.83
733.953	22391.04
734.294	22199.18
734.635	22236.46
734.976	22303.81
735.317	22230.14
735.658	22184.04
735.999	22337.48
736.339	22328.66
736.68	22492.28
737.021	22386.29
737.361	22269.68
737.702	22485.72
738.042	22494.76
738.383	22487.3
738.723	22545.61
739.063	22468.1
739.404	22650.92
739.744	22488.89
740.084	22433.52
740.424	22701.31
740.764	22580.18
741.104	22732.95
741.444	22527.98
741.784	22469.9
742.124	22547.87
742.464	22369.57
742.804	22429.9
743.143	22401.2
743.483	22539.73
743.823	22413.41
744.162	22307.2
744.502	22384.93
744.841	22223.81
745.181	22356.69
745.52	22276.91
745.86	22264.03
746.199	22315.56
746.538	22200.08
746.877	22414.31
747.216	22388.32
747.556	22375.67
747.895	22411.37
748.234	22382.22
748.573	22456.57
748.911	22467.87
749.25	22536.34
749.589	22452.05
749.928	22538.83
750.267	22535.21
750.605	22579.51
750.944	22440.75
751.283	22473.29
751.621	22670.58
751.96	22554.65
752.298	22748.54
752.636	22749.9
752.975	22634.42
753.313	22747.41
753.651	22929.1
753.989	22859.95
754.327	22965.94
