Data from blue_surface_keyboard_FLMS001491_033.txt Node
Date: Tue Feb 07 11:13:00 GMT 2017
User: dcchb
Spectrometer: FLMS00149
Trigger mode: 0
Integration Time (sec): 2.000000E-2
Scans to average: 10
Electric dark correction enabled: true
Nonlinearity correction enabled: false
Boxcar width: 0
XAxis mode: Wavelengths
Number of Pixels in Spectrum: 2048
>>>>>Begin Spectral Data<<<<<
341.393	-11.4
341.776	-11.4
342.16	-11.4
342.543	-59.76
342.927	-63.37
343.31	-82.81
343.693	-71.28
344.077	-71.74
344.46	-58.85
344.843	-35.13
345.226	-50.94
345.61	-24.28
345.993	-20.44
346.376	-3.49
346.759	3.74
347.142	32.44
347.525	45.32
347.908	72.89
348.291	87.36
348.674	67.7
349.057	109.5
349.44	117.41
349.823	140.69
350.206	159.67
350.588	192.44
350.971	208.71
351.354	207.35
351.737	200.8
352.119	238.31
352.502	250.97
352.884	246.22
353.267	258.88
353.65	265.2
354.032	285.32
354.414	312.44
354.797	295.94
355.179	285.09
355.562	290.97
355.944	304.98
356.326	311.76
356.709	323.28
357.091	307.46
357.473	304.07
357.855	310.18
358.238	293.45
358.62	300.01
359.002	320.34
359.384	316.5
359.766	327.35
360.148	308.37
360.53	334.58
360.912	323.28
361.294	312.89
361.676	302.94
362.057	322.83
362.439	285.77
362.821	290.29
363.203	297.29
363.584	289.39
363.966	294.81
364.348	282.83
364.729	304.53
365.111	281.25
365.493	304.75
365.874	281.93
366.256	303.17
366.637	301.36
367.019	304.53
367.4	292.55
367.781	291.87
368.163	290.74
368.544	311.53
368.925	292.32
369.306	301.81
369.688	282.38
370.069	285.54
370.45	304.07
370.831	295.49
371.212	287.35
371.593	275.83
371.974	294.13
372.355	307.24
372.736	296.39
373.117	297.97
373.498	289.61
373.879	277.18
374.26	273.79
374.641	293
375.021	272.66
375.402	291.87
375.783	308.37
376.163	305.43
376.544	288.93
376.925	267.01
377.305	282.38
377.686	304.75
378.066	299.78
378.447	284.19
378.827	307.24
379.208	313.57
379.588	288.26
379.968	299.33
380.349	301.36
380.729	298.65
381.109	273.57
381.489	304.75
381.87	304.53
382.25	304.3
382.63	320.12
383.01	303.85
383.39	313.57
383.77	307.69
384.15	316.73
384.53	307.46
384.91	309.72
385.29	298.42
385.67	296.84
386.049	313.11
386.429	295.71
386.809	333.9
387.189	334.58
387.568	314.7
387.948	321.25
388.328	318.76
388.707	309.05
389.087	323.51
389.466	317.18
389.846	307.01
390.225	302.72
390.605	326.67
390.984	318.99
391.363	332.32
391.743	322.38
392.122	328.25
392.501	311.08
392.881	314.7
393.26	343.62
393.639	322.38
394.018	345.43
394.397	310.63
394.776	315.83
395.155	319.89
395.534	334.58
395.913	338.42
396.292	324.41
396.671	345.65
397.05	339.55
397.429	315.37
397.808	345.43
398.186	347.24
398.565	324.41
398.944	317.63
399.323	319.21
399.701	340.01
400.08	318.76
400.458	351.76
400.837	357.86
401.215	320.34
401.594	337.07
401.972	337.97
402.351	329.84
402.729	351.98
403.107	346.33
403.486	351.3
403.864	354.24
404.242	361.02
404.62	360.57
404.999	356.73
405.377	354.92
405.755	350.17
406.133	343.62
406.511	376.39
406.889	362.83
407.267	377.52
407.645	350.17
408.023	358.08
408.401	355.37
408.779	369.61
409.156	364.41
409.534	345.88
409.912	382.04
410.29	366.9
410.667	347.01
411.045	363.28
411.422	366.67
411.8	339.55
412.178	365.54
412.555	393.79
412.933	358.54
413.31	375.71
413.687	396.95
414.065	387.69
414.442	388.14
414.819	387.91
415.197	368.7
415.574	403.51
415.951	379.55
416.328	392.89
416.705	382.26
417.082	363.28
417.46	396.73
417.837	370.96
418.214	379.78
418.591	390.17
418.967	397.86
419.344	407.8
419.721	385.2
420.098	388.82
420.475	387.24
420.852	417.97
421.228	402.15
421.605	394.24
421.982	416.61
422.358	403.73
422.735	402.38
423.111	409.83
423.488	398.99
423.864	389.5
424.241	397.86
424.617	407.35
424.994	422.04
425.37	420.68
425.746	409.16
426.123	422.04
426.499	420.46
426.875	435.37
427.251	426.78
427.627	423.39
428.003	427.01
428.379	433.79
428.756	429.49
429.132	437.18
429.507	442.6
429.883	432.21
430.259	459.55
430.635	438.53
431.011	463.62
431.387	435.6
431.763	436.73
432.138	456.16
432.514	455.26
432.89	462.49
433.265	455.48
433.641	479.66
434.016	464.07
434.392	478.08
434.767	483.28
435.143	488.02
435.518	487.35
435.894	482.83
436.269	479.66
436.644	473.79
437.02	482.83
437.395	495.03
437.77	499.1
438.145	491.19
438.52	494.58
438.895	489.38
439.271	505.42
439.646	517.4
440.021	482.6
440.395	514.01
440.77	530.28
441.145	501.58
441.52	502.26
441.895	499.77
442.27	523.5
442.645	525.09
443.019	514.24
443.394	516.05
443.769	534.35
444.143	513.33
444.518	520.34
444.892	534.58
445.267	535.93
445.641	530.06
446.016	540
446.39	508.14
446.764	513.79
447.139	552.88
447.513	538.42
447.887	546.1
448.262	541.36
448.636	536.38
449.01	561.47
449.384	571.64
449.758	534.58
450.132	550.17
450.506	579.09
450.88	558.76
451.254	535.03
451.628	562.37
452.002	544.29
452.376	573.9
452.75	586.78
453.123	566.44
453.497	615.48
453.871	568.25
454.244	587.91
454.618	592.65
454.992	618.64
455.365	612.09
455.739	568.47
456.112	596.27
456.486	604.41
456.859	612.54
457.232	615.93
457.606	619.55
457.979	586.55
458.352	635.36
458.725	644.18
459.099	627.91
459.472	633.78
459.845	631.3
460.218	629.49
460.591	643.95
460.964	644.4
461.337	643.5
461.71	651.64
462.083	677.4
462.456	666.78
462.829	690.73
463.201	688.02
463.574	669.04
463.947	685.76
464.32	686.21
464.692	681.47
465.065	699.32
465.438	706.1
465.81	693.44
466.183	711.97
466.555	722.59
466.928	733.22
467.3	716.04
467.672	708.81
468.045	724.18
468.417	721.46
468.789	730.96
469.161	750.62
469.534	741.12
469.906	751.07
470.278	754.68
470.65	776.6
471.022	776.6
471.394	765.3
471.766	775.02
472.138	821.12
472.51	801.24
472.882	797.39
473.253	831.97
473.625	803.5
473.997	821.8
474.369	833.78
474.74	839.43
475.112	852.31
475.484	850.5
475.855	855.7
476.227	866.32
476.598	861.35
476.97	871.29
477.341	908.58
477.713	883.72
478.084	891.86
478.455	906.54
478.827	913.55
479.198	954.23
479.569	940.22
479.94	961.46
480.311	950.16
480.682	970.5
481.053	1000.33
481.424	993.77
481.795	1026.77
482.166	999.2
482.537	1017.28
482.908	1030.16
483.279	1058.18
483.65	1061.12
484.021	1065.64
484.391	1072.42
484.762	1077.84
485.133	1090.72
485.503	1072.64
485.874	1091.17
486.244	1097.95
486.615	1095.69
486.985	1115.8
487.356	1104.05
487.726	1144.5
488.097	1152.87
488.467	1130.27
488.837	1181.79
489.207	1161.45
489.578	1150.83
489.948	1174.79
490.318	1224.95
490.688	1208.46
491.058	1200.55
491.428	1225.86
491.798	1203.49
492.168	1242.58
492.538	1230.83
492.908	1231.96
493.278	1229.02
493.648	1237.16
494.017	1260.21
494.387	1260.43
494.757	1278.96
495.126	1264.73
495.496	1262.01
495.866	1279.87
496.235	1302.01
496.605	1298.4
496.974	1285.07
497.344	1297.04
497.713	1290.04
498.082	1294.56
498.452	1305.86
498.821	1293.65
499.19	1323.71
499.559	1332.75
499.928	1301.11
500.298	1345.85
500.667	1341.33
501.036	1339.53
501.405	1335.46
501.774	1362.13
502.143	1307.21
502.512	1335.23
502.88	1340.2
503.249	1344.05
503.618	1364.16
503.987	1393.31
504.356	1382.24
504.724	1356.93
505.093	1356.93
505.462	1349.02
505.83	1401.22
506.199	1392.86
506.567	1359.19
506.936	1415.46
507.304	1401.22
507.672	1384.05
508.041	1397.15
508.409	1410.03
508.777	1412.29
509.145	1409.58
509.514	1419.07
509.882	1419.98
510.25	1416.59
510.618	1412.52
510.986	1436.02
511.354	1408.45
511.722	1444.83
512.09	1456.81
512.458	1450.94
512.826	1418.62
513.193	1430.6
513.561	1459.52
513.929	1425.4
514.297	1470.37
514.664	1443.7
515.032	1452.29
515.4	1431.05
515.767	1473.76
516.135	1478.96
516.502	1474.44
516.869	1473.08
517.237	1471.27
517.604	1476.92
517.972	1488.22
518.339	1488.45
518.706	1483.03
519.073	1481.22
519.44	1497.71
519.808	1497.49
520.175	1487.32
520.542	1526.19
520.909	1525.28
521.276	1499.07
521.643	1517.6
522.009	1503.14
522.376	1526.64
522.743	1507.66
523.11	1517.38
523.477	1531.16
523.843	1565.28
524.21	1538.39
524.577	1556.92
524.943	1571.16
525.31	1554.21
525.676	1549.01
526.043	1579.75
526.409	1587.66
526.776	1577.49
527.142	1568.45
527.508	1588.33
527.874	1574.1
528.241	1598.28
528.607	1552.4
528.973	1592.85
529.339	1587.2
529.705	1609.35
530.071	1647.77
530.437	1585.4
530.803	1604.83
531.169	1637.6
531.535	1635.56
531.901	1586.07
532.267	1602.34
532.632	1605.73
532.998	1619.29
533.364	1617.03
533.73	1633.08
534.095	1633.3
534.461	1614.77
534.826	1665.39
535.192	1620.65
535.557	1626.3
535.923	1610.48
536.288	1665.39
536.653	1620.42
537.019	1620.42
537.384	1650.25
537.749	1657.71
538.114	1631.72
538.479	1654.09
538.845	1632.85
539.21	1649.8
539.575	1636.02
539.94	1650.71
540.305	1660.87
540.67	1659.52
541.034	1650.25
541.399	1639.86
541.764	1658.84
542.129	1636.02
542.494	1645.96
542.858	1662.46
543.223	1664.49
543.587	1697.26
543.952	1673.76
544.316	1667.2
544.681	1654.55
545.045	1696.58
545.41	1675.11
545.774	1673.3
546.138	1671.27
546.503	1659.29
546.867	1683.92
547.231	1671.72
547.595	1670.37
547.959	1688.67
548.324	1678.28
548.688	1672.17
549.052	1670.82
549.416	1686.86
549.779	1693.19
550.143	1679.18
550.507	1680.99
550.871	1688.44
551.235	1687.09
551.599	1680.53
551.962	1705.17
552.326	1639.63
552.689	1681.44
553.053	1697.26
553.417	1722.12
553.78	1676.47
554.143	1709.69
554.507	1712.85
554.87	1720.76
555.234	1703.36
555.597	1685.51
555.96	1713.53
556.323	1709.91
556.686	1695.22
557.05	1726.18
557.413	1709.69
557.776	1723.92
558.139	1720.31
558.502	1750.82
558.865	1747.43
559.228	1748.33
559.59	1732.74
559.953	1711.49
560.316	1736.35
560.679	1732.28
561.041	1763.24
561.404	1744.71
561.767	1766.63
562.129	1773.64
562.492	1738.84
562.854	1763.02
563.217	1746.3
563.579	1749.69
563.941	1762.11
564.304	1755.11
564.666	1780.87
565.028	1764.83
565.39	1765.96
565.753	1763.24
566.115	1759.4
566.477	1805.05
566.839	1781.55
567.201	1778.39
567.563	1782
567.925	1783.58
568.287	1804.37
568.648	1794.2
569.01	1815.67
569.372	1820.19
569.734	1812.28
570.095	1828.55
570.457	1804.15
570.819	1843.02
571.18	1846.86
571.542	1808.22
571.903	1804.6
572.265	1816.58
572.626	1857.93
572.987	1843.02
573.349	1831.27
573.71	1860.64
574.071	1867.42
574.432	1864.94
574.794	1858.61
575.155	1886.41
575.516	1844.37
575.877	1869.46
576.238	1854.54
576.599	1871.49
576.96	1869.68
577.32	1825.84
577.681	1881.89
578.042	1860.87
578.403	1855.45
578.763	1895.9
579.124	1869.91
579.485	1910.36
579.845	1877.37
580.206	1890.47
580.566	1865.16
580.927	1873.3
581.287	1876.69
581.648	1887.31
582.008	1903.13
582.368	1887.08
582.728	1905.16
583.089	1900.42
583.449	1882.11
583.809	1903.13
584.169	1916.46
584.529	1925.73
584.889	1916.91
585.249	1889.79
585.609	1888.21
585.969	1877.59
586.329	1877.14
586.688	1904.03
587.048	1890.02
587.408	1862.68
587.768	1906.29
588.127	1883.02
588.487	1885.95
588.846	1926.63
589.206	1906.52
589.565	1889.12
589.925	1922.56
590.284	1893.64
590.643	1902.9
591.003	1921.21
591.362	1929.34
591.721	1910.59
592.08	1917.36
592.44	1912.39
592.799	1920.53
593.158	1909.46
593.517	1949.68
593.876	1950.58
594.235	1921.21
594.593	1912.62
594.952	1909.23
595.311	1925.27
595.67	1936.57
596.029	1948.1
596.387	1937.25
596.746	1950.58
597.104	1915.78
597.463	1922.11
597.822	1976.8
598.18	1938.61
598.538	1953.97
598.897	1931.15
599.255	1960.53
599.613	1939.74
599.972	1940.87
600.33	1930.92
600.688	1955.1
601.046	1954.43
601.404	1967.53
601.762	1958.49
602.12	1957.82
602.478	1970.47
602.836	1949
603.194	1974.54
603.552	1987.19
603.91	1947.87
604.268	1965.27
604.625	1985.84
604.983	1962.56
605.341	1971.6
605.698	1998.04
606.056	1988.32
606.413	1994.2
606.771	1996.23
607.128	2021.77
607.485	1995.1
607.843	2011.83
608.2	1980.64
608.557	2015.67
608.914	1974.09
609.272	2000.3
609.629	2023.12
609.986	2009.57
610.343	2007.76
610.7	2015.22
611.057	2033.75
611.414	2003.01
611.771	2027.64
612.127	2018.61
612.484	2042.33
612.841	2059.28
613.198	2006.18
613.554	2036.91
613.911	2025.16
614.267	2035.55
614.624	2056.34
614.98	2038.27
615.337	2038.72
615.693	2025.38
616.05	2062.67
616.406	2034.88
616.762	2056.12
617.118	2058.83
617.475	2025.38
617.831	2038.04
618.187	2036.68
618.543	2069.68
618.899	2090.92
619.255	2088.21
619.611	2072.84
619.967	2075.55
620.323	2064.93
620.678	2067.64
621.034	2079.62
621.39	2067.64
621.746	2089.11
622.101	2107.42
622.457	2080.75
622.812	2080.75
623.168	2086.17
623.523	2102.67
623.879	2116.46
624.234	2079.17
624.589	2077.13
624.945	2123.01
625.3	2118.26
625.655	2118.26
626.01	2135.89
626.365	2094.76
626.72	2117.36
627.075	2134.99
627.43	2153.52
627.785	2122.33
628.14	2137.92
628.495	2150.58
628.85	2127.75
629.205	2101.99
629.559	2170.92
629.914	2111.71
630.269	2137.25
630.623	2148.77
630.978	2185.61
631.332	2181.31
631.687	2144.93
632.041	2142.44
632.396	2155.1
632.75	2184.93
633.104	2142.44
633.459	2157.13
633.813	2174.08
634.167	2159.84
634.521	2152.16
634.875	2173.4
635.229	2161.65
635.583	2156.68
635.937	2187.19
636.291	2198.49
636.645	2187.87
636.999	2190.8
637.352	2214.98
637.706	2185.38
638.06	2189.22
638.413	2238.49
638.767	2207.07
639.121	2200.3
639.474	2225.61
639.828	2219.73
640.181	2203.68
640.534	2241.88
640.888	2214.08
641.241	2211.59
641.594	2238.94
641.947	2245.49
642.301	2242.55
642.654	2263.12
643.007	2252.05
643.36	2248.43
643.713	2266.73
644.066	2288.88
644.419	2294.98
644.771	2290.91
645.124	2265.38
645.477	2293.4
645.83	2243.68
646.182	2235.77
646.535	2272.84
646.888	2263.57
647.24	2284.81
647.593	2308.54
647.945	2306.06
648.298	2284.13
648.65	2287.98
649.002	2300.18
649.355	2344.02
649.707	2327.75
650.059	2338.14
650.411	2375.66
650.763	2355.77
651.115	2390.35
651.467	2422.89
651.819	2400.97
652.171	2432.38
652.523	2425.83
652.875	2432.38
653.227	2396
653.578	2476.9
653.93	2487.29
654.282	2445.26
654.633	2457.69
654.985	2467.41
655.337	2476.22
655.688	2506.5
656.039	2534.3
656.391	2502.66
656.742	2512.83
657.094	2554.18
657.445	2558.03
657.796	2551.25
658.147	2533.62
658.498	2531.36
658.849	2579.04
659.2	2604.8
659.551	2567.97
659.902	2571.58
660.253	2618.36
660.604	2634.63
660.955	2617.46
661.306	2679.15
661.656	2651.36
662.007	2681.86
662.358	2701.07
662.708	2684.58
663.059	2704.69
663.409	2696.33
663.76	2707.63
664.11	2740.39
664.461	2771.35
664.811	2778.59
665.161	2779.26
665.511	2777.23
665.862	2787.85
666.212	2809.32
666.562	2794.63
666.912	2846.15
667.262	2838.7
667.612	2851.58
667.962	2846.38
668.312	2878.7
668.662	2890.45
669.011	2905.81
669.361	2939.48
669.711	2922.08
670.06	2911.24
670.41	2936.55
670.76	2954.17
671.109	2946.04
671.459	2997.34
671.808	2964.34
672.157	3002.76
672.507	3009.99
672.856	3005.47
673.205	2995.53
673.554	3052.7
673.904	3024.23
674.253	3058.13
674.602	3040.73
674.951	3043.89
675.3	3026.26
675.649	3083.89
675.998	3093.38
676.346	3100.38
676.695	3155.3
677.044	3118.24
677.393	3172.25
677.741	3177.22
678.09	3118.69
678.438	3148.74
678.787	3160.5
679.135	3172.02
679.484	3159.37
679.832	3214.96
680.181	3220.61
680.529	3224.68
680.877	3189.42
681.225	3215.86
681.573	3233.49
681.922	3248.4
682.27	3252.47
682.618	3275.07
682.966	3275.07
683.314	3267.84
683.661	3256.09
684.009	3274.39
684.357	3267.16
684.705	3294.28
685.053	3306.93
685.4	3276.88
685.748	3301.51
686.095	3294.73
686.443	3332.24
686.79	3341.73
687.138	3353.26
687.485	3349.19
687.832	3324.33
688.18	3346.48
688.527	3346.48
688.874	3344.22
689.221	3341.06
689.568	3359.13
689.915	3325.01
690.262	3379.25
690.609	3369.3
690.956	3379.25
691.303	3384.67
691.65	3370.89
691.997	3388.96
692.344	3355.97
692.69	3341.28
693.037	3388.96
693.383	3355.75
693.73	3358.91
694.077	3346.93
694.423	3343.54
694.769	3338.8
695.116	3402.98
695.462	3388.06
695.808	3362.98
696.155	3374.28
696.501	3354.39
696.847	3333.15
697.193	3376.54
697.539	3376.76
697.885	3336.54
698.231	3377.21
698.577	3376.08
698.923	3329.53
699.269	3365.01
699.614	3302.19
699.96	3334.73
700.306	3332.47
700.651	3309.64
700.997	3341.51
701.342	3294.73
701.688	3329.53
702.033	3339.02
702.379	3286.82
702.724	3330.89
703.069	3307.16
703.415	3323.43
703.76	3304
704.105	3317.1
704.45	3328.18
704.795	3295.63
705.14	3252.02
705.485	3243.88
705.83	3280.94
706.175	3270.1
706.52	3249.31
706.865	3223.77
707.209	3220.38
707.554	3278.23
707.899	3251.34
708.243	3250.21
708.588	3274.39
708.932	3248.86
709.277	3218.35
709.621	3196.88
709.966	3222.19
710.31	3241.85
710.654	3201.4
710.998	3204.79
711.342	3224.9
711.687	3221.96
712.031	3190.1
712.375	3239.36
712.719	3224.68
713.063	3193.72
713.407	3229.87
713.75	3171.34
714.094	3201.17
714.438	3200.49
714.782	3183.55
715.125	3194.39
715.469	3199.82
715.812	3196.2
716.156	3186.03
716.499	3176.54
716.843	3206.37
717.186	3155.75
717.53	3188.07
717.873	3179.93
718.216	3201.62
718.559	3211.79
718.902	3163.89
719.246	3154.39
719.589	3187.39
719.932	3202.08
720.275	3145.13
720.617	3179.93
720.96	3165.92
721.303	3155.52
721.646	3167.5
721.989	3158.24
722.331	3160.5
722.674	3158.24
723.016	3162.08
723.359	3170.89
723.701	3201.4
724.044	3150.33
724.386	3138.12
724.729	3167.28
725.071	3202.3
725.413	3205.47
725.755	3186.94
726.097	3155.3
726.439	3169.31
726.782	3182.42
727.124	3193.49
727.465	3181.51
727.807	3195.52
728.149	3182.87
728.491	3208.86
728.833	3193.04
729.175	3191
729.516	3193.94
729.858	3169.99
730.199	3209.99
730.541	3172.93
730.882	3182.19
731.224	3196.43
731.565	3167.28
731.906	3191
732.248	3171.12
732.589	3220.61
732.93	3205.69
733.271	3203.21
733.612	3235.52
733.953	3216.09
734.294	3202.98
734.635	3218.57
734.976	3213.83
735.317	3206.6
735.658	3213.15
735.999	3254.73
736.339	3240.72
736.68	3263.09
737.021	3269.42
737.361	3267.61
737.702	3269.42
738.042	3247.95
738.383	3303.32
738.723	3270.78
739.063	3278.23
739.404	3307.61
739.744	3300.61
740.084	3260.83
740.424	3280.49
740.764	3311.9
741.104	3315.97
741.444	3310.1
741.784	3355.52
742.124	3370.43
742.464	3331.34
742.804	3373.37
743.143	3354.39
743.483	3383.09
743.823	3383.99
744.162	3397.1
744.502	3401.62
744.841	3413.37
745.181	3447.04
745.52	3457.21
745.86	3471.45
746.199	3433.48
746.538	3468.74
746.877	3492.01
747.216	3470.09
747.556	3525.91
747.895	3493.59
748.234	3539.24
748.573	3527.94
748.911	3574.27
749.25	3605.91
749.589	3591.45
749.928	3611.11
750.267	3632.57
750.605	3648.39
750.944	3652.01
751.283	3688.17
751.621	3699.92
751.96	3683.42
752.298	3701.95
752.636	3717.54
752.975	3694.27
753.313	3776.3
753.651	3797.77
753.989	3786.24
754.327	3843.64
754.666	3826.24
755.004	3883.87
755.342	3882.06
755.679	3915.28
756.017	3919.12
756.355	3951.66
756.693	3941.72
757.031	3983.75
757.368	4013.58
757.706	4012.45
758.044	4012
758.381	4075.05
758.719	4052.22
759.056	4123.18
759.394	4107.14
759.731	4103.07
760.068	4133.58
760.405	4136.74
760.743	4150.53
761.08	4174.48
761.417	4180.36
761.754	4189.17
762.091	4187.81
762.428	4200.92
762.765	4209.51
763.102	4230.3
763.438	4245.67
763.775	4228.49
764.112	4296.96
764.449	4256.96
764.785	4261.94
765.122	4233.24
765.458	4229.17
765.795	4255.61
766.131	4258.32
766.467	4257.42
766.804	4269.17
767.14	4256.74
767.476	4297.64
767.812	4247.25
768.148	4270.52
768.485	4285.21
768.821	4257.64
769.157	4234.59
769.492	4287.47
769.828	4282.05
770.164	4209.06
770.5	4279.56
770.836	4267.36
771.171	4273.24
771.507	4277.98
771.842	4202.28
