Data from blue_chair_FLMS001491_00008.txt Node
Date: Wed Feb 08 10:28:56 GMT 2017
User: dcchb
Spectrometer: FLMS00149
Trigger mode: 0
Integration Time (sec): 2.000000E-2
Scans to average: 10
Electric dark correction enabled: true
Nonlinearity correction enabled: false
Boxcar width: 0
XAxis mode: Wavelengths
Number of Pixels in Spectrum: 2048
>>>>>Begin Spectral Data<<<<<
341.393	-13.29
341.776	-13.29
342.16	-13.29
342.543	-25.49
342.927	-63.68
343.31	-76.57
343.693	-60.75
344.077	-65.94
344.46	-77.7
344.843	-50.35
345.226	-49.22
345.61	-44.02
345.993	-28.43
346.376	-11.03
346.759	30.78
347.142	32.81
347.525	38.69
347.908	71.45
348.291	76.2
348.674	100.38
349.057	113.71
349.44	102.64
349.823	111.68
350.206	133.6
350.588	178.34
350.971	182.41
351.354	184.22
351.737	204.33
352.119	223.09
352.502	222.64
352.884	250.43
353.267	256.08
353.65	260.15
354.032	264.44
354.414	280.26
354.797	301.5
355.179	288.85
355.562	284.33
355.944	307.6
356.326	316.19
356.709	303.99
357.091	308.73
357.473	326.36
357.855	305.12
358.238	315.74
358.62	300.83
359.002	316.87
359.384	315.97
359.766	313.93
360.148	294.27
360.53	306.25
360.912	336.98
361.294	300.37
361.676	309.41
362.057	314.84
362.439	314.84
362.821	284.78
363.203	293.82
363.584	266.93
363.966	286.36
364.348	292.01
364.729	278.45
365.111	286.59
365.493	286.14
365.874	267.15
366.256	268.06
366.637	285.68
367.019	276.65
367.4	275.97
367.781	274.39
368.163	276.42
368.544	281.39
368.925	283.42
369.306	283.2
369.688	275.29
370.069	256.98
370.45	275.06
370.831	268.28
371.212	285.68
371.593	288.85
371.974	288.17
372.355	275.74
372.736	275.06
373.117	269.87
373.498	272.58
373.879	284.1
374.26	262.86
374.641	274.16
375.021	268.74
375.402	279.58
375.783	273.93
376.163	272.35
376.544	274.39
376.925	276.87
377.305	293.14
377.686	300.37
378.066	302.86
378.447	268.51
378.827	288.62
379.208	310.54
379.588	283.42
379.968	301.05
380.349	299.02
380.729	304.44
381.109	310.99
381.489	284.78
381.87	289.53
382.25	276.42
382.63	287.04
383.01	288.4
383.39	287.27
383.77	283.2
384.15	292.46
384.53	285.91
384.91	295.63
385.29	304.67
385.67	301.73
386.049	302.41
386.429	315.06
386.809	307.83
387.189	293.59
387.568	292.69
387.948	290.43
388.328	322.29
388.707	301.05
389.087	313.25
389.466	309.41
389.846	315.97
390.225	318.45
390.605	314.16
390.984	300.37
391.363	304.22
391.743	289.53
392.122	303.76
392.501	330.2
392.881	314.84
393.26	315.97
393.639	302.63
394.018	320.26
394.397	334.27
394.776	328.85
395.155	312.35
395.534	318.23
395.913	318.68
396.292	320.03
396.671	330.88
397.05	299.24
397.429	310.99
397.808	323.65
398.186	314.38
398.565	324.1
398.944	349.86
399.323	345.34
399.701	353.48
400.08	325.91
400.458	334.95
400.837	323.65
401.215	353.25
401.594	341.5
401.972	339.24
402.351	337.43
402.729	345.8
403.107	337.89
403.486	325.46
403.864	329.53
404.242	331.79
404.62	353.25
404.999	344.67
405.377	358.68
405.755	339.69
406.133	371.33
406.511	346.7
406.889	367.26
407.267	350.09
407.645	351.22
408.023	361.84
408.401	365.46
408.779	384.44
409.156	386.25
409.534	363.42
409.912	395.96
410.29	376.98
410.667	377.21
411.045	385.57
411.422	388.96
411.8	383.76
412.178	374.95
412.555	405.46
412.933	396.87
413.31	404.55
413.687	391.44
414.065	387.15
414.442	401.16
414.819	413.59
415.197	387.15
415.574	393.93
415.951	396.64
416.328	393.03
416.705	420.14
417.082	402.74
417.46	398.9
417.837	409.52
418.214	432.57
418.591	391.9
418.967	409.07
419.344	428.73
419.721	423.08
420.098	431.22
420.475	431.67
420.852	433.03
421.228	425.12
421.605	441.61
421.982	433.7
422.358	423.99
422.735	427.15
423.111	460.37
423.488	433.25
423.864	454.95
424.241	453.82
424.617	455.4
424.994	464.89
425.37	458.79
425.746	462.63
426.123	450.2
426.499	461.73
426.875	498.56
427.251	488.39
427.627	505.79
428.003	508.28
428.379	475.28
428.756	490.88
429.132	493.36
429.507	493.59
429.883	475.28
430.259	499.46
430.635	516.19
431.011	513.7
431.387	512.35
431.763	544.66
432.138	513.48
432.514	539.69
432.89	532.23
433.265	540.37
433.641	520.48
434.016	518.67
434.392	560.03
434.767	575.39
435.143	560.03
435.518	578.11
435.894	568.61
436.269	580.82
436.644	590.99
437.02	590.54
437.395	601.38
437.77	619.69
438.145	595.73
438.52	605.22
438.895	597.77
439.271	609.52
439.646	601.61
440.021	659.69
440.395	623.3
440.77	637.77
441.145	654.49
441.52	663.53
441.895	652.68
442.27	683.19
442.645	673.47
443.019	673.47
443.394	668.5
443.769	682.28
444.143	699.46
444.518	688.61
444.892	684.32
445.267	699.68
445.641	714.15
446.016	690.19
446.39	712.34
446.764	724.09
447.139	701.94
447.513	734.49
447.887	709.85
448.262	736.97
448.636	728.16
449.01	731.1
449.384	747.14
449.758	769.51
450.132	753.69
450.506	767.03
450.88	769.97
451.254	767.25
451.628	771.55
452.002	780.59
452.376	761.15
452.75	766.12
453.123	778.33
453.497	795.5
453.871	796.86
454.244	779
454.618	811.55
454.992	814.71
455.365	804.77
455.739	838.21
456.112	860.13
456.486	829.4
456.859	858.55
457.232	864.88
457.606	861.49
457.979	857.42
458.352	878.89
458.725	886.12
459.099	873.01
459.472	910.53
459.845	895.16
460.218	909.4
460.591	892.22
460.964	926.8
461.337	893.8
461.71	911.88
462.083	952.56
462.456	955.05
462.829	939.68
463.201	948.72
463.574	950.3
463.947	966.12
464.32	978.55
464.692	978.1
465.065	1003.18
465.438	994.82
465.81	1010.86
466.183	995.27
466.555	1003.63
466.928	996.63
467.3	1010.64
467.672	1038.43
468.045	1054.25
468.417	1066.68
468.789	1048.15
469.161	1060.58
469.534	1081.14
469.906	1096.96
470.278	1075.95
470.65	1104.65
471.022	1101.03
471.394	1115.04
471.766	1115.04
472.138	1144.87
472.51	1152.33
472.882	1135.83
473.253	1178.54
473.625	1192.1
473.997	1176.51
474.369	1177.86
474.74	1185.1
475.112	1181.03
475.484	1229.61
475.855	1240.01
476.227	1232.55
476.598	1243.17
476.97	1264.64
477.341	1271.65
477.713	1293.34
478.084	1286.11
478.455	1285.66
478.827	1289.73
479.198	1334.02
479.569	1319.33
479.94	1368.37
480.311	1351.65
480.682	1369.5
481.053	1387.8
481.424	1396.62
481.795	1417.18
482.166	1423.06
482.537	1424.64
482.908	1426.45
483.279	1451.98
483.65	1447.24
484.021	1474.81
484.391	1469.61
484.762	1514.8
485.133	1491.08
485.503	1523.62
485.874	1522.49
486.244	1521.36
486.615	1525.2
486.985	1520.23
487.356	1558.19
487.726	1542.6
488.097	1618.3
488.467	1574.01
488.837	1560.45
489.207	1573.11
489.578	1605.88
489.948	1609.94
490.318	1606.1
490.688	1571.3
491.058	1638.42
491.428	1602.94
491.798	1630.51
492.168	1647.68
492.538	1631.86
492.908	1647
493.278	1648.59
493.648	1633.45
494.017	1654.46
494.387	1645.87
494.757	1629.83
495.126	1638.19
495.496	1606.33
495.866	1632.54
496.235	1638.19
496.605	1651.3
496.974	1643.39
497.344	1646.78
497.713	1636.16
498.082	1659.21
498.452	1650.39
498.821	1642.49
499.19	1632.32
499.559	1647.23
499.928	1655.37
500.298	1664.63
500.667	1639.55
501.036	1654.69
501.405	1639.55
501.774	1622.15
502.143	1646.55
502.512	1623.28
502.88	1624.63
503.249	1638.19
503.618	1645.2
503.987	1612.43
504.356	1636.38
504.724	1615.82
505.093	1599.32
505.462	1619.21
505.83	1630.28
506.199	1629.6
506.567	1619.21
506.936	1593.45
507.304	1606.78
507.672	1603.39
508.041	1603.62
508.409	1581.47
508.777	1580.34
509.145	1598.19
509.514	1576.5
509.882	1607.68
510.25	1578.53
510.618	1596.61
510.986	1568.81
511.354	1565.2
511.722	1567.01
512.09	1590.28
512.458	1541.02
512.826	1541.02
513.193	1541.47
513.561	1529.27
513.929	1521.13
514.297	1562.71
514.664	1550.06
515.032	1547.12
515.4	1503.73
515.767	1495.82
516.135	1506.44
516.502	1511.19
516.869	1523.39
517.237	1496.27
517.604	1502.6
517.972	1483.85
518.339	1504.18
518.706	1493.34
519.073	1484.98
519.44	1458.54
519.808	1470.74
520.175	1447.69
520.542	1465.31
520.909	1468.48
521.276	1469.61
521.643	1494.47
522.009	1463.28
522.376	1470.96
522.743	1438.42
523.11	1446.78
523.477	1463.05
523.843	1461.02
524.21	1456.5
524.577	1459.89
524.943	1465.09
525.31	1431.42
525.676	1441.59
526.043	1441.36
526.409	1416.5
526.776	1434.13
527.142	1465.77
527.508	1456.05
527.874	1429.38
528.241	1448.14
528.607	1436.16
528.973	1437.07
529.339	1425.99
529.705	1423.28
530.071	1447.69
530.437	1421.7
530.803	1423.51
531.169	1411.08
531.535	1446.78
531.901	1413.11
532.267	1430.51
532.632	1414.02
532.998	1437.52
533.364	1419.67
533.73	1407.46
534.095	1402.04
534.461	1428.03
534.826	1411.98
535.192	1403.17
535.557	1428.25
535.923	1407.01
536.288	1398.65
536.653	1439.78
537.019	1404.07
537.384	1409.5
537.749	1386.67
538.114	1402.49
538.479	1395.26
538.845	1356.84
539.21	1402.27
539.575	1373.57
539.94	1406.79
540.305	1392.77
540.67	1399.33
541.034	1383.73
541.399	1385.99
541.764	1352.78
542.129	1384.41
542.494	1388.03
542.858	1371.98
543.223	1372.21
543.587	1359.1
543.952	1357.52
544.316	1386.9
544.681	1359.1
545.045	1375.83
545.41	1350.74
545.774	1355.94
546.138	1357.29
546.503	1366.79
546.867	1357.97
547.231	1353.23
547.595	1353.45
547.959	1385.32
548.324	1316.84
548.688	1362.49
549.052	1355.26
549.416	1343.96
549.779	1343.51
550.143	1306.22
550.507	1332.44
550.871	1319.78
551.235	1348.48
551.599	1330.4
551.962	1314.13
552.326	1310.74
552.689	1327.24
553.053	1308.93
553.417	1306.45
553.78	1309.16
554.143	1294.7
554.507	1321.14
554.87	1325.21
555.234	1305.54
555.597	1313.45
555.96	1337.86
556.323	1334.24
556.686	1295.6
557.05	1293.12
557.413	1306.45
557.776	1281.14
558.139	1303.06
558.502	1280.91
558.865	1275.94
559.228	1272.78
559.59	1307.13
559.953	1297.18
560.316	1321.14
560.679	1290.18
561.041	1313
561.404	1298.09
561.767	1310.52
562.129	1290.86
562.492	1305.32
562.854	1298.99
563.217	1317.3
563.579	1289.27
563.941	1296.51
564.304	1294.02
564.666	1303.96
565.028	1319.1
565.39	1304.87
565.753	1311.42
566.115	1311.42
566.477	1315.71
566.839	1332.44
567.201	1320.01
567.563	1332.66
567.925	1334.92
568.287	1339.89
568.648	1329.27
569.01	1336.73
569.372	1367.01
569.734	1340.8
570.095	1346.22
570.457	1350.29
570.819	1331.98
571.18	1332.44
571.542	1351.87
571.903	1331.53
572.265	1352.78
572.626	1367.69
572.987	1366.11
573.349	1351.19
573.71	1370.85
574.071	1367.01
574.432	1390.06
574.794	1377.63
575.155	1369.27
575.516	1360.01
575.877	1421.02
576.238	1412.21
576.599	1409.72
576.96	1392.32
577.32	1410.85
577.681	1391.64
578.042	1420.8
578.403	1437.52
578.763	1432.77
579.124	1403.4
579.485	1448.14
579.845	1463.28
580.206	1429.84
580.566	1404.98
580.927	1424.64
581.287	1435.94
581.648	1459.21
582.008	1445.65
582.368	1447.01
582.728	1425.77
583.089	1475.03
583.449	1458.54
583.809	1462.38
584.169	1470.06
584.529	1446.56
584.889	1468.48
585.249	1434.81
585.609	1445.65
585.969	1469.61
586.329	1452.43
586.688	1467.8
587.048	1466.22
587.408	1478.87
587.768	1485.65
588.127	1470.29
588.487	1471.64
588.846	1511.87
589.206	1475.71
589.565	1456.5
589.925	1483.85
590.284	1488.82
590.643	1477.29
591.003	1458.31
591.362	1456.73
591.721	1476.84
592.08	1494.92
592.44	1488.82
592.799	1495.14
593.158	1511.64
593.517	1490.4
593.876	1489.27
594.235	1477.74
594.593	1454.24
594.952	1455.82
595.311	1487.46
595.67	1458.54
596.029	1482.26
596.387	1470.51
596.746	1482.72
597.104	1473.68
597.463	1504.18
597.822	1476.39
598.18	1433
598.538	1494.47
598.897	1507.35
599.255	1470.06
599.613	1475.03
599.972	1482.26
600.33	1489.49
600.688	1464.86
601.046	1466.44
601.404	1476.61
601.762	1479.55
602.12	1487.23
602.478	1483.17
602.836	1477.29
603.194	1484.3
603.552	1467.12
603.91	1457.18
604.268	1465.77
604.625	1475.26
604.983	1488.14
605.341	1458.08
605.698	1478.65
606.056	1458.31
606.413	1482.94
606.771	1466.22
607.128	1519.32
607.485	1470.96
607.843	1473
608.2	1494.01
608.557	1482.04
608.914	1496.73
609.272	1520.91
609.629	1484.3
609.986	1501.25
610.343	1481.13
610.7	1472.77
611.057	1482.04
611.414	1465.31
611.771	1479.78
612.127	1483.17
612.484	1484.98
612.841	1479.33
613.198	1468.7
613.554	1477.07
613.911	1474.13
614.267	1515.26
614.624	1514.58
614.98	1490.85
615.337	1506.9
615.693	1485.88
616.05	1474.58
616.406	1487.91
616.762	1466.67
617.118	1499.66
617.475	1484.98
617.831	1490.85
618.187	1525.2
618.543	1506.9
618.899	1502.38
619.255	1481.36
619.611	1499.21
619.967	1512.77
620.323	1517.74
620.678	1486.78
621.034	1495.37
621.39	1500.57
621.746	1507.35
622.101	1526.56
622.457	1518.42
622.812	1522.94
623.168	1511.87
623.523	1509.16
623.879	1535.14
624.234	1489.95
624.589	1522.71
624.945	1499.66
625.3	1551.19
625.655	1500.12
626.01	1500.57
626.365	1517.29
626.72	1536.27
627.075	1509.83
627.43	1521.13
627.785	1507.12
628.14	1517.74
628.495	1532.21
628.85	1512.77
629.205	1531.53
629.559	1547.12
629.914	1496.73
630.269	1529.04
630.623	1545.31
630.978	1516.84
631.332	1520
631.687	1550.51
632.041	1525.88
632.396	1515.26
632.75	1534.47
633.104	1522.26
633.459	1549.61
633.813	1527.91
634.167	1511.64
634.521	1526.1
634.875	1510.51
635.229	1519.1
635.583	1504.64
635.937	1512.32
636.291	1523.17
636.645	1519.1
636.999	1527.23
637.352	1503.05
637.706	1513.67
638.06	1543.5
638.413	1526.56
638.767	1528.59
639.121	1508.03
639.474	1541.7
639.828	1528.36
640.181	1528.14
640.534	1527.69
640.888	1502.6
641.241	1536.5
641.594	1499.66
641.947	1538.98
642.301	1525.65
642.654	1543.5
643.007	1548.02
643.36	1542.6
643.713	1525.65
644.066	1554.58
644.419	1530.62
644.771	1536.05
645.124	1542.6
645.477	1531.53
645.83	1503.51
646.182	1504.86
646.535	1530.62
646.888	1525.43
647.24	1536.27
647.593	1510.51
647.945	1514.13
648.298	1518.42
648.65	1532.43
649.002	1529.95
649.355	1484.52
649.707	1529.04
650.059	1535.6
650.411	1543.73
650.763	1581.24
651.115	1552.54
651.467	1544.41
651.819	1580.11
652.171	1552.54
652.523	1569.94
652.875	1583.73
653.227	1545.99
653.578	1550.06
653.93	1553
654.282	1567.68
654.633	1568.36
654.985	1565.2
655.337	1567.01
655.688	1543.28
656.039	1593.67
656.391	1595.03
656.742	1567.68
657.094	1580.34
657.445	1574.69
657.796	1571.07
658.147	1613.33
658.498	1585.09
658.849	1604.52
659.2	1596.38
659.551	1621.69
659.902	1603.39
660.253	1599.1
660.604	1580.79
660.955	1617.63
661.306	1628.7
661.656	1613.79
662.007	1616.05
662.358	1589.61
662.708	1626.44
663.059	1614.92
663.409	1597.29
663.76	1626.89
664.11	1600.68
664.461	1624.18
664.811	1616.72
665.161	1606.1
665.511	1587.8
665.862	1600.23
666.212	1636.38
666.562	1632.32
666.912	1610.85
667.262	1609.72
667.612	1620.34
667.962	1596.61
668.312	1628.02
668.662	1630.28
669.011	1625.31
669.361	1591.19
669.711	1620.34
670.06	1614.46
670.41	1632.77
670.76	1618.08
671.109	1616.05
671.459	1586.67
671.808	1594.12
672.157	1592.32
672.507	1596.38
672.856	1607.46
673.205	1588.7
673.554	1628.02
673.904	1588.93
674.253	1592.77
674.602	1613.56
674.951	1579.89
675.3	1590.51
675.649	1591.86
675.998	1583.73
676.346	1594.8
676.695	1591.41
677.044	1567.01
677.393	1595.25
677.741	1562.26
678.09	1606.55
678.438	1565.42
678.787	1578.31
679.135	1564.07
679.484	1564.52
679.832	1579.66
680.181	1558.42
680.529	1541.24
680.877	1549.61
681.225	1528.82
681.573	1542.37
681.922	1550.51
682.27	1531.53
682.618	1541.92
682.966	1555.48
683.314	1561.81
683.661	1509.61
684.009	1544.41
684.357	1532.88
684.705	1518.42
685.053	1497.63
685.4	1519.55
685.748	1500.12
686.095	1500.34
686.443	1488.82
686.79	1482.26
687.138	1503.51
687.485	1484.52
687.832	1491.98
688.18	1472.55
688.527	1490.62
688.874	1474.35
689.221	1483.85
689.568	1473.68
689.915	1475.48
690.262	1458.31
690.609	1448.37
690.956	1451.98
691.303	1433.68
691.65	1435.94
691.997	1458.76
692.344	1472.09
692.69	1445.88
693.037	1441.36
693.383	1445.88
693.73	1447.01
694.077	1448.82
694.423	1425.99
694.769	1411.76
695.116	1371.76
695.462	1432.77
695.808	1410.63
696.155	1383.96
696.501	1394.13
696.847	1393.68
697.193	1385.77
697.539	1392.1
697.885	1372.21
698.231	1380.12
698.577	1375.6
698.923	1381.7
699.269	1360.91
699.614	1362.04
699.96	1353.91
700.306	1358.42
700.651	1356.84
700.997	1368.37
701.342	1327.01
701.688	1355.03
702.033	1341.25
702.379	1315.49
702.724	1368.59
703.069	1367.46
703.415	1334.24
703.76	1355.26
704.105	1340.57
704.45	1329.72
704.795	1344.41
705.14	1347.35
705.485	1351.42
705.83	1344.19
706.175	1321.14
706.52	1334.47
706.865	1325.21
707.209	1346.67
707.554	1319.78
707.899	1321.59
708.243	1361.36
708.588	1357.07
708.932	1340.12
709.277	1323.62
709.621	1329.5
709.966	1318.88
710.31	1324.53
710.654	1338.99
710.998	1336.5
711.342	1354.58
711.687	1346
712.031	1323.62
712.375	1358.42
712.719	1331.76
713.063	1357.97
713.407	1346.9
713.75	1325.88
714.094	1340.12
714.438	1320.46
714.782	1360.91
715.125	1294.02
715.469	1320.91
715.812	1328.37
716.156	1353.68
716.499	1339.44
716.843	1364.53
717.186	1336.73
717.53	1356.62
717.873	1361.14
718.216	1352.1
718.559	1371.53
718.902	1374.92
719.246	1401.59
719.589	1360.01
719.932	1358.2
720.275	1374.92
720.617	1375.15
720.96	1376.73
721.303	1409.95
721.646	1419.21
721.989	1406.56
722.331	1418.31
722.674	1417.18
723.016	1401.36
723.359	1390.97
723.701	1427.12
724.044	1410.4
724.386	1418.99
724.729	1455.37
725.071	1442.94
725.413	1412.89
725.755	1454.24
726.097	1477.29
726.439	1456.73
726.782	1478.87
727.124	1477.97
727.465	1483.62
727.807	1490.85
728.149	1486.1
728.491	1492.21
728.833	1485.2
729.175	1478.42
729.516	1509.38
729.858	1530.85
730.199	1495.14
730.541	1511.87
730.882	1550.28
731.224	1558.65
731.565	1560
731.906	1593.45
732.248	1582.37
732.589	1553.67
732.93	1579.66
733.271	1583.28
733.612	1574.46
733.953	1606.1
734.294	1606.33
734.635	1651.98
734.976	1662.82
735.317	1649.72
735.658	1648.13
735.999	1699.21
736.339	1678.64
736.68	1687.91
737.021	1703.27
737.361	1705.08
737.702	1713.67
738.042	1733.33
738.383	1740.79
738.723	1774.46
739.063	1766.32
739.404	1769.04
739.744	1822.37
740.084	1804.97
740.424	1835.93
740.764	1837.06
741.104	1856.04
741.444	1844.06
741.784	1901.69
742.124	1912.31
742.464	1954.34
742.804	1956.38
743.143	1950.27
743.483	1963.83
743.823	2019.65
744.162	1999.31
744.502	2026.88
744.841	2067.78
745.181	2123.6
745.52	2150.04
745.86	2131.74
746.199	2153.66
746.538	2196.82
746.877	2239.98
747.216	2275.91
747.556	2337.16
747.895	2300.32
748.234	2369.25
748.573	2369.02
748.911	2436.36
749.25	2451.28
749.589	2482.69
749.928	2545.74
750.267	2557.49
750.605	2603.59
750.944	2628.45
751.283	2659.18
751.621	2716.36
751.96	2766.52
752.298	2858.27
752.636	2859.85
752.975	2886.29
753.313	2934.2
753.651	3013.3
753.989	3030.02
754.327	3065.72
754.666	3109.11
755.004	3153.86
755.342	3193.63
755.679	3289.45
756.017	3313.4
756.355	3372.38
756.693	3430.46
757.031	3514.98
757.368	3531.02
757.706	3618.7
758.044	3607.18
758.381	3723.56
758.719	3736.22
759.056	3812.37
759.394	3824.57
759.731	3893.73
760.068	3961.07
760.405	3974.85
760.743	4051.69
761.08	4100.73
761.417	4170.1
761.754	4181.85
762.091	4261.85
762.428	4284
762.765	4343.66
763.102	4405.58
763.438	4430.43
763.775	4514.27
764.112	4535.29
764.449	4616.64
764.785	4641.5
765.122	4678.34
765.458	4668.17
765.795	4713.82
766.131	4824.55
766.467	4858.9
766.804	4819.8
767.14	4879.91
767.476	4956.52
767.812	5014.6
768.148	5051.21
768.485	5074.94
768.821	5036.07
769.157	5087.59
769.492	5192.22
769.828	5230.41
770.164	5191.54
770.5	5263.86
770.836	5253.46
771.171	5321.48
771.507	5353.35
