Data from blue_shiny_book_FLMS001491_00068.txt Node
Date: Wed Feb 08 15:27:22 GMT 2017
User: dcchb
Spectrometer: FLMS00149
Trigger mode: 0
Integration Time (sec): 2.000000E-2
Scans to average: 10
Electric dark correction enabled: true
Nonlinearity correction enabled: false
Boxcar width: 0
XAxis mode: Wavelengths
Number of Pixels in Spectrum: 2048
>>>>>Begin Spectral Data<<<<<
341.393	-6.43
341.776	-6.43
342.16	-6.43
342.543	-58.4
342.927	-69.48
343.31	-66.54
343.693	-73.32
344.077	-92.07
344.46	-79.64
344.843	-45.75
345.226	-51.85
345.61	-14.56
345.993	-24.28
346.376	-8.46
346.759	10.52
347.142	29.73
347.525	55.27
347.908	58.43
348.291	84.64
348.674	103.4
349.057	114.47
349.44	121.03
349.823	161.7
350.206	162.83
350.588	220.69
350.971	217.52
351.354	234.92
351.737	255.04
352.119	277.63
352.502	263.62
352.884	304.75
353.267	304.75
353.65	296.16
354.032	308.37
354.414	334.36
354.797	346.33
355.179	343.85
355.562	350.17
355.944	339.55
356.326	343.62
356.709	336.16
357.091	327.58
357.473	356.28
357.855	386.78
358.238	354.47
358.62	356.28
359.002	361.47
359.384	380
359.766	357.41
360.148	368.48
360.53	369.83
360.912	361.93
361.294	351.3
361.676	357.18
362.057	341.36
362.439	347.24
362.821	355.6
363.203	353.56
363.584	344.3
363.966	351.76
364.348	339.55
364.729	352.43
365.111	350.4
365.493	338.42
365.874	345.88
366.256	337.75
366.637	334.36
367.019	327.35
367.4	349.95
367.781	351.08
368.163	341.59
368.544	325.32
368.925	349.72
369.306	353.56
369.688	344.07
370.069	335.94
370.45	336.62
370.831	316.5
371.212	351.53
371.593	365.77
371.974	336.62
372.355	351.08
372.736	338.65
373.117	330.06
373.498	344.52
373.879	346.11
374.26	365.09
374.641	360.8
375.021	340.91
375.402	348.14
375.783	340.91
376.163	387.01
376.544	359.67
376.925	362.83
377.305	389.27
377.686	376.84
378.066	365.09
378.447	378.2
378.827	396.73
379.208	413.68
379.588	378.2
379.968	373.68
380.349	387.24
380.729	390.17
381.109	388.82
381.489	391.3
381.87	422.49
382.25	389.04
382.63	414.81
383.01	412.77
383.39	396.73
383.77	404.41
384.15	412.32
384.53	412.77
384.91	412.09
385.29	431.98
385.67	442.6
386.049	425.88
386.429	443.05
386.809	463.62
387.189	434.01
387.568	429.27
387.948	457.97
388.328	470.17
388.707	459.55
389.087	462.26
389.466	440.57
389.846	465.65
390.225	482.15
390.605	486.22
390.984	481.02
391.363	488.02
391.743	500.45
392.122	493.67
392.501	481.02
392.881	504.75
393.26	526.67
393.639	503.84
394.018	522.6
394.397	522.83
394.776	550.4
395.155	521.92
395.534	533.45
395.913	563.05
396.292	572.99
396.671	560.56
397.05	580
397.429	566.67
397.808	565.31
398.186	582.48
398.565	584.52
398.944	597.17
399.323	610.73
399.701	613.9
400.08	612.77
400.458	623.84
400.837	629.94
401.215	620.45
401.594	614.8
401.972	620
402.351	648.92
402.729	656.16
403.107	656.38
403.486	666.55
403.864	662.03
404.242	685.76
404.62	682.6
404.999	707.45
405.377	685.98
405.755	711.07
406.133	716.72
406.511	739.77
406.889	720.79
407.267	746.55
407.645	750.62
408.023	760.79
408.401	771.41
408.779	796.49
409.156	790.39
409.534	830.84
409.912	835.36
410.29	825.87
410.667	847.11
411.045	857.73
411.422	868.58
411.8	897.28
412.178	896.37
412.555	934.34
412.933	924.17
413.31	931.85
413.687	960.78
414.065	982.7
414.442	988.8
414.819	975.92
415.197	1012.3
415.574	1022.02
415.951	1008.91
416.328	1037.16
416.705	1054.56
417.082	1071.51
417.46	1084.17
417.837	1103.15
418.214	1083.94
418.591	1135.69
418.967	1124.17
419.344	1133.88
419.721	1162.36
420.098	1186.99
420.475	1174.11
420.852	1187.21
421.228	1189.93
421.605	1226.08
421.982	1249.13
422.358	1231.96
422.735	1245.29
423.111	1249.59
423.488	1258.63
423.864	1303.37
424.241	1333.88
424.617	1327.1
424.994	1342.46
425.37	1370.71
425.746	1391.28
426.123	1415.01
426.499	1426.76
426.875	1474.44
427.251	1462.91
427.627	1492.74
428.003	1515.12
428.379	1533.19
428.756	1545.4
429.132	1576.13
429.507	1588.56
429.883	1611.84
430.259	1704.94
430.635	1647.99
431.011	1679.4
431.387	1724.83
431.763	1778.61
432.138	1803.7
432.514	1785.62
432.89	1818.16
433.265	1870.13
433.641	1905.39
434.016	1866.74
434.392	1919.85
434.767	1952.17
435.143	2002.79
435.518	2038.04
435.894	2026.74
436.269	2054.76
436.644	2077.13
437.02	2125.95
437.395	2132.5
437.77	2167.53
438.145	2200.3
438.52	2208.88
438.895	2232.16
439.271	2249.33
439.646	2311.48
440.021	2361.65
440.395	2396.9
440.77	2374.98
441.145	2411.14
441.52	2440.29
441.895	2398.26
442.27	2465.37
442.645	2444.36
443.019	2476.67
443.394	2480.06
443.769	2557.57
444.143	2544.69
444.518	2579.49
444.892	2591.47
445.267	2627.63
445.641	2645.48
446.016	2674.86
446.39	2739.72
446.764	2700.17
447.139	2715.08
447.513	2760.96
447.887	2768.87
448.262	2789.43
448.636	2798.02
449.01	2853.16
449.384	2896.1
449.758	2868.75
450.132	2921.86
450.506	2969.99
450.88	3021.52
451.254	3022.19
451.628	3098.58
452.002	3104.9
452.376	3104.45
452.75	3157.56
453.123	3171.57
453.497	3234.17
453.871	3211.79
454.244	3316.88
454.618	3349.19
454.992	3413.37
455.365	3460.83
455.739	3513.71
456.112	3548.96
456.486	3587.15
456.859	3619.47
457.232	3662.18
457.606	3724.77
457.979	3771.1
458.352	3847.71
458.725	3826.24
459.099	3895.17
459.472	3974.26
459.845	3982.62
460.218	4040.02
460.591	4122.05
460.964	4152.56
461.337	4254.7
461.71	4349.39
462.083	4391.42
462.456	4400.69
462.829	4437.3
463.201	4499.9
463.574	4531.31
463.947	4579.44
464.32	4658.54
464.692	4702.6
465.065	4748.48
465.438	4843.16
465.81	4905.99
466.183	4965.65
466.555	5112.99
466.928	5146.88
467.3	5173.1
467.672	5227.11
468.045	5407.44
468.417	5438.4
468.789	5415.13
469.161	5483.37
469.534	5638.4
469.906	5686.76
470.278	5751.61
470.65	5817.38
471.022	5908.9
471.394	6016.24
471.766	6124.71
472.138	6193.64
472.51	6428.88
472.882	6458.26
473.253	6517.92
473.625	6646.96
473.997	6804.02
474.369	6772.6
474.74	6890.34
475.112	7031.35
475.484	7173.72
475.855	7316.77
476.227	7354.74
476.598	7531.23
476.97	7575.97
477.341	7755.86
477.713	7886.7
478.084	8003.08
478.455	8213.47
478.827	8317.2
479.198	8560.58
479.569	8671.76
479.94	8801.25
480.311	8929.16
480.682	9116.27
481.053	9268.13
481.424	9460.9
481.795	9496.6
482.166	9614.34
482.537	9856.37
482.908	10032.63
483.279	10198.28
483.65	10286.64
484.021	10579.51
484.391	10740.86
484.762	10879.39
485.133	10947.86
485.503	11169.78
485.874	11388.98
486.244	11471.46
486.615	11694.96
486.985	11826.48
487.356	12063.31
487.726	12164.33
488.097	12424.21
488.467	12448.39
488.837	12704.2
489.207	12870.75
489.578	13061.25
489.948	13225.77
490.318	13461.92
490.688	13426.21
491.058	13676.15
491.428	14059.42
491.798	14160.21
492.168	14309.81
492.538	14447.88
492.908	14638.61
493.278	14873.86
493.648	14908.21
494.017	15118.15
494.387	15238.82
494.757	15390
495.126	15590.68
495.496	15696.66
495.866	15820.05
496.235	15982.76
496.605	16213.49
496.974	16272.47
497.344	16371.67
497.713	16538.45
498.082	16719.24
498.452	16825.45
498.821	16973.01
499.19	17050.75
499.559	17208.26
499.928	17289.16
500.298	17534.58
500.667	17579.1
501.036	17589.5
501.405	17868.13
501.774	18043.27
502.143	18123.49
502.512	18251.62
502.88	18439.87
503.249	18454.56
503.618	18760.76
503.987	18755.11
504.356	18867.2
504.724	18934.54
505.093	19095.67
505.462	19131.6
505.83	19216.35
506.199	19419.05
506.567	19688.65
506.936	19671.25
507.304	19955.99
507.672	20099.03
508.041	20082.54
508.409	20408.4
508.777	20525.46
509.145	20819.24
509.514	20848.84
509.882	20927.49
510.25	20991.44
510.618	21103.98
510.986	21190.76
511.354	21511.65
511.722	21602.95
512.09	21797.75
512.458	21789.84
512.826	21963.62
513.193	22157.96
513.561	22233.21
513.929	22514.11
514.297	22631.17
514.664	22769.02
515.032	22995.91
515.4	23148.45
515.767	23254.66
516.135	23432.28
516.502	23386.63
516.869	23809.9
517.237	23838.6
517.604	23872.72
517.972	24118.14
518.339	24211.02
518.706	24352.26
519.073	24447.17
519.44	24695.07
519.808	24929.64
520.175	24918.79
520.542	25220.03
520.909	25478.33
521.276	25533.02
521.643	25836.74
522.009	25956.51
522.376	26198.31
522.743	26381.58
523.11	26634
523.477	26978.17
523.843	27108.34
524.21	27211.84
524.577	27522.12
524.943	27582.9
525.31	27641.89
525.676	27975.21
526.043	27970.01
526.409	28231.25
526.776	28654.29
527.142	28608.19
527.508	28977.44
527.874	29163.88
528.241	29370.43
528.607	29506.47
528.973	29736.75
529.339	29809.51
529.705	30149.16
530.071	30381.25
530.437	30484.3
530.803	30537.4
531.169	30858.98
531.535	30891.29
531.901	31023.04
532.267	31167.9
532.632	31297.16
532.998	31455.57
533.364	31609.01
533.73	31620.31
534.095	31903.24
534.461	31975.33
534.826	32141.43
535.192	32381.65
535.557	32724.69
535.923	32670.23
536.288	32894.4
536.653	33211.68
537.019	33077.9
537.384	33378.91
537.749	33455.07
538.114	33560.37
538.479	33497.55
538.845	33653.48
539.21	33512.47
539.575	33633.82
539.94	33658.68
540.305	34050.08
540.67	33873.13
541.034	34094.15
541.399	34140.25
541.764	34164.2
542.129	34285.55
542.494	34502.5
542.858	34711.53
543.223	34794.92
543.587	35058.19
543.952	35085.76
544.316	35239.2
544.681	35267.22
545.045	35601
545.41	35762.8
545.774	35664.5
546.138	35726.87
546.503	35609.81
546.867	35705.85
547.231	35980.65
547.595	35870.6
547.959	36002.12
548.324	35982.23
548.688	35945.17
549.052	36152.62
549.416	36203.24
549.779	36289.79
550.143	36344.71
550.507	36629.9
550.871	36775.66
551.235	36781.53
551.599	37197.12
551.962	37188.75
552.326	37362.76
552.689	37681.62
553.053	37555.75
553.417	37601.62
553.78	38111.22
554.143	37712.36
554.507	37941.5
554.87	37982.63
555.234	38163.42
555.597	38004.1
555.96	38019.69
556.323	38210.42
556.686	38195.73
557.05	38351.21
557.413	38573.58
557.776	38623.97
558.139	38931.53
558.502	39031.42
558.865	39163.84
559.228	39333.56
559.59	39564.74
559.953	39635.24
560.316	40070.49
560.679	40079.07
561.041	40309.58
561.404	40568.78
561.767	40856.23
562.129	40764.48
562.492	41039.95
562.854	40800.64
563.217	40856.91
563.579	40822.33
563.941	41007.41
564.304	41251.92
564.666	41373.95
565.028	41226.84
565.39	41425.25
565.753	41461.41
566.115	41750.44
566.477	41905.47
566.839	42039.47
567.201	42297.09
567.563	42340.26
567.925	42786.35
568.287	42918.55
568.648	42973.46
569.01	43351.76
569.372	43545.87
569.734	43456.84
570.095	43697.28
570.457	43770.5
570.819	43868.35
571.18	43910.16
571.542	43994.68
571.903	44094.11
572.265	44141.79
572.626	43902.48
572.987	44078.29
573.349	44069.7
573.71	44306.98
574.071	44261.34
574.432	44330.03
574.794	44703.58
575.155	44656.35
575.516	44669.69
575.877	44761.21
576.238	44996.46
576.599	45269.45
576.96	45284.81
577.32	45492.26
577.681	45764.57
578.042	45896.55
578.403	45901.75
578.763	46061.97
579.124	46022.42
579.485	46044.57
579.845	46280.72
580.206	46064.23
580.566	46027.84
580.927	45924.8
581.287	46168.63
581.648	45945.59
582.008	46125.92
582.368	45955.08
582.728	45972.48
583.089	45914.4
583.449	45979.26
583.809	45968.41
584.169	46077.33
584.529	46091.12
584.889	46410.88
585.249	46327.5
585.609	46308.74
585.969	46796.41
586.329	46595.06
586.688	46741.95
587.048	46696.07
587.408	46783.98
587.768	46978.78
588.127	46893.13
588.487	46724.77
588.846	47081.15
589.206	46736.98
589.565	46764.55
589.925	46734.72
590.284	46574.5
590.643	46533.37
591.003	46632.57
591.362	46732.68
591.721	46438.23
592.08	46459.7
592.44	46648.62
592.799	46528.17
593.158	46471.9
593.517	46633.25
593.876	46749.18
594.235	46633.03
594.593	46829.86
594.952	46954.82
595.311	46897.43
595.67	47129.28
596.029	47365.21
596.387	47427.13
596.746	47514.13
597.104	47368.15
597.463	47400.46
597.822	47557.07
598.18	47402.95
598.538	47427.35
598.897	47619.67
599.255	47198.89
599.613	47755.48
599.972	47242.05
600.33	47325.89
600.688	47072.79
601.046	47230.98
601.404	47209.73
601.762	47066.01
602.12	47318.43
602.478	47253.57
602.836	47363.85
603.194	47288.38
603.552	47488.37
603.91	47319.56
604.268	47472.33
604.625	47486.56
604.983	47641.59
605.341	47626.9
605.698	47691.98
606.056	47936.95
606.413	48020.79
606.771	48201.57
607.128	48183.04
607.485	48027.34
607.843	48235.02
608.2	48391.62
608.557	48406.31
608.914	48295.13
609.272	48440.44
609.629	48222.14
609.986	48344.39
610.343	48164.74
610.7	48320.66
611.057	48205.19
611.414	48018.98
611.771	48073.89
612.127	48237.5
612.484	48156.6
612.841	48364.73
613.198	48227.56
613.554	48334.9
613.911	48597.95
614.267	48615.12
614.624	48612.41
614.98	48832.97
615.337	49049.46
615.693	49023.47
616.05	48930.59
616.406	49288.55
616.762	49071.38
617.118	49210.58
617.475	49285.38
617.831	49262.56
618.187	49352.95
618.543	49437.92
618.899	49502.1
619.255	49471.14
619.611	49418.49
619.967	49396.57
620.323	49412.39
620.678	49059.4
621.034	49182.11
621.39	49128.55
621.746	48947.09
622.101	49351.82
622.457	48950.25
622.812	48982.79
623.168	49095.79
623.523	49035
623.879	49156.8
624.234	49035.22
624.589	49176.69
624.945	49271.83
625.3	49443.8
625.655	49279.74
626.01	49492.61
626.365	49450.8
626.72	49470.01
627.075	49706.62
627.43	49680.63
627.785	49580.97
628.14	49813.05
628.495	49733.28
628.85	49607.18
629.205	49606.51
629.559	49606.73
629.914	49361.77
630.269	49436.34
630.623	49301.43
630.978	49147.99
631.332	49250.13
631.687	49300.07
632.041	49050.59
632.396	49058.95
632.75	48794.1
633.104	48812.85
633.459	48563.82
633.813	48615.12
634.167	48720.43
634.521	48605.85
634.875	48599.3
635.229	48492.19
635.583	48434.79
635.937	48553.2
636.291	48630.94
636.645	48711.61
636.999	48609.47
637.352	48748.22
637.706	48558.4
638.06	48864.15
638.413	48676.14
638.767	48660.99
639.121	48713.87
639.474	48458.51
639.828	48541.9
640.181	48501.9
640.534	48416.26
640.888	48189.59
641.241	48056.94
641.594	48149.82
641.947	48129.71
642.301	48032.76
642.654	48016.04
643.007	47941.01
643.36	47806.1
643.713	47705.99
644.066	47720.91
644.419	47597.29
644.771	47506.45
645.124	47214.93
645.477	47352.1
645.83	46964.99
646.182	46666.7
646.535	46351.45
646.888	46181.74
647.24	45972.48
647.593	46129.31
647.945	46036.43
648.298	45888.86
648.65	45805.7
649.002	45789.43
649.355	46160.95
649.707	46411.79
650.059	46742.17
650.411	47265.78
650.763	47259.68
651.115	47454.92
651.467	47297.87
651.819	47312.33
652.171	47372.44
652.523	47183.75
652.875	47063.52
653.227	46878.67
653.578	47292.89
653.93	46951.21
654.282	46798.44
654.633	46541.28
654.985	46670.99
655.337	46560.94
655.688	46423.54
656.039	46586.92
656.391	46214.96
656.742	46286.14
657.094	46397.1
657.445	46441.39
657.796	46410.66
658.147	46330.89
658.498	46263.77
658.849	46410.21
659.2	46327.04
659.551	46328.17
659.902	46596.19
660.253	46607.94
660.604	46703.76
660.955	46454.27
661.306	46739.92
661.656	46660.37
662.007	46626.02
662.358	46639.8
662.708	46806.13
663.059	46640.03
663.409	46342.19
663.76	46638
664.11	46524.33
664.461	46529.07
664.811	46416.53
665.161	46412.92
665.511	46166.82
665.862	46331.34
666.212	46231.68
666.562	46120.95
666.912	46077.79
667.262	46153.26
667.612	46075.53
667.962	46052.02
668.312	45926.15
668.662	46075.75
669.011	45938.81
669.361	45830.33
669.711	45825.81
670.06	45796.21
670.41	45799.37
670.76	45671.69
671.109	45819.71
671.459	45677.12
671.808	45659.49
672.157	45854.06
672.507	45563.67
672.856	45669.21
673.205	45735.65
673.554	45996.88
673.904	45835.76
674.253	46118.46
674.602	46028.3
674.951	45396.22
675.3	45346.51
675.649	45932.03
675.998	45667.4
676.346	45753.27
676.695	45760.96
677.044	45573.62
677.393	45465.6
677.741	45428.31
678.09	45213.63
678.438	45077.81
678.787	45140.64
679.135	44796.46
679.484	44549.46
679.832	44869.46
680.181	44543.59
680.529	44382.46
680.877	44262.01
681.225	44302.01
681.573	44439.41
681.922	44108.35
682.27	44187.21
682.618	44195.35
682.966	44059.53
683.314	43987.67
683.661	44001.23
684.009	43824.51
684.357	43822.48
684.705	43739.77
685.053	43879.43
685.4	43879.2
685.748	43747.45
686.095	43814.57
686.443	43665.19
686.79	43659.09
687.138	43871.06
687.485	43793.78
687.832	43657.96
688.18	43674.68
688.527	43533.9
688.874	43316.28
689.221	43253.23
689.568	43016.85
689.915	42954.48
690.262	43036.28
690.609	42883.52
690.956	42690.76
691.303	42436.3
691.65	42209.64
691.997	42183.65
692.344	41831.57
692.69	41809.42
693.037	41746.6
693.383	41295.31
693.73	41363.79
694.077	41052.38
694.423	41046.96
694.769	40890.35
695.116	40698.49
695.462	40604.48
695.808	40636.12
696.155	40572.17
696.501	40309.58
696.847	40350.03
697.193	40212.86
697.539	40243.36
697.885	40026.65
698.231	40048.79
698.577	39983.93
698.923	39993.43
699.269	39937.16
699.614	39875.24
699.96	39705.3
700.306	39824.84
700.651	39710.27
700.997	39687.45
701.342	39554.34
701.688	39378.07
702.033	39338.98
702.379	39336.27
702.724	39300.34
703.069	39491.07
703.415	38869.39
703.76	38943.06
704.105	38753.68
704.45	38503.52
704.795	38260.82
705.14	38033.25
705.485	37907.6
705.83	37810.21
706.175	37606.37
706.52	37390.1
706.865	37230.79
707.209	37226.49
707.554	36979.27
707.899	36979.27
708.243	36706.51
708.588	36824.24
708.932	36709.9
709.277	36702.89
709.621	36658.6
709.966	36379.51
710.31	36417.7
710.654	36135.45
710.998	36410.47
711.342	36441.88
711.687	36326.63
712.031	36233.98
712.375	36254.77
712.719	36442.56
713.063	36188.78
713.407	36445.27
713.75	36113.75
714.094	36345.39
714.438	36231.49
714.782	36344.26
715.125	36132.51
715.469	36275.56
715.812	36087.09
716.156	35758.73
716.499	35811.16
716.843	35856.81
717.186	35303.38
717.53	35492.08
717.873	35557.61
718.216	35287.11
718.559	35119.43
718.902	34759.67
719.246	35153.1
719.589	34936.84
719.932	34795.6
720.275	34658.88
720.617	34550.63
720.96	34430.18
721.303	34257.98
721.646	34467.7
721.989	34006.01
722.331	34203.97
722.674	34013.24
723.016	33882.4
723.359	33899.35
723.701	33874.04
724.044	33782.06
724.386	33586.81
724.729	33879.24
725.071	33794.94
725.413	33822.06
725.755	33805.79
726.097	33848.5
726.439	33683.54
726.782	33748.17
727.124	34103.19
727.465	33830.88
727.807	33828.62
728.149	33865.23
728.491	33908.16
728.833	33902.06
729.175	33887.37
729.516	33843.98
729.858	33891.89
730.199	33943.42
730.541	33895.51
730.882	33799.92
731.224	33924.21
731.565	33594.72
731.906	33559.24
732.248	33686.25
732.589	33494.16
732.93	33246.48
733.271	33339.59
733.612	33401.51
733.953	33260.04
734.294	33136.2
734.635	33057.11
734.976	33126.94
735.317	32888.75
735.658	32924.23
735.999	32844.01
736.339	32724.92
736.68	32828.64
737.021	32703
737.361	32441.08
737.702	32589.55
738.042	32488.31
738.383	32603.34
738.723	32630.46
739.063	32506.62
739.404	32684.69
739.744	32651.7
740.084	32406.73
740.424	32533.96
740.764	32641.08
741.104	32812.37
741.444	32683.11
741.784	32666.84
742.124	32794.75
742.464	32854.63
742.804	32889.43
743.143	32941.18
743.483	33060.5
743.823	32879.49
744.162	33064.79
744.502	33140.95
744.841	32932.14
745.181	33126.04
745.52	32976.89
745.86	33137.33
746.199	33138.01
746.538	33008.3
746.877	33112.93
747.216	33153.61
747.556	33008.98
747.895	32919.26
748.234	32785.03
748.573	32634.98
748.911	32628.87
749.25	32750.45
749.589	32681.75
749.928	32673.84
750.267	32755.65
750.605	32528.09
750.944	32493.06
751.283	32471.14
751.621	32570.8
751.96	32346.4
752.298	32459.16
752.636	32539.61
752.975	32345.49
753.313	32211.26
753.651	32452.83
