Data from blue_surface_keyboard_FLMS001491_095.txt Node
Date: Tue Feb 07 11:13:55 GMT 2017
User: dcchb
Spectrometer: FLMS00149
Trigger mode: 0
Integration Time (sec): 2.000000E-2
Scans to average: 10
Electric dark correction enabled: true
Nonlinearity correction enabled: false
Boxcar width: 0
XAxis mode: Wavelengths
Number of Pixels in Spectrum: 2048
>>>>>Begin Spectral Data<<<<<
341.393	-17.03
341.776	-17.03
342.16	-17.03
342.543	-53.42
342.927	-81.21
343.31	-68.11
343.693	-76.47
344.077	-55.68
344.46	-53.19
344.843	-62.46
345.226	-59.74
345.61	-24.94
345.993	-18.16
346.376	-0.99
346.759	25.68
347.142	21.61
347.525	47.82
347.908	55.73
348.291	79.24
348.674	82.85
349.057	106.81
349.44	105.22
349.823	138.67
350.206	167.82
350.588	180.25
350.971	174.83
351.354	197.2
351.737	227.93
352.119	237.42
352.502	255.73
352.884	262.28
353.267	259.12
353.65	272.22
354.032	267.03
354.414	273.13
354.797	303.41
355.179	294.37
355.562	298.44
355.944	307.03
356.326	310.87
356.709	314.03
357.091	312.22
357.473	312
357.855	314.48
358.238	302.28
358.62	312
359.002	319.68
359.384	308.83
359.766	337.76
360.148	333.47
360.53	328.49
360.912	308.16
361.294	298.44
361.676	311.55
362.057	301.83
362.439	314.48
362.821	319.23
363.203	305.22
363.584	309.96
363.966	324.65
364.348	305.22
364.729	294.14
365.111	305.9
365.493	293.24
365.874	283.75
366.256	286.24
366.637	294.82
367.019	292.56
367.4	300.02
367.781	292.79
368.163	285.33
368.544	284.65
368.925	285.11
369.306	284.2
369.688	277.87
370.069	307.25
370.45	312.9
370.831	276.52
371.212	280.81
371.593	268.38
371.974	279
372.355	269.96
372.736	281.26
373.117	275.84
373.498	288.27
373.879	299.57
374.26	287.59
374.641	283.3
375.021	287.37
375.402	297.31
375.783	299.57
376.163	291.88
376.544	284.88
376.925	305.67
377.305	295.27
377.686	310.42
378.066	285.33
378.447	317.87
378.827	295.5
379.208	317.87
379.588	298.66
379.968	293.69
380.349	303.18
380.729	295.73
381.109	307.7
381.489	296.18
381.87	309.51
382.25	314.03
382.63	301.6
383.01	307.93
383.39	300.25
383.77	297.76
384.15	293.01
384.53	308.38
384.91	317.2
385.29	314.94
385.67	329.85
386.049	306.8
386.429	313.81
386.809	310.64
387.189	303.86
387.568	322.84
387.948	317.65
388.328	316.97
388.707	312.22
389.087	305.9
389.466	297.53
389.846	314.03
390.225	324.88
390.605	328.72
390.984	312
391.363	316.29
391.743	316.74
392.122	328.49
392.501	321.04
392.881	324.65
393.26	339.12
393.639	307.7
394.018	332.56
394.397	313.81
394.776	321.26
395.155	331.21
395.534	310.42
395.913	331.88
396.292	343.41
396.671	329.62
397.05	333.01
397.429	322.39
397.808	311.55
398.186	330.98
398.565	331.43
398.944	348.61
399.323	330.3
399.701	330.08
400.08	351.09
400.458	346.12
400.837	353.35
401.215	342.05
401.594	340.7
401.972	325.33
402.351	350.19
402.729	349.96
403.107	368.04
403.486	349.96
403.864	349.28
404.242	352.9
404.62	342.28
404.999	355.16
405.377	363.75
405.755	369.17
406.133	340.02
406.511	345.67
406.889	344.09
407.267	358.55
407.645	332.56
408.023	361.71
408.401	353.35
408.779	359
409.156	348.38
409.534	368.95
409.912	355.84
410.29	358.55
410.667	385.67
411.045	358.32
411.422	368.72
411.8	369.62
412.178	367.82
412.555	389.06
412.933	383.86
413.31	371.66
413.687	377.53
414.065	366.91
414.442	377.76
414.819	368.49
415.197	368.27
415.574	376.18
415.951	383.41
416.328	406.46
416.705	368.72
417.082	386.35
417.46	394.93
417.837	403.52
418.214	387.93
418.591	386.35
418.967	394.26
419.344	398.1
419.721	377.31
420.098	403.97
420.475	403.75
420.852	426.8
421.228	405.78
421.605	427.93
421.982	412.56
422.358	400.36
422.735	431.54
423.111	420.02
423.488	416.85
423.864	422.05
424.241	419.57
424.617	420.7
424.994	435.61
425.37	443.75
425.746	409.85
426.123	439
426.499	441.94
426.875	440.36
427.251	438.77
427.627	442.39
428.003	443.07
428.379	428.83
428.756	446.46
429.132	433.8
429.507	445.33
429.883	446.01
430.259	425.21
430.635	462.05
431.011	442.16
431.387	440.58
431.763	464.54
432.138	475.61
432.514	462.5
432.89	456.4
433.265	461.6
433.641	470.41
434.016	487.81
434.392	474.48
434.767	482.39
435.143	460.02
435.518	489.85
435.894	482.84
436.269	489.62
436.644	483.29
437.02	487.81
437.395	492.56
437.77	488.04
438.145	481.48
438.52	498.21
438.895	498.21
439.271	512.9
439.646	494.14
440.021	488.94
440.395	505.89
440.77	516.06
441.145	519
441.52	503.63
441.895	517.42
442.27	521.94
442.645	519.22
443.019	517.42
443.394	511.99
443.769	511.77
444.143	513.57
444.518	526.46
444.892	533.69
445.267	514.03
445.641	527.81
446.016	518.32
446.39	544.31
446.764	548.6
447.139	530.52
447.513	546.79
447.887	531.2
448.262	544.08
448.636	537.3
449.01	535.04
449.384	550.41
449.758	550.18
450.132	573.23
450.506	567.13
450.88	559
451.254	567.36
451.628	552.9
452.002	574.82
452.376	568.04
452.75	580.01
453.123	584.76
453.497	557.41
453.871	578.66
454.244	600.8
454.618	576.85
454.992	598.54
455.365	578.21
455.739	609.62
456.112	611.88
456.486	610.75
456.859	604.87
457.232	610.52
457.606	617.07
457.979	637.19
458.352	645.77
458.725	623.85
459.099	643.06
459.472	636.06
459.845	644.42
460.218	641.03
460.591	652.1
460.964	655.04
461.337	642.84
461.71	649.39
462.083	653.23
462.456	683.74
462.829	692.55
463.201	663.63
463.574	688.94
463.947	669.28
464.32	686.45
464.692	683.97
465.065	699.11
465.438	715.15
465.81	699.33
466.183	699.11
466.555	711.99
466.928	735.49
467.3	728.71
467.672	753.79
468.045	729.39
468.417	736.62
468.789	726.68
469.161	733.46
469.534	727.35
469.906	775.71
470.278	773
470.65	756.05
471.022	781.82
471.394	798.31
471.766	799.44
472.138	775.49
472.51	794.02
472.882	802.38
473.253	822.27
473.625	825.66
473.997	824.07
474.369	833.11
474.74	839.44
475.112	834.92
475.484	862.27
475.855	856.84
476.227	852.32
476.598	878.99
476.97	890.06
477.341	914.92
477.713	913.34
478.084	919.21
478.455	928.7
478.827	927.35
479.198	959.44
479.569	937.07
479.94	958.31
480.311	951.98
480.682	960.79
481.053	984.3
481.424	1010.51
481.795	1003.96
482.166	1012.54
482.537	987.23
482.908	1016.39
483.279	1028.36
483.65	1032.2
484.021	1070.62
484.391	1032.2
484.762	1099.77
485.133	1079.21
485.503	1076.5
485.874	1102.03
486.244	1097.29
486.615	1106.78
486.985	1104.29
487.356	1134.12
487.726	1155.59
488.097	1161.47
488.467	1152.43
488.837	1188.13
489.207	1167.79
489.578	1176.83
489.948	1175.93
490.318	1197.17
490.688	1183.16
491.058	1184.97
491.428	1203.27
491.798	1226.1
492.168	1235.36
492.538	1241.46
492.908	1226.1
493.278	1269.71
493.648	1260.67
494.017	1262.48
494.387	1269.26
494.757	1254.8
495.126	1254.35
495.496	1270.39
495.866	1269.26
496.235	1296.15
496.605	1271.29
496.974	1280.11
497.344	1311.75
497.713	1291.41
498.082	1301.8
498.452	1305.87
498.821	1321.24
499.19	1307.23
499.559	1309.26
499.928	1328.02
500.298	1338.64
500.667	1330.95
501.036	1347.9
501.405	1337.06
501.774	1326.43
502.143	1348.13
502.512	1330.73
502.88	1357.39
503.249	1334.34
503.618	1361.24
503.987	1368.24
504.356	1394.23
504.724	1379.54
505.093	1378.64
505.462	1359.88
505.83	1401.01
506.199	1379.99
506.567	1365.08
506.936	1384.06
507.304	1396.26
507.672	1416.83
508.041	1392.2
508.409	1372.53
508.777	1402.14
509.145	1412.08
509.514	1392.87
509.882	1407.56
510.25	1426.32
510.618	1415.7
510.986	1421.8
511.354	1391.52
511.722	1422.7
512.09	1422.02
512.458	1429.48
512.826	1411.4
513.193	1423.38
513.561	1436.94
513.929	1414.12
514.297	1445.98
514.664	1441.23
515.032	1479.2
515.4	1460.44
515.767	1462.93
516.135	1460.44
516.502	1436.71
516.869	1479.65
517.237	1447.79
517.604	1433.78
517.972	1460.44
518.339	1467.9
518.706	1452.98
519.073	1509.03
519.44	1465.87
519.808	1475.13
520.175	1496.83
520.542	1507.9
520.909	1499.31
521.276	1493.44
521.643	1493.66
522.009	1502.93
522.376	1521.91
522.743	1486.88
523.11	1507.45
523.477	1491.18
523.843	1523.27
524.21	1515.36
524.577	1528.46
524.943	1506.09
525.31	1534.56
525.676	1539.31
526.043	1524.85
526.409	1570.04
526.776	1561
527.142	1565.52
527.508	1537.95
527.874	1559.87
528.241	1591.96
528.607	1570.27
528.973	1570.04
529.339	1570.95
529.705	1574.11
530.071	1563.49
530.437	1574.79
530.803	1586.99
531.169	1576.6
531.535	1549.93
531.901	1590.83
532.267	1590.83
532.632	1600.33
532.998	1599.65
533.364	1592.64
533.73	1606.43
534.095	1613.43
534.461	1586.77
534.826	1606.43
535.192	1633.09
535.557	1618.63
535.923	1594.9
536.288	1615.69
536.653	1636.03
537.019	1596.71
537.384	1601.23
537.749	1618.4
538.114	1598.07
538.479	1606.2
538.845	1618.86
539.21	1619.99
539.575	1593.77
539.94	1604.84
540.305	1620.21
540.67	1601.68
541.034	1647.78
541.399	1626.77
541.764	1631.06
542.129	1625.18
542.494	1621.79
542.858	1647.1
543.223	1621.57
543.587	1613.43
543.952	1630.61
544.316	1646.88
544.681	1632.41
545.045	1627.67
545.41	1608.23
545.774	1620.44
546.138	1632.64
546.503	1620.89
546.867	1610.49
547.231	1641.91
547.595	1628.35
547.959	1624.96
548.324	1633.32
548.688	1607.56
549.052	1629.48
549.416	1599.87
549.779	1614.56
550.143	1650.27
550.507	1610.04
550.871	1650.95
551.235	1623.15
551.599	1644.62
551.962	1644.62
552.326	1652.98
552.689	1643.04
553.053	1603.49
553.417	1638.74
553.78	1652.3
554.143	1611.85
554.507	1665.18
554.87	1659.76
555.234	1663.6
555.597	1648.23
555.96	1659.31
556.323	1674.67
556.686	1629.93
557.05	1668.35
557.413	1673.77
557.776	1626.09
558.139	1670.15
558.502	1654.56
558.865	1678.06
559.228	1687.33
559.59	1672.19
559.953	1643.04
560.316	1691.85
560.679	1695.69
561.041	1681
561.404	1704.28
561.767	1702.47
562.129	1673.54
562.492	1740.89
562.854	1708.8
563.217	1677.16
563.579	1677.61
563.941	1698.63
564.304	1721.45
564.666	1726.88
565.028	1737.95
565.39	1718.97
565.753	1716.03
566.115	1725.29
566.477	1716.93
566.839	1735.24
567.201	1754.67
567.563	1727.55
567.925	1736.37
568.287	1738.85
568.648	1730.27
569.01	1765.97
569.372	1748.57
569.734	1732.53
570.095	1767.55
570.457	1768.68
570.819	1756.03
571.18	1732.53
571.542	1754.67
571.903	1763.48
572.265	1764.16
572.626	1762.35
572.987	1763.71
573.349	1775.69
573.71	1791.28
574.071	1759.64
574.432	1777.5
574.794	1829.47
575.155	1789.92
575.516	1775.69
575.877	1779.3
576.238	1777.27
576.599	1779.53
576.96	1801.9
577.32	1796.03
577.681	1784.5
578.042	1801.9
578.403	1799.19
578.763	1781.34
579.124	1796.03
579.485	1821.56
579.845	1821.79
580.206	1808
580.566	1812.97
580.927	1787.44
581.287	1780.66
581.648	1808.46
582.008	1818.85
582.368	1828.79
582.728	1829.92
583.089	1826.53
583.449	1839.19
583.809	1837.38
584.169	1837.83
584.529	1814.1
584.889	1821.11
585.249	1848.45
585.609	1820.21
585.969	1824.73
586.329	1846.42
586.688	1855.91
587.048	1840.54
587.408	1834.44
587.768	1840.32
588.127	1829.02
588.487	1830.6
588.846	1847.78
589.206	1825.86
589.565	1811.62
589.925	1853.43
590.284	1798.74
590.643	1831.73
591.003	1831.96
591.362	1832.86
591.721	1849.81
592.08	1815.23
592.44	1851.62
592.799	1880.32
593.158	1865.18
593.517	1826.76
593.876	1843.26
594.235	1861.56
594.593	1848.23
594.952	1863.14
595.311	1865.63
595.67	1861.56
596.029	1869.24
596.387	1862.01
596.746	1879.19
597.104	1845.52
597.463	1847.32
597.822	1887.78
598.18	1850.04
598.538	1850.71
598.897	1876.93
599.255	1865.63
599.613	1873.09
599.972	1907.44
600.33	1870.15
600.688	1884.61
601.046	1884.16
601.404	1875.35
601.762	1892.07
602.12	1904.72
602.478	1897.27
602.836	1914.22
603.194	1879.87
603.552	1891.39
603.91	1895.46
604.268	1861.79
604.625	1872.18
604.983	1892.29
605.341	1889.13
605.698	1916.48
606.056	1893.88
606.413	1890.04
606.771	1912.86
607.128	1927.1
607.485	1917.15
607.843	1916.7
608.2	1926.42
608.557	1904.05
608.914	1928.9
609.272	1898.17
609.629	1937.04
609.986	1948.79
610.343	1938.85
610.7	1938.17
611.057	1966.19
611.414	1964.38
611.771	1935.23
612.127	1959.41
612.484	1941.11
612.841	1968.9
613.198	1973.2
613.554	1946.3
613.911	1955.12
614.267	1989.69
614.624	1992.86
614.98	1943.37
615.337	2002.35
615.693	1999.86
616.05	1937.94
616.406	2008.68
616.762	1970.26
617.118	2006.19
617.475	1999.64
617.831	2005.06
618.187	1997.38
618.543	1993.54
618.899	2017.04
619.255	1990.37
619.611	1999.86
619.967	2001.44
620.323	2010.26
620.678	2016.13
621.034	1997.6
621.39	2020.2
621.746	2033.76
622.101	2027.88
622.457	2005.96
622.812	2004.16
623.168	2038.96
623.523	2024.72
623.879	2054.32
624.234	2027.21
624.589	2081.22
624.945	2047.09
625.3	2038.05
625.655	2038.05
626.01	2047.32
626.365	2056.36
626.72	2066.3
627.075	2027.88
627.43	2083.25
627.785	2106.07
628.14	2066.98
628.495	2075.11
628.85	2092.06
629.205	2068.34
629.559	2081.44
629.914	2085.96
630.269	2092.06
630.623	2111.95
630.978	2103.36
631.332	2122.35
631.687	2106.3
632.041	2091.39
632.396	2137.49
632.75	2118.05
633.104	2109.46
633.459	2069.01
633.813	2148.11
634.167	2122.8
634.521	2120.54
634.875	2126.64
635.229	2135.9
635.583	2130.25
635.937	2167.54
636.291	2106.3
636.645	2150.14
636.999	2156.47
637.352	2150.14
637.706	2195.11
638.06	2163.02
638.413	2170.25
638.767	2198.73
639.121	2159.63
639.474	2173.87
639.828	2163.02
640.181	2186.07
640.534	2202.57
640.888	2158.73
641.241	2197.37
641.594	2227.2
641.947	2197.82
642.301	2209.8
642.654	2226.75
643.007	2227.43
643.36	2237.6
643.713	2247.99
644.066	2278.27
644.419	2280.31
644.771	2252.51
645.124	2242.34
645.477	2236.69
645.83	2221.33
646.182	2192.4
646.535	2250.03
646.888	2253.42
647.24	2270.82
647.593	2283.02
647.945	2243.92
648.298	2266.52
648.65	2252.96
649.002	2283.02
649.355	2300.42
649.707	2282.79
650.059	2315.33
650.411	2319.63
650.763	2351.49
651.115	2392.62
651.467	2395.11
651.819	2393.98
652.171	2421.09
652.523	2425.39
652.875	2407.99
653.227	2402.11
653.578	2439.85
653.93	2463.13
654.282	2462.22
654.633	2472.84
654.985	2468.1
655.337	2460.64
655.688	2485.95
656.039	2492.51
656.391	2511.94
656.742	2564.82
657.094	2547.87
657.445	2522.56
657.796	2588.77
658.147	2545.84
658.498	2593.52
658.849	2582.67
659.2	2574.99
659.551	2598.94
659.902	2626.51
660.253	2633.74
660.604	2660.86
660.955	2667.64
661.306	2626.51
661.656	2669.45
662.007	2712.84
662.358	2725.49
662.708	2687.53
663.059	2737.92
663.409	2741.31
663.76	2719.62
664.11	2754.19
664.461	2787.64
664.811	2805.72
665.161	2785.83
665.511	2824.47
665.862	2859.05
666.212	2837.58
666.562	2844.13
666.912	2900.63
667.262	2874.19
667.612	2890.91
667.962	2911.7
668.312	2933.85
668.662	2959.61
669.011	2944.24
669.361	2977.69
669.711	2943.79
670.06	2987.63
670.41	3016.11
670.76	3005.03
671.109	3035.54
671.459	3046.39
671.808	3074.41
672.157	3076.9
672.507	3049.78
672.856	3068.54
673.205	3090.91
673.554	3090.68
673.904	3100.4
674.253	3139.27
674.602	3126.39
674.951	3077.57
675.3	3108.99
675.649	3166.84
675.998	3161.64
676.346	3156.67
676.695	3228.53
677.044	3228.53
677.393	3215.42
677.741	3266.95
678.09	3252.03
678.438	3279.38
678.787	3280.96
679.135	3279.15
679.484	3276.21
679.832	3286.61
680.181	3342.65
680.529	3297.68
680.877	3288.19
681.225	3357.57
681.573	3347.17
681.922	3361.41
682.27	3344.69
682.618	3372.93
682.966	3358.7
683.314	3421.75
683.661	3393.05
684.009	3379.71
684.357	3403.67
684.705	3415.64
685.053	3434.63
685.4	3403.44
685.748	3463.55
686.095	3434.85
686.443	3476.66
686.79	3422.88
687.138	3457.68
687.485	3440.28
687.832	3424.91
688.18	3526.6
688.527	3498.13
688.874	3478.02
689.221	3497.68
689.568	3481.18
689.915	3515.3
690.262	3522.76
690.609	3509.2
690.956	3513.5
691.303	3520.27
691.65	3484.57
691.997	3540.39
692.344	3540.39
692.69	3495.87
693.037	3560.5
693.383	3481.18
693.73	3492.7
694.077	3515.08
694.423	3534.96
694.769	3493.16
695.116	3527.96
695.462	3532.93
695.808	3548.3
696.155	3521.86
696.501	3511.69
696.847	3496.09
697.193	3498.58
697.539	3553.27
697.885	3512.14
698.231	3545.36
698.577	3514.63
698.923	3522.99
699.269	3485.47
699.614	3507.62
699.96	3488.19
700.306	3551.23
700.651	3484.57
700.997	3520.95
701.342	3520.5
701.688	3482.31
702.033	3483.44
702.379	3509.2
702.724	3500.39
703.069	3508.52
703.415	3456.32
703.76	3465.13
704.105	3490.22
704.45	3512.14
704.795	3461.97
705.14	3423.78
705.485	3485.02
705.83	3442.54
706.175	3435.76
706.52	3439.6
706.865	3422.65
707.209	3447.96
707.554	3433.27
707.899	3480.95
708.243	3420.16
708.588	3414.06
708.932	3438.24
709.277	3425.14
709.621	3453.16
709.966	3398.47
710.31	3421.07
710.654	3386.49
710.998	3443.21
711.342	3420.16
711.687	3390.56
712.031	3381.52
712.375	3379.04
712.719	3400.73
713.063	3401.63
713.407	3448.19
713.75	3411.35
714.094	3408.64
714.438	3379.49
714.782	3365.93
715.125	3421.07
715.469	3397.57
715.812	3377
716.156	3419.03
716.499	3392.37
716.843	3396.21
717.186	3367.96
717.53	3384.01
717.873	3416.55
718.216	3378.81
718.559	3426.04
718.902	3397.11
719.246	3401.63
719.589	3388.75
719.932	3402.99
720.275	3394.18
720.617	3411.8
720.96	3388.53
721.303	3398.24
721.646	3398.24
721.989	3381.75
722.331	3406.83
722.674	3370.67
723.016	3381.3
723.359	3397.34
723.701	3388.3
724.044	3383.78
724.386	3364.35
724.729	3332.48
725.071	3390.11
725.413	3398.02
725.755	3407.51
726.097	3388.98
726.439	3384.91
726.782	3344.46
727.124	3437.56
727.465	3354.63
727.807	3446.6
728.149	3402.54
728.491	3379.94
728.833	3412.93
729.175	3346.49
729.516	3370
729.858	3432.37
730.199	3412.48
730.541	3427.85
730.882	3385.36
731.224	3410.22
731.565	3444.34
731.906	3414.74
732.248	3436.66
732.589	3420.16
732.93	3441.18
733.271	3416.55
733.612	3419.94
733.953	3449.54
734.294	3424.01
734.635	3443.89
734.976	3431.92
735.317	3420.16
735.658	3420.39
735.999	3468.98
736.339	3440.73
736.68	3454.51
737.021	3465.81
737.361	3468.52
737.702	3484.8
738.042	3455.42
738.383	3471.24
738.723	3502.87
739.063	3469.2
739.404	3471.69
739.744	3498.58
740.084	3501.74
740.424	3512.59
740.764	3520.27
741.104	3575.41
741.444	3502.65
741.784	3527.96
742.124	3565.7
742.464	3597.33
742.804	3596.66
743.143	3567.51
743.483	3583.32
743.823	3602.08
744.162	3554.17
744.502	3621.74
744.841	3562.76
745.181	3653.38
745.52	3605.47
745.86	3672.81
746.199	3718.01
746.538	3711.91
746.877	3689.54
747.216	3681.63
747.556	3712.59
747.895	3739.48
748.234	3751.91
748.573	3797.1
748.911	3709.42
749.25	3813.37
749.589	3813.15
749.928	3852.47
750.267	3818.35
750.605	3828.74
750.944	3848.63
751.283	3906.48
751.621	3941.51
751.96	3935.86
752.298	3980.6
752.636	3960.04
752.975	3955.74
753.313	4002.97
753.651	4033.93
753.989	4028.28
754.327	4021.73
754.666	4045.91
755.004	4045.46
755.342	4164.33
755.679	4122.29
756.017	4149.64
756.355	4125.91
756.693	4151.9
757.031	4240.71
757.368	4185.12
757.706	4268.5
758.044	4245.23
758.381	4275.96
758.719	4301.5
759.056	4287.26
759.394	4305.11
759.731	4268.5
760.068	4334.94
760.405	4334.04
760.743	4353.7
761.08	4425.11
761.417	4393.92
761.754	4383.98
762.091	4416.97
762.428	4388.73
762.765	4450.87
763.102	4433.92
763.438	4452.68
763.775	4418.56
764.112	4446.8
764.449	4407.48
764.785	4424.43
765.122	4460.14
765.458	4495.39
765.795	4455.62
766.131	4457.88
766.467	4478.67
766.804	4507.37
767.14	4448.84
767.476	4477.09
767.812	4480.93
768.148	4510.53
768.485	4480.7
768.821	4480.7
769.157	4458.78
769.492	4462.4
769.828	4485.22
770.164	4471.44
770.5	4512.34
770.836	4516.41
771.171	4494.26
771.507	4440.93
771.842	4416.75
772.178	4506.24
