Data from blue_surface_keyboard_FLMS001491_089.txt Node
Date: Tue Feb 07 11:13:47 GMT 2017
User: dcchb
Spectrometer: FLMS00149
Trigger mode: 0
Integration Time (sec): 2.000000E-2
Scans to average: 10
Electric dark correction enabled: true
Nonlinearity correction enabled: false
Boxcar width: 0
XAxis mode: Wavelengths
Number of Pixels in Spectrum: 2048
>>>>>Begin Spectral Data<<<<<
341.393	-29.42
341.776	-29.42
342.16	-29.42
342.543	-71.23
342.927	-78.91
343.31	-87.95
343.693	-76.42
344.077	-81.17
344.46	-41.4
344.843	-42.08
345.226	-37.56
345.61	-26.71
345.993	1.99
346.376	-1.85
346.759	7.42
347.142	21.2
347.525	51.93
347.908	53.74
348.291	73.18
348.674	94.42
349.057	91.25
349.44	145.94
349.823	134.19
350.206	168.99
350.588	192.49
350.971	181.87
351.354	188.88
351.737	217.58
352.119	223.91
352.502	237.24
352.884	248.54
353.267	269.33
353.65	268.65
354.032	286.28
354.414	272.27
354.797	294.64
355.179	295.32
355.562	289.44
355.944	310.01
356.326	314.3
356.709	320.85
357.091	315.88
357.473	315.43
357.855	304.13
358.238	343.45
358.62	327.63
359.002	325.37
359.384	317.46
359.766	327.63
360.148	319.27
360.53	321.31
360.912	324.47
361.294	306.16
361.676	321.98
362.057	285.37
362.439	312.94
362.821	324.24
363.203	306.62
363.584	322.66
363.966	305.49
364.348	304.58
364.729	298.71
365.111	284.02
365.493	300.97
365.874	297.12
366.256	284.7
366.637	294.64
367.019	296
367.4	305.94
367.781	304.81
368.163	284.7
368.544	271.36
368.925	279.05
369.306	300.97
369.688	293.74
370.069	296.67
370.45	282.66
370.831	296
371.212	282.44
371.593	288.76
371.974	301.19
372.355	284.92
372.736	284.02
373.117	282.89
373.498	304.36
373.879	275.66
374.26	293.96
374.641	311.14
375.021	299.16
375.402	292.61
375.783	316.79
376.163	284.47
376.544	289.67
376.925	303
377.305	286.5
377.686	307.29
378.066	310.68
378.447	287.86
378.827	308.42
379.208	314.53
379.588	309.33
379.968	291.7
380.349	309.33
380.729	298.03
381.109	289.89
381.489	306.62
381.87	318.14
382.25	297.58
382.63	303.45
383.01	296
383.39	317.24
383.77	315.43
384.15	308.88
384.53	318.82
384.91	302.55
385.29	323.79
385.67	307.52
386.049	315.43
386.429	324.92
386.809	309.55
387.189	301.64
387.568	322.89
387.948	316.56
388.328	318.14
388.707	335.09
389.087	328.99
389.466	305.94
389.846	318.14
390.225	320.18
390.605	313.62
390.984	328.54
391.363	303.23
391.743	329.21
392.122	325.15
392.501	336.45
392.881	326.5
393.26	323.79
393.639	320.4
394.018	326.28
394.397	344.13
394.776	334.19
395.155	340.97
395.534	337.35
395.913	326.05
396.292	334.64
396.671	335.09
397.05	337.58
397.429	338.71
397.808	340.74
398.186	328.76
398.565	332.38
398.944	356.56
399.323	324.47
399.701	335.09
400.08	339.61
400.458	342.77
400.837	354.07
401.215	349.33
401.594	344.36
401.972	355.88
402.351	343.68
402.729	340.29
403.107	347.75
403.486	354.07
403.864	356.11
404.242	366.05
404.62	339.84
404.999	368.76
405.377	363.11
405.755	367.41
406.133	351.81
406.511	368.08
406.889	352.94
407.267	391.36
407.645	364.47
408.023	361.53
408.401	360.4
408.779	367.18
409.156	382.77
409.534	393.85
409.912	382.09
410.29	361.08
410.667	377.57
411.045	372.83
411.422	375.99
411.8	390.46
412.178	387.74
412.555	364.47
412.933	355.88
413.31	384.13
413.687	394.3
414.065	383.68
414.442	380.29
414.819	378.25
415.197	386.39
415.574	393.85
415.951	389.1
416.328	404.01
416.705	393.85
417.082	405.37
417.46	394.07
417.837	387.74
418.214	382.77
418.591	393.17
418.967	394.52
419.344	405.14
419.721	412.6
420.098	389.33
420.475	412.6
420.852	409.21
421.228	408.76
421.605	413.51
421.982	400.85
422.358	420.96
422.735	397.91
423.111	407.4
423.488	417.12
423.864	415.31
424.241	407.63
424.617	416.22
424.994	429.32
425.37	422.09
425.746	437.91
426.123	435.88
426.499	429.78
426.875	416.67
427.251	429.78
427.627	420.06
428.003	443.79
428.379	444.47
428.756	444.92
429.132	422.77
429.507	439.27
429.883	452.38
430.259	467.06
430.635	470
431.011	468.42
431.387	453.96
431.763	478.36
432.138	476.1
432.514	457.12
432.89	486.72
433.265	460.51
433.641	474.07
434.016	493.05
434.392	478.82
434.767	502.54
435.143	468.65
435.518	481.07
435.894	475.2
436.269	489.44
436.644	490.11
437.02	491.7
437.395	486.5
437.77	509.1
438.145	513.62
438.52	475.43
438.895	512.03
439.271	504.58
439.646	493.96
440.021	518.59
440.395	514.29
440.77	524.24
441.145	517.68
441.52	513.62
441.895	550.68
442.27	521.98
442.645	538.02
443.019	513.84
443.394	534.63
443.769	538.25
444.143	542.99
444.518	566.72
444.892	541.41
445.267	542.09
445.641	561.98
446.016	568.53
446.39	546.16
446.764	564.24
447.139	533.05
447.513	559.49
447.887	565.82
448.262	581.41
448.636	563.78
449.01	568.98
449.384	559.94
449.758	575.08
450.132	547.06
450.506	585.48
450.88	579.38
451.254	571.02
451.628	579.38
452.002	592.71
452.376	587.74
452.75	605.59
453.123	597.91
453.497	599.72
453.871	620.28
454.244	615.53
454.618	592.94
454.992	609.66
455.365	601.3
455.739	604.46
456.112	632.94
456.486	619.15
456.859	628.42
457.232	625.03
457.606	664.57
457.979	627.74
458.352	616.21
458.725	637.91
459.099	665.93
459.472	639.94
459.845	661.41
460.218	665.48
460.591	663.89
460.964	662.99
461.337	686.27
461.71	644.23
462.083	698.02
462.456	679.71
462.829	698.7
463.201	713.84
463.574	702.09
463.947	694.85
464.32	720.16
464.692	707.06
465.065	725.81
465.438	725.59
465.81	707.06
466.183	741.86
466.555	743.21
466.928	719.03
467.3	755.87
467.672	735.53
468.045	739.37
468.417	763.78
468.789	762.42
469.161	774.4
469.534	771.46
469.906	789.77
470.278	761.75
470.65	778.02
471.022	789.77
471.394	787.28
471.766	827.73
472.138	812.37
472.51	821.18
472.882	848.75
473.253	829.99
473.625	854.17
473.997	845.59
474.369	857.56
474.74	875.41
475.112	859.37
475.484	874.06
475.855	901.18
476.227	872.7
476.598	897.34
476.97	899.59
477.341	924.45
477.713	915.19
478.084	932.59
478.455	957.67
478.827	968.75
479.198	961.74
479.569	976.43
479.94	968.52
480.311	985.69
480.682	1004.68
481.053	1010.33
481.424	1024.11
481.795	1038.57
482.166	1056.65
482.537	1045.81
482.908	1072.47
483.279	1065.47
483.65	1080.38
484.021	1084.22
484.391	1089.87
484.762	1136.88
485.133	1106.14
485.503	1128.74
485.874	1137.78
486.244	1145.69
486.615	1153.15
486.985	1150.89
487.356	1163.99
487.726	1167.61
488.097	1192.47
488.467	1216.2
488.837	1181.62
489.207	1196.99
489.578	1221.62
489.948	1218.46
490.318	1208.74
490.688	1248.74
491.058	1213.49
491.428	1270.21
491.798	1246.25
492.168	1270.43
492.538	1293.48
492.908	1295.74
493.278	1307.27
493.648	1298
494.017	1331.45
494.387	1297.32
494.757	1299.81
495.126	1328.74
495.496	1330.32
495.866	1321.05
496.235	1320.15
496.605	1353.82
496.974	1350.43
497.344	1338.23
497.713	1350.43
498.082	1372.35
498.452	1366.25
498.821	1382.52
499.19	1354.05
499.559	1373.03
499.928	1363.31
500.298	1349.53
500.667	1413.48
501.036	1367.38
501.405	1375.51
501.774	1373.03
502.143	1378.45
502.512	1395.63
502.88	1400.6
503.249	1441.28
503.618	1408.28
503.987	1395.18
504.356	1414.16
504.724	1404.21
505.093	1401.5
505.462	1417.32
505.83	1376.42
506.199	1433.82
506.567	1440.82
506.936	1421.39
507.304	1459.58
507.672	1457.55
508.041	1442.86
508.409	1453.93
508.777	1485.34
509.145	1467.49
509.514	1463.2
509.882	1476.75
510.25	1458.68
510.618	1501.16
510.986	1458.45
511.354	1451.22
511.722	1485.12
512.09	1486.47
512.458	1509.52
512.826	1485.57
513.193	1499.58
513.561	1505.45
513.929	1502.97
514.297	1487.15
514.664	1529.41
515.032	1509.3
515.4	1512.69
515.767	1530.76
516.135	1514.72
516.502	1499.81
516.869	1561.27
517.237	1549.97
517.604	1520.6
517.972	1530.31
518.339	1545
518.706	1538.45
519.073	1568.05
519.44	1524.21
519.808	1551.78
520.175	1533.48
520.542	1560.14
520.909	1573.25
521.276	1576.41
521.643	1577.32
522.009	1571.67
522.376	1582.51
522.743	1604.89
523.11	1590.42
523.477	1582.51
523.843	1605.79
524.21	1584.1
524.577	1589.75
524.943	1606.02
525.31	1605.79
525.676	1618.9
526.043	1643.53
526.409	1635.17
526.776	1618.22
527.142	1629.52
527.508	1627.94
527.874	1645.79
528.241	1635.39
528.607	1643.98
528.973	1670.2
529.339	1647.37
529.705	1679.46
530.071	1639.91
530.437	1665.22
530.803	1670.87
531.169	1675.17
531.535	1667.26
531.901	1678.56
532.267	1686.24
532.632	1680.37
532.998	1677.88
533.364	1683.98
533.73	1665.68
534.095	1684.43
534.461	1694.38
534.826	1718.56
535.192	1711.55
535.557	1691.21
535.923	1719.69
536.288	1694.83
536.653	1686.47
537.019	1710.65
537.384	1692.79
537.749	1705
538.114	1737.77
538.479	1714.94
538.845	1697.99
539.21	1703.87
539.575	1681.95
539.94	1728.27
540.305	1703.64
540.67	1696.18
541.034	1733.02
541.399	1664.55
541.764	1733.02
542.129	1689.63
542.494	1719.23
542.858	1699.8
543.223	1746.8
543.587	1694.38
543.952	1694.6
544.316	1732.34
544.681	1741.61
545.045	1716.07
545.41	1742.96
545.774	1725.11
546.138	1732.34
546.503	1697.09
546.867	1745.67
547.231	1702.06
547.595	1718.33
547.959	1756.3
548.324	1775.96
548.688	1709.97
549.052	1733.92
549.416	1717.2
549.779	1753.81
550.143	1714.71
550.507	1737.31
550.871	1752
551.235	1728.5
551.599	1756.75
551.962	1724.88
552.326	1726.01
552.689	1768.27
553.053	1726.69
553.417	1762.4
553.78	1757.43
554.143	1729.18
554.507	1740.7
554.87	1719.91
555.234	1758.1
555.597	1758.56
555.96	1766.01
556.323	1778.22
556.686	1775.05
557.05	1745.22
557.413	1781.15
557.776	1774.83
558.139	1774.15
558.502	1784.09
558.865	1765.79
559.228	1782.74
559.59	1791.55
559.953	1767.59
560.316	1795.84
560.679	1771.44
561.041	1800.59
561.404	1768.27
561.767	1831.32
562.129	1809.85
562.492	1804.66
562.854	1817.31
563.217	1805.56
563.579	1812.57
563.941	1837.2
564.304	1808.5
564.666	1808.05
565.028	1819.12
565.39	1806.24
565.753	1841.94
566.115	1822.28
566.477	1844.65
566.839	1866.12
567.201	1870.19
567.563	1841.49
567.925	1842.17
568.287	1839.01
568.648	1843.75
569.01	1862.06
569.372	1850.3
569.734	1869.51
570.095	1836.52
570.457	1883.07
570.819	1854.82
571.18	1845.11
571.542	1878.1
571.903	1890.53
572.265	1874.03
572.626	1873.81
572.987	1868.38
573.349	1886.46
573.71	1899.57
574.071	1909.96
574.432	1899.57
574.794	1926.91
575.155	1890.08
575.516	1892.34
575.877	1952.9
576.238	1908.16
576.599	1931.21
576.96	1921.26
577.32	1888.72
577.681	1928.49
578.042	1905.22
578.403	1921.04
578.763	1916.52
579.124	1906.35
579.485	1928.04
579.845	1952.9
580.206	1931.21
580.566	1918.78
580.927	1928.95
581.287	1944.09
581.648	1903.64
582.008	1944.77
582.368	1935.27
582.728	1934.14
583.089	1917.2
583.449	1953.8
583.809	1954.03
584.169	1904.99
584.529	1956.06
584.889	1963.75
585.249	1944.31
585.609	1956.06
585.969	1942.73
586.329	1954.03
586.688	1920.13
587.048	1931.88
587.408	1961.71
587.768	1961.71
588.127	1955.61
588.487	1958.55
588.846	1963.3
589.206	1919.68
589.565	1946.8
589.925	1950.19
590.284	1975.27
590.643	1959
591.003	1952.9
591.362	1980.02
591.721	1946.57
592.08	1977.76
592.44	1966.91
592.799	1963.97
593.158	1956.52
593.517	1977.31
593.876	1978.44
594.235	1993.8
594.593	2005.55
594.952	1976.85
595.311	2002.16
595.67	1998.1
596.029	2020.47
596.387	1973.24
596.746	1959.91
597.104	2001.49
597.463	1978.66
597.822	1979.57
598.18	2005.78
598.538	1970.08
598.897	2014.82
599.255	2021.83
599.613	2031.32
599.972	1999.45
600.33	2023.41
600.688	1990.64
601.046	2006.23
601.404	1997.19
601.762	1994.03
602.12	2013.69
602.478	2016.85
602.836	1999.68
603.194	2028.15
603.552	1996.52
603.91	2002.39
604.268	2031.54
604.625	2027.25
604.983	2018.44
605.341	2038.32
605.698	2031.77
606.056	2032.22
606.413	2052.79
606.771	2035.16
607.128	2020.02
607.485	2025.89
607.843	2064.08
608.2	2028.6
608.557	2043.29
608.914	2061.82
609.272	2036.06
609.629	2043.97
609.986	2071.99
610.343	2037.19
610.7	2107.7
611.057	2062.73
611.414	2076.74
611.771	2062.28
612.127	2048.94
612.484	2096.17
612.841	2095.5
613.198	2074.93
613.554	2078.1
613.911	2108.6
614.267	2088.94
614.624	2091.88
614.98	2110.64
615.337	2113.12
615.693	2107.02
616.05	2100.69
616.406	2091.88
616.762	2108.83
617.118	2119.45
617.475	2128.04
617.831	2144.31
618.187	2099.11
618.543	2127.81
618.899	2158.77
619.255	2119.9
619.611	2147.02
619.967	2145.66
620.323	2127.36
620.678	2151.99
621.034	2160.13
621.39	2127.36
621.746	2155.38
622.101	2163.52
622.457	2172.33
622.812	2161.03
623.168	2167.36
623.523	2177.75
623.879	2157.19
624.234	2160.8
624.589	2189.73
624.945	2171.43
625.3	2181.6
625.655	2204.87
626.01	2209.62
626.365	2182.27
626.72	2194.25
627.075	2183.4
627.43	2186.79
627.785	2173.46
628.14	2209.39
628.495	2203.74
628.85	2199.67
629.205	2203.29
629.559	2207.13
629.914	2217.98
630.269	2219.33
630.623	2231.54
630.978	2243.74
631.332	2235.83
631.687	2257.3
632.041	2218.88
632.396	2222.95
632.75	2244.64
633.104	2272.44
633.459	2242.38
633.813	2224.76
634.167	2236.51
634.521	2284.87
634.875	2290.97
635.229	2237.19
635.583	2270.18
635.937	2259.56
636.291	2278.99
636.645	2302.27
636.999	2269.95
637.352	2288.94
637.706	2272.67
638.06	2316.51
638.413	2285.1
638.767	2252.55
639.121	2301.14
639.474	2286.9
639.828	2314.02
640.181	2334.13
640.534	2327.58
640.888	2310.63
641.241	2309.05
641.594	2326.68
641.947	2384.3
642.301	2319.9
642.654	2339.11
643.007	2356.28
643.36	2377.52
643.713	2353.57
644.066	2390.63
644.419	2372.78
644.771	2380.46
645.124	2362.38
645.477	2396.96
645.83	2375.04
646.182	2345.88
646.535	2343.17
646.888	2385.43
647.24	2389.05
647.593	2395.83
647.945	2402.61
648.298	2373.23
648.65	2424.98
649.002	2406.45
649.355	2420.68
649.707	2441.02
650.059	2477.18
650.411	2469.72
650.763	2498.42
651.115	2534.35
651.467	2498.87
651.819	2535.94
652.171	2517.18
652.523	2537.52
652.875	2531.64
653.227	2582.71
653.578	2576.16
653.93	2591.3
654.282	2593.34
654.633	2578.87
654.985	2636.95
655.337	2593.11
655.688	2623.17
656.039	2633.56
656.391	2656.38
656.742	2675.37
657.094	2667.46
657.445	2668.59
657.796	2676.27
658.147	2700.23
658.498	2687.34
658.849	2724.63
659.2	2713.33
659.551	2740.68
659.902	2755.14
660.253	2777.06
660.604	2760.34
660.955	2775.03
661.306	2798.75
661.656	2788.58
662.007	2821.8
662.358	2831.07
662.708	2875.36
663.059	2842.59
663.409	2855.02
663.76	2892.31
664.11	2885.31
664.461	2885.98
664.811	2951.29
665.161	2923.72
665.511	2925.98
665.862	2952.87
666.212	3006.66
666.562	2991.07
666.912	2996.49
667.262	2973.44
667.612	3020.67
667.962	3043.04
668.312	3054.11
668.662	3002.36
669.011	3097.73
669.361	3068.13
669.711	3078.52
670.06	3093.89
670.41	3072.42
670.76	3145.64
671.109	3115.36
671.459	3199.2
671.808	3163.49
672.157	3154
672.507	3181.57
672.856	3207.56
673.205	3192.87
673.554	3193.77
673.904	3207.78
674.253	3323.71
674.602	3287.33
674.951	3216.82
675.3	3249.36
675.649	3262.24
675.998	3246.2
676.346	3328.46
676.695	3334.56
677.044	3304.73
677.393	3353.77
677.741	3368.23
678.09	3342.02
678.438	3368.23
678.787	3371.85
679.135	3425.63
679.484	3397.16
679.832	3453.65
680.181	3411.39
680.529	3392.64
680.877	3442.13
681.225	3439.42
681.573	3495.23
681.922	3451.39
682.27	3493.2
682.618	3513.09
682.966	3501.11
683.314	3520.99
683.661	3503.14
684.009	3507.21
684.357	3498.62
684.705	3540.43
685.053	3583.14
685.4	3564.38
685.748	3589.24
686.095	3578.17
686.443	3540.2
686.79	3589.47
687.138	3580.88
687.485	3611.16
687.832	3622.69
688.18	3631.05
688.527	3611.39
688.874	3599.86
689.221	3623.37
689.568	3604.16
689.915	3629.69
690.262	3625.4
690.609	3631.95
690.956	3625.4
691.303	3658.17
691.65	3625.4
691.997	3640.31
692.344	3667.43
692.69	3634.66
693.037	3650.71
693.383	3664.95
693.73	3679.86
694.077	3651.61
694.423	3638.51
694.769	3612.52
695.116	3647.32
695.462	3651.61
695.808	3630.6
696.155	3640.31
696.501	3684.15
696.847	3706.53
697.193	3610.26
697.539	3661.33
697.885	3661.56
698.231	3647.55
698.577	3663.82
698.923	3641.67
699.269	3645.74
699.614	3648.68
699.96	3623.14
700.306	3625.4
700.651	3650.03
700.997	3610.94
701.342	3596.25
701.688	3626.98
702.033	3622.24
702.379	3645.96
702.724	3629.92
703.069	3636.02
703.415	3590.37
703.76	3578.39
704.105	3570.03
704.45	3614.78
704.795	3617.26
705.14	3561.67
705.485	3559.86
705.83	3585.17
706.175	3577.04
706.52	3572.75
706.865	3550.15
707.209	3586.08
707.554	3544.72
707.899	3567.32
708.243	3533.88
708.588	3578.62
708.932	3594.67
709.277	3558.73
709.621	3539.75
709.966	3521.22
710.31	3544.95
710.654	3571.16
710.998	3537.94
711.342	3554.21
711.687	3548.34
712.031	3528
712.375	3500.88
712.719	3534.55
713.063	3514.67
713.407	3575.91
713.75	3531.62
714.094	3506.53
714.438	3442.8
714.782	3503.14
715.125	3520.32
715.469	3522.12
715.812	3500.2
716.156	3481.45
716.499	3496.14
716.843	3537.49
717.186	3501.79
717.53	3531.39
717.873	3487.55
718.216	3499.75
718.559	3477.83
718.902	3476.7
719.246	3474.89
719.589	3502.24
719.932	3471.5
720.275	3484.39
720.617	3526.42
720.96	3444.84
721.303	3476.7
721.646	3492.3
721.989	3469.47
722.331	3484.61
722.674	3503.37
723.016	3484.84
723.359	3512.86
723.701	3494.56
724.044	3493.43
724.386	3479.87
724.729	3519.41
725.071	3494.1
725.413	3497.94
725.755	3448.68
726.097	3498.85
726.439	3481.45
726.782	3479.64
727.124	3477.38
727.465	3514.67
727.807	3504.05
728.149	3515.12
728.491	3510.83
728.833	3555.12
729.175	3493.88
729.516	3496.14
729.858	3501.11
730.199	3545.4
730.541	3482.8
730.882	3535.91
731.224	3553.08
731.565	3523.03
731.906	3514.44
732.248	3554.21
732.589	3521.45
732.93	3511.28
733.271	3548.11
733.612	3494.33
733.953	3528.23
734.294	3530.94
734.635	3545.85
734.976	3506.53
735.317	3531.62
735.658	3539.53
735.999	3579.75
736.339	3549.24
736.68	3570.94
737.021	3586.53
737.361	3562.12
737.702	3558.28
738.042	3612.29
738.383	3550.6
738.723	3615.23
739.063	3589.92
739.404	3652.52
739.744	3627.66
740.084	3637.6
740.424	3639.64
740.764	3627.21
741.104	3670.82
741.444	3679.63
741.784	3678.5
742.124	3688.45
742.464	3651.39
742.804	3671.5
743.143	3662.69
743.483	3693.42
743.823	3710.59
744.162	3702.23
744.502	3753.53
744.841	3740.65
745.181	3782.46
745.52	3740.42
745.86	3795.79
746.199	3785.17
746.538	3805.73
746.877	3837.82
747.216	3817.94
747.556	3855.45
747.895	3852.74
748.234	3884.6
748.573	3870.36
748.911	3879.86
749.25	3924.6
749.589	3904.04
749.928	3912.85
750.267	3954.88
750.605	3990.81
750.944	3990.81
751.283	4019.51
751.621	4037.59
751.96	4047.76
752.298	4066.97
752.636	4083.69
752.975	4086.63
753.313	4104.71
753.651	4154.42
753.989	4156.01
754.327	4183.35
754.666	4212.05
755.004	4199.17
755.342	4222.22
755.679	4210.69
756.017	4238.94
756.355	4265.61
756.693	4239.62
757.031	4344.93
757.368	4290.01
757.706	4360.97
758.044	4361.88
758.381	4336.79
758.719	4362.33
759.056	4411.82
759.394	4418.82
759.731	4402.1
760.068	4449.11
760.405	4444.59
760.743	4420.41
761.08	4455.66
761.417	4475.09
761.754	4523.68
762.091	4533.85
762.428	4500.86
762.765	4497.01
763.102	4540.4
763.438	4534.08
763.775	4505.6
764.112	4572.04
764.449	4537.47
764.785	4556.67
765.122	4544.7
765.458	4573.62
765.795	4548.76
766.131	4587.86
766.467	4583.11
766.804	4593.96
767.14	4581.98
767.476	4594.87
767.812	4620.4
768.148	4575.43
768.485	4588.09
768.821	4598.93
769.157	4576.33
769.492	4640.29
769.828	4622.21
770.164	4581.53
770.5	4578.59
770.836	4594.87
771.171	4533.17
771.507	4561.65
771.842	4495.88
