Data from blue_surface_keyboard_FLMS001491_007.txt Node
Date: Tue Feb 07 11:12:33 GMT 2017
User: dcchb
Spectrometer: FLMS00149
Trigger mode: 0
Integration Time (sec): 2.000000E-2
Scans to average: 10
Electric dark correction enabled: true
Nonlinearity correction enabled: false
Boxcar width: 0
XAxis mode: Wavelengths
Number of Pixels in Spectrum: 2048
>>>>>Begin Spectral Data<<<<<
341.393	-18.53
341.776	-18.53
342.16	-18.53
342.543	-44.29
342.927	-65.99
343.31	-72.09
343.693	-85.65
344.077	-62.82
344.46	-68.25
344.843	-38.87
345.226	-38.64
345.61	-29.15
345.993	-9.94
346.376	-4.07
346.759	10.4
347.142	24.86
347.525	55.37
347.908	63.05
348.291	73.9
348.674	71.18
349.057	110.73
349.44	136.04
349.823	149.6
350.206	176.72
350.588	192.31
350.971	193.22
351.354	209.03
351.737	214.91
352.119	247.23
352.502	217.17
352.884	242.25
353.267	270.28
353.65	255.81
354.032	239.99
354.414	280.44
354.797	292.87
355.179	291.97
355.562	311.63
355.944	307.79
356.326	310.05
356.709	312.31
357.091	293.55
357.473	314.57
357.855	311.4
358.238	317.28
358.62	331.06
359.002	306.88
359.384	329.93
359.766	317.73
360.148	326.09
360.53	327.67
360.912	316.15
361.294	323.61
361.676	322.48
362.057	320.44
362.439	306.66
362.821	301.46
363.203	295.36
363.584	308.92
363.966	305.3
364.348	295.81
364.729	303.04
365.111	286.55
365.493	282.48
365.874	279.09
366.256	308.92
366.637	276.15
367.019	303.27
367.4	289.48
367.781	292.65
368.163	282.48
368.544	293.78
368.925	283.61
369.306	288.81
369.688	293.33
370.069	275.25
370.45	291.07
370.831	266.66
371.212	302.82
371.593	298.3
371.974	267.79
372.355	286.55
372.736	269.15
373.117	304.4
373.498	285.19
373.879	264.4
374.26	283.61
374.641	291.07
375.021	286.32
375.402	310.05
375.783	316.15
376.163	305.08
376.544	290.39
376.925	308.69
377.305	284.51
377.686	311.63
378.066	302.14
378.447	278.41
378.827	294
379.208	325.19
379.588	288.58
379.968	295.36
380.349	306.43
380.729	306.66
381.109	297.85
381.489	313.44
381.87	308.92
382.25	301.46
382.63	311.18
383.01	289.48
383.39	316.83
383.77	291.52
384.15	312.31
384.53	291.07
384.91	322.7
385.29	302.36
385.67	302.36
386.049	305.3
386.429	335.36
386.809	323.16
387.189	300.78
387.568	351.4
387.948	296.04
388.328	295.81
388.707	306.88
389.087	314.34
389.466	314.57
389.846	325.42
390.225	312.53
390.605	313.89
390.984	312.08
391.363	303.04
391.743	308.47
392.122	329.48
392.501	295.59
392.881	319.31
393.26	338.75
393.639	330.16
394.018	330.61
394.397	302.82
394.776	334.23
395.155	337.84
395.534	317.05
395.913	331.74
396.292	335.58
396.671	344.62
397.05	331.29
397.429	333.1
397.808	324.06
398.186	341.01
398.565	338.3
398.944	328.13
399.323	326.77
399.701	328.8
400.08	345.98
400.458	349.82
400.837	354.79
401.215	338.3
401.594	316.83
401.972	341.23
402.351	331.97
402.729	352.99
403.107	332.87
403.486	349.6
403.864	329.03
404.242	346.21
404.62	325.19
404.999	326.55
405.377	341.46
405.755	370.16
406.133	354.34
406.511	362.48
406.889	352.08
407.267	357.28
407.645	367.9
408.023	352.76
408.401	319.54
408.779	355.92
409.156	360.67
409.534	353.66
409.912	372.65
410.29	360.44
410.667	356.83
411.045	371.29
411.422	346.66
411.8	376.71
412.178	369.48
412.555	374.68
412.933	362.7
413.31	385.07
413.687	369.71
414.065	389.14
414.442	376.04
414.819	378.3
415.197	382.14
415.574	383.72
415.951	383.49
416.328	394.57
416.705	405.87
417.082	397.28
417.46	399.54
417.837	385.07
418.214	380.78
418.591	410.38
418.967	392.98
419.344	397.96
419.721	398.63
420.098	382.59
420.475	407.9
420.852	400.22
421.228	419.65
421.605	414.45
421.982	402.48
422.358	410.84
422.735	397.5
423.111	424.62
423.488	413.55
423.864	407.9
424.241	422.59
424.617	418.52
424.994	420.55
425.37	428.92
425.746	429.14
426.123	436.37
426.499	431.18
426.875	414.23
427.251	417.16
427.627	430.95
428.003	421.46
428.379	438.63
428.756	436.82
429.132	420.78
429.507	449.03
429.883	432.98
430.259	444.51
430.635	451.06
431.011	447.45
431.387	486.99
431.763	453.55
432.138	443.6
432.514	460.55
432.89	445.86
433.265	461.23
433.641	482.02
434.016	458.74
434.392	473.43
434.767	463.49
435.143	453.1
435.518	460.55
435.894	464.62
436.269	483.83
436.644	503.94
437.02	486.54
437.395	501.23
437.77	493.32
438.145	506.2
438.52	500.78
438.895	488.57
439.271	531.29
439.646	496.03
440.021	511.17
440.395	526.99
440.77	507.11
441.145	526.77
441.52	519.99
441.895	519.31
442.27	524.73
442.645	529.03
443.019	523.6
443.394	508.91
443.769	511.62
444.143	545.97
444.518	538.97
444.892	532.64
445.267	519.76
445.641	527.9
446.016	542.81
446.39	554.56
446.764	538.52
447.139	529.7
447.513	545.97
447.887	533.77
448.262	553.88
448.636	565.41
449.01	538.74
449.384	552.75
449.758	568.57
450.132	562.47
450.506	554.11
450.88	580.55
451.254	569.02
451.628	568.8
452.002	568.57
452.376	570.38
452.75	601.57
453.123	579.42
453.497	583.71
453.871	567.67
454.244	597.95
454.618	594.56
454.992	578.52
455.365	603.6
455.739	601.79
456.112	602.47
456.486	612.87
456.859	613.09
457.232	612.19
457.606	607.44
457.979	604.96
458.352	614.22
458.725	634.33
459.099	635.01
459.472	625.97
459.845	628.23
460.218	658.51
460.591	652.41
460.964	653.54
461.337	655.58
461.71	658.51
462.083	668.68
462.456	674.56
462.829	683.15
463.201	655.12
463.574	678.85
463.947	669.13
464.32	662.81
464.692	685.63
465.065	702.58
465.438	677.5
465.81	720.66
466.183	713.88
466.555	720.43
466.928	712.3
467.3	715.01
467.672	721.56
468.045	737.16
468.417	737.38
468.789	755.69
469.161	761.34
469.534	718.17
469.906	754.78
470.278	774.22
470.65	772.18
471.022	771.05
471.394	783.03
471.766	788.23
472.138	778.51
472.51	788.91
472.882	805.18
473.253	802.01
473.625	818.51
473.997	806.76
474.369	815.12
474.74	818.28
475.112	864.61
475.484	855.12
475.855	858.28
476.227	879.3
476.598	878.62
476.97	884.5
477.341	900.32
477.713	922.46
478.084	931.27
478.455	937.38
478.827	908
479.198	951.61
479.569	938.28
479.94	931.95
480.311	973.08
480.682	994.55
481.053	993.87
481.424	990.48
481.795	997.04
482.166	1017.37
482.537	1021.22
482.908	1029.13
483.279	1031.61
483.65	1034.55
484.021	1049.01
484.391	1065.28
484.762	1053.31
485.133	1046.07
485.503	1063.02
485.874	1067.77
486.244	1098.28
486.615	1123.81
486.985	1113.42
487.356	1135.56
487.726	1136.47
488.097	1155.45
488.467	1138.95
488.837	1163.36
489.207	1159.97
489.578	1188.22
489.948	1173.75
490.318	1221.89
490.688	1191.16
491.058	1240.87
491.428	1232.96
491.798	1223.92
492.168	1258.05
492.538	1257.37
492.908	1239.29
493.278	1237.93
493.648	1244.04
494.017	1265.28
494.387	1263.7
494.757	1272.28
495.126	1292.4
495.496	1284.94
495.866	1267.54
496.235	1283.36
496.605	1289.91
496.974	1262.34
497.344	1299.17
497.713	1303.24
498.082	1282.45
498.452	1322.68
498.821	1347.76
499.19	1310.7
499.559	1308.44
499.928	1299.85
500.298	1368.33
500.667	1342.56
501.036	1334.88
501.405	1331.49
501.774	1354.99
502.143	1333.3
502.512	1348.89
502.88	1364.03
503.249	1375.11
503.618	1371.49
503.987	1342.34
504.356	1355.22
504.724	1352.05
505.093	1340.98
505.462	1386.86
505.83	1362.22
506.199	1395.67
506.567	1393.18
506.936	1403.8
507.304	1389.34
507.672	1387.08
508.041	1380.08
508.409	1391.6
508.777	1390.7
509.145	1431.37
509.514	1404.71
509.882	1412.84
510.25	1421.43
510.618	1404.71
510.986	1404.93
511.354	1422.34
511.722	1425.27
512.09	1438.38
512.458	1415.78
512.826	1435.67
513.193	1439.28
513.561	1440.64
513.929	1467.53
514.297	1440.19
514.664	1464.59
515.032	1484.03
515.4	1449.23
515.767	1474.76
516.135	1485.61
516.502	1456.91
516.869	1432.05
517.237	1465.72
517.604	1439.74
517.972	1486.29
518.339	1503.46
518.706	1475.89
519.073	1496.46
519.44	1478.61
519.808	1488.32
520.175	1496.23
520.542	1493.29
520.909	1512.5
521.276	1503.46
521.643	1480.87
522.009	1507.3
522.376	1531.03
522.743	1493.97
523.11	1523.12
523.477	1513.41
523.843	1540.75
524.21	1522.22
524.577	1549.11
524.943	1567.42
525.31	1542.33
525.676	1561.77
526.043	1534.65
526.409	1553.86
526.776	1562.22
527.142	1535.33
527.508	1575.33
527.874	1557.02
528.241	1566.06
528.607	1556.12
528.973	1604.93
529.339	1573.97
529.705	1574.2
530.071	1600.86
530.437	1584.37
530.803	1571.26
531.169	1586.17
531.535	1597.02
531.901	1592.73
532.267	1583.46
532.632	1597.92
532.998	1613.74
533.364	1607.19
533.73	1566.29
534.095	1625.27
534.461	1611.71
534.826	1621.43
535.192	1624.36
535.557	1606.74
535.923	1601.31
536.288	1632.27
536.653	1637.47
537.019	1602.9
537.384	1627.53
537.749	1643.12
538.114	1628.21
538.479	1606.51
538.845	1627.98
539.21	1606.29
539.575	1616
539.94	1588.66
540.305	1592.95
540.67	1597.92
541.034	1604.93
541.399	1660.52
541.764	1606.06
542.129	1635.21
542.494	1606.96
542.858	1635.44
543.223	1615.55
543.587	1626.4
543.952	1644.25
544.316	1640.18
544.681	1635.44
545.045	1627.08
545.41	1641.99
545.774	1617.13
546.138	1642.22
546.503	1605.83
546.867	1631.14
547.231	1615.78
547.595	1628.21
547.959	1615.55
548.324	1622.1
548.688	1616.91
549.052	1623.69
549.416	1639.73
549.779	1642.67
550.143	1643.12
550.507	1632.05
550.871	1647.64
551.235	1644.25
551.599	1630.92
551.962	1615.32
552.326	1642.44
552.689	1663.01
553.053	1630.92
553.417	1644.02
553.78	1665.94
554.143	1644.7
554.507	1649
554.87	1667.07
555.234	1649.22
555.597	1660.97
555.96	1649.67
556.323	1668.43
556.686	1659.84
557.05	1667.98
557.413	1665.27
557.776	1641.31
558.139	1683.8
558.502	1680.18
558.865	1659.84
559.228	1688.09
559.59	1683.12
559.953	1673.63
560.316	1664.81
560.679	1644.48
561.041	1688.54
561.404	1727.41
561.767	1641.54
562.129	1660.07
562.492	1710.92
562.854	1727.41
563.217	1714.98
563.579	1706.17
563.941	1709.33
564.304	1691.71
564.666	1724.7
565.028	1746.39
565.39	1696
565.753	1727.19
566.115	1700.07
566.477	1744.36
566.839	1736.68
567.201	1731.03
567.563	1697.58
567.925	1735.1
568.287	1739.62
568.648	1748.2
569.01	1710.01
569.372	1744.59
569.734	1761.76
570.095	1741.2
570.457	1735.55
570.819	1744.81
571.18	1742.33
571.542	1755.43
571.903	1725.83
572.265	1748.65
572.626	1724.47
572.987	1771.93
573.349	1759.95
573.71	1752.72
574.071	1735.55
574.432	1773.74
574.794	1790.46
575.155	1770.35
575.516	1793.4
575.877	1786.62
576.238	1778.71
576.599	1774.64
576.96	1775.77
577.32	1801.76
577.681	1761.99
578.042	1783.68
578.403	1763.34
578.763	1808.77
579.124	1815.55
579.485	1841.08
579.845	1834.75
580.206	1788.65
580.566	1787.07
580.927	1804.47
581.287	1789.11
581.648	1770.8
582.008	1797.92
582.368	1823.23
582.728	1804.7
583.089	1823
583.449	1783.46
583.809	1806.51
584.169	1795.66
584.529	1820.52
584.889	1804.02
585.249	1793.63
585.609	1785.94
585.969	1848.54
586.329	1805.83
586.688	1805.15
587.048	1817.81
587.408	1802.66
587.768	1792.5
588.127	1816.45
588.487	1787.07
588.846	1792.27
589.206	1792.72
589.565	1828.43
589.925	1827.75
590.284	1814.64
590.643	1821.65
591.003	1806.96
591.362	1837.01
591.721	1826.17
592.08	1827.75
592.44	1812.16
592.799	1820.07
593.158	1820.52
593.517	1852.15
593.876	1817.81
594.235	1812.16
594.593	1830.46
594.952	1836.11
595.311	1827.52
595.67	1859.61
596.029	1860.97
596.387	1860.29
596.746	1864.81
597.104	1826.39
597.463	1847.64
597.822	1839.05
598.18	1853.51
598.538	1875.88
598.897	1854.64
599.255	1865.71
599.613	1865.49
599.972	1832.95
600.33	1892.61
600.688	1879.72
601.046	1852.38
601.404	1864.81
601.762	1828.88
602.12	1864.36
602.478	1868.2
602.836	1882.44
603.194	1894.87
603.552	1866.62
603.91	1893.06
604.268	1893.28
604.625	1890.12
604.983	1899.16
605.341	1881.31
605.698	1883.57
606.056	1902.1
606.413	1905.03
606.771	1912.27
607.128	1903.9
607.485	1879.95
607.843	1902.55
608.2	1921.31
608.557	1889.67
608.914	1888.99
609.272	1899.61
609.629	1921.76
609.986	1882.89
610.343	1923.11
610.7	1913.17
611.057	1961.53
611.414	1930.34
611.771	1910.46
612.127	1923.11
612.484	1876.79
612.841	1952.94
613.198	1939.84
613.554	1931.7
613.911	1945.26
614.267	1951.59
614.624	1959.27
614.98	1957.24
615.337	1954.3
615.693	1952.04
616.05	1983.22
616.406	1968.76
616.762	1968.54
617.118	1949.1
617.475	1984.81
617.831	1983.22
618.187	1992.94
618.543	1991.59
618.899	1985.71
619.255	2037.23
619.611	2008.76
619.967	2012.83
620.323	2033.39
620.678	2024.58
621.034	2018.25
621.39	2005.82
621.746	1998.37
622.101	2046.73
622.457	2025.94
622.812	2031.13
623.168	2009.66
623.523	2034.97
623.879	2012.15
624.234	2042.66
624.589	2022.09
624.945	2024.35
625.3	2060.51
625.655	2021.64
626.01	2037.23
626.365	2073.39
626.72	2059.15
627.075	2037.23
627.43	2058.02
627.785	2044.92
628.14	2044.69
628.495	2063.9
628.85	2067.52
629.205	2069.78
629.559	2083.79
629.914	2056.22
630.269	2060.51
630.623	2074.97
630.978	2094.18
631.332	2090.57
631.687	2075.65
632.041	2075.65
632.396	2127.85
632.75	2101.41
633.104	2151.81
633.459	2084.24
633.813	2110.68
634.167	2125.14
634.521	2117.23
634.875	2117.23
635.229	2106.39
635.583	2126.05
635.937	2138.7
636.291	2114.97
636.645	2147.06
636.999	2150
637.352	2140.28
637.706	2150.23
638.06	2156.78
638.413	2149.1
638.767	2139.38
639.121	2174.41
639.474	2152.71
639.828	2170.11
640.181	2184.35
640.534	2182.77
640.888	2202.88
641.241	2176.21
641.594	2158.59
641.947	2216.21
642.301	2199.49
642.654	2210.56
643.007	2214.63
643.36	2206.04
643.713	2215.53
644.066	2234.74
644.419	2261.64
644.771	2225.25
645.124	2232.03
645.477	2251.92
645.83	2182.32
646.182	2220.51
646.535	2228.42
646.888	2224.35
647.24	2221.18
647.593	2288.53
647.945	2238.36
648.298	2231.35
648.65	2254.86
649.002	2290.34
649.355	2289.21
649.707	2291.47
650.059	2296.44
650.411	2344.12
650.763	2387.73
651.115	2383.21
651.467	2419.15
651.819	2399.48
652.171	2411.91
652.523	2425.25
652.875	2395.64
653.227	2403.55
653.578	2424.12
653.93	2423.44
654.282	2424.57
654.633	2431.35
654.985	2460.5
655.337	2508.63
655.688	2469.31
656.039	2506.6
656.391	2505.24
656.742	2519.03
657.094	2506.83
657.445	2566.94
657.796	2570.78
658.147	2520.61
658.498	2595.41
658.849	2593.15
659.2	2553.83
659.551	2556.54
659.902	2622.3
660.253	2671.12
660.604	2657.11
660.955	2680.61
661.306	2666.6
661.656	2641.74
662.007	2713.15
662.358	2731
662.708	2729.65
663.059	2748.63
663.409	2739.14
663.76	2765.8
664.11	2749.76
664.461	2726.03
664.811	2806.25
665.161	2780.94
665.511	2856.87
665.862	2811.23
666.212	2876.53
666.562	2878.57
666.912	2871.79
667.262	2865.69
667.612	2876.31
667.962	2928.28
668.312	2927.38
668.662	2976.87
669.011	2994.95
669.361	2944.33
669.711	3018
670.06	2972.58
670.41	2995.18
670.76	3045.34
671.109	3007.15
671.459	3005.34
671.808	3018.23
672.157	3052.35
672.507	3036.76
672.856	3091.67
673.205	3072.91
673.554	3104.33
673.904	3103.2
674.253	3151.78
674.602	3093.93
674.951	3131.9
675.3	3101.61
675.649	3161.27
675.998	3153.82
676.346	3186.36
676.695	3219.35
677.044	3178.67
677.393	3245.34
677.741	3302.06
678.09	3241.95
678.438	3273.59
678.787	3250.99
679.135	3298.9
679.484	3308.16
679.832	3335.73
680.181	3325.56
680.529	3334.6
680.877	3288.95
681.225	3315.62
681.573	3357.65
681.922	3356.3
682.27	3369.18
682.618	3386.58
682.966	3352
683.314	3380.48
683.661	3375.28
684.009	3389.74
684.357	3444.43
684.705	3376.41
685.053	3398.78
685.4	3436.07
685.748	3399.46
686.095	3445.79
686.443	3449.63
686.79	3428.84
687.138	3474.26
687.485	3480.13
687.832	3458.21
688.18	3482.85
688.527	3503.64
688.874	3485.33
689.221	3506.12
689.568	3472.23
689.915	3503.64
690.262	3532.34
690.609	3518.1
690.956	3519.23
691.303	3514.71
691.65	3577.31
691.997	3548.38
692.344	3520.81
692.69	3516.52
693.037	3530.3
693.383	3545.9
693.73	3542.28
694.077	3529.62
694.423	3551.77
694.769	3534.6
695.116	3546.12
695.462	3534.14
695.808	3527.36
696.155	3562.17
696.501	3551.77
696.847	3552.9
697.193	3528.04
697.539	3550.64
697.885	3523.3
698.231	3521.26
698.577	3500.92
698.923	3545.9
699.269	3534.6
699.614	3539.79
699.96	3502.73
700.306	3532.56
700.651	3508.38
700.997	3511.77
701.342	3540.47
701.688	3525.78
702.033	3477.2
702.379	3506.57
702.724	3498.21
703.069	3494.37
703.415	3470.42
703.76	3463.41
704.105	3483.98
704.45	3490.98
704.795	3476.97
705.14	3431.77
705.485	3457.08
705.83	3470.87
706.175	3441.94
706.52	3454.6
706.865	3427.25
707.209	3457.76
707.554	3423.19
707.899	3429.51
708.243	3406.46
708.588	3434.71
708.932	3438.1
709.277	3428.61
709.621	3443.53
709.966	3408.5
710.31	3412.57
710.654	3402.62
710.998	3403.07
711.342	3446.92
711.687	3414.83
712.031	3398.33
712.375	3388.61
712.719	3385.67
713.063	3394.04
713.407	3419.57
713.75	3392.91
714.094	3360.36
714.438	3359.91
714.782	3384.54
715.125	3419.57
715.469	3403.98
715.812	3371.21
716.156	3387.03
716.499	3352.45
716.843	3384.54
717.186	3424.09
717.53	3395.62
717.873	3432.68
718.216	3360.82
718.559	3377.31
718.902	3344.77
719.246	3369.18
719.589	3397.88
719.932	3391.32
720.275	3398.33
720.617	3363.53
720.96	3389.29
721.303	3346.58
721.646	3352.68
721.989	3370.53
722.331	3369.4
722.674	3355.62
723.016	3386.13
723.359	3375.73
723.701	3385.9
724.044	3358.33
724.386	3358.56
724.729	3369.63
725.071	3384.32
725.413	3340.48
725.755	3383.64
726.097	3345
726.439	3346.8
726.782	3339.12
727.124	3352.68
727.465	3349.29
727.807	3363.98
728.149	3362.4
728.491	3365.79
728.833	3356.75
729.175	3381.83
729.516	3341.83
729.858	3387.93
730.199	3360.36
730.541	3360.82
730.882	3356.07
731.224	3419.35
731.565	3386.13
731.906	3394.04
732.248	3384.54
732.589	3356.75
732.93	3358.33
733.271	3352.91
733.612	3380.93
733.953	3394.04
734.294	3424.54
734.635	3404.88
734.976	3411.44
735.317	3380.48
735.658	3429.51
735.999	3394.26
736.339	3413.47
736.68	3407.14
737.021	3415.28
737.361	3440.14
737.702	3430.87
738.042	3425.67
738.383	3430.87
738.723	3474.26
739.063	3446.46
739.404	3441.94
739.744	3463.19
740.084	3464.99
740.424	3488.95
740.764	3466.35
741.104	3447.59
741.444	3512
741.784	3519
742.124	3549.51
742.464	3549.74
742.804	3526.69
743.143	3519
743.483	3535.95
743.823	3535.05
744.162	3596.29
744.502	3600.81
744.841	3572.56
745.181	3596.29
745.52	3585.22
745.86	3601.71
746.199	3609.17
746.538	3626.35
746.877	3680.36
747.216	3700.69
747.556	3693.24
747.895	3711.77
748.234	3700.02
748.573	3723.29
748.911	3727.13
749.25	3735.04
749.589	3736.85
749.928	3771.65
750.267	3819.33
750.605	3794.7
750.944	3814.59
751.283	3848.94
751.621	3860.92
751.96	3899.56
752.298	3881.25
752.636	3874.47
752.975	3902.72
753.313	3932.1
753.651	3960.12
753.989	3969.84
754.327	3990.63
754.666	3958.31
755.004	4022.72
755.342	4037.41
755.679	4102.49
756.017	4063.17
756.355	4109.04
756.693	4139.55
757.031	4134.35
757.368	4161.25
757.706	4147.24
758.044	4141.13
758.381	4163.73
758.719	4215.48
759.056	4232.21
759.394	4249.15
759.731	4262.49
760.068	4237.4
760.405	4253.22
760.743	4256.16
761.08	4325.76
761.417	4310.85
761.754	4294.58
762.091	4337.29
762.428	4325.08
762.765	4320.34
763.102	4291.64
763.438	4330.28
763.775	4351.07
764.112	4399.21
764.449	4374.12
764.785	4367.34
765.122	4394.69
765.458	4357.17
765.795	4376.38
766.131	4373.44
766.467	4384.07
766.804	4395.14
767.14	4387.91
767.476	4398.08
767.812	4396.49
768.148	4371.64
768.485	4413.44
768.821	4410.28
769.157	4365.31
769.492	4384.97
769.828	4384.97
770.164	4387.46
770.5	4368.02
770.836	4386.78
771.171	4368.02
771.507	4399.21
771.842	4364.41
772.178	4376.61
