Data from blue_clamp_base_FLMS001491_00091.txt Node
Date: Wed Feb 08 15:16:47 GMT 2017
User: dcchb
Spectrometer: FLMS00149
Trigger mode: 0
Integration Time (sec): 2.000000E-2
Scans to average: 10
Electric dark correction enabled: true
Nonlinearity correction enabled: false
Boxcar width: 0
XAxis mode: Wavelengths
Number of Pixels in Spectrum: 2048
>>>>>Begin Spectral Data<<<<<
341.393	-6.86
341.776	-6.86
342.16	-6.86
342.543	-43.02
342.927	-64.49
343.31	-55.9
343.693	-81.66
344.077	-64.72
344.46	-55
344.843	-55
345.226	-36.92
345.61	-40.76
345.993	-15.23
346.376	-9.12
346.759	-2.12
347.142	31.33
347.525	41.95
347.908	39.69
348.291	83.75
348.674	107.71
349.057	112
349.44	126.01
349.823	146.13
350.206	163.98
350.588	186.8
350.971	214.15
351.354	226.12
351.737	245.78
352.119	241.49
352.502	260.02
352.884	269.29
353.267	274.26
353.65	279.46
354.032	293.01
354.414	293.69
354.797	323.3
355.179	325.56
355.562	325.33
355.944	326.23
356.326	349.51
356.709	326.69
357.091	344.99
357.473	347.02
357.855	335.5
358.238	333.47
358.62	319.45
359.002	345.44
359.384	339.57
359.766	360.81
360.148	328.27
360.53	342.73
360.912	351.09
361.294	343.86
361.676	304.77
362.057	345.67
362.439	344.09
362.821	339.79
363.203	328.95
363.584	342.51
363.966	314.94
364.348	332.34
364.729	319.45
365.111	330.75
365.493	331.43
365.874	325.1
366.256	316.07
366.637	333.69
367.019	337.08
367.4	344.76
367.781	331.88
368.163	331.43
368.544	311.77
368.925	336.18
369.306	334.6
369.688	331.88
370.069	334.37
370.45	324.43
370.831	323.3
371.212	315.61
371.593	324.88
371.974	327.82
372.355	344.31
372.736	314.71
373.117	314.48
373.498	333.92
373.879	326.23
374.26	311.55
374.641	312.45
375.021	337.53
375.402	343.18
375.783	334.6
376.163	358.32
376.544	360.36
376.925	333.47
377.305	344.54
377.686	349.74
378.066	373.01
378.447	357.87
378.827	364.88
379.208	338.44
379.588	347.7
379.968	351.09
380.349	353.35
380.729	360.36
381.109	358.1
381.489	368.49
381.87	357.42
382.25	368.04
382.63	352.22
383.01	364.43
383.39	366.01
383.77	367.36
384.15	356.06
384.53	359.68
384.91	396.74
385.29	380.24
385.67	357.19
386.049	390.19
386.429	396.97
386.809	414.59
387.189	388.83
387.568	395.16
387.948	413.69
388.328	405.1
388.707	408.94
389.087	420.24
389.466	386.12
389.846	441.26
390.225	412.79
390.605	404.42
390.984	403.97
391.363	434.03
391.743	449.85
392.122	435.38
392.501	455.72
392.881	438.32
393.26	462.28
393.639	433.12
394.018	448.04
394.397	460.69
394.776	448.72
395.155	461.82
395.534	485.78
395.913	463.18
396.292	461.37
396.671	474.48
397.05	477.87
397.429	499.11
397.808	496.63
398.186	510.41
398.565	496.4
398.944	486
399.323	532.1
399.701	517.42
400.08	536.62
400.458	509.05
400.837	528.71
401.215	542.5
401.594	522.61
401.972	536.85
402.351	539.34
402.729	542.95
403.107	551.54
403.486	575.95
403.864	556.51
404.242	584.31
404.62	590.18
404.999	576.62
405.377	598.54
405.755	608.03
406.133	606.9
406.511	631.31
406.889	620.01
407.267	645.1
407.645	649.39
408.023	642.84
408.401	638.99
408.779	668.37
409.156	678.77
409.534	678.77
409.912	696.85
410.29	694.13
410.667	705.89
411.045	711.31
411.422	711.99
411.8	723.51
412.178	721.7
412.555	758.99
412.933	741.82
413.31	763.06
413.687	791.53
414.065	769.39
414.442	802.61
414.819	779.78
415.197	789.27
415.574	814.58
415.951	816.16
416.328	805.54
416.705	806.9
417.082	846.9
417.46	854.36
417.837	842.83
418.214	873.56
418.591	892.1
418.967	885.32
419.344	883.51
419.721	908.14
420.098	896.16
420.475	888.03
420.852	927.8
421.228	949.72
421.605	959.21
421.982	928.7
422.358	965.31
422.735	977.74
423.111	970.29
423.488	960.79
423.864	980.45
424.241	1020.68
424.617	1010.06
424.994	1018.65
425.37	1026.33
425.746	1020.91
426.123	1065.42
426.499	1043.96
426.875	1095.71
427.251	1095.03
427.627	1108.59
428.003	1122.37
428.379	1139.77
428.756	1151.98
429.132	1173.9
429.507	1172.99
429.883	1201.92
430.259	1218.87
430.635	1212.76
431.011	1234.23
431.387	1273.55
431.763	1287.57
432.138	1287.11
432.514	1279.2
432.89	1264.97
433.265	1323.5
433.641	1361.46
434.016	1364.4
434.392	1390.39
434.767	1409.6
435.143	1441.46
435.518	1419.76
435.894	1457.5
436.269	1474.23
436.644	1482.36
437.02	1511.74
437.395	1490.05
437.77	1530.04
438.145	1532.76
438.52	1553.09
438.895	1566.43
439.271	1589.25
439.646	1574.56
440.021	1622.25
440.395	1631.51
440.77	1648.46
441.145	1658.63
441.52	1699.53
441.895	1650.95
442.27	1708.8
442.645	1698.85
443.019	1727.55
443.394	1741.56
443.769	1760.77
444.143	1763.03
444.518	1780.43
444.892	1774.56
445.267	1818.62
445.641	1789.25
446.016	1833.31
446.39	1869.02
446.764	1835.12
447.139	1858.17
447.513	1906.76
447.887	1895.23
448.262	1926.42
448.636	1944.04
449.01	1946.3
449.384	1928.68
449.758	1972.07
450.132	1968
450.506	1985.85
450.88	1983.82
451.254	2016.36
451.628	2057.04
452.002	2078.96
452.376	2080.54
452.75	2128.67
453.123	2157.82
453.497	2153.08
453.871	2159.18
454.244	2214.09
454.618	2211.16
454.992	2293.41
455.365	2258.84
455.739	2344.94
456.112	2323.47
456.486	2350.14
456.859	2379.74
457.232	2423.35
457.606	2389
457.979	2433.75
458.352	2474.88
458.725	2502.22
459.099	2506.06
459.472	2583.35
459.845	2593.52
460.218	2584.03
460.591	2600.98
460.964	2644.59
461.337	2676.23
461.71	2704.25
462.083	2774.76
462.456	2780.18
462.829	2773.85
463.201	2802.1
463.574	2832.84
463.947	2831.48
464.32	2966.39
464.692	2907.86
465.065	2963.91
465.438	3004.13
465.81	3042.55
466.183	3049.55
466.555	3115.77
466.928	3125.93
467.3	3093.62
467.672	3173.62
468.045	3247.29
468.417	3251.13
468.789	3247.74
469.161	3315.99
469.534	3421.75
469.906	3426.04
470.278	3416.77
470.65	3487.73
471.022	3551.01
471.394	3573.83
471.766	3620.39
472.138	3617.67
472.51	3767.73
472.882	3791.91
473.253	3799.59
473.625	3861.28
473.997	3894.5
474.369	3939.47
474.74	3954.61
475.112	4039.81
475.484	4061.05
475.855	4129.52
476.227	4158.22
476.598	4274.38
476.97	4261.5
477.341	4362.74
477.713	4415.39
478.084	4403.64
478.455	4535.84
478.827	4562.96
479.198	4707.36
479.569	4616.07
479.94	4789.17
480.311	4818.09
480.682	4891.54
481.053	4995.72
481.424	5054.47
481.795	5098.54
482.166	5147.35
482.537	5224.86
482.908	5296.27
483.279	5325.2
483.65	5389.6
484.021	5484.06
484.391	5597.51
484.762	5544.18
485.133	5574.91
485.503	5642.03
485.874	5726.32
486.244	5788.92
486.615	5834.34
486.985	5924.51
487.356	5969.93
487.726	6057.38
488.097	6108.46
488.467	6086.08
488.837	6208.79
489.207	6266.87
489.578	6301.22
489.948	6349.58
490.318	6390.03
490.688	6428.22
491.058	6539.18
491.428	6533.75
491.798	6607.88
492.168	6674.32
492.538	6673.41
492.908	6746.86
493.278	6760.87
493.648	6766.97
494.017	6795.67
494.387	6873.63
494.757	6902.11
495.126	6961.77
495.496	6978.49
495.866	6954.08
496.235	7002.22
496.605	7063.23
496.974	7086.28
497.344	7122.21
497.713	7198.37
498.082	7180.07
498.452	7241.53
498.821	7256.67
499.19	7234.3
499.559	7315.43
499.928	7289.44
500.298	7286.05
500.667	7427.97
501.036	7365.82
501.405	7447.18
501.774	7380.51
502.143	7502.99
502.512	7488.31
502.88	7556.33
503.249	7463
503.618	7516.1
503.987	7635.42
504.356	7559.72
504.724	7569.21
505.093	7625.7
505.462	7659.6
505.83	7689.2
506.199	7714.29
506.567	7780.95
506.936	7754.29
507.304	7791.8
507.672	7858.92
508.041	7812.82
508.409	7878.8
508.777	7895.3
509.145	7999.25
509.514	7976.43
509.882	7949.99
510.25	7928.97
510.618	8051.68
510.986	8078.8
511.354	8167.61
511.722	8126.48
512.09	8166.48
512.458	8148.85
512.826	8265.69
513.193	8263.88
513.561	8242.86
513.929	8236.76
514.297	8357.66
514.664	8337.1
515.032	8375.29
515.4	8364.67
515.767	8413.48
516.135	8454.61
516.502	8425.23
516.869	8512.91
517.237	8560.37
517.604	8463.87
517.972	8644.21
518.339	8577.99
518.706	8555.4
519.073	8590.88
519.44	8680.36
519.808	8726.69
520.175	8725.56
520.542	8819.34
520.909	8834.94
521.276	8841.49
521.643	8870.19
522.009	8885.11
522.376	8894.37
522.743	9023.63
523.11	8996.51
523.477	9158.32
523.843	9137.3
524.21	9167.81
524.577	9193.35
524.943	9228.15
525.31	9273.8
525.676	9310.63
526.043	9423.62
526.409	9334.36
526.776	9444.41
527.142	9440.12
527.508	9503.62
527.874	9562.15
528.241	9591.98
528.607	9607.57
528.973	9670.85
529.339	9729.6
529.705	9776.16
530.071	9804.4
530.437	9789.49
530.803	9865.64
531.169	9942.03
531.535	9883.05
531.901	9906.32
532.267	9972.53
532.632	9989.94
532.998	10071.97
533.364	10072.19
533.73	10090.27
534.095	10172.98
534.461	10196.71
534.826	10264.96
535.192	10265.63
535.557	10306.31
535.923	10357.38
536.288	10357.16
536.653	10443.93
537.019	10416.14
537.384	10458.62
537.749	10497.27
538.114	10484.39
538.479	10477.61
538.845	10535.23
539.21	10517.38
539.575	10572.29
539.94	10598.96
540.305	10630.37
540.67	10616.36
541.034	10709.46
541.399	10715.34
541.764	10697.04
542.129	10837.37
542.494	10771.38
542.858	10869.91
543.223	10809.57
543.587	10942.23
543.952	10910.14
544.316	11000.98
544.681	10935.45
545.045	10991.26
545.41	11121.2
545.774	11026.52
546.138	11040.53
546.503	11114.65
546.867	11127.31
547.231	11157.59
547.595	11142.45
547.959	11187.42
548.324	11215.44
548.688	11272.61
549.052	11355.32
549.416	11320.75
549.779	11337.24
550.143	11396.68
550.507	11443.68
550.871	11438.94
551.235	11445.26
551.599	11553.06
551.962	11518.71
552.326	11460.63
552.689	11541.76
553.053	11540.63
553.417	11534.98
553.78	11746.73
554.143	11600.06
554.507	11682.55
554.87	11744.24
555.234	11824.24
555.597	11793.28
555.96	11770.45
556.323	11880.73
556.686	11804.8
557.05	11892.71
557.413	11985.14
557.776	11964.35
558.139	12001.63
558.502	11972.48
558.865	11996.89
559.228	12117.34
559.59	12174.51
559.953	12160.27
560.316	12147.84
560.679	12254.51
561.041	12288.63
561.404	12336.99
561.767	12442.75
562.129	12363.66
562.492	12468.51
562.854	12515.97
563.217	12431.68
563.579	12501.73
563.941	12596.19
564.304	12590.77
564.666	12832.8
565.028	12682.75
565.39	12733.14
565.753	12823.53
566.115	12924.32
566.477	12924.77
566.839	12964.55
567.201	12947.37
567.563	13072.11
567.925	13091.32
568.287	13136.52
568.648	13164.77
569.01	13263.75
569.372	13348.49
569.734	13267.59
570.095	13336.06
570.457	13429.62
570.819	13479.79
571.18	13484.98
571.542	13602.04
571.903	13576.28
572.265	13632.1
572.626	13651.76
572.987	13696.96
573.349	13761.81
573.71	13762.49
574.071	13852.43
574.432	13897.85
574.794	13991.86
575.155	13930.4
575.516	13848.59
575.877	13987.57
576.238	13999.32
576.599	14070.51
576.96	14047.68
577.32	14075.48
577.681	14168.81
578.042	14216.04
578.403	14169.71
578.763	14195.93
579.124	14242.93
579.485	14312.99
579.845	14430.04
580.206	14361.8
580.566	14416.26
580.927	14367.45
581.287	14458.74
581.648	14416.26
582.008	14428.01
582.368	14429.37
582.728	14524.51
583.089	14548.91
583.449	14439.76
583.809	14489.25
584.169	14590.94
584.529	14526.54
584.889	14651.28
585.249	14519.08
585.609	14463.94
585.969	14608.57
586.329	14571.51
586.688	14639.08
587.048	14656.93
587.408	14622.81
587.768	14575.35
588.127	14579.42
588.487	14597.27
588.846	14716.59
589.206	14606.31
589.565	14671.62
589.925	14716.36
590.284	14670.26
590.643	14717.49
591.003	14682.69
591.362	14838.85
591.721	14790.94
592.08	14801.79
592.44	14874.55
592.799	14816.47
593.158	14728.12
593.517	14810.15
593.876	14874.33
594.235	14830.71
594.593	14817.38
594.952	14879.98
595.311	14831.39
595.67	14797.27
596.029	14883.37
596.387	14945.74
596.746	14937.6
597.104	14885.17
597.463	14902.8
597.822	14862.58
598.18	14911.84
598.538	14972.85
598.897	15038.39
599.255	14851.95
599.613	15083.59
599.972	14966.08
600.33	15018.73
600.688	14958.84
601.046	14998.84
601.404	15039.29
601.762	15053.53
602.12	15132.17
602.478	15150.25
602.836	15118.39
603.194	15065.96
603.552	15087.2
603.91	15040.65
604.268	15164.26
604.625	15096.24
604.983	15161.55
605.341	15089.69
605.698	15172.85
606.056	15192.74
606.413	15178.27
606.771	15299.4
607.128	15302.34
607.485	15231.15
607.843	15212.62
608.2	15225.73
608.557	15324.26
608.914	15201.1
609.272	15371.04
609.629	15361.55
609.986	15455.78
610.343	15333.52
610.7	15481.32
611.057	15524.7
611.414	15374.65
611.771	15516.8
612.127	15512.95
612.484	15461.66
612.841	15532.84
613.198	15514.08
613.554	15544.59
613.911	15586.85
614.267	15517.25
614.624	15623.91
614.98	15520.64
615.337	15746.85
615.693	15600.86
616.05	15641.76
616.406	15704.81
616.762	15648.54
617.118	15675.66
617.475	15678.83
617.831	15728.99
618.187	15750.01
618.543	15740.52
618.899	15865.94
619.255	15834.53
619.611	15881.31
619.967	15796.56
620.323	15905.71
620.678	15834.75
621.034	15840.63
621.39	15823
621.746	15852.38
622.101	16013.96
622.457	15936.45
622.812	15975.77
623.168	16015.31
623.523	15980.51
623.879	15993.62
624.234	15947.52
624.589	16036.78
624.945	16048.31
625.3	16095.99
625.655	16044.69
626.01	16016.44
626.365	16098.7
626.72	16100.28
627.075	16136.44
627.43	16135.76
627.785	16089.21
628.14	16053.96
628.495	16165.37
628.85	16147.51
629.205	16161.3
629.559	16230.45
629.914	16205.82
630.269	16238.13
630.623	16168.53
630.978	16113.84
631.332	16231.13
631.687	16241.97
632.041	16220.96
632.396	16306.61
632.75	16199.72
633.104	16346.83
633.459	16229.77
633.813	16288.07
634.167	16253.05
634.521	16192.94
634.875	16328.75
635.229	16205.14
635.583	16237.45
635.937	16260.05
636.291	16286.27
636.645	16283.78
636.999	16342.76
637.352	16334.4
637.706	16257.57
638.06	16395.87
638.413	16328.53
638.767	16386.6
639.121	16313.38
639.474	16224.8
639.828	16278.81
640.181	16263.89
640.534	16293.95
640.888	16233.39
641.241	16269.32
641.594	16237.91
641.947	16362.65
642.301	16375.76
642.654	16310.45
643.007	16352.48
643.36	16364.46
643.713	16411.24
644.066	16430.44
644.419	16388.41
644.771	16292.82
645.124	16151.58
645.477	16126.04
645.83	16004.24
646.182	15912.72
646.535	15879.95
646.888	16088.31
647.24	16023.22
647.593	16205.82
647.945	16147.51
648.298	16128.76
648.65	16084.24
649.002	15975.09
649.355	16137.8
649.707	16100.28
650.059	16129.43
650.411	16329.66
650.763	16392.93
651.115	16612.81
651.467	16600.61
651.819	16565.13
652.171	16592.93
652.523	16582.08
652.875	16615.98
653.227	16510.89
653.578	16742.75
653.93	16594.06
654.282	16637.44
654.633	16642.64
654.985	16692.58
655.337	16713.15
655.688	16747.5
656.039	16834.05
656.391	16667.05
656.742	16686.71
657.094	16734.39
657.445	16839.47
657.796	16773.49
658.147	16768.97
658.498	16720.61
658.849	16799.25
659.2	16747.72
659.551	16734.84
659.902	16744.79
660.253	16803.99
660.604	16850.32
660.955	16724.67
661.306	16818.68
661.656	16815.07
662.007	16862.3
662.358	16875.18
662.708	16859.58
663.059	16907.27
663.409	16702.75
663.76	16892.58
664.11	16799.47
664.461	16959.7
664.811	16872.01
665.161	16811.9
665.511	16838.34
665.862	16847.16
666.212	17002.86
666.562	16894.84
666.912	16779.59
667.262	16804.22
667.612	16811.9
667.962	16834.5
668.312	16828.63
668.662	16911.33
669.011	16824.11
669.361	16739.81
669.711	16759.47
670.06	16776.42
670.41	16717.44
670.76	16708.4
671.109	16676.31
671.459	16646.71
671.808	16606.26
672.157	16668.63
672.507	16610.78
672.856	16503.21
673.205	16511.35
673.554	16538.24
673.904	16479.71
674.253	16556.32
674.602	16438.13
674.951	16182.77
675.3	16081.07
675.649	16369.43
675.998	16314.51
676.346	16320.84
676.695	16412.14
677.044	16204.91
677.393	16286.94
677.741	16295.76
678.09	16178.7
678.438	16099.83
678.787	16189.09
679.135	16169.21
679.484	16057.8
679.832	16125.59
680.181	16051.7
680.529	16037.46
680.877	16026.61
681.225	15955.88
681.573	16034.75
681.922	15838.37
682.27	15840.63
682.618	15872.94
682.966	15856
683.314	15782.55
683.661	15753.85
684.009	15738.03
684.357	15650.35
684.705	15724.02
685.053	15637.02
685.4	15642.22
685.748	15576.45
686.095	15468.89
686.443	15539.85
686.79	15451.26
687.138	15510.92
687.485	15467.76
687.832	15431.83
688.18	15433.18
688.527	15340.08
688.874	15387.08
689.221	15309.8
689.568	15267.54
689.915	15305.28
690.262	15331.49
690.609	15249.68
690.956	15176.69
691.303	15136.01
691.65	15045.4
691.997	15111.16
692.344	15122.23
692.69	15024.38
693.037	15086.98
693.383	14959.75
693.73	15019.18
694.077	14879.3
694.423	14862.8
694.769	14936.92
695.116	14873.42
695.462	14891.28
695.808	14900.77
696.155	14971.05
696.501	14730.38
696.847	14803.59
697.193	14645.18
697.539	14750.71
697.885	14686.53
698.231	14631.62
698.577	14711.17
698.923	14705.74
699.269	14573.54
699.614	14523.38
699.96	14462.13
700.306	14575.58
700.651	14449.93
700.997	14371.29
701.342	14414.23
701.688	14487.44
702.033	14496.03
702.379	14374.68
702.724	14322.25
703.069	14354.34
703.415	14228.69
703.76	14304.17
704.105	14300.56
704.45	14272.08
704.795	14198.41
705.14	14155.02
705.485	14204.29
705.83	14185.76
706.175	14242.48
706.52	14184.63
706.865	14157.51
707.209	14139.88
707.554	14078.64
707.899	14152.54
708.243	13984.41
708.588	13952.99
708.932	13950.73
709.277	13993.67
709.621	13958.87
709.966	13904.41
710.31	13959.55
710.654	13818.53
710.998	13934.92
711.342	13950.28
711.687	13846.78
712.031	13859.44
712.375	13821.47
712.719	13908.25
713.063	13881.58
713.407	13943.05
713.75	13871.41
714.094	13806.78
714.438	13828.93
714.782	13806.11
715.125	13845.65
715.469	13825.54
715.812	13774.02
716.156	13670.97
716.499	13724.98
716.843	13776.05
717.186	13714.36
717.53	13758.88
717.873	13767.01
718.216	13713.68
718.559	13785.09
718.902	13680.69
719.246	13707.35
719.589	13619.9
719.932	13592.33
720.275	13606.34
720.617	13586.45
720.96	13561.59
721.303	13573.57
721.646	13607.02
721.989	13527.47
722.331	13602.95
722.674	13571.08
723.016	13605.21
723.359	13511.42
723.701	13604.3
724.044	13462.84
724.386	13427.13
724.729	13485.21
725.071	13512.33
725.413	13463.52
725.755	13562.72
726.097	13375.38
726.439	13417.87
726.782	13421.48
727.124	13477.3
727.465	13420.81
727.807	13457.87
728.149	13400.69
728.491	13391.65
728.833	13429.84
729.175	13394.59
729.516	13363.41
729.858	13378.55
730.199	13409.05
730.541	13418.77
730.882	13433.46
731.224	13477.75
731.565	13413.8
731.906	13436.62
732.248	13363.41
732.589	13334.03
732.93	13416.74
733.271	13488.6
733.612	13508.71
733.953	13473.91
734.294	13431.2
734.635	13443.4
734.976	13497.19
735.317	13500.8
735.658	13484.53
735.999	13584.87
736.339	13485.21
736.68	13494.48
737.021	13484.08
737.361	13516.17
737.702	13536.28
738.042	13577.64
738.383	13606.11
738.723	13597.3
739.063	13594.13
739.404	13653.79
739.744	13656.96
740.084	13599.33
740.424	13711.65
740.764	13680.46
741.104	13765.2
741.444	13749.38
741.784	13705.77
742.124	13795.03
742.464	13803.17
742.804	13851.3
743.143	13756.84
743.483	13923.62
743.823	13776.95
744.162	13830.96
744.502	13906.89
744.841	13948.25
745.181	14027.34
745.52	14016.27
745.86	14060.56
746.199	13960.23
746.538	14055.36
746.877	14121.35
747.216	14200.67
747.556	14134.01
747.895	14192.08
748.234	14179.43
748.573	14221.91
748.911	14246.55
749.25	14297.84
749.589	14225.53
749.928	14313.21
750.267	14390.5
750.605	14370.84
750.944	14431.4
751.283	14373.1
751.621	14493.55
751.96	14370.16
752.298	14446.99
752.636	14519.53
752.975	14503.49
753.313	14456.26
753.651	14522.7
753.989	14524.05
754.327	14647.44
754.666	14599.76
755.004	14615.12
755.342	14672.3
755.679	14658.96
756.017	14703.48
756.355	14798.4
