Data from blue_clamp_base_FLMS001491_00035.txt Node
Date: Wed Feb 08 15:15:55 GMT 2017
User: dcchb
Spectrometer: FLMS00149
Trigger mode: 0
Integration Time (sec): 2.000000E-2
Scans to average: 10
Electric dark correction enabled: true
Nonlinearity correction enabled: false
Boxcar width: 0
XAxis mode: Wavelengths
Number of Pixels in Spectrum: 2048
>>>>>Begin Spectral Data<<<<<
341.393	-16.17
341.776	-16.17
342.16	-16.17
342.543	-68.15
342.927	-57.98
343.31	-67.24
343.693	-70.18
344.077	-76.96
344.46	-67.24
344.843	-61.82
345.226	-15.95
345.61	-31.76
345.993	-20.92
346.376	-18.21
346.759	-8.71
347.142	24.28
347.525	55.92
347.908	59.08
348.291	90.72
348.674	97.72
349.057	111.28
349.44	127.1
349.823	142.92
350.206	160.77
350.588	188.12
350.971	205.74
351.354	233.54
351.737	243.03
352.119	232.18
352.502	234.22
352.884	266.76
353.267	257.04
353.65	295.23
354.032	273.76
354.414	319.86
354.797	320.54
355.179	323.71
355.562	330.03
355.944	351.28
356.326	332.29
356.709	322.8
357.091	329.36
357.473	340.2
357.855	330.71
358.238	340.43
358.62	331.62
359.002	329.13
359.384	343.14
359.766	336.81
360.148	331.16
360.53	337.94
360.912	336.59
361.294	313.54
361.676	329.13
362.057	318.28
362.439	335.68
362.821	324.16
363.203	334.1
363.584	328.9
363.966	323.03
364.348	318.73
364.729	306.98
365.111	320.99
365.493	311.28
365.874	313.08
366.256	329.36
366.637	317.6
367.019	313.31
367.4	317.6
367.781	332.75
368.163	325.29
368.544	314.89
368.925	324.38
369.306	323.03
369.688	332.75
370.069	330.71
370.45	317.6
370.831	309.7
371.212	328.68
371.593	324.16
371.974	311.05
372.355	313.99
372.736	320.09
373.117	332.07
373.498	325.74
373.879	329.81
374.26	324.84
374.641	350.15
375.021	317.38
375.402	330.26
375.783	316.93
376.163	327.55
376.544	346.53
376.925	332.29
377.305	328.9
377.686	320.99
378.066	337.49
378.447	331.39
378.827	320.99
379.208	349.02
379.588	344.72
379.968	333.42
380.349	336.81
380.729	338.85
381.109	346.76
381.489	371.39
381.87	368.9
382.25	352.86
382.63	345.4
383.01	332.75
383.39	370.48
383.77	347.66
384.15	370.48
384.53	359.19
384.91	390.15
385.29	361.67
385.67	394.21
386.049	383.59
386.429	383.14
386.809	407.09
387.189	400.54
387.568	391.28
387.948	392.63
388.328	407.55
388.707	393.31
389.087	397.38
389.466	386.3
389.846	390.82
390.225	408
390.605	426.08
390.984	410.71
391.363	403.25
391.743	427.66
392.122	416.36
392.501	435.12
392.881	438.96
393.26	438.05
393.639	445.06
394.018	419.75
394.397	445.06
394.776	430.14
395.155	444.61
395.534	447.77
395.913	450.26
396.292	455.23
396.671	481.67
397.05	457.71
397.429	463.59
397.808	480.09
398.186	467.66
398.565	498.39
398.944	492.29
399.323	478.73
399.701	515.11
400.08	500.2
400.458	506.07
400.837	497.03
401.215	493.65
401.594	513.53
401.972	547.88
402.351	542.23
402.729	528.22
403.107	546.98
403.486	535.68
403.864	544.72
404.242	531.84
404.62	537.71
404.999	546.53
405.377	576.13
405.755	585.17
406.133	578.39
406.511	598.05
406.889	596.69
407.267	598.05
407.645	600.99
408.023	617.48
408.401	606.86
408.779	621.33
409.156	640.99
409.534	657.48
409.912	648.9
410.29	653.87
410.667	647.99
411.045	663.36
411.422	698.84
411.8	692.74
412.178	682.34
412.555	723.92
412.933	719.85
413.31	735.9
413.687	723.24
414.065	730.48
414.442	757.82
414.819	747.88
415.197	753.3
415.574	775.9
415.951	782.68
416.328	760.76
416.705	818.38
417.082	812.73
417.46	810.93
417.837	814.54
418.214	826.29
418.591	808.89
418.967	847.08
419.344	861.55
419.721	824.71
420.098	851.6
420.475	856.57
420.852	859.96
421.228	882.79
421.605	897.48
421.982	889.79
422.358	916.46
422.735	910.13
423.111	934.09
423.488	931.83
423.864	957.36
424.241	949.68
424.617	924.59
424.994	979.51
425.37	928.21
425.746	987.64
426.123	1009.11
426.499	989.9
426.875	1037.59
427.251	1047.3
427.627	1064.48
428.003	1050.47
428.379	1059.05
428.756	1098.38
429.132	1114.19
429.507	1120.52
429.883	1137.47
430.259	1158.03
430.635	1141.99
431.011	1175.21
431.387	1163.46
431.763	1200.52
432.138	1211.59
432.514	1227.41
432.89	1224.02
433.265	1249.78
433.641	1269.44
434.016	1321.87
434.392	1315.09
434.767	1340.85
435.143	1332.27
435.518	1380.63
435.894	1362.32
436.269	1400.51
436.644	1410.68
437.02	1415.65
437.395	1435.54
437.77	1450.91
438.145	1453.39
438.52	1471.7
438.895	1465.15
439.271	1474.64
439.646	1512.38
440.021	1533.84
440.395	1541.98
440.77	1525.71
441.145	1555.76
441.52	1602.09
441.895	1589.66
442.27	1619.27
442.645	1619.72
443.019	1638.47
443.394	1650.68
443.769	1681.86
444.143	1660.85
444.518	1674.63
444.892	1663.56
445.267	1720.73
445.641	1719.15
446.016	1746.49
446.39	1768.87
446.764	1752.82
447.139	1777
447.513	1778.13
447.887	1778.58
448.262	1800.28
448.636	1795.76
449.01	1825.36
449.384	1834.85
449.758	1863.1
450.132	1895.87
450.506	1858.36
450.88	1929.09
451.254	1910.11
451.628	1934.29
452.002	1956.88
452.376	1951.01
452.75	1980.61
453.123	2013.38
453.497	2053.6
453.871	2063.1
454.244	2102.42
454.618	2127.73
454.992	2144
455.365	2126.82
455.739	2196.88
456.112	2201.62
456.486	2219.02
456.859	2281.62
457.232	2284.11
457.606	2284.11
457.979	2348.51
458.352	2381.51
458.725	2384.67
459.099	2403.65
459.472	2397.1
459.845	2439.36
460.218	2487.04
460.591	2473.93
460.964	2516.87
461.337	2561.39
461.71	2592.12
462.083	2601.39
462.456	2617.88
462.829	2636.87
463.201	2671.67
463.574	2688.84
463.947	2730.87
464.32	2753.7
464.692	2800.93
465.065	2802.06
465.438	2831.44
465.81	2864.66
466.183	2889.97
466.555	2960.7
466.928	2958.89
467.3	2974.03
467.672	3016.29
468.045	3115.95
468.417	3086.35
468.789	3107.81
469.161	3191.65
469.534	3170.41
469.906	3229.17
470.278	3275.49
470.65	3307.58
471.022	3361.37
471.394	3391.42
471.766	3410.63
472.138	3448.14
472.51	3517.97
472.882	3557.52
473.253	3606.11
473.625	3651.98
473.997	3696.27
474.369	3729.49
474.74	3775.82
475.112	3831.64
475.484	3862.14
475.855	3912.76
476.227	3939.66
476.598	4077.51
476.97	4085.64
477.341	4164.74
477.713	4216.94
478.084	4237.5
478.455	4334.22
478.827	4370.38
479.198	4457.61
479.569	4459.42
479.94	4592.52
480.311	4612.41
480.682	4667.55
481.053	4802.68
481.424	4840.88
481.795	4875.22
482.166	4909.8
482.537	4983.92
482.908	5049.46
483.279	5050.59
483.65	5150.02
484.021	5295.78
484.391	5260.07
484.762	5299.62
485.133	5355.66
485.503	5389.79
485.874	5549.56
486.244	5496.45
486.615	5602.66
486.985	5669.78
487.356	5755.43
487.726	5767.18
488.097	5865.48
488.467	5835.2
488.837	5901.19
489.207	5979.15
489.578	6090.11
489.948	6078.81
490.318	6140.5
490.688	6157.45
491.058	6205.81
491.428	6288.52
491.798	6353.6
492.168	6463.66
492.538	6453.04
492.908	6515.18
493.278	6579.59
493.648	6512.02
494.017	6653.03
494.387	6674.5
494.757	6709.98
495.126	6738.9
495.496	6724.89
495.866	6766.47
496.235	6805.34
496.605	6812.8
496.974	6856.64
497.344	6887.38
497.713	6937.32
498.082	6988.84
498.452	6952.23
498.821	7021.38
499.19	7045.34
499.559	7085.34
499.928	7061.61
500.298	7160.81
500.667	7163.75
501.036	7199.68
501.405	7210.53
501.774	7226.8
502.143	7246.46
502.512	7295.27
502.88	7310.64
503.249	7332.34
503.618	7332.56
503.987	7362.17
504.356	7424.54
504.724	7458.66
505.093	7421.6
505.462	7466.8
505.83	7494.37
506.199	7589.28
506.567	7629.05
506.936	7561.93
507.304	7677.19
507.672	7712.21
508.041	7693
508.409	7733
508.777	7809.84
509.145	7810.74
509.514	7793.79
509.882	7823.4
510.25	7831.98
510.618	7837.86
510.986	7880.8
511.354	7938.87
511.722	8039.44
512.09	8000.79
512.458	8061.36
512.826	8052.77
513.193	8104.97
513.561	8083.73
513.929	8148.13
514.297	8173.44
514.664	8204.63
515.032	8230.16
515.4	8217.06
515.767	8236.72
516.135	8309.48
516.502	8277.17
516.869	8349.26
517.237	8440.78
517.604	8390.61
517.972	8526.88
518.339	8492.53
518.706	8503.6
519.073	8544.96
519.44	8568.69
519.808	8576.6
520.175	8605.3
520.542	8700.44
520.909	8695.24
521.276	8703.37
521.643	8800.09
522.009	8805.29
522.376	8821.79
522.743	8848
523.11	8915.8
523.477	9016.13
523.843	8969.35
524.21	9089.8
524.577	9104.04
524.943	9161.44
525.31	9176.58
525.676	9245.51
526.043	9283.02
526.409	9309.01
526.776	9391.49
527.142	9399.63
527.508	9503.35
527.874	9489.79
528.241	9534.99
528.607	9614.08
528.973	9656.12
529.339	9648.21
529.705	9713.06
530.071	9732.05
530.437	9819.5
530.803	9870.57
531.169	9880.74
531.535	9870.57
531.901	9949.44
532.267	9958.71
532.632	10058.37
532.998	10114.64
533.364	10053.17
533.73	10156.67
534.095	10157.12
534.461	10200.06
534.826	10214.97
535.192	10315.31
535.557	10263.33
535.923	10327.74
536.288	10298.81
536.653	10428.75
537.019	10375.42
537.384	10459.26
537.749	10447.73
538.114	10493.83
538.479	10460.39
538.845	10591.68
539.21	10547.62
539.575	10595.98
539.94	10595.3
540.305	10722.75
540.67	10656.77
541.034	10711.91
541.399	10724.79
541.764	10732.7
542.129	10788.06
542.494	10771.79
542.858	10866.25
543.223	10801.17
543.587	10967.95
543.952	10890.89
544.316	10971.79
544.681	10911.45
545.045	10983.09
545.41	11045.23
545.774	11055.18
546.138	11062.41
546.503	11081.16
546.867	11064.89
547.231	11189.41
547.595	11174.95
547.959	11280.71
548.324	11281.84
548.688	11293.14
549.052	11288.39
549.416	11270.99
549.779	11252.68
550.143	11400.7
550.507	11405.9
550.871	11425.56
551.235	11442.51
551.599	11492.23
551.962	11484.32
552.326	11518.21
552.689	11664.88
553.053	11521.15
553.417	11557.54
553.78	11792.78
554.143	11738.77
554.507	11731.54
554.87	11749.62
555.234	11875.94
555.597	11750.07
555.96	11849.96
556.323	11828.26
556.686	11867.13
557.05	11922.95
557.413	11941.03
557.776	12055.6
558.139	12028.03
558.502	12081.36
558.865	12088.14
559.228	12149.16
559.59	12183.73
559.953	12204.07
560.316	12348.02
560.679	12368.59
561.041	12411.3
561.404	12379.89
561.767	12506.89
562.129	12384.18
562.492	12508.24
562.854	12531.97
563.217	12566.77
563.579	12553.89
563.941	12672.76
564.304	12741.23
564.666	12766.77
565.028	12826.65
565.39	12835.24
565.753	12889.7
566.115	12919.31
566.477	13029.13
566.839	13020.32
567.201	13104.84
567.563	13137.15
567.925	13131.73
568.287	13215.12
568.648	13201.11
569.01	13251.95
569.372	13266.87
569.734	13348
570.095	13470.03
570.457	13474.55
570.819	13494.21
571.18	13483.13
571.542	13613.3
571.903	13578.27
572.265	13717.25
572.626	13739.85
572.987	13667.76
573.349	13832.96
573.71	13765.61
574.071	13788.21
574.432	13898.49
574.794	13942.78
575.155	13976.45
575.516	13940.52
575.877	14053.74
576.238	14102.78
576.599	14115.21
576.96	14139.84
577.32	14108.88
577.681	14174.19
578.042	14059.16
578.403	14149.11
578.763	14305.94
579.124	14275.43
579.485	14374.41
579.845	14414.18
580.206	14383
580.566	14356.33
580.927	14392.94
581.287	14391.13
581.648	14366.73
582.008	14409.44
582.368	14474.29
582.728	14507.74
583.089	14516.55
583.449	14468.87
583.809	14517.91
584.169	14566.27
584.529	14528.76
584.889	14595.2
585.249	14504.8
585.609	14507.97
585.969	14651.24
586.329	14550.68
586.688	14605.59
587.048	14578.02
587.408	14470.45
587.768	14570.79
588.127	14610.34
588.487	14533.5
588.846	14743.21
589.206	14537.57
589.565	14624.35
589.925	14700.05
590.284	14682.2
590.643	14664.57
591.003	14656.89
591.362	14745.47
591.721	14783.21
592.08	14789.31
592.44	14724.01
592.799	14742.31
593.158	14812.82
593.517	14727.4
593.876	14825.92
594.235	14755.64
594.593	14733.72
594.952	14792.93
595.311	14766.94
595.67	14821.4
596.029	14906.15
596.387	14850.1
596.746	14917.45
597.104	14762.2
597.463	14781.63
597.822	14822.99
598.18	14816.43
598.538	14793.38
598.897	14859.6
599.255	14788.86
599.613	14947.73
599.972	14889.65
600.33	14929.2
600.688	14822.53
601.046	14937.11
601.404	14977.11
601.762	15033.38
602.12	15004.68
602.478	15035.18
602.836	14986.82
603.194	14913.15
603.552	14918.58
603.91	14973.49
604.268	15032.92
604.625	14985.69
604.983	14996.54
605.341	14990.21
605.698	15093.04
606.056	15140.49
606.413	15103.43
606.771	15134.16
607.128	15197.44
607.485	15068.86
607.843	15098.68
608.2	15189.08
608.557	15183.88
608.914	15068.18
609.272	15275.18
609.629	15261.84
609.986	15357.66
610.343	15245.12
610.7	15427.04
611.057	15310.2
611.414	15300.49
611.771	15285.35
612.127	15461.39
612.484	15367.15
612.841	15459.58
613.198	15405.57
613.554	15480.14
613.911	15505
614.267	15505.45
614.624	15508.84
614.98	15520.14
615.337	15631.1
615.693	15546.13
616.05	15547.03
616.406	15606.69
616.762	15564.21
617.118	15610.76
617.475	15529.86
617.831	15693.47
618.187	15694.83
618.543	15740.48
618.899	15780.02
619.255	15759.91
619.611	15721.95
619.967	15809.63
620.323	15843.07
620.678	15709.74
621.034	15703.41
621.39	15713.13
621.746	15802.85
622.101	15895.27
622.457	15852.11
622.812	15861.6
623.168	15915.16
623.523	15904.09
623.879	15997.19
624.234	15856.86
624.589	15970.3
624.945	15902.51
625.3	16019.56
625.655	15942.73
626.01	15949.96
626.365	15970.75
626.72	15928.95
627.075	16003.29
627.43	16038.55
627.785	16005.78
628.14	16028.15
628.495	16041.71
628.85	16088.72
629.205	16101.14
629.559	16058.89
629.914	15968.27
630.269	16070.41
630.623	16133.91
630.978	16029.06
631.332	16062.5
631.687	16131.2
632.041	16071.09
632.396	16166.23
632.75	16034.71
633.104	16119.9
633.459	16071.99
633.813	16105.89
634.167	16116.29
634.521	16115.61
634.875	16119.9
635.229	16100.01
635.583	16070.18
635.937	16058.89
636.291	16070.18
636.645	16162.16
636.999	15992.22
637.352	16202.16
637.706	16063.63
638.06	16179.56
638.413	16164.65
638.767	16109.28
639.121	16172.1
639.474	16058.89
639.828	16038.55
640.181	16155.38
640.534	16193.35
640.888	16033.12
641.241	16067.25
641.594	16043.74
641.947	16198.54
642.301	16229.5
642.654	16160.58
643.007	16289.84
643.36	16238.54
643.713	16123.06
644.066	16231.99
644.419	16113.8
644.771	16157.64
645.124	16073.8
645.477	15970.75
645.83	15865.22
646.182	15791.77
646.535	15813.02
646.888	15805.56
647.24	15911.09
647.593	15930.3
647.945	15867.25
648.298	15886.01
648.65	15797.65
649.002	15730.76
649.355	15942.73
649.707	15863.64
650.059	15973.92
650.411	16103.86
650.763	16200.8
651.115	16410.51
651.467	16429.5
651.819	16283.96
652.171	16335.94
652.523	16329.39
652.875	16364.87
653.227	16336.17
653.578	16359.89
653.93	16459.33
654.282	16306.56
654.633	16248.71
654.985	16410.06
655.337	16436.95
655.688	16408.03
656.039	16520.12
656.391	16413
656.742	16479.67
657.094	16489.83
657.445	16567.8
657.796	16523.05
658.147	16504.75
658.498	16491.87
658.849	16548.36
659.2	16552.66
659.551	16484.64
659.902	16571.41
660.253	16579.32
660.604	16613.9
660.955	16461.36
661.306	16629.04
661.656	16578.19
662.007	16642.15
662.358	16574.58
662.708	16597.63
663.059	16464.98
663.409	16476.28
663.76	16603.73
664.11	16615.71
664.461	16604.18
664.811	16651.86
665.161	16642.6
665.511	16485.09
665.862	16556.05
666.212	16603.05
666.562	16691.19
666.912	16443.51
667.262	16533.45
667.612	16581.81
667.962	16470.17
668.312	16496.84
668.662	16554.47
669.011	16444.86
669.361	16485.99
669.711	16386.11
670.06	16469.5
670.41	16431.76
670.76	16349.95
671.109	16378.65
671.459	16274.7
671.808	16346.56
672.157	16492.32
672.507	16253.91
672.856	16278.31
673.205	16222.27
673.554	16285.32
673.904	16217.3
674.253	16256.85
674.602	16264.53
674.951	15912.9
675.3	15838.78
675.649	16045.78
675.998	16094.14
676.346	16028.38
676.695	16121.71
677.044	15927.36
677.393	16027.93
677.741	16054.14
678.09	15894.37
678.438	15935.05
678.787	15919.68
679.135	15846.24
679.484	15762.62
679.832	15832.22
680.181	15769.18
680.529	15787.25
680.877	15680.82
681.225	15782.96
681.573	15754.71
681.922	15576.41
682.27	15620.03
682.618	15641.95
682.966	15607.82
683.314	15569.86
683.661	15565.79
684.009	15455.29
684.357	15348.85
684.705	15386.81
685.053	15405.8
685.4	15379.81
685.748	15286.48
686.095	15243.77
686.443	15224.78
686.79	15157.89
687.138	15248.74
687.485	15249.19
687.832	15059.36
688.18	15156.08
688.527	15043.32
688.874	15055.75
689.221	15090.78
689.568	14897.79
689.915	14979.37
690.262	15044.45
690.609	14913.83
690.956	14945.24
691.303	14918.35
691.65	14863.21
691.997	14849.88
692.344	14776.21
692.69	14895.3
693.037	14853.72
693.383	14681.75
693.73	14715.87
694.077	14659.6
694.423	14619.6
694.769	14700.73
695.116	14617.12
695.462	14592.71
695.808	14568.76
696.155	14590.68
696.501	14555.2
696.847	14545.93
697.193	14453.96
697.539	14450.34
697.885	14491.7
698.231	14434.3
698.577	14411.25
698.923	14346.39
699.269	14290.34
699.614	14248.31
699.96	14340.29
700.306	14241.08
700.651	14234.07
700.997	14160.63
701.342	14174.64
701.688	14248.54
702.033	14160.86
702.379	14144.59
702.724	14085.6
703.069	14113.85
703.415	14001.54
703.76	13985.49
704.105	14075.21
704.45	13976.91
704.795	13979.62
705.14	13988.88
705.485	13946.4
705.83	13963.35
706.175	13944.82
706.52	13886.06
706.865	13885.61
707.209	13852.16
707.554	13814.65
707.899	13853.75
708.243	13834.09
708.588	13884.71
708.932	13713.64
709.277	13779.17
709.621	13775.78
709.966	13671.83
710.31	13721.09
710.654	13676.58
710.998	13673.64
711.342	13713.86
711.687	13644.71
712.031	13687.2
712.375	13592.06
712.719	13672.51
713.063	13634.32
713.407	13705.95
713.75	13659.63
714.094	13622.11
714.438	13562.68
714.782	13589.35
715.125	13526.97
715.469	13646.07
715.812	13574.88
716.156	13489.91
716.499	13508.9
716.843	13537.14
717.186	13485.85
717.53	13441.78
717.873	13505.51
718.216	13499.63
718.559	13453.3
718.902	13369.24
719.246	13447.65
719.589	13380.99
719.932	13388.9
720.275	13327.43
720.617	13370.59
720.96	13257.6
721.303	13344.15
721.646	13292.86
721.989	13239.07
722.331	13336.02
722.674	13335.57
723.016	13282.24
723.359	13309.58
723.701	13251.73
724.044	13197.72
724.386	13094.22
724.729	13225.97
725.071	13208.11
725.413	13250.82
725.755	13148
726.097	13127.66
726.439	13063.03
726.782	13195.68
727.124	13310.48
727.465	13158.85
727.807	13178.06
728.149	13112.52
728.491	13116.36
728.833	13148.23
729.175	13091.73
729.516	13084.95
729.858	13164.05
730.199	13168.79
730.541	13089.7
730.882	13122.24
731.224	13143.93
731.565	13071.85
731.906	13094.67
732.248	13117.95
732.589	13108.91
732.93	13180.54
733.271	13072.52
733.612	13186.19
733.953	13105.97
734.294	13131.73
734.635	13087.44
734.976	13216.02
735.317	13152.75
735.658	13164.05
735.999	13233.65
736.339	13224.16
736.68	13286.98
737.021	13213.08
737.361	13130.6
737.702	13255.12
738.042	13195.91
738.383	13270.03
738.723	13273.42
739.063	13342.8
739.404	13347.09
739.744	13339.64
740.084	13362.01
740.424	13357.04
740.764	13401.1
741.104	13447.88
741.444	13365.62
741.784	13403.59
742.124	13449.91
742.464	13470.71
742.804	13462.12
743.143	13500.99
743.483	13535.56
743.823	13441.55
744.162	13464.15
744.502	13573.75
744.841	13505.73
745.181	13616.69
745.52	13609.68
745.86	13566.97
746.199	13642.9
746.538	13570.36
746.877	13772.62
747.216	13770.81
747.556	13643.36
747.895	13766.52
748.234	13724.48
748.573	13726.29
748.911	13723.13
749.25	13778.95
749.589	13783.92
749.928	13825.5
750.267	13904.14
750.605	13836.12
750.944	13815.55
751.283	13908.21
751.621	13885.16
751.96	13839.96
752.298	13942.78
752.636	13956.12
752.975	14000.86
753.313	13934.42
753.651	14112.72
753.989	14030.01
754.327	14016.45
754.666	14051.71
755.004	14081.31
755.342	14149.11
755.679	14107.07
756.017	14082.67
756.355	14115.43
