Data from blue_shiny_book_FLMS001491_00060.txt Node
Date: Wed Feb 08 15:27:14 GMT 2017
User: dcchb
Spectrometer: FLMS00149
Trigger mode: 0
Integration Time (sec): 2.000000E-2
Scans to average: 10
Electric dark correction enabled: true
Nonlinearity correction enabled: false
Boxcar width: 0
XAxis mode: Wavelengths
Number of Pixels in Spectrum: 2048
>>>>>Begin Spectral Data<<<<<
341.393	-14.21
341.776	-14.21
342.16	-14.21
342.543	-61.21
342.927	-65.73
343.31	-70.93
343.693	-78.16
344.077	-68.67
344.46	-34.55
344.843	-56.47
345.226	-38.39
345.61	-18.95
345.993	-7.88
346.376	-22.8
346.759	-10.14
347.142	29.41
347.525	29.41
347.908	79.8
348.291	84.55
348.674	97.2
349.057	86.58
349.44	120.48
349.823	148.95
350.206	160.02
350.588	206.8
350.971	241.6
351.354	253.35
351.737	256.29
352.119	277.54
352.502	278.44
352.884	277.99
353.267	280.47
353.65	321.15
354.032	325.9
354.414	325.44
354.797	318.66
355.179	337.65
355.562	331.32
355.944	348.95
356.326	341.49
356.709	348.72
357.091	346.46
357.473	359.11
357.855	382.39
358.238	372.9
358.62	373.8
359.002	355.05
359.384	378.55
359.766	347.59
360.148	374.26
360.53	365.67
360.912	353.47
361.294	357.31
361.676	361.15
362.057	348.49
362.439	360.02
362.821	350.75
363.203	369.28
363.584	350.98
363.966	358.66
364.348	374.48
364.729	355.73
365.111	351.21
365.493	345.33
365.874	355.95
366.256	364.76
366.637	343.07
367.019	350.3
367.4	372
367.781	362.05
368.163	363.63
368.544	354.37
368.925	339
369.306	370.41
369.688	356.18
370.069	353.24
370.45	364.99
370.831	375.39
371.212	348.72
371.593	364.99
371.974	356.86
372.355	358.89
372.736	352.11
373.117	379.68
373.498	387.36
373.879	394.14
374.26	380.13
374.641	380.36
375.021	368.15
375.402	373.8
375.783	371.32
376.163	405.67
376.544	415.38
376.925	405.67
377.305	416.51
377.686	412.45
378.066	421.94
378.447	414.48
378.827	417.87
379.208	415.84
379.588	424.65
379.968	396.63
380.349	421.94
380.729	414.93
381.109	431.2
381.489	433.92
381.87	421.49
382.25	445.89
382.63	440.02
383.01	447.93
383.39	434.37
383.77	461.26
384.15	463.97
384.53	457.19
384.91	460.81
385.29	473.46
385.67	443.18
386.049	464.65
386.429	478.89
386.809	498.55
387.189	494.25
387.568	493.57
387.948	511.65
388.328	505.1
388.707	506.68
389.087	525.66
389.466	521.6
389.846	533.35
390.225	532.44
390.605	546.91
390.984	541.03
391.363	540.58
391.743	560.47
392.122	571.09
392.501	555.04
392.881	564.99
393.26	576.51
393.639	604.53
394.018	591.88
394.397	583.97
394.776	586
395.155	617.87
395.534	594.36
395.913	612.89
396.292	655.6
396.671	620.35
397.05	627.13
397.429	618.54
397.808	653.12
398.186	644.76
398.565	669.16
398.944	659.67
399.323	671.87
399.701	678.2
400.08	714.36
400.458	713.23
400.837	709.84
401.215	687.69
401.594	727.47
401.972	728.6
402.351	722.72
402.729	742.61
403.107	746.9
403.486	787.8
403.864	769.95
404.242	782.38
404.62	795.49
404.999	798.2
405.377	812.66
405.755	809.27
406.133	818.54
406.511	817.41
406.889	841.81
407.267	874.13
407.645	887.46
408.023	882.49
408.401	905.99
408.779	905.77
409.156	934.47
409.534	939.44
409.912	955.03
410.29	974.92
410.667	969.95
411.045	996.61
411.422	996.61
411.8	1014.92
412.178	1041.36
412.555	1049.04
412.933	1094.46
413.31	1066.67
413.687	1086.33
414.065	1105.54
414.442	1096.27
414.819	1093.33
415.197	1127.91
415.574	1158.19
415.951	1195.7
416.328	1183.05
416.705	1198.19
417.082	1222.59
417.46	1245.42
417.837	1230.96
418.214	1268.02
418.591	1268.7
418.967	1261.92
419.344	1277.96
419.721	1330.39
420.098	1321.58
420.475	1352.08
420.852	1381.01
421.228	1408.13
421.605	1387.34
421.982	1421.01
422.358	1435.02
422.735	1470.72
423.111	1447.22
423.488	1489.71
423.864	1484.51
424.241	1474.34
424.617	1525.19
424.994	1566.09
425.37	1599.99
425.746	1571.74
426.123	1595.92
426.499	1622.58
426.875	1677.27
427.251	1722.92
427.627	1700.55
428.003	1707.55
428.379	1710.04
428.756	1739.87
429.132	1800.43
429.507	1837.27
429.883	1832.97
430.259	1860.77
430.635	1918.17
431.011	1925.4
431.387	1991.16
431.763	2016.92
432.138	2017.6
432.514	2049.01
432.89	2075
433.265	2089.46
433.641	2125.4
434.016	2149.8
434.392	2195.9
434.767	2246.97
435.143	2227.31
435.518	2283.58
435.894	2328.1
436.269	2335.56
436.644	2409.46
437.02	2409.23
437.395	2392.73
437.77	2414.43
438.145	2465.27
438.52	2456.01
438.895	2499.62
439.271	2517.93
439.646	2609.23
440.021	2632.73
440.395	2705.72
440.77	2645.61
441.145	2688.32
441.52	2751.82
441.895	2764.48
442.27	2776
442.645	2793.63
443.019	2839.5
443.394	2799.95
443.769	2861.65
444.143	2876.79
444.518	2887.64
444.892	2917.92
445.267	2951.82
445.641	3009.67
446.016	3015.32
446.39	3070.91
446.764	3066.84
447.139	3053.96
447.513	3095.99
447.887	3105.26
448.262	3151.58
448.636	3130.34
449.01	3230.23
449.384	3214.63
449.758	3263.45
450.132	3301.86
450.506	3305.48
450.88	3332.82
451.254	3355.19
451.628	3448.75
452.002	3484.23
452.376	3558.8
452.75	3574.4
453.123	3549.77
453.497	3660.72
453.871	3611.46
454.244	3689.42
454.618	3734.17
454.992	3843.09
455.365	3806.48
455.739	3934.39
456.112	3996.08
456.486	4038.11
456.859	4045.8
457.232	4206.47
457.606	4151.33
457.979	4219.58
458.352	4286.47
458.725	4336.86
459.099	4382.74
459.472	4475.62
459.845	4520.81
460.218	4536.63
460.591	4607.82
460.964	4628.83
461.337	4759.45
461.71	4832.9
462.083	4905.89
462.456	4923.51
462.829	4908.83
463.201	5059.78
463.574	5063.62
463.947	5137.75
464.32	5276.73
464.692	5321.92
465.065	5372.54
465.438	5473.78
465.81	5498.19
466.183	5560.11
466.555	5729.82
466.928	5733.21
467.3	5808.46
467.672	5880.1
468.045	6063.37
468.417	6047.78
468.789	6100.21
469.161	6156.93
469.534	6283.48
469.906	6415.9
470.278	6458.84
470.65	6513.98
471.022	6622.45
471.394	6843.69
471.766	6837.59
472.138	6972.95
472.51	7116.45
472.882	7202.55
473.253	7268.99
473.625	7444.13
473.997	7580.62
474.369	7640.73
474.74	7715.08
475.112	7857.22
475.484	8055.86
475.855	8145.8
476.227	8195.52
476.598	8484.32
476.97	8528.84
477.341	8729.97
477.713	8846.35
478.084	8936.74
478.455	9237.53
478.827	9316.17
479.198	9612.2
479.569	9627.35
479.94	9891.97
480.311	9925.64
480.682	10128.12
481.053	10308.91
481.424	10527.89
481.795	10642.69
482.166	10840.42
482.537	10961.1
482.908	11214.65
483.279	11349.11
483.65	11583
484.021	11888.76
484.391	11949.09
484.762	12136.43
485.133	12208.52
485.503	12361.74
485.874	12585.23
486.244	12714.27
486.615	12926.47
486.985	13126.91
487.356	13397.19
487.726	13487.13
488.097	13767.58
488.467	13906.1
488.837	14162.14
489.207	14363.49
489.578	14626.08
489.948	14776.59
490.318	14940.43
490.688	14940.2
491.058	15286.41
491.428	15578.83
491.798	15640.97
492.168	15966.61
492.538	15984.24
492.908	16245.48
493.278	16417.68
493.648	16452.7
494.017	16750.55
494.387	16922.75
494.757	17152.57
495.126	17381.27
495.496	17463.75
495.866	17621.71
496.235	17843.17
496.605	18020.57
496.974	18124.3
497.344	18317.29
497.713	18331.07
498.082	18660.78
498.452	18754.79
498.821	18800.66
499.19	18836.37
499.559	19051.28
499.928	19164.72
500.298	19272.06
500.667	19518.84
501.036	19538.5
501.405	19832.95
501.774	19904.14
502.143	20131.48
502.512	20283.34
502.88	20543.22
503.249	20518.36
503.618	20709.77
503.987	20780.27
504.356	20831.8
504.724	20895.52
505.093	21092.13
505.462	21130.55
505.83	21239.92
506.199	21446.02
506.567	21697.76
506.936	21686.92
507.304	21960.58
507.672	22069.73
508.041	22346.11
508.409	22534.35
508.777	22845.53
509.145	23024.28
509.514	23140.89
509.882	23384.72
510.25	23370.04
510.618	23561.44
510.986	23558.05
511.354	23845.95
511.722	24002.56
512.09	24135.89
512.458	24173.4
512.826	24442.1
513.193	24480.51
513.561	24577.24
513.929	24752.15
514.297	25045.92
514.664	25346.48
515.032	25520.04
515.4	25744.89
515.767	25993.7
516.135	26072.11
516.502	26031.43
516.869	26623.96
517.237	26743.73
517.604	26690.17
517.972	27025.98
518.339	27070.28
518.706	27163.61
519.073	27067.34
519.44	27390.72
519.808	27613.54
520.175	27641.79
520.542	28001.1
520.909	28139.4
521.276	28155.22
521.643	28521.31
522.009	28836.11
522.376	29042.65
522.743	29249.2
523.11	29592.24
523.477	29952.24
523.843	30187.48
524.21	30551.09
524.577	30722.61
524.943	30909.5
525.31	30943.17
525.676	31172.99
526.043	31374.12
526.409	31533.21
526.776	31821.11
527.142	31945.85
527.508	32124.61
527.874	32208.45
528.241	32426.97
528.607	32692.5
528.973	33026.96
529.339	33019.5
529.705	33529.32
530.071	33897.89
530.437	34032.13
530.803	34372.01
531.169	34680.92
531.535	34609.74
531.901	34862.61
532.267	35088.82
532.632	35308.48
532.998	35336.05
533.364	35508.25
533.73	35499.21
534.095	35590.73
534.461	35704.4
534.826	35852.42
535.192	35969.03
535.557	36136.03
535.923	36251.5
536.288	36361.11
536.653	36669.8
537.019	36643.36
537.384	36982.78
537.749	37138.49
538.114	37399.5
538.479	37469.33
538.845	37792.48
539.21	37728.75
539.575	37948.18
539.94	37974.17
540.305	38295.97
540.67	38186.82
541.034	38217.78
541.399	38242.41
541.764	38378.91
542.129	38411.22
542.494	38516.3
542.858	38635.85
543.223	38680.82
543.587	38844.88
543.952	38786.58
544.316	39149.28
544.681	39177.98
545.045	39593.34
545.41	39794.24
545.774	39959.43
546.138	40124.85
546.503	40356.93
546.867	40269.48
547.231	40709.47
547.595	40783.14
547.959	41012.06
548.324	40805.06
548.688	40833.08
549.052	40878.28
549.416	40898.39
549.779	41005.28
550.143	40888.67
550.507	41150.36
550.871	41234.65
551.235	41029.01
551.599	41537.69
551.962	41622.89
552.326	41678.03
552.689	42005.03
553.053	41922.32
553.417	42089.54
553.78	42740.83
554.143	42564.56
554.507	42955.51
554.87	43040.03
555.234	43383.29
555.597	43255.61
555.96	43327.93
556.323	43588.03
556.686	43431.65
557.05	43754.58
557.413	43747.58
557.776	43749.16
558.139	43804.75
558.502	43829.38
558.865	43856.5
559.228	44208.13
559.59	44107.57
559.953	44385.53
560.316	44634.56
560.679	44929.24
561.041	45121.1
561.404	45347.99
561.767	45597.25
562.129	45662.78
562.492	46103.9
562.854	46276.55
563.217	46350
563.579	46673.83
563.941	46961.73
564.304	47153.36
564.666	47195.17
565.028	47262.29
565.39	47434.49
565.753	47470.87
566.115	47532.11
566.477	47649.62
566.839	47460.02
567.201	47902.95
567.563	47764.65
567.925	47919.67
568.287	48063.4
568.648	48031.08
569.01	48393.78
569.372	48679.88
569.734	48610.05
570.095	48823.6
570.457	49035.58
570.819	49193.09
571.18	49122.35
571.542	49606.63
571.903	49575
572.265	49829.23
572.626	49894.76
572.987	49868.32
573.349	50125.49
573.71	50191.93
574.071	50316.22
574.432	50177.01
574.794	50398.03
575.155	50232.38
575.516	50077.36
575.877	50081.2
576.238	50224.92
576.599	50238.71
576.96	50273.73
577.32	50285.49
577.681	50306.28
578.042	50542.65
578.403	50615.87
578.763	50745.13
579.124	50792.14
579.485	50915.3
579.845	51122.07
580.206	51122.53
580.566	51198.23
580.927	51370.65
581.287	51481.61
581.648	51529.07
582.008	51561.84
582.368	51553.7
582.728	51551.89
583.089	51623.08
583.449	51522.74
583.809	51480.93
584.169	51555.28
584.529	51474.61
584.889	51586.24
585.249	51468.28
585.609	51321.62
585.969	51499.47
586.329	51416.76
586.688	51430.31
587.048	51446.13
587.408	51471.22
587.768	51470.99
588.127	51673.02
588.487	51654.49
588.846	51946.01
589.206	51792.56
589.565	51904.43
589.925	52107.81
590.284	51991.88
590.643	52004.99
591.003	52200.24
591.362	52164.08
591.721	52214.47
592.08	52035.95
592.44	52160.46
592.799	52292.21
593.158	52189.39
593.517	52036.17
593.876	52075.27
594.235	51996.63
594.593	51987.81
594.952	51921.15
595.311	51830.53
595.67	51790.98
596.029	52007.93
596.387	51982.84
596.746	52040.92
597.104	51876.18
597.463	52019.68
597.822	52157.53
598.18	52019.68
598.538	52132.89
598.897	52214.25
599.255	52048.6
599.613	52549.61
599.972	52393.68
600.33	52496.5
600.688	52377.63
601.046	52534.24
601.404	52750.51
601.762	52606.78
602.12	52746.66
602.478	52645.2
602.836	52716.16
603.194	52498.99
603.552	52585.31
603.91	52381.7
604.268	52578.31
604.625	52338.31
604.983	52461.47
605.341	52238.2
605.698	52382.15
606.056	52475.03
606.413	52486.33
606.771	52579.89
607.128	52663.28
607.485	52515.48
607.843	52656.95
608.2	52854.46
608.557	53093.77
608.914	53029.82
609.272	53117.95
609.629	53270.27
609.986	53387.78
610.343	53245.41
610.7	53522.01
611.057	53441.11
611.414	53533.08
611.771	53536.47
612.127	53680.42
612.484	53665.06
612.841	53606.75
613.198	53591.39
613.554	53481.79
613.911	53583.93
614.267	53479.07
614.624	53515.46
614.98	53551.61
615.337	53595.46
615.693	53679.52
616.05	53469.58
616.406	53734.66
616.762	53562.24
617.118	53504.38
617.475	53447.21
617.831	53579.41
618.187	53583.03
618.543	53676.13
618.899	53878.16
619.255	53814.66
619.611	53800.87
619.967	53970.59
620.323	54046.74
620.678	53952.96
621.034	53964.49
621.39	54045.16
621.746	53951.15
622.101	54299.17
622.457	54008.55
622.812	54138.27
623.168	54110.7
623.523	54072.5
623.879	54194.31
624.234	53908.89
624.589	53974.2
624.945	53918.84
625.3	53901.21
625.655	53878.61
626.01	53922.9
626.365	53922.23
626.72	53697.37
627.075	53735.11
627.43	53737.6
627.785	53657.37
628.14	53766.3
628.495	53758.16
628.85	53660.09
629.205	53630.71
629.559	53912.96
629.914	53672.74
630.269	53781.89
630.623	53814.43
630.978	53846.07
631.332	54037.93
631.687	54093.3
632.041	54056.01
632.396	54132.39
632.75	53893.3
633.104	54018.27
633.459	53937.14
633.813	54036.8
634.167	53905.05
634.521	53914.77
634.875	53847.2
635.229	53810.59
635.583	53632.97
635.937	53663.02
636.291	53499.19
636.645	53515.23
636.999	53338.51
637.352	53394.33
637.706	53125.64
638.06	53310.26
638.413	53086.77
638.767	53017.39
639.121	52973.55
639.474	52858.07
639.828	52860.11
640.181	52913.67
640.534	52918.86
640.888	52857.4
641.241	52792.99
641.594	52875.93
641.947	52914.34
642.301	52887.68
642.654	53076.6
643.007	52967.45
643.36	53012.42
643.713	52932.87
644.066	53042.48
644.419	52927
644.771	52864.85
645.124	52802.03
645.477	52643.39
645.83	52400.01
646.182	52019.45
646.535	51789.85
646.888	51684.77
647.24	51305.57
647.593	51579.46
647.945	51431.9
648.298	51214.05
648.65	51034.84
649.002	50862.19
649.355	51013.15
649.707	51047.5
650.059	51096.09
650.411	51597.99
650.763	51667.37
651.115	51980.81
651.467	51795.5
651.819	51845.67
652.171	51716.86
652.523	51640.7
652.875	51756.18
653.227	51715.28
653.578	51974.25
653.93	52045.21
654.282	51995.05
654.633	51860.81
654.985	51870.75
655.337	51926.35
655.688	51993.24
656.039	52242.72
656.391	51936.97
656.742	52056.51
657.094	52105.78
657.445	52237.07
657.796	52066
658.147	51896.74
658.498	51990.53
658.849	52032.56
659.2	51996.63
659.551	51807.93
659.902	51790.08
660.253	51735.62
660.604	51743.07
660.955	51529.97
661.306	51645
661.656	51501.95
662.007	51417.66
662.358	51322.29
662.708	51379.69
663.059	51365.68
663.409	51062.41
663.76	51375.17
664.11	51299.92
664.461	51243.65
664.811	51266.7
665.161	51321.39
665.511	51402.29
665.862	51454.95
666.212	51589.18
666.562	51623.3
666.912	51584.43
667.262	51647.26
667.612	51589.18
667.962	51698.1
668.312	51754.6
668.662	51888.38
669.011	51672.79
669.361	51680.93
669.711	51647.03
670.06	51484.55
670.41	51468.05
670.76	51380.15
671.109	51438
671.459	51169.08
671.808	51087.05
672.157	51180.83
672.507	50976.99
672.856	50968.63
673.205	50916.88
673.554	50922.08
673.904	50716.43
674.253	50884.79
674.602	50795.98
674.951	50099.95
675.3	49930.92
675.649	50417.69
675.998	50391.02
676.346	50429.21
676.695	50428.31
677.044	50251.59
677.393	50427.85
677.741	50517.12
678.09	50386.73
678.438	50468.31
678.787	50470.34
679.135	50490
679.484	50334.52
679.832	50546.72
680.181	50443.22
680.529	50511.92
680.877	50492.94
681.225	50508.98
681.573	50654.74
681.922	50504.69
682.27	50379.95
682.618	50462.2
682.966	50346.28
683.314	50298.59
683.661	50185.15
684.009	49972.95
684.357	49910.13
684.705	49856.8
685.053	49797.36
685.4	49832.84
685.748	49412.29
686.095	49336.13
686.443	49120.54
686.79	49003.03
687.138	49070.15
687.485	49043.94
687.832	48777.5
688.18	48902.25
688.527	48529.15
688.874	48528.02
689.221	48532.31
689.568	48317.18
689.915	48241.92
690.262	48290.06
690.609	48342.71
690.956	48251.19
691.303	48292.77
691.65	48134.13
691.997	48202.15
692.344	47924.19
692.69	48010.07
693.037	47945.66
693.383	47662.96
693.73	48008.71
694.077	47804.2
694.423	47760.58
694.769	47585.67
695.116	47436.97
695.462	47398.78
695.808	47332.12
696.155	47280.37
696.501	47070.2
696.847	47096.64
697.193	46821.17
697.539	46812.13
697.885	46413.95
698.231	46214.41
698.577	46061.64
698.923	45965.15
699.269	45612.39
699.614	45501.2
699.96	45413.52
700.306	45244.94
700.651	45052.4
700.997	44828.45
701.342	44576.71
701.688	44554.11
702.033	44571.74
702.379	44512.08
702.724	44374.45
703.069	44484.73
703.415	44048.81
703.76	44048.14
704.105	44007.23
704.45	43868.93
704.795	43821.02
705.14	43702.16
705.485	43549.62
705.83	43502.16
706.175	43742.15
706.52	43561.59
706.865	43565.66
707.209	43473.01
707.554	43493.57
707.899	43694.92
708.243	43299
708.588	43361.6
708.932	43178.1
709.277	43044.77
709.621	43140.36
709.966	42887.26
710.31	42995.96
710.654	42489.76
710.998	42565.91
711.342	42503.54
711.687	42380.83
712.031	42183.1
712.375	41950.56
712.719	41941.3
713.063	41858.81
713.407	41776.56
713.75	41538.37
714.094	41565.04
714.438	41243.24
714.782	41226.06
715.125	41038.95
715.469	41163.47
715.812	40843.47
716.156	40725.51
716.499	40610.03
716.843	40582.46
717.186	40316.71
717.53	40581.11
717.873	40484.61
718.216	40423.37
718.559	40487.33
718.902	40422.02
719.246	40594.89
719.589	40462.92
719.932	40606.87
720.275	40490.72
720.617	40462.69
720.96	40484.61
721.303	40633.99
721.646	40494.56
721.989	40477.83
722.331	40639.19
722.674	40358.06
723.016	40574.33
723.359	40453.65
723.701	40417.04
724.044	40105.19
724.386	39950.16
724.729	40093.89
725.071	39939.09
725.413	39946.1
725.755	40121.69
726.097	39695.26
726.439	39438.09
726.782	39272.22
727.124	39489.39
727.465	39046.91
727.807	39056.18
728.149	38871.77
728.491	38916.97
728.833	38826.8
729.175	38662.51
729.516	38476.08
729.858	38533.7
730.199	38596.3
730.541	38650.31
730.882	38467.27
731.224	38495.74
731.565	38322.41
731.906	38346.36
732.248	38330.55
732.589	38342.07
732.93	38166.93
733.271	38315.86
733.612	38262.98
733.953	38541.16
734.294	38357.44
734.635	38276.54
734.976	38438.34
735.317	38210.77
735.658	38213.71
735.999	38400.37
736.339	38273.37
736.68	38566.02
737.021	38301.85
737.361	38223.66
737.702	38390.88
738.042	38238.57
738.383	38111.79
738.723	38286.48
739.063	38117.9
739.404	38343.43
739.744	38199.25
740.084	37989.54
740.424	38083.32
740.764	37932.14
741.104	38076.99
741.444	37809.43
741.784	37827.96
742.124	37711.35
742.464	37702.54
742.804	37590.9
743.143	37545.93
743.483	37527.4
743.823	37244.25
744.162	37260.52
744.502	37486.27
744.841	37252.16
745.181	37279.05
745.52	37240.86
745.86	37320.18
746.199	37117.47
746.538	37122.89
746.877	37178.26
747.216	37180.29
747.556	37132.39
747.895	37230.24
748.234	37083.12
748.573	37151.59
748.911	37209.22
749.25	37215.32
749.589	37170.35
749.928	37518.59
750.267	37575.09
750.605	37435.65
750.944	37398.82
751.283	37465.03
751.621	37643.78
751.96	37441.08
752.298	37531.24
752.636	37742.54
752.975	37601.98
753.313	37509.55
