Data from blue_surface_keyboard_FLMS001491_079.txt Node
Date: Tue Feb 07 11:13:39 GMT 2017
User: dcchb
Spectrometer: FLMS00149
Trigger mode: 0
Integration Time (sec): 2.000000E-2
Scans to average: 10
Electric dark correction enabled: true
Nonlinearity correction enabled: false
Boxcar width: 0
XAxis mode: Wavelengths
Number of Pixels in Spectrum: 2048
>>>>>Begin Spectral Data<<<<<
341.393	-21.38
341.776	-21.38
342.16	-21.38
342.543	-82.17
342.927	-55.06
343.31	-69.07
343.693	-80.37
344.077	-45.34
344.46	-51.44
344.843	-53.02
345.226	-46.69
345.61	-29.74
345.993	-27.03
346.376	-0.82
346.759	14.77
347.142	38.73
347.525	33.53
347.908	59.29
348.291	61.1
348.674	76.69
349.057	119.4
349.44	102.68
349.823	151.04
350.206	173.41
350.588	165.5
350.971	184.26
351.354	210.93
351.737	209.34
352.119	230.59
352.502	216.35
352.884	245.95
353.267	256.12
353.65	273.07
354.032	283.92
354.414	283.24
354.797	301.77
355.179	296.35
355.562	280.98
355.944	299.74
356.326	314.43
356.709	286.86
357.091	323.92
357.473	313.3
357.855	318.27
358.238	294.54
358.62	329.79
359.002	324.14
359.384	314.88
359.766	316.01
360.148	302.9
360.53	310.36
360.912	299.29
361.294	327.31
361.676	298.61
362.057	302.68
362.439	292.51
362.821	316.01
363.203	289.57
363.584	290.92
363.966	310.59
364.348	313.52
364.729	289.34
365.111	287.08
365.493	312.62
365.874	300.87
366.256	294.54
366.637	293.41
367.019	290.47
367.4	299.29
367.781	282.11
368.163	288.21
368.544	278.5
368.925	273.98
369.306	282.11
369.688	276.69
370.069	280.3
370.45	286.86
370.831	309.23
371.212	288.21
371.593	301.55
371.974	280.08
372.355	303.35
372.736	281.66
373.117	265.16
373.498	287.08
373.879	290.7
374.26	275.11
374.641	280.98
375.021	286.86
375.402	297.48
375.783	312.62
376.163	297.93
376.544	269.46
376.925	297.03
377.305	302.45
377.686	307.65
378.066	292.51
378.447	295.67
378.827	285.95
379.208	286.63
379.588	279.17
379.968	279.17
380.349	286.4
380.729	298.16
381.109	305.16
381.489	302.45
381.87	298.38
382.25	314.65
382.63	320.53
383.01	291.38
383.39	305.39
383.77	289.57
384.15	291.6
384.53	298.16
384.91	292.51
385.29	312.17
385.67	305.61
386.049	316.69
386.429	309.23
386.809	322.34
387.189	305.61
387.568	295.22
387.948	309
388.328	312.39
388.707	338.83
389.087	327.31
389.466	306.29
389.846	292.28
390.225	326.18
390.605	310.13
390.984	288.44
391.363	318.95
391.743	323.47
392.122	323.47
392.501	328.44
392.881	320.98
393.26	310.36
393.639	303.58
394.018	327.99
394.397	320.3
394.776	321.66
395.155	292.51
395.534	314.88
395.913	334.09
396.292	316.23
396.671	304.26
397.05	333.41
397.429	332.05
397.808	317.59
398.186	324.6
398.565	351.49
398.944	325.73
399.323	328.89
399.701	316.01
400.08	339.74
400.458	324.37
400.837	334.99
401.215	332.96
401.594	346.74
401.972	335.44
402.351	342.45
402.729	331.38
403.107	342.67
403.486	340.64
403.864	346.29
404.242	354.65
404.62	303.58
404.999	328.44
405.377	353.3
405.755	350.81
406.133	360.53
406.511	350.58
406.889	357.14
407.267	333.64
407.645	349.68
408.023	357.36
408.401	363.47
408.779	371.15
409.156	368.89
409.534	362.11
409.912	367.76
410.29	369.34
410.667	358.49
411.045	354.88
411.422	352.17
411.8	356.69
412.178	352.62
412.555	370.92
412.933	373.41
413.31	372.28
413.687	375.67
414.065	382.67
414.442	371.6
414.819	351.71
415.197	390.13
415.574	379.96
415.951	368.89
416.328	377.25
416.705	374.76
417.082	379.96
417.46	369.11
417.837	394.65
418.214	398.49
418.591	396.01
418.967	394.65
419.344	400.3
419.721	396.46
420.098	388.32
420.475	394.2
420.852	392.16
421.228	389.68
421.605	388.55
421.982	403.46
422.358	417.02
422.735	411.15
423.111	404.14
423.488	389
423.864	404.82
424.241	398.72
424.617	392.62
424.994	419.73
425.37	411.6
425.746	416.34
426.123	406.4
426.499	405.05
426.875	399.85
427.251	404.59
427.627	408.66
428.003	439.4
428.379	436.68
428.756	427.87
429.132	434.2
429.507	437.59
429.883	434.2
430.259	420.41
430.635	439.62
431.011	436.23
431.387	430.13
431.763	452.05
432.138	437.59
432.514	454.76
432.89	442.11
433.265	445.27
433.641	484.37
434.016	469.9
434.392	456.34
434.767	470.35
435.143	460.86
435.518	470.13
435.894	457.02
436.269	462.22
436.644	471.48
437.02	486.63
437.395	476.23
437.77	489.56
438.145	491.82
438.52	477.13
438.895	495.21
439.271	493.41
439.646	475.33
440.021	485.27
440.395	501.31
440.77	486.17
441.145	462.9
441.52	519.85
441.895	483.91
442.27	473.97
442.645	504.25
443.019	488.21
443.394	504.93
443.769	503.8
444.143	518.72
444.518	523.46
444.892	541.09
445.267	526.85
445.641	532.95
446.016	530.69
446.39	522.78
446.764	515.78
447.139	513.29
447.513	526.85
447.887	525.27
448.262	517.13
448.636	522.33
449.01	516.68
449.384	546.29
449.758	522.1
450.132	537.47
450.506	535.89
450.88	528.21
451.254	546.74
451.628	562.56
452.002	553.29
452.376	564.82
452.75	557.81
453.123	554.42
453.497	577.24
453.871	573.63
454.244	552.84
454.618	564.59
454.992	575.44
455.365	588.32
455.739	602.55
456.112	603.01
456.486	608.2
456.859	598.04
457.232	603.91
457.606	581.09
457.979	608.66
458.352	599.84
458.725	606.17
459.099	619.05
459.472	600.07
459.845	607.53
460.218	615.44
460.591	615.21
460.964	632.61
461.337	651.59
461.71	649.79
462.083	636
462.456	636.68
462.829	649.56
463.201	652.72
463.574	640.75
463.947	640.97
464.32	676.68
464.692	683
465.065	662.67
465.438	676.68
465.81	682.55
466.183	679.61
466.555	710.12
466.928	679.16
467.3	689.33
467.672	708.99
468.045	711.03
468.417	738.14
468.789	711.7
469.161	708.54
469.534	726.39
469.906	730.24
470.278	741.53
470.65	725.04
471.022	751.93
471.394	734.53
471.766	744.92
472.138	772.04
472.51	783.34
472.882	798.93
473.253	791.02
473.625	780.18
473.997	795.54
474.369	775.88
474.74	817.69
475.112	812.04
475.484	798.48
475.855	825.6
476.227	803.91
476.598	842.55
476.97	869.21
477.341	866.73
477.713	848.42
478.084	890.91
478.455	890.91
478.827	902.66
479.198	897.69
479.569	893.39
479.94	887.29
480.311	891.59
480.682	927.97
481.053	931.81
481.424	946.05
481.795	946.05
482.166	972.04
482.537	964.81
482.908	962.32
483.279	988.31
483.65	960.51
484.021	994.63
484.391	1017.46
484.762	1025.82
485.133	1018.59
485.503	1051.36
485.874	1057.23
486.244	1037.8
486.615	1052.03
486.985	1050.45
487.356	1050.9
487.726	1075.99
488.097	1074.41
488.467	1070.57
488.837	1108.98
489.207	1106.27
489.578	1130.22
489.948	1139.94
490.318	1097.91
490.688	1115.31
491.058	1159.38
491.428	1162.99
491.798	1178.58
492.168	1157.34
492.538	1134.29
492.908	1176.33
493.278	1178.81
493.648	1171.58
494.017	1204.35
494.387	1198.92
494.757	1219.26
495.126	1228.98
495.496	1230.33
495.866	1192.82
496.235	1219.49
496.605	1242.31
496.974	1208.64
497.344	1229.66
497.713	1223.1
498.082	1230.56
498.452	1269.43
498.821	1266.94
499.19	1222.2
499.559	1260.62
499.928	1240.28
500.298	1250.9
500.667	1267.17
501.036	1276.89
501.405	1260.84
501.774	1252.71
502.143	1303.1
502.512	1274.85
502.88	1270.33
503.249	1268.98
503.618	1265.36
503.987	1291.12
504.356	1298.58
504.724	1319.15
505.093	1332.03
505.462	1294.74
505.83	1316.89
506.199	1313.27
506.567	1323.89
506.936	1315.76
507.304	1311.46
507.672	1297
508.041	1317.11
508.409	1319.15
508.777	1317.79
509.145	1324.8
509.514	1354.63
509.882	1335.64
510.25	1348.75
510.618	1327.96
510.986	1353.27
511.354	1356.21
511.722	1352.37
512.09	1335.64
512.458	1364.79
512.826	1357.34
513.193	1359.82
513.561	1368.86
513.929	1358.24
514.297	1379.71
514.664	1391.91
515.032	1370.22
515.4	1364.57
515.767	1419.93
516.135	1378.13
516.502	1357.34
516.869	1372.7
517.237	1375.87
517.604	1415.87
517.972	1372.03
518.339	1390.33
518.706	1393.04
519.073	1380.84
519.44	1412.25
519.808	1405.7
520.175	1405.25
520.542	1410.22
520.909	1445.47
521.276	1386.04
521.643	1417.9
522.009	1405.7
522.376	1406.6
522.743	1423.32
523.11	1431.69
523.477	1450.67
523.843	1473.94
524.21	1452.93
524.577	1468.97
524.943	1457
525.31	1423.32
525.676	1473.27
526.043	1505.36
526.409	1499.71
526.776	1487.28
527.142	1468.75
527.508	1463.78
527.874	1475.75
528.241	1478.92
528.607	1507.62
528.973	1478.92
529.339	1501.29
529.705	1498.8
530.071	1494.28
530.437	1524.34
530.803	1520.04
531.169	1535.64
531.535	1504.45
531.901	1506.03
532.267	1491.12
532.632	1517.11
532.998	1510.78
533.364	1516.2
533.73	1545.13
534.095	1524.11
534.461	1532.7
534.826	1527.73
535.192	1515.07
535.557	1545.58
535.923	1570.89
536.288	1555.98
536.653	1542.64
537.019	1534.51
537.384	1553.72
537.749	1561.4
538.114	1544
538.479	1541.74
538.845	1562.98
539.21	1526.15
539.575	1541.29
539.94	1538.12
540.305	1547.39
540.67	1550.78
541.034	1539.71
541.399	1560.95
541.764	1553.49
542.129	1570.89
542.494	1545.58
542.858	1569.99
543.223	1565.69
543.587	1557.78
543.952	1554.62
544.316	1556.43
544.681	1568.18
545.045	1575.86
545.41	1560.72
545.774	1569.99
546.138	1591
546.503	1597.56
546.867	1566.37
547.231	1570.89
547.595	1589.65
547.959	1585.58
548.324	1596.43
548.688	1550.33
549.052	1588.97
549.416	1588.29
549.779	1591.46
550.143	1568.41
550.507	1609.99
550.871	1599.82
551.235	1556.88
551.599	1626.26
551.962	1607.27
552.326	1585.35
552.689	1609.53
553.053	1595.52
553.417	1591.68
553.78	1572.92
554.143	1600.72
554.507	1612.92
554.87	1577.44
555.234	1631.45
555.597	1552.81
555.96	1592.59
556.323	1602.08
556.686	1627.61
557.05	1594.39
557.413	1614.96
557.776	1606.37
558.139	1623.32
558.502	1604.11
558.865	1591.23
559.228	1625.58
559.59	1662.87
559.953	1607.95
560.316	1664.22
560.679	1640.72
561.041	1674.62
561.404	1647.95
561.767	1649.31
562.129	1621.96
562.492	1626.71
562.854	1679.59
563.217	1683.66
563.579	1669.19
563.941	1664.45
564.304	1621.74
564.666	1661.74
565.028	1677.78
565.39	1664
565.753	1682.75
566.115	1643.88
566.477	1686.82
566.839	1664.45
567.201	1675.52
567.563	1707.61
567.925	1660.15
568.287	1716.88
568.648	1679.14
569.01	1691.11
569.372	1694.96
569.734	1697.67
570.095	1713.71
570.457	1701.28
570.819	1720.72
571.18	1713.71
571.542	1736.54
571.903	1710.1
572.265	1741.96
572.626	1715.07
572.987	1727.72
573.349	1705.12
573.71	1742.19
574.071	1750.55
574.432	1720.49
574.794	1744.9
575.155	1749.19
575.516	1741.06
575.877	1714.16
576.238	1789.19
576.599	1771.79
576.96	1754.39
577.32	1779.25
577.681	1758.23
578.042	1767.27
578.403	1792.58
578.763	1765.46
579.124	1760.94
579.485	1775.41
579.845	1771.11
580.206	1748.97
580.566	1765.69
580.927	1805.69
581.287	1747.61
581.648	1760.04
582.008	1783.77
582.368	1775.41
582.728	1804.33
583.089	1797.1
583.449	1787.38
583.809	1811.56
584.169	1776.99
584.529	1778.57
584.889	1791.22
585.249	1798
585.609	1761.39
585.969	1802.75
586.329	1790.09
586.688	1807.04
587.048	1758.23
587.408	1779.02
587.768	1770.66
588.127	1783.77
588.487	1794.61
588.846	1791.45
589.206	1773.6
589.565	1765.24
589.925	1800.04
590.284	1801.39
590.643	1834.61
591.003	1815.4
591.362	1821.73
591.721	1805.24
592.08	1821.28
592.44	1803.65
592.799	1793.03
593.158	1833.48
593.517	1828.74
593.876	1816.31
594.235	1795.52
594.593	1793.94
594.952	1790.09
595.311	1791
595.67	1790.55
596.029	1810.88
596.387	1838
596.746	1840.04
597.104	1827.61
597.463	1816.08
597.822	1804.33
598.18	1805.01
598.538	1830.77
598.897	1812.47
599.255	1820.6
599.613	1831.9
599.972	1826.93
600.33	1807.95
600.688	1838.23
601.046	1829.64
601.404	1847.95
601.762	1817.66
602.12	1840.94
602.478	1846.82
602.836	1856.31
603.194	1829.64
603.552	1807.72
603.91	1851.79
604.268	1827.38
604.625	1815.86
604.983	1859.92
605.341	1822.64
605.698	1836.42
606.056	1856.76
606.413	1859.24
606.771	1855.4
607.128	1856.08
607.485	1854.27
607.843	1843.2
608.2	1876.19
608.557	1862.18
608.914	1849.98
609.272	1862.41
609.629	1912.58
609.986	1915.51
610.343	1889.07
610.7	1887.27
611.057	1865.35
611.414	1883.65
611.771	1873.93
612.127	1880.26
612.484	1911.9
612.841	1896.08
613.198	1900.37
613.554	1898.57
613.911	1906.02
614.267	1890.2
614.624	1904.22
614.98	1907.61
615.337	1939.92
615.693	1932.69
616.05	1922.07
616.406	1956.42
616.762	1932.24
617.118	1947.83
617.475	1920.26
617.831	1936.76
618.187	1947.6
618.543	1925.91
618.899	1962.07
619.255	1953.93
619.611	1941.5
619.967	1950.32
620.323	1975.85
620.678	1937.21
621.034	1973.14
621.39	1969.07
621.746	1939.02
622.101	1965.91
622.457	1942.86
622.812	1955.97
623.168	1954.84
623.523	1962.07
623.879	1962.52
624.234	1953.25
624.589	1989.18
624.945	2025.34
625.3	1980.15
625.655	1963.42
626.01	1979.47
626.365	2000.26
626.72	2001.39
627.075	2018.56
627.43	1992.57
627.785	2019.92
628.14	1987.15
628.495	1993.03
628.85	1986.7
629.205	1994.16
629.559	2012.24
629.914	2001.84
630.269	2014.5
630.623	1984.89
630.978	2038.68
631.332	2010.65
631.687	2060.37
632.041	2027.83
632.396	2017.66
632.75	2016.3
633.104	2036.42
633.459	2019.47
633.813	2020.14
634.167	2033.25
634.521	2012.24
634.875	2039.58
635.229	2064.66
635.583	2051.1
635.937	2037.32
636.291	2057.88
636.645	2045.91
636.999	2088.84
637.352	2040.94
637.706	2058.11
638.06	2079.13
638.413	2082.52
638.767	2059.47
639.121	2077.54
639.474	2081.84
639.828	2081.39
640.181	2082.52
640.534	2096.07
640.888	2091.78
641.241	2078.67
641.594	2110.09
641.947	2119.35
642.301	2116.19
642.654	2138.79
643.007	2137.2
643.36	2151.89
643.713	2108.05
644.066	2175.39
644.419	2139.46
644.771	2146.02
645.124	2143.53
645.477	2148.28
645.83	2123.19
646.182	2139.24
646.535	2141.5
646.888	2162.51
647.24	2129.52
647.593	2129.52
647.945	2150.54
648.298	2166.13
648.65	2170.42
649.002	2143.08
649.355	2172.68
649.707	2180.37
650.059	2178.11
650.411	2174.72
650.763	2239.35
651.115	2242.74
651.467	2248.16
651.819	2286.8
652.171	2293.58
652.523	2283.41
652.875	2253.36
653.227	2294.04
653.578	2318.89
653.93	2273.25
654.282	2332.68
654.633	2322.74
654.985	2330.19
655.337	2317.99
655.688	2330.64
656.039	2369.74
656.391	2357.76
656.742	2375.39
657.094	2404.32
657.445	2426.24
657.796	2401.15
658.147	2413.35
658.498	2408.38
658.849	2443.41
659.2	2451.32
659.551	2490.41
659.902	2459.46
660.253	2436.63
660.604	2489.96
660.955	2472.79
661.306	2485.22
661.656	2513.92
662.007	2497.42
662.358	2467.14
662.708	2518.89
663.059	2555.72
663.409	2526.8
663.76	2540.81
664.11	2554.59
664.461	2594.82
664.811	2612.22
665.161	2581.03
665.511	2579.9
665.862	2622.39
666.212	2632.56
666.562	2638.89
666.912	2643.18
667.262	2684.53
667.612	2666.46
667.962	2692.67
668.312	2671.2
668.662	2674.59
669.011	2731.54
669.361	2706
669.711	2729.28
670.06	2722.73
670.41	2749.84
670.76	2748.04
671.109	2785.55
671.459	2767.7
671.808	2761.37
672.157	2802.5
672.507	2778.77
672.856	2829.16
673.205	2776.51
673.554	2857.18
673.904	2842.95
674.253	2849.5
674.602	2851.54
674.951	2809.5
675.3	2806.34
675.649	2867.13
675.998	2885.21
676.346	2875.49
676.695	2917.07
677.044	2875.49
677.393	2927.01
677.741	2973.34
678.09	2972.21
678.438	3002.72
678.787	2956.39
679.135	3015.37
679.484	2966.11
679.832	3003.17
680.181	2964.75
680.529	3018.31
680.877	3018.54
681.225	3024.41
681.573	3049.27
681.922	3004.53
682.27	3043.39
682.618	3007.46
682.966	3021.7
683.314	3041.13
683.661	3005.43
684.009	3059.89
684.357	3081.36
684.705	3039.78
685.053	3074.35
685.4	3084.52
685.748	3084.75
686.095	3099.89
686.443	3074.13
686.79	3131.08
687.138	3103.28
687.485	3111.19
687.832	3059.89
688.18	3151.87
688.527	3157.52
688.874	3108.7
689.221	3124.3
689.568	3118.65
689.915	3116.84
690.262	3128.36
690.609	3110.51
690.956	3149.38
691.303	3140.12
691.65	3091.3
691.997	3107.35
692.344	3106.44
692.69	3106.44
693.037	3156.16
693.383	3118.87
693.73	3128.36
694.077	3114.58
694.423	3137.4
694.769	3124.75
695.116	3124.07
695.462	3140.57
695.808	3141.47
696.155	3121.13
696.501	3116.39
696.847	3162.94
697.193	3124.97
697.539	3102.83
697.885	3061.25
698.231	3108.7
698.577	3082.94
698.923	3060.34
699.269	3089.95
699.614	3073
699.96	3065.09
700.306	3108.93
700.651	3058.08
700.997	3047.01
701.342	3070.51
701.688	3098.76
702.033	3072.09
702.379	3097.4
702.724	3065.31
703.069	3086.56
703.415	3029.61
703.76	3065.54
704.105	3066.44
704.45	3059.21
704.795	3018.08
705.14	3041.36
705.485	2995.26
705.83	3037.74
706.175	3047.24
706.52	3020.57
706.865	3026.67
707.209	2994.36
707.554	3003.17
707.899	3002.94
708.243	3004.3
708.588	3049.95
708.932	2972.66
709.277	2960.01
709.621	3048.82
709.966	2999.1
710.31	3006.56
710.654	3011.08
710.998	3007.46
711.342	2975.15
711.687	3001.36
712.031	2962.49
712.375	2985.77
712.719	2988.25
713.063	2995.49
713.407	2971.98
713.75	2987.12
714.094	2946
714.438	2960.23
714.782	2941.93
715.125	2944.87
715.469	2977.41
715.812	2959.1
716.156	2957.07
716.499	2923.85
716.843	2953.68
717.186	2961.59
717.53	2955.71
717.873	2966.33
718.216	2935.37
718.559	2948.48
718.902	2949.39
719.246	2926.34
719.589	2916.39
719.932	2930.86
720.275	2909.84
720.617	2973.57
720.96	2932.21
721.303	2938.99
721.646	2926.79
721.989	2933.79
722.331	2910.74
722.674	2922.72
723.016	2940.12
723.359	2959.55
723.701	2970.85
724.044	2924.98
724.386	2887.24
724.729	2927.47
725.071	2928.6
725.413	2915.71
725.755	2912.1
726.097	2949.16
726.439	2901.48
726.782	2948.71
727.124	2967.69
727.465	2927.92
727.807	2997.75
728.149	2976.05
728.491	2933.79
728.833	2966.11
729.175	2943.96
729.516	2974.7
729.858	2974.24
730.199	2961.36
730.541	2932.44
730.882	2969.95
731.224	2976.05
731.565	2965.66
731.906	2991.64
732.248	2978.09
732.589	2964.07
732.93	2961.36
733.271	2995.26
733.612	2971.98
733.953	2976.05
734.294	2992.1
734.635	2968.14
734.976	2967.01
735.317	2999.55
735.658	2982.38
735.999	3016.5
736.339	3024.19
736.68	3026.9
737.021	3024.86
737.361	3032.77
737.702	3030.29
738.042	3024.86
738.383	3007.69
738.723	3028.93
739.063	3010.85
739.404	3033.68
739.744	3026.22
740.084	3054.69
740.424	3097.4
740.764	3070.74
741.104	3097.63
741.444	3032.1
741.784	3093.79
742.124	3153.22
742.464	3069.38
742.804	3140.57
743.143	3127.46
743.483	3133.79
743.823	3165.88
744.162	3137.4
744.502	3151.87
744.841	3182.37
745.181	3168.59
745.52	3205.88
745.86	3182.6
746.199	3201.36
746.538	3201.36
746.877	3247.23
747.216	3254.24
747.556	3282.26
747.895	3280.9
748.234	3277.06
748.573	3330.62
748.911	3318.64
749.25	3317.96
749.589	3361.8
749.928	3333.56
750.267	3332.2
750.605	3388.47
750.944	3414.91
751.283	3458.07
751.621	3447.23
751.96	3465.3
752.298	3516.6
752.636	3491.52
752.975	3489.03
753.313	3502.59
753.651	3565.41
753.989	3536.26
754.327	3570.16
754.666	3609.93
755.004	3627.11
755.342	3644.51
755.679	3710.95
756.017	3689.93
756.355	3707.78
756.693	3683.83
757.031	3733.77
757.368	3763.6
757.706	3762.02
758.044	3801.57
758.381	3779.42
758.719	3789.59
759.056	3807.89
759.394	3872.75
759.731	3849.7
760.068	3839.53
760.405	3893.09
760.743	3889.25
761.08	3883.15
761.417	3897.61
761.754	3966.31
762.091	3937.38
762.428	3962.01
762.765	3920.66
763.102	3956.36
763.438	3962.92
763.775	3948.46
764.112	3956.14
764.449	3985.52
764.785	3974.9
765.122	3983.26
765.458	4006.31
765.795	4010.37
766.131	3993.2
766.467	4054.22
766.804	4028.68
767.14	3978.74
767.476	4005.4
767.812	4013.99
768.148	4043.14
768.485	4027.32
768.821	4031.17
769.157	4055.8
769.492	4034.33
769.828	4032.75
770.164	4009.47
770.5	4055.12
770.836	4025.74
771.171	4034.55
771.507	3995.69
771.842	4009.47
772.178	3962.24
