Data from blue_chair_FLMS001491_00033.txt Node
Date: Wed Feb 08 10:30:36 GMT 2017
User: dcchb
Spectrometer: FLMS00149
Trigger mode: 0
Integration Time (sec): 2.000000E-2
Scans to average: 10
Electric dark correction enabled: true
Nonlinearity correction enabled: false
Boxcar width: 0
XAxis mode: Wavelengths
Number of Pixels in Spectrum: 2048
>>>>>Begin Spectral Data<<<<<
341.393	-15.14
341.776	-15.14
342.16	-15.14
342.543	-60.34
342.927	-63.5
343.31	-75.7
343.693	-55.37
344.077	-48.13
344.46	-46.55
344.843	-57.63
345.226	-51.52
345.61	-34.8
345.993	1.36
346.376	-7.68
346.759	-9.27
347.142	33.22
347.525	40.22
347.908	48.13
348.291	73.9
348.674	87.46
349.057	102.37
349.44	115.7
349.823	134.01
350.206	146.44
350.588	157.28
350.971	192.76
351.354	202.25
351.737	192.54
352.119	229.82
352.502	227.11
352.884	238.64
353.267	272.76
353.65	262.14
354.032	287.68
354.414	284.74
354.797	280.9
355.179	286.55
355.562	293.33
355.944	326.55
356.326	314.34
356.709	314.79
357.091	314.12
357.473	312.53
357.855	299.2
358.238	306.21
358.62	320.9
359.002	317.05
359.384	328.8
359.766	318.64
360.148	310.73
360.53	308.01
360.912	314.34
361.294	310.27
361.676	301.69
362.057	295.13
362.439	319.09
362.821	303.27
363.203	309.14
363.584	303.72
363.966	296.72
364.348	327.45
364.729	300.56
365.111	298.3
365.493	278.86
365.874	300.78
366.256	273.89
366.637	278.41
367.019	274.34
367.4	300.11
367.781	273.21
368.163	279.09
368.544	279.09
368.925	298.52
369.306	295.59
369.688	276.83
370.069	283.61
370.45	301.91
370.831	285.19
371.212	290.61
371.593	306.66
371.974	280.9
372.355	301.01
372.736	283.38
373.117	293.55
373.498	278.86
373.879	302.82
374.26	293.78
374.641	300.78
375.021	305.75
375.402	295.59
375.783	277.28
376.163	295.13
376.544	288.35
376.925	300.56
377.305	292.65
377.686	298.75
378.066	304.85
378.447	302.59
378.827	294.46
379.208	295.59
379.588	287.9
379.968	289.26
380.349	317.28
380.729	292.2
381.109	282.93
381.489	302.14
381.87	309.82
382.25	305.3
382.63	294.23
383.01	311.4
383.39	314.57
383.77	294.46
384.15	305.3
384.53	311.86
384.91	312.99
385.29	286.09
385.67	308.24
386.049	319.31
386.429	310.5
386.809	308.01
387.189	294.23
387.568	295.59
387.948	291.97
388.328	288.35
388.707	302.14
389.087	306.88
389.466	332.87
389.846	310.95
390.225	322.48
390.605	298.75
390.984	314.57
391.363	315.92
391.743	320.44
392.122	300.11
392.501	310.05
392.881	323.38
393.26	311.18
393.639	325.87
394.018	312.08
394.397	306.66
394.776	341.46
395.155	310.05
395.534	321.8
395.913	322.48
396.292	321.8
396.671	325.64
397.05	329.03
397.429	317.05
397.808	313.66
398.186	316.83
398.565	312.76
398.944	322.7
399.323	317.96
399.701	330.39
400.08	334.68
400.458	330.61
400.837	330.61
401.215	330.39
401.594	319.09
401.972	337.84
402.351	358.63
402.729	350.05
403.107	335.81
403.486	348.92
403.864	353.89
404.242	369.03
404.62	334.23
404.999	348.01
405.377	347.56
405.755	357.05
406.133	341.23
406.511	333.32
406.889	354.79
407.267	356.83
407.645	340.33
408.023	364.51
408.401	368.8
408.779	376.71
409.156	363.83
409.534	358.41
409.912	368.8
410.29	374.45
410.667	363.38
411.045	370.61
411.422	361.12
411.8	362.48
412.178	365.19
412.555	383.72
412.933	369.71
413.31	373.55
413.687	373.78
414.065	400.89
414.442	368.58
414.819	371.06
415.197	392.08
415.574	385.07
415.951	385.07
416.328	400.89
416.705	381.91
417.082	400.89
417.46	381.46
417.837	404.74
418.214	387.33
418.591	396.83
418.967	397.5
419.344	418.75
419.721	409.03
420.098	413.32
420.475	404.28
420.852	412.87
421.228	416.03
421.605	414
421.982	403.38
422.358	428.24
422.735	413.32
423.111	434.11
423.488	426.2
423.864	422.59
424.241	431.4
424.617	437.5
424.994	420.55
425.37	444.06
425.746	414.23
426.123	443.38
426.499	432.76
426.875	447.67
427.251	437.28
427.627	427.56
428.003	420.1
428.379	465.75
428.756	449.03
429.132	465.52
429.507	457.62
429.883	484.96
430.259	468.91
430.635	472.08
431.011	461.46
431.387	470.27
431.763	474.11
432.138	484.96
432.514	480.21
432.89	517.27
433.265	487.67
433.641	479.76
434.016	511.62
434.392	496.71
434.767	502.81
435.143	526.31
435.518	514.79
435.894	524.28
436.269	525.41
436.644	514.56
437.02	533.32
437.395	541.45
437.77	525.86
438.145	553.21
438.52	557.27
438.895	557.05
439.271	565.63
439.646	548.01
440.021	594.33
440.395	585.97
440.77	591.4
441.145	581.68
441.52	601.34
441.895	581
442.27	580.32
442.645	596.82
443.019	618.06
443.394	608.8
443.769	619.87
444.143	621.45
444.518	615.35
444.892	614.67
445.267	605.86
445.641	629.59
446.016	625.75
446.39	625.29
446.764	635.69
447.139	628.91
447.513	638.63
447.887	635.01
448.262	631.85
448.636	667.33
449.01	653.32
449.384	651.96
449.758	693.09
450.132	654.67
450.506	673.65
450.88	665.97
451.254	645.18
451.628	673.65
452.002	665.97
452.376	678.85
452.75	683.37
453.123	692.86
453.497	713.2
453.871	685.18
454.244	709.13
454.618	716.59
454.992	701.9
455.365	706.65
455.739	731.28
456.112	733.99
456.486	733.09
456.859	736.7
457.232	750.26
457.606	717.27
457.979	738.29
458.352	759.53
458.725	780.77
459.099	772.64
459.472	782.58
459.845	778.96
460.218	767.21
460.591	785.97
460.964	806.31
461.337	815.35
461.71	805.18
462.083	843.59
462.456	845.4
462.829	814.44
463.201	850.83
463.574	828.45
463.947	868.68
464.32	877.04
464.692	857.83
465.065	849.02
465.438	897.38
465.81	880.65
466.183	885.4
466.555	886.3
466.928	905.74
467.3	898.28
467.672	902.35
468.045	930.82
468.417	919.52
468.789	949.13
469.161	921.11
469.534	957.26
469.906	957.71
470.278	969.92
470.65	963.14
471.022	980.31
471.394	993.19
471.766	997.04
472.138	990.48
472.51	1014.89
472.882	1044.27
473.253	1013.31
473.625	1035.68
473.997	1062.57
474.369	1084.72
474.74	1052.63
475.112	1078.39
475.484	1105.06
475.855	1116.35
476.227	1102.8
476.598	1156.81
476.97	1147.99
477.341	1170.59
477.713	1168.78
478.084	1198.84
478.455	1169.46
478.827	1216.01
479.198	1223.24
479.569	1214.88
479.94	1227.76
480.311	1245.62
480.682	1230.93
481.053	1256.01
481.424	1305.28
481.795	1288.33
482.166	1279.97
482.537	1307.76
482.908	1307.99
483.279	1338.04
483.65	1363.81
484.021	1351.6
484.391	1369.23
484.762	1365.39
485.133	1382.34
485.503	1412.17
485.874	1422.79
486.244	1406.97
486.615	1433.63
486.985	1445.39
487.356	1449.23
487.726	1460.75
488.097	1475.89
488.467	1475.67
488.837	1548.43
489.207	1520.86
489.578	1531.03
489.948	1530.58
490.318	1541.43
490.688	1543.01
491.058	1535.78
491.428	1580.52
491.798	1579.85
492.168	1618.94
492.538	1597.47
492.908	1599.96
493.278	1591.14
493.648	1642.67
494.017	1636.34
494.387	1619.39
494.757	1607.19
495.126	1634.08
495.496	1658.26
495.866	1648.54
496.235	1647.87
496.605	1670.01
496.974	1644.93
497.344	1680.86
497.713	1677.7
498.082	1692.16
498.452	1686.74
498.821	1660.07
499.19	1679.05
499.559	1713.85
499.928	1702.55
500.298	1704.14
500.667	1717.47
501.036	1700.29
501.405	1700.29
501.774	1693.74
502.143	1722.89
502.512	1685.38
502.88	1722.44
503.249	1681.99
503.618	1744.81
503.987	1716.11
504.356	1737.36
504.724	1738.03
505.093	1723.57
505.462	1719.05
505.83	1726.73
506.199	1726.96
506.567	1708.2
506.936	1742.55
507.304	1739.84
507.672	1773.74
508.041	1717.24
508.409	1726.51
508.777	1739.84
509.145	1752.5
509.514	1764.02
509.882	1738.71
510.25	1764.7
510.618	1751.14
510.986	1749.11
511.354	1757.24
511.722	1740.07
512.09	1719.95
512.458	1743.23
512.826	1748.43
513.193	1745.94
513.561	1767.19
513.929	1723.12
514.297	1753.17
514.664	1784.59
515.032	1766.51
515.4	1772.61
515.767	1746.17
516.135	1766.06
516.502	1703.01
516.869	1762.89
517.237	1777.35
517.604	1737.58
517.972	1726.96
518.339	1755.66
518.706	1757.69
519.073	1765.15
519.44	1772.16
519.808	1765.83
520.175	1750.01
520.542	1762.89
520.909	1742.78
521.276	1764.02
521.643	1749.78
522.009	1758.82
522.376	1726.73
522.743	1756.79
523.11	1759.73
523.477	1778.71
523.843	1739.84
524.21	1759.73
524.577	1767.41
524.943	1758.37
525.31	1770.57
525.676	1770.8
526.043	1774.87
526.409	1773.74
526.776	1766.73
527.142	1773.06
527.508	1757.69
527.874	1794.98
528.241	1761.31
528.607	1758.6
528.973	1781.87
529.339	1747.98
529.705	1770.12
530.071	1785.26
530.437	1777.13
530.803	1804.25
531.169	1760.18
531.535	1761.54
531.901	1770.35
532.267	1780.07
532.632	1771.48
532.998	1762.89
533.364	1791.82
533.73	1764.02
534.095	1787.52
534.461	1786.85
534.826	1758.82
535.192	1761.08
535.557	1788.43
535.923	1781.2
536.288	1750.24
536.653	1757.92
537.019	1754.76
537.384	1758.15
537.749	1722.44
538.114	1754.08
538.479	1738.71
538.845	1739.62
539.21	1719.73
539.575	1745.49
539.94	1747.52
540.305	1731.71
540.67	1719.05
541.034	1740.52
541.399	1734.87
541.764	1699.84
542.129	1728.77
542.494	1718.15
542.858	1739.16
543.223	1705.72
543.587	1686.28
543.952	1722.44
544.316	1737.13
544.681	1680.86
545.045	1717.02
545.41	1725.6
545.774	1707.53
546.138	1695.32
546.503	1683.8
546.867	1658.04
547.231	1690.58
547.595	1708.2
547.959	1672.72
548.324	1654.65
548.688	1666.4
549.052	1662.78
549.416	1682.44
549.779	1671.82
550.143	1647.19
550.507	1657.13
550.871	1658.94
551.235	1667.53
551.599	1662.33
551.962	1676.11
552.326	1637.47
552.689	1637.7
553.053	1681.09
553.417	1664.59
553.78	1676.11
554.143	1650.8
554.507	1656.45
554.87	1656.91
555.234	1651.03
555.597	1649.9
555.96	1632.95
556.323	1611.71
556.686	1637.92
557.05	1634.53
557.413	1632.5
557.776	1612.39
558.139	1644.25
558.502	1599.73
558.865	1629.79
559.228	1628.21
559.59	1615.78
559.953	1637.7
560.316	1653.74
560.679	1636.12
561.041	1643.57
561.404	1622.33
561.767	1662.56
562.129	1658.94
562.492	1630.01
562.854	1656
563.217	1621.2
563.579	1644.7
563.941	1637.7
564.304	1645.83
564.666	1637.47
565.028	1636.12
565.39	1679.73
565.753	1657.36
566.115	1665.49
566.477	1651.48
566.839	1646.51
567.201	1671.82
567.563	1669.56
567.925	1672.72
568.287	1673.63
568.648	1705.04
569.01	1661.65
569.372	1691.25
569.734	1681.76
570.095	1692.84
570.457	1665.72
570.819	1691.25
571.18	1688.54
571.542	1714.76
571.903	1730.58
572.265	1698.49
572.626	1706.4
572.987	1717.02
573.349	1722.67
573.71	1728.09
574.071	1757.02
574.432	1739.16
574.794	1726.73
575.155	1726.73
575.516	1737.58
575.877	1731.71
576.238	1712.27
576.599	1746.39
576.96	1747.75
577.32	1715.89
577.681	1755.89
578.042	1770.12
578.403	1776.22
578.763	1792.27
579.124	1777.13
579.485	1794.3
579.845	1772.38
580.206	1786.85
580.566	1785.72
580.927	1773.29
581.287	1780.29
581.648	1748.43
582.008	1791.14
582.368	1799.27
582.728	1799.95
583.089	1810.8
583.449	1774.42
583.809	1792.72
584.169	1824.36
584.529	1812.38
584.889	1810.57
585.249	1810.35
585.609	1798.14
585.969	1798.37
586.329	1783
586.688	1813.74
587.048	1767.64
587.408	1779.16
587.768	1819.39
588.127	1761.31
588.487	1763.8
588.846	1808.99
589.206	1783.46
589.565	1795.21
589.925	1813.74
590.284	1802.66
590.643	1814.42
591.003	1805.6
591.362	1800.86
591.721	1795.43
592.08	1771.48
592.44	1816.68
592.799	1790.69
593.158	1822.1
593.517	1798.37
593.876	1786.85
594.235	1793.85
594.593	1778.48
594.952	1824.36
595.311	1806.96
595.67	1809.67
596.029	1816.22
596.387	1815.32
596.746	1797.69
597.104	1816.68
597.463	1806.05
597.822	1784.81
598.18	1804.7
598.538	1808.77
598.897	1797.69
599.255	1752.04
599.613	1805.83
599.972	1830.46
600.33	1826.62
600.688	1830.91
601.046	1807.64
601.404	1817.35
601.762	1805.6
602.12	1814.19
602.478	1821.2
602.836	1806.73
603.194	1793.63
603.552	1818.03
603.91	1786.39
604.268	1821.87
604.625	1798.82
604.983	1790.91
605.341	1846.28
605.698	1811.93
606.056	1823.23
606.413	1816.22
606.771	1790.24
607.128	1823.23
607.485	1773.06
607.843	1821.42
608.2	1811.7
608.557	1799.27
608.914	1795.66
609.272	1834.53
609.629	1795.88
609.986	1838.14
610.343	1794.3
610.7	1807.41
611.057	1797.92
611.414	1806.28
611.771	1841.53
612.127	1808.77
612.484	1809.67
612.841	1826.62
613.198	1848.31
613.554	1810.35
613.911	1852.15
614.267	1822.78
614.624	1819.39
614.98	1827.52
615.337	1816.45
615.693	1853.28
616.05	1825.04
616.406	1828.43
616.762	1841.53
617.118	1870.23
617.475	1863.45
617.831	1870.01
618.187	1862.32
618.543	1847.64
618.899	1833.4
619.255	1843.57
619.611	1852.15
619.967	1845.15
620.323	1875.2
620.678	1837.47
621.034	1846.28
621.39	1882.89
621.746	1865.26
622.101	1873.85
622.457	1875.43
622.812	1850.35
623.168	1837.01
623.523	1867.75
623.879	1884.24
624.234	1865.26
624.589	1856.9
624.945	1890.35
625.3	1888.31
625.655	1887.63
626.01	1845.38
626.365	1913.85
626.72	1864.13
627.075	1872.04
627.43	1869.56
627.785	1875.43
628.14	1862.78
628.495	1884.24
628.85	1904.58
629.205	1872.72
629.559	1865.26
629.914	1854.64
630.269	1879.27
630.623	1868.65
630.978	1858.03
631.332	1843.34
631.687	1876.79
632.041	1859.84
632.396	1857.8
632.75	1848.09
633.104	1843.79
633.459	1866.39
633.813	1845.38
634.167	1853.06
634.521	1868.2
634.875	1841.08
635.229	1882.66
635.583	1875.43
635.937	1820.97
636.291	1871.14
636.645	1837.24
636.999	1865.04
637.352	1861.42
637.706	1847.18
638.06	1852.61
638.413	1833.17
638.767	1856.22
639.121	1844.47
639.474	1837.01
639.828	1841.08
640.181	1834.3
640.534	1836.34
640.888	1822.78
641.241	1840.63
641.594	1820.29
641.947	1830.46
642.301	1862.78
642.654	1839.5
643.007	1841.31
643.36	1876.79
643.713	1816
644.066	1833.17
644.419	1808.31
644.771	1831.82
645.124	1800.63
645.477	1820.29
645.83	1821.42
646.182	1803.34
646.535	1785.04
646.888	1800.86
647.24	1797.47
647.593	1780.74
647.945	1793.4
648.298	1787.07
648.65	1795.21
649.002	1785.49
649.355	1856.22
649.707	1785.94
650.059	1787.75
650.411	1830.91
650.763	1855.54
651.115	1843.34
651.467	1813.06
651.819	1822.55
652.171	1863
652.523	1852.83
652.875	1841.53
653.227	1855.32
653.578	1825.71
653.93	1864.13
654.282	1830.23
654.633	1832.27
654.985	1833.4
655.337	1852.61
655.688	1842.66
656.039	1857.35
656.391	1848.76
656.742	1862.55
657.094	1840.63
657.445	1851.7
657.796	1893.51
658.147	1870.91
658.498	1856.9
658.849	1873.17
659.2	1849.44
659.551	1864.58
659.902	1879.72
660.253	1881.76
660.604	1891.25
660.955	1847.41
661.306	1878.59
661.656	1889.89
662.007	1866.62
662.358	1822.32
662.708	1860.52
663.059	1866.62
663.409	1875.43
663.76	1847.86
664.11	1877.01
664.461	1856.45
664.811	1855.54
665.161	1857.58
665.511	1856.67
665.862	1862.78
666.212	1874.75
666.562	1854.64
666.912	1853.96
667.262	1841.53
667.612	1894.64
667.962	1852.15
668.312	1862.32
668.662	1844.47
669.011	1888.54
669.361	1830.23
669.711	1861.65
670.06	1864.81
670.41	1843.34
670.76	1841.99
671.109	1829.56
671.459	1840.63
671.808	1824.81
672.157	1839.73
672.507	1846.05
672.856	1848.76
673.205	1838.14
673.554	1833.85
673.904	1825.71
674.253	1829.1
674.602	1855.32
674.951	1830.01
675.3	1819.16
675.649	1820.74
675.998	1841.53
676.346	1816.68
676.695	1828.65
677.044	1832.49
677.393	1825.71
677.741	1848.09
678.09	1827.97
678.438	1792.04
678.787	1824.36
679.135	1849.22
679.484	1790.91
679.832	1788.43
680.181	1781.42
680.529	1805.38
680.877	1806.05
681.225	1798.14
681.573	1779.61
681.922	1799.05
682.27	1791.59
682.618	1776.22
682.966	1789.56
683.314	1766.28
683.661	1748.65
684.009	1749.11
684.357	1749.56
684.705	1747.52
685.053	1734.87
685.4	1761.54
685.748	1751.59
686.095	1730.12
686.443	1747.3
686.79	1725.83
687.138	1709.33
687.485	1745.94
687.832	1732.16
688.18	1733.97
688.527	1748.43
688.874	1743.46
689.221	1731.71
689.568	1695.32
689.915	1736
690.262	1706.17
690.609	1700.97
690.956	1677.02
691.303	1693.29
691.65	1691.25
691.997	1690.58
692.344	1659.17
692.69	1680.41
693.037	1681.31
693.383	1655.32
693.73	1646.96
694.077	1661.88
694.423	1638.6
694.769	1654.42
695.116	1643.12
695.462	1642.22
695.808	1621.65
696.155	1650.13
696.501	1612.84
696.847	1611.94
697.193	1598.15
697.539	1606.29
697.885	1595.89
698.231	1573.29
698.577	1606.74
698.923	1580.52
699.269	1588.21
699.614	1600.64
699.96	1576.91
700.306	1618.71
700.651	1582.33
700.997	1562.44
701.342	1591.6
701.688	1555.44
702.033	1558.15
702.379	1560.64
702.724	1577.81
703.069	1563.57
703.415	1533.07
703.76	1571.48
704.105	1568.55
704.45	1554.76
704.795	1566.74
705.14	1547.08
705.485	1560.18
705.83	1555.44
706.175	1565.38
706.52	1547.3
706.865	1576.23
707.209	1532.62
707.554	1541.43
707.899	1542.56
708.243	1543.01
708.588	1537.81
708.932	1546.4
709.277	1529.9
709.621	1530.81
709.966	1543.91
710.31	1547.53
710.654	1566.74
710.998	1511.6
711.342	1545.95
711.687	1564.93
712.031	1531.49
712.375	1518.6
712.719	1550.69
713.063	1517.47
713.407	1558.15
713.75	1543.46
714.094	1560.18
714.438	1541.43
714.782	1557.93
715.125	1552.28
715.469	1553.86
715.812	1526.06
716.156	1561.77
716.499	1551.6
716.843	1544.59
717.186	1552.05
717.53	1573.74
717.873	1554.54
718.216	1559.28
718.559	1570.13
718.902	1554.31
719.246	1580.75
719.589	1564.48
719.932	1545.27
720.275	1550.69
720.617	1588.43
720.96	1578.72
721.303	1571.26
721.646	1606.74
721.989	1596.12
722.331	1559.96
722.674	1583.24
723.016	1588.21
723.359	1594.53
723.701	1595.66
724.044	1619.17
724.386	1592.5
724.729	1602.67
725.071	1612.39
725.413	1595.66
725.755	1600.64
726.097	1653.52
726.439	1603.12
726.782	1632.05
727.124	1648.32
727.465	1639.5
727.807	1662.78
728.149	1642.22
728.491	1635.44
728.833	1637.02
729.175	1692.16
729.516	1661.43
729.858	1645.83
730.199	1705.49
730.541	1651.03
730.882	1668.66
731.224	1708.88
731.565	1685.38
731.906	1660.97
732.248	1695.77
732.589	1707.3
732.93	1694.64
733.271	1726.06
733.612	1734.87
733.953	1721.08
734.294	1739.62
734.635	1747.75
734.976	1745.49
735.317	1750.69
735.658	1731.93
735.999	1776
736.339	1779.16
736.68	1780.74
737.021	1801.99
737.361	1795.66
737.702	1798.82
738.042	1796.34
738.383	1809.67
738.723	1768.54
739.063	1835.21
739.404	1872.27
739.744	1869.1
740.084	1880.63
740.424	1877.92
740.764	1885.83
741.104	1915.66
741.444	1933.51
741.784	1944.13
742.124	1937.58
742.464	1935.54
742.804	1932.6
743.143	1979.38
743.483	1999.04
743.823	2000.63
744.162	2024.13
744.502	2036.1
744.841	2047.86
745.181	2084.69
745.52	2093.05
745.86	2117.23
746.199	2152.03
746.538	2145.71
746.877	2184.8
747.216	2173.95
747.556	2209.66
747.895	2230.45
748.234	2254.63
748.573	2252.14
748.911	2304.35
749.25	2351.8
749.589	2346.6
749.928	2379.6
750.267	2422.99
750.605	2437.9
750.944	2481.29
751.283	2517.9
751.621	2510.44
751.96	2550.67
752.298	2569.42
752.636	2644.68
752.975	2654.62
753.313	2712.25
753.651	2764.45
753.989	2802.64
754.327	2810.32
754.666	2829.3
755.004	2870.88
755.342	2955.18
755.679	2942.75
756.017	3010.32
756.355	3039.47
756.693	3043.31
757.031	3140.48
757.368	3156.53
757.706	3210.31
758.044	3249.41
758.381	3311.33
758.719	3324.88
759.056	3381.61
759.394	3426.8
759.731	3427.03
760.068	3484.43
760.405	3504.77
760.743	3530.98
761.08	3611.88
761.417	3585.44
761.754	3667.93
762.091	3653.69
762.428	3766
762.765	3747.25
763.102	3808.94
763.438	3820.01
763.775	3867.02
764.112	3935.26
764.449	3914.25
764.785	3991.99
765.122	3971.42
765.458	4063.4
765.795	4097.97
766.131	4114.69
766.467	4175.71
766.804	4132.77
767.14	4157.86
767.476	4203.73
767.812	4215.03
768.148	4285.76
768.485	4286.21
768.821	4304.07
769.157	4303.39
769.492	4365.99
769.828	4380.45
770.164	4375.48
770.5	4395.82
770.836	4441.01
771.171	4427.68
771.507	4418.87
