Data from blue_clamp_base_FLMS001491_00022.txt Node
Date: Wed Feb 08 15:15:45 GMT 2017
User: dcchb
Spectrometer: FLMS00149
Trigger mode: 0
Integration Time (sec): 2.000000E-2
Scans to average: 10
Electric dark correction enabled: true
Nonlinearity correction enabled: false
Boxcar width: 0
XAxis mode: Wavelengths
Number of Pixels in Spectrum: 2048
>>>>>Begin Spectral Data<<<<<
341.393	-10.65
341.776	-10.65
342.16	-10.65
342.543	-49.07
342.927	-62.63
343.31	-60.59
343.693	-73.7
344.077	-59.24
344.46	-69.86
344.843	-50.2
345.226	-30.54
345.61	-39.35
345.993	-23.53
346.376	0.65
346.759	29.58
347.142	19.41
347.525	46.07
347.908	70.7
348.291	57.82
348.674	96.92
349.057	85.85
349.44	119.29
349.823	133.98
350.206	146.18
350.588	195.67
350.971	222.11
351.354	236.12
351.737	223.02
352.119	245.39
352.502	258.5
352.884	267.08
353.267	254.65
353.65	276.57
354.032	290.13
354.414	321.55
354.797	307.99
355.179	338.49
355.562	315.22
355.944	327.19
356.326	326.52
356.709	320.64
357.091	322.22
357.473	337.59
357.855	318.38
358.238	322.9
358.62	353.86
359.002	323.81
359.384	322.9
359.766	314.31
360.148	310.92
360.53	342.56
360.912	328.1
361.294	329
361.676	325.39
362.057	322.45
362.439	313.86
362.821	317.03
363.203	331.71
363.584	340.08
363.966	312.05
364.348	333.97
364.729	321.77
365.111	302.11
365.493	321.09
365.874	296.46
366.256	309.79
366.637	321.77
367.019	285.39
367.4	296.24
367.781	289.46
368.163	302.79
368.544	287.87
368.925	291.49
369.306	309.12
369.688	304.37
370.069	304.82
370.45	305.05
370.831	327.19
371.212	301.43
371.593	288.33
371.974	298.95
372.355	299.85
372.736	302.11
373.117	325.39
373.498	298.95
373.879	302.79
374.26	306.63
374.641	297.59
375.021	290.13
375.402	309.57
375.783	296.24
376.163	310.92
376.544	336.69
376.925	308.21
377.305	320.87
377.686	309.34
378.066	326.74
378.447	321.77
378.827	322.45
379.208	332.17
379.588	316.35
379.968	315.67
380.349	324.03
380.729	299.17
381.109	338.04
381.489	327.65
381.87	323.81
382.25	304.14
382.63	316.35
383.01	350.02
383.39	330.13
383.77	344.82
384.15	308.89
384.53	337.82
384.91	354.09
385.29	332.17
385.67	326.52
386.049	339.85
386.429	363.58
386.809	325.16
387.189	336.46
387.568	343.69
387.948	358.61
388.328	371.26
388.707	349.57
389.087	361.32
389.466	378.27
389.846	365.84
390.225	375.56
390.605	349.57
390.984	365.84
391.363	362.67
391.743	372.39
392.122	369.91
392.501	367.65
392.881	373.07
393.26	390.02
393.639	389.57
394.018	405.61
394.397	397.25
394.776	400.41
395.155	393.86
395.534	409
395.913	417.36
396.292	393.86
396.671	405.16
397.05	413.75
397.429	417.36
397.808	417.59
398.186	416.46
398.565	434.76
398.944	419.4
399.323	415.55
399.701	432.95
400.08	443.35
400.458	449.45
400.837	447.64
401.215	438.83
401.594	417.14
401.972	452.39
402.351	462.11
402.729	438.15
403.107	451.71
403.486	473.86
403.864	480.19
404.242	492.61
404.62	473.41
404.999	449.68
405.377	506.85
405.755	503.24
406.133	491.71
406.511	507.3
406.889	502.56
407.267	525.83
407.645	514.08
408.023	518.15
408.401	542.56
408.779	547.98
409.156	550.01
409.534	551.6
409.912	528.32
410.29	566.74
410.667	564.48
411.045	571.26
411.422	591.59
411.8	566.51
412.178	577.81
412.555	615.55
412.933	588.2
413.31	601.09
413.687	616
414.065	627.53
414.442	631.59
414.819	635.66
415.197	648.54
415.574	649.45
415.951	653.74
416.328	673.4
416.705	677.24
417.082	669.11
417.46	668.88
417.837	685.83
418.214	688.32
418.591	705.26
418.967	690.12
419.344	718.37
419.721	695.32
420.098	693.74
420.475	707.75
420.852	704.36
421.228	709.33
421.605	733.06
421.982	733.74
422.358	740.52
422.735	745.71
423.111	780.06
423.488	778.26
423.864	774.64
424.241	788.88
424.617	783.91
424.994	799.95
425.37	795.66
425.746	842.21
426.123	839.95
426.499	799.05
426.875	861.87
427.251	876.33
427.627	848.31
428.003	851.7
428.379	885.6
428.756	903.45
429.132	879.72
429.507	907.52
429.883	929.44
430.259	960.17
430.635	961.53
431.011	966.95
431.387	978.93
431.763	981.19
432.138	1007.63
432.514	992.94
432.89	1023.67
433.265	1053.73
433.641	1036.55
434.016	1059.6
434.392	1094.18
434.767	1094.18
435.143	1105.93
435.518	1095.99
435.894	1105.71
436.269	1161.98
436.644	1165.14
437.02	1175.31
437.395	1139.15
437.77	1194.97
438.145	1208.98
438.52	1217.34
438.895	1226.15
439.271	1212.37
439.646	1266.83
440.021	1292.59
440.395	1274.29
440.77	1267.96
441.145	1281.52
441.52	1317.68
441.895	1273.61
442.27	1317
442.645	1311.12
443.019	1331.01
443.394	1345.47
443.769	1377.79
444.143	1371.69
444.518	1375.53
444.892	1381.4
445.267	1370.56
445.641	1415.98
446.016	1430.22
446.39	1417.79
446.764	1441.97
447.139	1454.62
447.513	1473.38
447.887	1448.52
448.262	1501.18
448.636	1498.92
449.01	1512.7
449.384	1517.67
449.758	1543.66
450.132	1542.53
450.506	1552.02
450.88	1594.96
451.254	1561.29
451.628	1599.7
452.002	1633.83
452.376	1643.54
452.75	1631.57
453.123	1667.05
453.497	1672.24
453.871	1713.82
454.244	1719.02
454.618	1740.04
454.992	1752.24
455.365	1757.44
455.739	1807.16
456.112	1825.91
456.486	1822.07
456.859	1843.09
457.232	1895.29
457.606	1892.8
457.979	1908.4
458.352	1945.46
458.725	1953.59
459.099	1964.67
459.472	2034.72
459.845	2013.93
460.218	2010.99
460.591	2069.3
460.964	2061.84
461.337	2104.32
461.71	2156.75
462.083	2131.67
462.456	2167.37
462.829	2181.84
463.201	2217.99
463.574	2240.59
463.947	2231.33
464.32	2283.08
464.692	2304.77
465.065	2305.9
465.438	2328.05
465.81	2375.95
466.183	2384.99
466.555	2451.21
466.928	2446.01
467.3	2445.56
467.672	2489.4
468.045	2547.7
468.417	2552.22
468.789	2555.38
469.161	2609.39
469.534	2600.58
469.906	2689.62
470.278	2688.26
470.65	2704.08
471.022	2766
471.394	2801.48
471.766	2857.07
472.138	2843.74
472.51	2922.15
472.882	2952.89
473.253	2999.89
473.625	3016.39
473.997	3085.99
474.369	3090.74
474.74	3082.83
475.112	3175.26
475.484	3226.78
475.855	3230.17
476.227	3231.75
476.598	3371.41
476.97	3355.14
477.341	3438.07
477.713	3445.98
478.084	3492.99
478.455	3549.26
478.827	3597.84
479.198	3676.94
479.569	3631.51
479.94	3738.18
480.311	3752.87
480.682	3872.19
481.053	3944.95
481.424	3912.64
481.795	3988.12
482.166	4011.17
482.537	4075.12
482.908	4149.69
483.279	4213.65
483.65	4234.66
484.021	4281.22
484.391	4325.51
484.762	4316.47
485.133	4345.62
485.503	4450.48
485.874	4542.45
486.244	4531.15
486.615	4526.63
486.985	4654.09
487.356	4699.28
487.726	4733.63
488.097	4738.83
488.467	4806.4
488.837	4882.56
489.207	4892.5
489.578	4971.59
489.948	4996.45
490.318	5070.57
490.688	5016.34
491.058	5133.85
491.428	5161.64
491.798	5192.83
492.168	5312.6
492.538	5303.34
492.908	5335.65
493.278	5333.16
493.648	5383.78
494.017	5440.05
494.387	5437.12
494.757	5481.41
495.126	5511.92
495.496	5504.23
495.866	5530
496.235	5548.3
496.605	5617.23
496.974	5602.54
497.344	5670.11
497.713	5636.43
498.082	5708.97
498.452	5747.84
498.821	5781.74
499.19	5776.32
499.559	5816.77
499.928	5800.95
500.298	5835.3
500.667	5871
501.036	5871.23
501.405	5917.1
501.774	5906.48
502.143	5934.05
502.512	5965.69
502.88	5978.35
503.249	5983.32
503.618	6054.5
503.987	6016.54
504.356	6016.99
504.724	6119.81
505.093	6057.67
505.462	6118.68
505.83	6118.23
506.199	6143.09
506.567	6201.16
506.936	6210.88
507.304	6244.1
507.672	6250.65
508.041	6302.18
508.409	6279.58
508.777	6301.95
509.145	6311.22
509.514	6365.68
509.882	6377.21
510.25	6358.9
510.618	6465.34
510.986	6482.29
511.354	6527.48
511.722	6504.21
512.09	6524.09
512.458	6548.5
512.826	6609.06
513.193	6611.55
513.561	6630.98
513.929	6639.8
514.297	6651.77
514.664	6731.55
515.032	6698.33
515.4	6743.75
515.767	6776.29
516.135	6752.11
516.502	6736.97
516.869	6769.06
517.237	6854.71
517.604	6848.15
517.972	6851.32
518.339	6939.45
518.706	6903.75
519.073	6892.45
519.44	6923.86
519.808	6943.74
520.175	6931.31
520.542	7003.63
520.909	7029.62
521.276	6986
521.643	7074.59
522.009	7148.94
522.376	7097.41
522.743	7148.71
523.11	7191.65
523.477	7230.06
523.843	7235.71
524.21	7306.67
524.577	7390.29
524.943	7386.67
525.31	7367.69
525.676	7416.5
526.043	7512.32
526.409	7464.18
526.776	7602.26
527.142	7560.68
527.508	7621.47
527.874	7616.04
528.241	7664.63
528.607	7616.49
528.973	7716.61
529.339	7718.86
529.705	7839.99
530.071	7848.13
530.437	7880.44
530.803	7916.83
531.169	7921.12
531.535	7879.99
531.901	7978.97
532.267	7886.77
532.632	7979.87
532.998	8002.25
533.364	8033.43
533.73	8037.5
534.095	8079.53
534.461	8148.91
534.826	8136.93
535.192	8163.15
535.557	8204.73
535.923	8210.83
536.288	8232.75
536.653	8254.44
537.019	8190.04
537.384	8267.55
537.749	8296.7
538.114	8331.28
538.479	8321.56
538.845	8371.05
539.21	8317.95
539.575	8315.91
539.94	8339.19
540.305	8408.56
540.67	8422.12
541.034	8444.95
541.399	8404.27
541.764	8455.34
542.129	8456.02
542.494	8492.4
542.858	8522.01
543.223	8517.04
543.587	8551.16
543.952	8552.52
544.316	8539.63
544.681	8611.5
545.045	8629.58
545.41	8620.54
545.774	8642
546.138	8628.45
546.503	8718.39
546.867	8698.95
547.231	8790.25
547.595	8758.16
547.959	8782.11
548.324	8737.82
548.688	8731.72
549.052	8766.07
549.416	8728.78
549.779	8809.23
550.143	8821.43
550.507	8846.97
550.871	8833.19
551.235	8838.84
551.599	8869.12
551.962	8865.73
552.326	8873.64
552.689	8945.27
553.053	8918.16
553.417	8930.13
553.78	9031.6
554.143	8965.61
554.507	9037.02
554.87	9035.44
555.234	9119.05
555.597	9053.52
555.96	9039.51
556.323	9067.98
556.686	9064.14
557.05	9159.5
557.413	9173.29
557.776	9130.58
558.139	9169.9
558.502	9208.77
558.865	9185.49
559.228	9240.86
559.59	9257.81
559.953	9221.2
560.316	9328.31
560.679	9323.12
561.041	9377.13
561.404	9377.58
561.767	9452.6
562.129	9375.77
562.492	9515.2
562.854	9519.72
563.217	9408.54
563.579	9528.76
563.941	9565.6
564.304	9624.35
564.666	9638.59
565.028	9659.38
565.39	9708.42
565.753	9685.37
566.115	9753.16
566.477	9757.91
566.839	9742.99
567.201	9795.19
567.563	9893.95
567.925	9879.26
568.287	9863.67
568.648	9932.82
569.01	9898.24
569.372	10056.43
569.734	9997.9
570.095	10043.32
570.457	10026.83
570.819	10141.17
571.18	10091.01
571.542	10125.13
571.903	10181.4
572.265	10209.87
572.626	10225.01
572.987	10195.86
573.349	10202.87
573.71	10244.22
574.071	10360.83
574.432	10353.6
574.794	10434.5
575.155	10363.77
575.516	10375.07
575.877	10460.26
576.238	10430.43
576.599	10461.84
576.96	10443.31
577.32	10468.4
577.681	10448.28
578.042	10518.79
578.403	10540.71
578.763	10634.95
579.124	10591.33
579.485	10657.77
579.845	10638.11
580.206	10624.55
580.566	10606.02
580.927	10595.17
581.287	10742.74
581.648	10668.17
582.008	10705
582.368	10694.38
582.728	10677.43
583.089	10733.25
583.449	10797.88
583.809	10748.84
584.169	10832.68
584.529	10724.89
584.889	10754.49
585.249	10791.33
585.609	10732.12
585.969	10834.26
586.329	10808.5
586.688	10818.9
587.048	10789.29
587.408	10783.19
587.768	10837.43
588.127	10796.07
588.487	10793.36
588.846	10875.84
589.206	10782.06
589.565	10865.67
589.925	10922.85
590.284	10868.61
590.643	10914.49
591.003	10911.78
591.362	10989.74
591.721	10923.75
592.08	10912.91
592.44	10885.11
592.799	10910.87
593.158	10911.32
593.517	10918.33
593.876	10980.47
594.235	10888.5
594.593	10948.16
594.952	10968.27
595.311	10888.95
595.67	10992.9
596.029	11029.51
596.387	11005.78
596.746	11060.7
597.104	11040.81
597.463	11015.5
597.822	11073.8
598.18	10976.41
598.538	11032.68
598.897	11034.71
599.255	10990.64
599.613	11164.42
599.972	11026.57
600.33	11093.92
600.688	10999.91
601.046	11082.62
601.404	11150.41
601.762	11118.55
602.12	11157.64
602.478	11159.68
602.836	11133.92
603.194	11137.08
603.552	11146.12
603.91	11083.97
604.268	11140.47
604.625	11138.44
604.983	11190.86
605.341	11136.85
605.698	11193.12
606.056	11194.71
606.413	11140.24
606.771	11215.95
607.128	11276.06
607.485	11192.45
607.843	11214.37
608.2	11274.7
608.557	11277.64
608.914	11249.17
609.272	11397.41
609.629	11284.65
609.986	11372.55
610.343	11237.64
610.7	11365.32
611.057	11397.64
611.414	11374.36
611.771	11320.35
612.127	11465.88
612.484	11348.6
612.841	11375.49
613.198	11382.95
613.554	11399.22
613.911	11496.62
614.267	11485.32
614.624	11417.98
614.98	11493.23
615.337	11528.26
615.693	11469.05
616.05	11510.4
616.406	11569.84
616.762	11534.36
617.118	11565.32
617.475	11583.4
617.831	11591.31
618.187	11577.07
618.543	11571.19
618.899	11712.21
619.255	11624.07
619.611	11552.66
619.967	11669.5
620.323	11711.53
620.678	11702.49
621.034	11662.49
621.39	11645.54
621.746	11659.55
622.101	11756.5
622.457	11740.68
622.812	11822.03
623.168	11817.74
623.523	11765.76
623.879	11834.01
624.234	11764.86
624.589	11820.23
624.945	11800.34
625.3	11892.31
625.655	11808.7
626.01	11893.67
626.365	11829.04
626.72	11833.78
627.075	11903.61
627.43	11864.29
627.785	11886.21
628.14	11882.15
628.495	11932.31
628.85	11935.48
629.205	11928.47
629.559	11880.56
629.914	11944.74
630.269	11916.95
630.623	11965.76
630.978	11914.23
631.332	12005.53
631.687	12036.27
632.041	12004.85
632.396	11995.14
632.75	11922.37
633.104	11963.27
633.459	11963.05
633.813	11962.6
634.167	11982.26
634.521	11973.44
634.875	12012.09
635.229	12156.26
635.583	11999.88
635.937	12009.6
636.291	12028.13
636.645	11973.67
636.999	11987.91
637.352	12054.34
637.706	11968.92
638.06	12061.58
638.413	12063.84
638.767	11991.07
639.121	12014.35
639.474	11954.69
639.828	12006.89
640.181	12033.78
640.534	12034.23
640.888	12034.68
641.241	12075.36
641.594	11973.67
641.947	12152.65
642.301	12145.87
642.654	12049.82
643.007	12193.32
643.36	12183.15
643.713	12041.24
644.066	12130.73
644.419	12083.95
644.771	12017.96
645.124	12078.52
645.477	12053.89
645.83	12041.92
646.182	11965.98
646.535	11835.37
646.888	11851.86
647.24	11781.36
647.593	11816.38
647.945	11795.14
648.298	11727.35
648.65	11749.72
649.002	11756.72
649.355	11921.24
649.707	11881.02
650.059	12071.74
650.411	12198.52
650.763	12218.63
651.115	12299.31
651.467	12199.2
651.819	12227.45
652.171	12279.87
652.523	12188.13
652.875	12315.13
653.227	12236.49
653.578	12302.7
653.93	12347.9
654.282	12251.4
654.633	12334.11
654.985	12296.15
655.337	12293.21
655.688	12361.68
656.039	12394.22
656.391	12283.04
656.742	12381.79
657.094	12384.05
657.445	12402.81
657.796	12425.18
658.147	12421.79
658.498	12383.6
658.849	12368.46
659.2	12439.42
659.551	12487.33
659.902	12445.52
660.253	12476.48
660.604	12425.63
660.955	12407.1
661.306	12462.92
661.656	12467.89
662.007	12417.95
662.358	12435.35
662.708	12485.97
663.059	12422.7
663.409	12420.66
663.76	12450.94
664.11	12477.84
664.461	12466.08
664.811	12538.85
665.161	12530.04
665.511	12453.2
665.862	12507.21
666.212	12561
666.562	12445.75
666.912	12477.16
667.262	12365.75
667.612	12477.84
667.962	12422.02
668.312	12356.26
668.662	12378.18
669.011	12327.11
669.361	12296.6
669.711	12349.25
670.06	12277.84
670.41	12280.55
670.76	12238.29
671.109	12288.91
671.459	12217.05
671.808	12228.58
672.157	12235.58
672.507	12181.8
672.856	12116.72
673.205	12100.9
673.554	12210.05
673.904	12104.51
674.253	12170.95
674.602	12060.67
674.951	11858.87
675.3	11793.33
675.649	12020.22
675.998	12026.1
676.346	12082.37
676.695	12001.24
677.044	11937.06
677.393	11991.29
677.741	11893.67
678.09	11852.77
678.438	11894.8
678.787	11828.81
679.135	11857.29
679.484	11817.51
679.832	11812.77
680.181	11782.94
680.529	11796.72
680.877	11692.09
681.225	11669.72
681.573	11744.52
681.922	11588.59
682.27	11645.32
682.618	11649.38
682.966	11653.45
683.314	11573
683.661	11574.58
684.009	11535.04
684.357	11481.48
684.705	11482.83
685.053	11417.98
685.4	11475.15
685.748	11416.62
686.095	11391.76
686.443	11271.09
686.79	11293.46
687.138	11336.4
687.485	11345.21
687.832	11318.09
688.18	11367.58
688.527	11214.37
688.874	11238.55
689.221	11178.89
689.568	11196.29
689.915	11196.29
690.262	11181.15
690.609	11198.32
690.956	11151.99
691.303	11234.03
691.65	11105.44
691.997	11041.04
692.344	10989.74
692.69	11038.1
693.037	11066.12
693.383	10971.43
693.73	10985.67
694.077	10918.1
694.423	10992.68
694.769	10955.62
695.116	10872.68
695.462	10857.09
695.808	10853.25
696.155	10862.51
696.501	10855.05
696.847	10888.27
697.193	10734.83
697.539	10853.92
697.885	10743.42
698.231	10693.93
698.577	10697.32
698.923	10682.85
699.269	10666.81
699.614	10560.15
699.96	10601.27
700.306	10623.2
700.651	10638.34
700.997	10538.45
701.342	10553.14
701.688	10554.27
702.033	10613.7
702.379	10626.13
702.724	10571.9
703.069	10572.58
703.415	10482.41
703.76	10575.06
704.105	10463.88
704.45	10526.25
704.795	10472.92
705.14	10492.35
705.485	10500.49
705.83	10459.81
706.175	10431.34
706.52	10407.16
706.865	10397.21
707.209	10379.36
707.554	10382.52
707.899	10418.68
708.243	10352.92
708.588	10314.5
708.932	10323.54
709.277	10317.21
709.621	10272.24
709.966	10266.37
710.31	10216.88
710.654	10220.95
710.998	10275.63
711.342	10253.04
711.687	10263.2
712.031	10179.37
712.375	10201.96
712.719	10212.81
713.063	10231.79
713.407	10210.55
713.75	10136.88
714.094	10158.35
714.438	10225.24
714.782	10131.91
715.125	10100.5
715.469	10124.9
715.812	10077.45
716.156	10003.78
716.499	10066.15
716.843	10079.93
717.186	10047.62
717.53	10049.43
717.873	10060.05
718.216	10018.24
718.559	10002.87
718.902	9929.43
719.246	10039.93
719.589	10031.12
719.932	10010.33
720.275	9909.32
720.617	10044.23
720.96	10006.71
721.303	9979.6
721.646	10020.05
721.989	9912.03
722.331	9970.56
722.674	9981.4
723.016	9941.18
723.359	9964
723.701	9938.47
724.044	9904.57
724.386	9866.83
724.729	9887.4
725.071	9928.07
725.413	9932.59
725.755	9895.98
726.097	9825.93
726.439	9811.92
726.782	9867.96
727.124	9960.84
727.465	9882.42
727.807	9828.19
728.149	9820.5
728.491	9859.83
728.833	9904.34
729.175	9917.9
729.516	9883.1
729.858	9911.8
730.199	9889.43
730.541	9935.53
730.882	9825.7
731.224	9941.63
731.565	9907.73
731.906	9864.35
732.248	9933.95
732.589	9831.8
732.93	9914.29
733.271	9911.8
733.612	9914.06
733.953	9951.57
734.294	9889.66
734.635	9839.26
734.976	9929.43
735.317	9886.04
735.658	9851.46
735.999	9892.82
736.339	9980.27
736.68	9951.35
737.021	9952.25
737.361	9950.9
737.702	9995.42
738.042	9955.64
738.383	9916.1
738.723	10016.43
739.063	10042.19
739.404	10038.58
739.744	10023.89
740.084	10002.19
740.424	10029.09
740.764	10030.67
741.104	10088.97
741.444	10022.76
741.784	10106.15
742.124	10109.99
742.464	10124.23
742.804	10107.95
743.143	10135.52
743.483	10149.99
743.823	10129.42
744.162	10217.33
744.502	10192.7
744.841	10172.59
745.181	10321.51
745.52	10218.91
745.86	10352.47
746.199	10334.16
746.538	10324.22
746.877	10317.67
747.216	10379.36
747.556	10351.79
747.895	10362.41
748.234	10426.59
748.573	10490.77
748.911	10440.15
749.25	10471.79
749.589	10478.79
749.928	10500.03
750.267	10585.68
750.605	10537.55
750.944	10534.61
751.283	10590.88
751.621	10649.86
751.96	10677.21
752.298	10679.92
752.636	10686.24
752.975	10658
753.313	10644.89
753.651	10728.5
753.989	10727.15
754.327	10716.3
754.666	10729.86
755.004	10774.6
755.342	10775.06
755.679	10856.18
756.017	10806.47
756.355	10887.14
756.693	10869.52
757.031	10878.33
757.368	10862.96
757.706	10847.37
758.044	10866.8
758.381	10927.14
758.719	11013.47
759.056	11011.21
759.394	10965.11
759.731	10984.77
760.068	10940.25
