Data from blue_chair_FLMS001491_00010.txt Node
Date: Wed Feb 08 10:28:56 GMT 2017
User: dcchb
Spectrometer: FLMS00149
Trigger mode: 0
Integration Time (sec): 2.000000E-2
Scans to average: 10
Electric dark correction enabled: true
Nonlinearity correction enabled: false
Boxcar width: 0
XAxis mode: Wavelengths
Number of Pixels in Spectrum: 2048
>>>>>Begin Spectral Data<<<<<
341.393	-31.64
341.776	-31.64
342.16	-31.64
342.543	-64.63
342.927	-60.56
343.31	-70.28
343.693	-68.02
344.077	-40
344.46	-66.89
344.843	-49.04
345.226	-64.18
345.61	-31.64
345.993	-17.85
346.376	0.68
346.759	11.98
347.142	21.69
347.525	33.9
347.908	65.08
348.291	65.08
348.674	103.27
349.057	106.21
349.44	120.22
349.823	133.33
350.206	156.38
350.588	161.13
350.971	194.8
351.354	204.97
351.737	211.29
352.119	217.17
352.502	232.08
352.884	251.52
353.267	247.23
353.65	257.39
354.032	265.76
354.414	276.15
354.797	284.51
355.179	302.59
355.562	311.18
355.944	300.33
356.326	282.25
356.709	312.76
357.091	310.73
357.473	312.31
357.855	311.4
358.238	300.78
358.62	307.79
359.002	302.14
359.384	324.96
359.766	296.72
360.148	312.76
360.53	310.73
360.912	289.26
361.294	288.35
361.676	296.72
362.057	313.21
362.439	308.47
362.821	314.57
363.203	294.68
363.584	297.17
363.966	286.32
364.348	294.23
364.729	297.85
365.111	297.17
365.493	284.29
365.874	281.8
366.256	279.31
366.637	290.61
367.019	284.74
367.4	278.64
367.781	279.54
368.163	282.25
368.544	281.8
368.925	293.1
369.306	291.74
369.688	263.04
370.069	283.83
370.45	287.45
370.831	300.78
371.212	292.65
371.593	288.81
371.974	279.31
372.355	277.28
372.736	275.7
373.117	278.64
373.498	287
373.879	282.48
374.26	295.81
374.641	266.89
375.021	281.12
375.402	265.53
375.783	259.2
376.163	284.96
376.544	298.52
376.925	275.7
377.305	282.93
377.686	298.3
378.066	283.61
378.447	284.51
378.827	297.62
379.208	286.32
379.588	282.7
379.968	293.78
380.349	294
380.729	295.13
381.109	279.77
381.489	301.24
381.87	283.16
382.25	280.22
382.63	306.88
383.01	293.1
383.39	293.33
383.77	304.17
384.15	324.96
384.53	289.94
384.91	303.27
385.29	303.04
385.67	258.3
386.049	286.32
386.429	299.88
386.809	299.43
387.189	296.72
387.568	289.26
387.948	318.18
388.328	302.14
388.707	325.42
389.087	310.73
389.466	298.3
389.846	298.3
390.225	309.37
390.605	314.12
390.984	313.89
391.363	312.76
391.743	287.45
392.122	296.94
392.501	323.38
392.881	315.7
393.26	301.46
393.639	330.61
394.018	312.31
394.397	311.18
394.776	332.19
395.155	325.42
395.534	314.57
395.913	305.75
396.292	317.51
396.671	341.23
397.05	324.96
397.429	336.49
397.808	327.9
398.186	322.7
398.565	328.13
398.944	310.95
399.323	333.78
399.701	327.9
400.08	323.16
400.458	334.68
400.837	341.01
401.215	335.58
401.594	325.42
401.972	332.19
402.351	332.42
402.729	338.3
403.107	334.23
403.486	340.78
403.864	354.57
404.242	354.11
404.62	341.01
404.999	337.17
405.377	339.65
405.755	353.44
406.133	385.3
406.511	357.5
406.889	358.18
407.267	352.31
407.645	376.26
408.023	367.22
408.401	373.78
408.779	376.04
409.156	368.8
409.534	373.1
409.912	371.29
410.29	383.49
410.667	381.46
411.045	379.88
411.422	392.53
411.8	408.8
412.178	383.72
412.555	403.61
412.933	383.49
413.31	385.3
413.687	375.58
414.065	412.87
414.442	429.14
414.819	376.26
415.197	393.44
415.574	404.06
415.951	417.84
416.328	406.77
416.705	411.51
417.082	413.77
417.46	406.54
417.837	422.81
418.214	426.88
418.591	423.27
418.967	411.06
419.344	417.62
419.721	433.43
420.098	429.59
420.475	421.01
420.852	430.5
421.228	416.71
421.605	445.41
421.982	416.26
422.358	450.61
422.735	429.82
423.111	442.7
423.488	449.71
423.864	443.6
424.241	451.97
424.617	463.94
424.994	445.41
425.37	461.91
425.746	471.63
426.123	476.82
426.499	464.62
426.875	468.24
427.251	454.68
427.627	493.32
428.003	498.74
428.379	486.77
428.756	498.29
429.132	482.93
429.507	515.01
429.883	503.94
430.259	519.08
430.635	503.94
431.011	537.61
431.387	511.85
431.763	543.26
432.138	542.58
432.514	536.71
432.89	526.77
433.265	540.55
433.641	543.71
434.016	568.57
434.392	552.08
434.767	560.89
435.143	576.03
435.518	570.38
435.894	583.71
436.269	601.34
436.644	578.06
437.02	593.88
437.395	597.5
437.77	592.75
438.145	588.69
438.52	622.36
438.895	600.89
439.271	610.38
439.646	626.42
440.021	640.89
440.395	623.26
440.77	653.09
441.145	629.36
441.52	666.88
441.895	665.97
442.27	653.77
442.645	648.34
443.019	696.48
443.394	664.16
443.769	661.45
444.143	684.05
444.518	693.77
444.892	685.18
445.267	694.45
445.641	694.45
446.016	716.14
446.39	736.93
446.764	747.1
447.139	710.04
447.513	724.95
447.887	728.12
448.262	730.15
448.636	729.7
449.01	733.54
449.384	755.46
449.758	750.94
450.132	742.35
450.506	759.75
450.88	768.79
451.254	785.29
451.628	766.99
452.002	770.15
452.376	787.1
452.75	811.96
453.123	802.92
453.497	818.96
453.871	794.33
454.244	802.01
454.618	831.16
454.992	826.42
455.365	817.83
455.739	821.45
456.112	848.79
456.486	823.71
456.859	837.27
457.232	863.25
457.606	876.36
457.979	862.8
458.352	909.58
458.725	910.03
459.099	883.37
459.472	903.48
459.845	906.19
460.218	899.86
460.591	928.34
460.964	916.81
461.337	931.27
461.71	939.41
462.083	969.92
462.456	949.58
462.829	946.87
463.201	965.4
463.574	960.43
463.947	974.21
464.32	984.61
464.692	980.77
465.065	991.61
465.438	976.25
465.81	1013.98
466.183	993.65
466.555	1050.14
466.928	1028.9
467.3	1028.45
467.672	1056.02
468.045	1060.99
468.417	1025.28
468.789	1044.49
469.161	1080.42
469.534	1077.26
469.906	1072.29
470.278	1089.01
470.65	1081.33
471.022	1118.39
471.394	1127.2
471.766	1121.33
472.138	1128.78
472.51	1126.98
472.882	1157.48
473.253	1156.81
473.625	1155.9
473.997	1219.18
474.369	1182.57
474.74	1198.84
475.112	1198.61
475.484	1231.15
475.855	1233.41
476.227	1220.31
476.598	1271.38
476.97	1289.68
477.341	1284.49
477.713	1271.83
478.084	1305.95
478.455	1339.63
478.827	1340.53
479.198	1326.97
479.569	1337.59
479.94	1346.18
480.311	1373.98
480.682	1385.95
481.053	1410.58
481.424	1400.19
481.795	1409.23
482.166	1412.17
482.537	1416.91
482.908	1442.22
483.279	1449.23
483.65	1450.58
484.021	1486.74
484.391	1492.84
484.762	1493.75
485.133	1494.42
485.503	1515.44
485.874	1514.08
486.244	1547.08
486.615	1569.22
486.985	1558.38
487.356	1533.74
487.726	1544.59
488.097	1563.57
488.467	1572.84
488.837	1554.76
489.207	1565.38
489.578	1587.3
489.948	1588.43
490.318	1618.26
490.688	1589.56
491.058	1633.4
491.428	1639.73
491.798	1655.32
492.168	1636.34
492.538	1637.7
492.908	1665.27
493.278	1651.03
493.648	1671.82
494.017	1645.61
494.387	1634.08
494.757	1633.86
495.126	1659.62
495.496	1636.34
495.866	1672.5
496.235	1673.4
496.605	1656.23
496.974	1646.74
497.344	1632.95
497.713	1649.67
498.082	1616.45
498.452	1688.54
498.821	1675.89
499.19	1651.71
499.559	1667.53
499.928	1659.39
500.298	1634.99
500.667	1667.07
501.036	1629.79
501.405	1649.9
501.774	1627.3
502.143	1629.11
502.512	1625.49
502.88	1641.09
503.249	1622.56
503.618	1617.13
503.987	1625.95
504.356	1591.14
504.724	1657.81
505.093	1623.91
505.462	1618.71
505.83	1641.31
506.199	1619.84
506.567	1594.08
506.936	1622.1
507.304	1642.89
507.672	1586.62
508.041	1585.72
508.409	1593.18
508.777	1607.64
509.145	1616.45
509.514	1595.89
509.882	1557.02
510.25	1623.23
510.618	1578.26
510.986	1558.15
511.354	1571.26
511.722	1567.19
512.09	1581.65
512.458	1556.8
512.826	1538.49
513.193	1546.4
513.561	1575.55
513.929	1565.38
514.297	1533.52
514.664	1563.57
515.032	1545.5
515.4	1529.9
515.767	1514.76
516.135	1526.06
516.502	1498.27
516.869	1510.69
517.237	1532.62
517.604	1502.33
517.972	1487.87
518.339	1500.53
518.706	1497.36
519.073	1479.51
519.44	1487.87
519.808	1461.88
520.175	1468.89
520.542	1474.76
520.909	1456.46
521.276	1456.68
521.643	1481.32
522.009	1449.68
522.376	1457.81
522.743	1475.44
523.11	1451.71
523.477	1444.48
523.843	1442.67
524.21	1441.32
524.577	1458.49
524.943	1412.84
525.31	1444.71
525.676	1453.97
526.043	1490.81
526.409	1446.29
526.776	1435.89
527.142	1437.93
527.508	1409.68
527.874	1451.49
528.241	1432.5
528.607	1453.07
528.973	1434.09
529.339	1423.69
529.705	1472.28
530.071	1419.17
530.437	1423.47
530.803	1458.49
531.169	1417.14
531.535	1424.37
531.901	1424.37
532.267	1392.05
532.632	1420.98
532.998	1415.1
533.364	1416.69
533.73	1421.88
534.095	1422.56
534.461	1420.75
534.826	1406.52
535.192	1427.31
535.557	1422.79
535.923	1412.17
536.288	1427.31
536.653	1402.45
537.019	1390.47
537.384	1423.92
537.749	1432.5
538.114	1406.97
538.479	1369.23
538.845	1398.16
539.21	1388.21
539.575	1396.57
539.94	1397.7
540.305	1389.57
540.67	1412.62
541.034	1390.47
541.399	1392.73
541.764	1381.21
542.129	1387.31
542.494	1365.39
542.858	1354.99
543.223	1386.86
543.587	1363.35
543.952	1385.5
544.316	1367.65
544.681	1369.46
545.045	1366.74
545.41	1358.83
545.774	1329.91
546.138	1380.53
546.503	1339.17
546.867	1355.44
547.231	1366.52
547.595	1352.51
547.959	1350.92
548.324	1351.83
548.688	1373.3
549.052	1366.29
549.416	1348.67
549.779	1350.7
550.143	1331.49
550.507	1343.47
550.871	1314.77
551.235	1342.79
551.599	1333.52
551.962	1326.74
552.326	1357.03
552.689	1301.43
553.053	1322.23
553.417	1318.61
553.78	1344.37
554.143	1302.34
554.507	1310.47
554.87	1310.93
555.234	1289.46
555.597	1315.9
555.96	1284.03
556.323	1305.5
556.686	1315.22
557.05	1325.16
557.413	1295.79
557.776	1313.86
558.139	1298.95
558.502	1320.42
558.865	1314.99
559.228	1309.34
559.59	1294.88
559.953	1305.5
560.316	1299.17
560.679	1285.39
561.041	1291.27
561.404	1312.96
561.767	1310.25
562.129	1295.33
562.492	1313.41
562.854	1303.92
563.217	1286.97
563.579	1338.27
563.941	1301.43
564.304	1300.08
564.666	1301.43
565.028	1338.27
565.39	1294.66
565.753	1306.18
566.115	1339.63
566.477	1322.23
566.839	1325.39
567.201	1311.6
567.563	1328.1
567.925	1345.05
568.287	1325.39
568.648	1328.78
569.01	1314.09
569.372	1315.45
569.734	1336.91
570.095	1347.31
570.457	1361.77
570.819	1387.08
571.18	1333.07
571.542	1352.28
571.903	1371.04
572.265	1370.81
572.626	1373.3
572.987	1377.82
573.349	1345.95
573.71	1354.77
574.071	1381.66
574.432	1383.01
574.794	1399.06
575.155	1406.52
575.516	1375.78
575.877	1409
576.238	1388.66
576.599	1393.64
576.96	1419.4
577.32	1403.35
577.681	1431.37
578.042	1393.18
578.403	1418.95
578.763	1416.91
579.124	1416.69
579.485	1434.54
579.845	1442.9
580.206	1412.17
580.566	1430.24
580.927	1423.24
581.287	1443.13
581.648	1432.28
582.008	1453.3
582.368	1439.06
582.728	1438.61
583.089	1441.32
583.449	1478.38
583.809	1450.81
584.169	1447.87
584.529	1443.35
584.889	1485.16
585.249	1447.42
585.609	1487.64
585.969	1490.58
586.329	1473.63
586.688	1493.29
587.048	1473.41
587.408	1474.54
587.768	1500.3
588.127	1484.71
588.487	1498.04
588.846	1492.62
589.206	1485.84
589.565	1478.61
589.925	1474.99
590.284	1483.35
590.643	1505.05
591.003	1497.59
591.362	1492.84
591.721	1488.32
592.08	1468.66
592.44	1477.7
592.799	1485.16
593.158	1486.97
593.517	1493.29
593.876	1493.29
594.235	1510.47
594.593	1451.49
594.952	1503.24
595.311	1481.09
595.67	1485.84
596.029	1464.37
596.387	1466.63
596.746	1482.9
597.104	1489.45
597.463	1467.08
597.822	1489.68
598.18	1463.69
598.538	1464.59
598.897	1485.16
599.255	1452.17
599.613	1487.87
599.972	1484.71
600.33	1472.73
600.688	1461.2
601.046	1482.22
601.404	1451.04
601.762	1493.29
602.12	1472.96
602.478	1470.92
602.836	1480.19
603.194	1488.32
603.552	1490.58
603.91	1460.3
604.268	1491.94
604.625	1495.78
604.983	1474.09
605.341	1482.9
605.698	1466.63
606.056	1487.42
606.413	1490.81
606.771	1466.63
607.128	1493.07
607.485	1491.71
607.843	1473.86
608.2	1472.73
608.557	1497.36
608.914	1477.7
609.272	1497.81
609.629	1463.92
609.986	1513.41
610.343	1469.79
610.7	1458.94
611.057	1475.22
611.414	1476.8
611.771	1498.27
612.127	1480.19
612.484	1483.12
612.841	1470.02
613.198	1501.88
613.554	1495.33
613.911	1484.03
614.267	1491.26
614.624	1493.75
614.98	1477.7
615.337	1493.75
615.693	1527.64
616.05	1506.85
616.406	1506.63
616.762	1493.07
617.118	1487.64
617.475	1519.96
617.831	1496.01
618.187	1505.5
618.543	1504.59
618.899	1506.63
619.255	1503.46
619.611	1538.94
619.967	1516.8
620.323	1526.29
620.678	1517.47
621.034	1513.63
621.39	1493.75
621.746	1486.51
622.101	1522.9
622.457	1517.93
622.812	1515.44
623.168	1531.03
623.523	1514.54
623.879	1545.04
624.234	1518.83
624.589	1505.72
624.945	1517.47
625.3	1519.28
625.655	1528.77
626.01	1515.67
626.365	1529.45
626.72	1512.5
627.075	1504.37
627.43	1500.07
627.785	1512.95
628.14	1522.45
628.495	1522.45
628.85	1531.71
629.205	1534.42
629.559	1541.43
629.914	1528.77
630.269	1522.45
630.623	1507.76
630.978	1519.06
631.332	1530.58
631.687	1523.35
632.041	1533.07
632.396	1543.69
632.75	1501.43
633.104	1527.19
633.459	1515.44
633.813	1538.49
634.167	1507.53
634.521	1535.78
634.875	1524.03
635.229	1542.11
635.583	1521.32
635.937	1496.91
636.291	1546.85
636.645	1495.33
636.999	1502.56
637.352	1526.74
637.706	1535.55
638.06	1557.25
638.413	1536.46
638.767	1529.68
639.121	1537.13
639.474	1490.36
639.828	1529
640.181	1524.48
640.534	1524.25
640.888	1529.9
641.241	1542.78
641.594	1522.67
641.947	1509.79
642.301	1527.19
642.654	1528.55
643.007	1550.47
643.36	1534.87
643.713	1517.7
644.066	1554.54
644.419	1531.03
644.771	1545.5
645.124	1534.2
645.477	1527.64
645.83	1526.29
646.182	1549.11
646.535	1507.3
646.888	1502.11
647.24	1502.33
647.593	1534.2
647.945	1520.41
648.298	1547.08
648.65	1513.63
649.002	1502.56
649.355	1523.35
649.707	1524.25
650.059	1534.65
650.411	1559.73
650.763	1517.7
651.115	1549.34
651.467	1546.63
651.819	1568.32
652.171	1571.26
652.523	1579.85
652.875	1538.94
653.227	1580.75
653.578	1569
653.93	1584.14
654.282	1580.98
654.633	1585.72
654.985	1558.6
655.337	1557.7
655.688	1602.9
656.039	1576.46
656.391	1578.04
656.742	1566.29
657.094	1568.55
657.445	1600.18
657.796	1606.29
658.147	1601.09
658.498	1584.37
658.849	1617.36
659.2	1599.51
659.551	1613.97
659.902	1624.59
660.253	1623.69
660.604	1603.57
660.955	1594.08
661.306	1622.56
661.656	1633.4
662.007	1627.3
662.358	1638.83
662.708	1641.31
663.059	1603.8
663.409	1613.06
663.76	1616.91
664.11	1601.77
664.461	1616.68
664.811	1595.66
665.161	1636.57
665.511	1625.49
665.862	1613.97
666.212	1623.46
666.562	1638.15
666.912	1639.05
667.262	1615.1
667.612	1613.06
667.962	1622.33
668.312	1618.04
668.662	1593.4
669.011	1623.69
669.361	1624.36
669.711	1606.51
670.06	1611.26
670.41	1614.19
670.76	1604.93
671.109	1609.45
671.459	1594.53
671.808	1601.09
672.157	1615.32
672.507	1590.92
672.856	1616.68
673.205	1603.35
673.554	1600.18
673.904	1583.69
674.253	1616.68
674.602	1615.1
674.951	1556.8
675.3	1595.66
675.649	1557.93
675.998	1567.19
676.346	1609.22
676.695	1582.33
677.044	1571.48
677.393	1576.91
677.741	1600.18
678.09	1573.97
678.438	1564.03
678.787	1578.26
679.135	1582.56
679.484	1557.25
679.832	1587.75
680.181	1550.69
680.529	1529.68
680.877	1555.44
681.225	1573.07
681.573	1534.42
681.922	1571.71
682.27	1555.67
682.618	1545.04
682.966	1545.04
683.314	1519.28
683.661	1544.37
684.009	1513.18
684.357	1537.13
684.705	1512.05
685.053	1528.77
685.4	1500.75
685.748	1503.01
686.095	1505.72
686.443	1490.81
686.79	1479.74
687.138	1488.77
687.485	1504.14
687.832	1466.4
688.18	1493.75
688.527	1473.63
688.874	1502.11
689.221	1482.67
689.568	1475.67
689.915	1436.12
690.262	1496.23
690.609	1451.71
690.956	1469.57
691.303	1441.54
691.65	1442
691.997	1435.22
692.344	1432.05
692.69	1449.23
693.037	1428.89
693.383	1456.23
693.73	1456.23
694.077	1426.86
694.423	1448.32
694.769	1427.08
695.116	1427.99
695.462	1429.34
695.808	1425.05
696.155	1421.66
696.501	1405.61
696.847	1410.81
697.193	1379.17
697.539	1415.56
697.885	1363.58
698.231	1377.14
698.577	1354.09
698.923	1390.7
699.269	1359.74
699.614	1339.17
699.96	1353.18
700.306	1361.77
700.651	1359.96
700.997	1339.85
701.342	1368.33
701.688	1360.64
702.033	1395.9
702.379	1350.7
702.724	1336.24
703.069	1360.42
703.415	1331.72
703.76	1329.23
704.105	1341.66
704.45	1332.17
704.795	1345.5
705.14	1354.09
705.485	1316.35
705.83	1330.81
706.175	1334.2
706.52	1329.23
706.865	1323.13
707.209	1312.96
707.554	1335.11
707.899	1334.43
708.243	1333.3
708.588	1336.24
708.932	1330.36
709.277	1307.76
709.621	1339.17
709.966	1328.33
710.31	1317.48
710.654	1301.43
710.998	1348.21
711.342	1323.13
711.687	1348.89
712.031	1335.11
712.375	1318.38
712.719	1344.37
713.063	1332.39
713.407	1326.29
713.75	1327.87
714.094	1334.43
714.438	1366.74
714.782	1350.47
715.125	1356.8
715.469	1347.31
715.812	1353.18
716.156	1331.72
716.499	1373.52
716.843	1365.16
717.186	1361.55
717.53	1393.18
717.873	1361.55
718.216	1365.61
718.559	1364.03
718.902	1362
719.246	1390.25
719.589	1373.07
719.932	1374.2
720.275	1392.51
720.617	1387.99
720.96	1394.09
721.303	1391.83
721.646	1405.39
721.989	1406.29
722.331	1373.07
722.674	1420.75
723.016	1417.82
723.359	1423.69
723.701	1428.44
724.044	1394.77
724.386	1413.07
724.729	1422.34
725.071	1451.04
725.413	1432.28
725.755	1445.84
726.097	1460.53
726.439	1433.18
726.782	1466.4
727.124	1500.98
727.465	1484.25
727.807	1459.4
728.149	1500.98
728.491	1491.94
728.833	1499.85
729.175	1492.16
729.516	1518.15
729.858	1521.09
730.199	1543.91
730.541	1516.12
730.882	1571.94
731.224	1555.21
731.565	1570.58
731.906	1558.6
732.248	1574.87
732.589	1602.9
732.93	1559.51
733.271	1601.77
733.612	1624.36
733.953	1651.48
734.294	1591.14
734.635	1631.37
734.976	1641.09
735.317	1647.64
735.658	1668.2
735.999	1695.32
736.339	1679.73
736.68	1677.47
737.021	1699.39
737.361	1725.6
737.702	1715.44
738.042	1740.75
738.383	1753.4
738.723	1769.44
739.063	1779.61
739.404	1790.46
739.744	1794.98
740.084	1810.8
740.424	1813.74
740.764	1881.76
741.104	1878.14
741.444	1884.92
741.784	1903
742.124	1907.97
742.464	1929.89
742.804	1932.15
743.143	1977.12
743.483	1964.24
743.823	1979.16
744.162	2014.64
744.502	2101.64
744.841	2091.02
745.181	2096.67
745.52	2128.98
745.86	2174.18
746.199	2191.35
746.538	2202.88
746.877	2234.07
747.216	2279.04
747.556	2314.97
747.895	2319.71
748.234	2386.38
748.573	2410.33
748.911	2430.9
749.25	2457.79
749.589	2510.22
749.928	2552.93
750.267	2582.76
750.605	2608.74
750.944	2624.56
751.283	2667.95
751.621	2750.66
751.96	2803.09
752.298	2827.72
752.636	2891
752.975	2876.99
753.313	2972.13
753.651	2997.66
753.989	3055.51
754.327	3098.9
754.666	3120.82
755.004	3214.83
755.342	3257.99
755.679	3273.81
756.017	3338.22
756.355	3368.05
756.693	3412.34
757.031	3513.58
757.368	3542.05
757.706	3627.25
758.044	3650.07
758.381	3727.59
758.719	3747.47
759.056	3835.83
759.394	3867.02
759.731	3922.83
760.068	3920.57
760.405	3972.55
760.743	4044.87
761.08	4107.91
761.417	4138.65
761.754	4213.45
762.091	4287.12
762.428	4343.16
762.765	4351.52
763.102	4347.23
763.438	4450.5
763.775	4449.83
764.112	4547.9
764.449	4602.82
764.785	4626.77
765.122	4668.13
765.458	4718.97
765.795	4729.14
766.131	4811.62
766.467	4882.13
766.804	4901.34
767.14	4873.54
767.476	4968.23
767.812	5008.91
768.148	5044.39
768.485	5070.83
768.821	5099.3
769.157	5163.25
769.492	5202.8
769.828	5190.15
770.164	5205.51
770.5	5290.71
770.836	5306.3
771.171	5294.1
771.507	5347.2
