Data from blue_shiny_book_FLMS001491_00031.txt Node
Date: Wed Feb 08 15:26:52 GMT 2017
User: dcchb
Spectrometer: FLMS00149
Trigger mode: 0
Integration Time (sec): 2.000000E-2
Scans to average: 10
Electric dark correction enabled: true
Nonlinearity correction enabled: false
Boxcar width: 0
XAxis mode: Wavelengths
Number of Pixels in Spectrum: 2048
>>>>>Begin Spectral Data<<<<<
341.393	-2.97
341.776	-2.97
342.16	-2.97
342.543	-63.08
342.927	-72.34
343.31	-65.56
343.693	-69.86
344.077	-76.64
344.46	-53.59
344.843	-46.58
345.226	-39.8
345.61	-39.12
345.993	-8.39
346.376	4.04
346.759	18.28
347.142	17.37
347.525	13.76
347.908	60.54
348.291	77.03
348.674	86.98
349.057	121.55
349.44	139.4
349.823	153.19
350.206	169.23
350.588	188.67
350.971	200.19
351.354	219.63
351.737	254.88
352.119	235.45
352.502	249.23
352.884	257.82
353.267	302.56
353.65	284.48
354.032	293.75
354.414	305.27
354.797	315.9
355.179	315.9
355.562	334.43
355.944	320.19
356.326	327.87
356.709	324.93
357.091	340.3
357.473	334.43
357.855	343.92
358.238	348.21
358.62	331.49
359.002	355.67
359.384	326.74
359.766	350.47
360.148	346.4
360.53	334.43
360.912	342.79
361.294	329.68
361.676	334.65
362.057	338.95
362.439	353.18
362.821	343.92
363.203	343.24
363.584	298.27
363.966	333.75
364.348	357.7
364.729	340.08
365.111	334.88
365.493	334.2
365.874	336.46
366.256	329
366.637	321.09
367.019	341.43
367.4	313.18
367.781	322
368.163	322.22
368.544	324.71
368.925	321.77
369.306	338.49
369.688	320.87
370.069	326.06
370.45	330.13
370.831	342.56
371.212	334.65
371.593	335.1
371.974	339.17
372.355	325.16
372.736	327.65
373.117	347.31
373.498	344.6
373.879	351.6
374.26	347.99
374.641	354.76
375.021	336.69
375.402	327.65
375.783	359.28
376.163	358.38
376.544	354.99
376.925	337.36
377.305	352.28
377.686	331.71
378.066	337.36
378.447	361.77
378.827	394.31
379.208	361.54
379.588	366.06
379.968	370.13
380.349	367.19
380.729	365.16
381.109	369.45
381.489	389.11
381.87	380.07
382.25	379.17
382.63	370.81
383.01	397.48
383.39	392.28
383.77	386.85
384.15	396.35
384.53	394.99
384.91	373.52
385.29	409.23
385.67	415.1
386.049	402.45
386.429	409
386.809	428.44
387.189	406.97
387.568	414.65
387.948	430.92
388.328	413.29
388.707	411.49
389.087	455.55
389.466	408.77
389.846	430.92
390.225	443.35
390.605	434.54
390.984	464.37
391.363	460.3
391.743	462.33
392.122	468.43
392.501	472.95
392.881	485.38
393.26	482.9
393.639	461.65
394.018	483.8
394.397	493.97
394.776	499.17
395.155	522.22
395.534	500.75
395.913	500.07
396.292	501.88
396.671	513.4
397.05	498.94
397.429	529
397.808	533.74
398.186	536
398.565	556.79
398.944	542.33
399.323	542.78
399.701	547.53
400.08	552.5
400.458	556.34
400.837	544.59
401.215	558.15
401.594	562.22
401.972	559.51
402.351	573.29
402.729	585.49
403.107	598.37
403.486	600.18
403.864	611.03
404.242	606.06
404.62	615.55
404.999	611.48
405.377	634.31
405.755	643.12
406.133	662.1
406.511	642.21
406.889	671.82
407.267	663.91
407.645	675.66
408.023	694.42
408.401	705.72
408.779	704.13
409.156	735.55
409.534	728.77
409.912	739.39
410.29	736.22
410.667	741.87
411.045	756.79
411.422	754.3
411.8	783
412.178	782.55
412.555	783.68
412.933	821.19
413.31	821.65
413.687	859.84
414.065	857.35
414.442	849.21
414.819	865.26
415.197	868.88
415.574	893.06
415.951	880.4
416.328	913.85
416.705	908.2
417.082	931.92
417.46	950.46
417.837	948.2
418.214	969.89
418.591	978.25
418.967	959.49
419.344	996.33
419.721	997.91
420.098	1008.76
420.475	1004.69
420.852	1032.71
421.228	1040.17
421.605	1048.31
421.982	1068.64
422.358	1068.87
422.735	1075.2
423.111	1117.23
423.488	1115.65
423.864	1144.8
424.241	1122.43
424.617	1147.29
424.994	1139.6
425.37	1191.35
425.746	1180.96
426.123	1207.85
426.499	1204.01
426.875	1236.78
427.251	1262.76
427.627	1258.92
428.003	1281.52
428.379	1330.56
428.756	1336.21
429.132	1316.55
429.507	1385.02
429.883	1372.82
430.259	1407.62
430.635	1426.15
431.011	1455.53
431.387	1469.09
431.763	1503.44
432.138	1510.44
432.514	1516.99
432.89	1519.93
433.265	1554.51
433.641	1578.91
434.016	1615.52
434.392	1589.99
434.767	1651
435.143	1650.32
435.518	1689.19
435.894	1710.44
436.269	1731
436.644	1784.33
437.02	1785.69
437.395	1798.12
437.77	1828.85
438.145	1836.76
438.52	1840.15
438.895	1863.88
439.271	1928.96
439.646	1941.62
440.021	1939.81
440.395	1981.16
440.77	1974.61
441.145	1999.24
441.52	2047.15
441.895	2046.02
442.27	2057.09
442.645	2083.31
443.019	2076.08
443.394	2085.79
443.769	2134.83
444.143	2139.35
444.518	2166.47
444.892	2166.92
445.267	2217.09
445.641	2227.03
446.016	2232.46
446.39	2225.9
446.764	2248.95
447.139	2249.18
447.513	2319.46
447.887	2271.78
448.262	2331.66
448.636	2321.94
449.01	2381.83
449.384	2413.69
449.758	2384.99
450.132	2422.96
450.506	2478.55
450.88	2496.63
451.254	2488.72
451.628	2521.71
452.002	2556.29
452.376	2552.67
452.75	2600.36
453.123	2624.08
453.497	2691.88
453.871	2687.36
454.244	2749.28
454.618	2748.6
454.992	2787.47
455.365	2822.95
455.739	2928.26
456.112	2932.55
456.486	2966.45
456.859	2963.28
457.232	3042.83
457.606	3062.26
457.979	3080.79
458.352	3148.36
458.725	3170.74
459.099	3216.61
459.472	3281.47
459.845	3327.57
460.218	3348.58
460.591	3359.66
460.964	3408.24
461.337	3476.49
461.71	3510.39
462.083	3608.24
462.456	3616.15
462.829	3629.93
463.201	3696.82
463.574	3754
463.947	3796.26
464.32	3868.34
464.692	3870.83
465.065	3910.6
465.438	4003.03
465.81	4031.5
466.183	4100.65
466.555	4187.21
466.928	4227.21
467.3	4244.61
467.672	4300.65
468.045	4380.42
468.417	4411.16
468.789	4422
469.161	4509.01
469.534	4591.49
469.906	4668.1
470.278	4716.46
470.65	4797.59
471.022	4861.09
471.394	4955.77
471.766	5029.44
472.138	5049.33
472.51	5185.15
472.882	5246.16
473.253	5272.6
473.625	5380.17
473.997	5482.99
474.369	5558.02
474.74	5571.58
475.112	5729.54
475.484	5811.12
475.855	5942.41
476.227	6010.21
476.598	6102.64
476.97	6172.24
477.341	6401.39
477.713	6443.64
478.084	6499.01
478.455	6683.19
478.827	6717.54
479.198	6882.5
479.569	6925.67
479.94	7148.26
480.311	7171.99
480.682	7316.62
481.053	7497.4
481.424	7627.79
481.795	7712.09
482.166	7878.18
482.537	8030.72
482.908	8165.41
483.279	8292.86
483.65	8423.71
484.021	8573.53
484.391	8621.21
484.762	8769.01
485.133	8854.2
485.503	8961.32
485.874	9136.23
486.244	9158.15
486.615	9427.29
486.985	9535.54
487.356	9707.97
487.726	9795.65
488.097	10085.58
488.467	10037
488.837	10264.56
489.207	10420.71
489.578	10604.66
489.948	10709.29
490.318	10869.97
490.688	10944.99
491.058	11148.15
491.428	11260.01
491.798	11387.92
492.168	11607.8
492.538	11622.94
492.908	11770.51
493.278	11845.54
493.648	11903.16
494.017	12166.21
494.387	12300.44
494.757	12419.08
495.126	12560.77
495.496	12668.34
495.866	12800.99
496.235	12923.02
496.605	13069.91
496.974	13064.26
497.344	13230.13
497.713	13242.11
498.082	13354.65
498.452	13450.01
498.821	13589.22
499.19	13596.9
499.559	13751.93
499.928	13829.66
500.298	13919.61
500.667	14205.7
501.036	14138.58
501.405	14469.65
501.774	14466.03
502.143	14678.23
502.512	14738.34
502.88	14804.33
503.249	14898.56
503.618	15025.57
503.987	15125.45
504.356	15062.4
504.724	15152.34
505.093	15245.45
505.462	15414.03
505.83	15458.55
506.199	15588.04
506.567	15709.16
506.936	15670.07
507.304	16016.73
507.672	16133.33
508.041	16185.76
508.409	16407.68
508.777	16513.89
509.145	16694.45
509.514	16751.17
509.882	16721.79
510.25	16854.22
510.618	17076.81
510.986	17028.45
511.354	17151.84
511.722	17300.99
512.09	17466.41
512.458	17401.32
512.826	17536.91
513.193	17632.28
513.561	17769
513.929	17870.91
514.297	18066.39
514.664	18270.23
515.032	18413.05
515.4	18593.61
515.767	18640.61
516.135	18800.38
516.502	18795.86
516.869	19030.43
517.237	19158.11
517.604	19049.87
517.972	19309.29
518.339	19428.84
518.706	19440.59
519.073	19548.61
519.44	19657.08
519.808	19993.57
520.175	19901.82
520.542	20141.36
520.909	20333.9
521.276	20417.97
521.643	20542.93
522.009	20850.95
522.376	20962.36
522.743	21223.82
523.11	21380.88
523.477	21579.74
523.843	21754.2
524.21	21976.8
524.577	22136.56
524.943	22214.75
525.31	22170.46
525.676	22331.14
526.043	22496.56
526.409	22480.28
526.776	22806.83
527.142	22854.29
527.508	22952.59
527.874	23283.2
528.241	23369.07
528.607	23481.16
528.973	23747.14
529.339	23827.59
529.705	24109.39
530.071	24314.36
530.437	24415.37
530.803	24582.15
531.169	24739.89
531.535	24775.82
531.901	24880.45
532.267	24945.08
532.632	24998.64
532.998	25107.56
533.364	25268.23
533.73	25228.91
534.095	25438.62
534.461	25467.55
534.826	25685.85
535.192	25876.58
535.557	26046.29
535.923	26058.04
536.288	26207.19
536.653	26412.16
537.019	26460.97
537.384	26678.37
537.749	26752.71
538.114	26915.87
538.479	26888.98
538.845	27014.85
539.21	26929.66
539.575	27078.36
539.94	27188.41
540.305	27258.92
540.67	27167.17
541.034	27398.8
541.399	27358.8
541.764	27397.9
542.129	27497.78
542.494	27593.82
542.858	27753.82
543.223	27844.66
543.587	27949.75
543.952	28015.73
544.316	28233.58
544.681	28300.47
545.045	28490.75
545.41	28561.25
545.774	28702.72
546.138	28700.01
546.503	28754.92
546.867	28709.27
547.231	28974.8
547.595	28757.18
547.959	29060.9
548.324	29006.44
548.688	29072.88
549.052	29151.97
549.416	29126.44
549.779	29043.05
550.143	29112.43
550.507	29290.05
550.871	29533.43
551.235	29463.83
551.599	29735.01
551.962	29922.57
552.326	29937.49
552.689	30148.33
553.053	30106.75
553.417	30151.04
553.78	30535.21
554.143	30466.97
554.507	30633.06
554.87	30685.49
555.234	30951.47
555.597	30688.88
555.96	30800.07
556.323	30787.41
556.686	30991.02
557.05	31071.47
557.413	31014.98
557.776	31078.02
558.139	31252.26
558.502	31286.83
558.865	31377.68
559.228	31628.74
559.59	31512.59
559.953	31861.73
560.316	32067.83
560.679	32150.31
561.041	32473.02
561.404	32541.26
561.767	32760.69
562.129	32704.2
562.492	33004.08
562.854	32975.6
563.217	33162.49
563.579	33166.33
563.941	33351.64
564.304	33346.44
564.666	33388.25
565.028	33393.22
565.39	33455.59
565.753	33746.2
566.115	33657.39
566.477	33912.53
566.839	33895.58
567.201	34218.28
567.563	34226.19
567.925	34400.88
568.287	34542.11
568.648	34526.97
569.01	34728.78
569.372	35020.75
569.734	34881.99
570.095	35237.69
570.457	35402.43
570.819	35432.94
571.18	35341.42
571.542	35526.72
571.903	35656.44
572.265	35826.83
572.626	35922.19
572.987	35799.26
573.349	35959.93
573.71	36071.34
574.071	36065.24
574.432	36175.29
574.794	36321.5
575.155	36252.58
575.516	36308.62
575.877	36498
576.238	36673.13
576.599	36680.82
576.96	36707.03
577.32	36813.47
577.681	37070.41
578.042	37240.57
578.403	37176.62
578.763	37149.28
579.124	37394.47
579.485	37533
579.845	37622.26
580.206	37644.63
580.566	37592.2
580.927	37474.24
581.287	37768.24
581.648	37510.4
582.008	37669.72
582.368	37662.03
582.728	37691.86
583.089	37640.79
583.449	37501.36
583.809	37605.54
584.169	37716.72
584.529	37583.39
584.889	38080.55
585.249	37737.06
585.609	37547.46
585.969	37988.35
586.329	37826.55
586.688	37945.41
587.048	37996.94
587.408	37933.21
587.768	38077.84
588.127	38072.87
588.487	38123.26
588.846	38314.22
589.206	38076.48
589.565	38136.82
589.925	38210.27
590.284	38133.21
590.643	38213.43
591.003	38210.94
591.362	38240.55
591.721	38031.51
592.08	38092.08
592.44	38066.54
592.799	38246.65
593.158	38232.64
593.517	38211.17
593.876	38276.93
594.235	38086.2
594.593	38272.19
594.952	38170.27
595.311	38214.11
595.67	38271.96
596.029	38571.16
596.387	38605.74
596.746	38545.4
597.104	38468.56
597.463	38521.44
597.822	38777.71
598.18	38600.76
598.538	38588.56
598.897	38864.71
599.255	38514.44
599.613	39201.43
599.972	38828.78
600.33	38899.74
600.688	38715.34
601.046	38956.24
601.404	39044.37
601.762	38821.1
602.12	39005.5
602.478	38952.62
602.836	39005.05
603.194	38853.64
603.552	38979.51
603.91	38724.83
604.268	38952.39
604.625	39001.43
604.983	39047.08
605.341	38719.18
605.698	39163.69
606.056	39073.97
606.413	39224.48
606.771	39276.45
607.128	39466.05
607.485	39193.07
607.843	39344.7
608.2	39666.5
608.557	39711.24
608.914	39578.59
609.272	39735.42
609.629	39857
609.986	39940.16
610.343	39542.89
610.7	39861.07
611.057	39740.85
611.414	39822.88
611.771	39774.29
612.127	39964.8
612.484	39962.99
612.841	40021.97
613.198	39896.32
613.554	39948.3
613.911	40185.81
614.267	40095.19
614.624	40018.13
614.98	40189.88
615.337	40364.79
615.693	40281.4
616.05	40154.62
616.406	40501.73
616.762	40315.52
617.118	40354.39
617.475	40487.72
617.831	40552.58
618.187	40650.2
618.543	40651.11
618.899	40853.13
619.255	40892.68
619.611	40924.55
619.967	40948.73
620.323	40893.36
620.678	40734.72
621.034	40605.23
621.39	40798.22
621.746	40766.13
622.101	41024.88
622.457	40741.73
622.812	40841.38
623.168	40862.85
623.523	40750.31
623.879	40942.17
624.234	40607.27
624.589	40899.01
624.945	40832.34
625.3	40685.91
625.655	40778.79
626.01	40921.61
626.365	40938.33
626.72	40798.9
627.075	40642.74
627.43	40879.35
627.785	40842.51
628.14	40713.7
628.495	41015.39
628.85	40832.34
629.205	40759.8
629.559	41000.25
629.914	40845.68
630.269	40828.28
630.623	40823.98
630.978	40703.76
631.332	40937.65
631.687	40939.01
632.041	40705.57
632.396	40909.63
632.75	40672.8
633.104	40733.36
633.459	40386.25
633.813	40450.66
634.167	40310.55
634.521	40257.22
634.875	40305.35
635.229	40194.85
635.583	40078.69
635.937	40156.66
636.291	40108.75
636.645	40132.93
636.999	40181.51
637.352	40069.65
637.706	39774.07
638.06	39973.84
638.413	39852.48
638.767	39858.36
639.121	39718.25
639.474	39661.98
639.828	39565.03
640.181	39749.44
640.534	39801.86
640.888	39501.53
641.241	39508.99
641.594	39526.39
641.947	39766.84
642.301	39631.25
642.654	39725.71
643.007	39710.11
643.36	39454.75
643.713	39555.99
644.066	39573.39
644.419	39434.87
644.771	39261.31
645.124	39099.28
645.477	39104.03
645.83	38784.26
646.182	38594.89
646.535	38077.84
646.888	37893.89
647.24	37516.5
647.593	37815.93
647.945	37570.06
648.298	37433.34
648.65	37361.02
649.002	37429.04
649.355	37622.71
649.707	37669.04
650.059	38054.34
650.411	38560.77
650.763	38672.18
651.115	38744.49
651.467	38698.39
651.819	38689.35
652.171	38651.16
652.523	38610.03
652.875	38673.31
653.227	38426.98
653.578	38819.97
653.93	38762.79
654.282	38420.88
654.633	38304.95
654.985	38438.28
655.337	38365.29
655.688	38276.25
656.039	38483.03
656.391	38100.44
656.742	38285.07
657.094	38188.8
657.445	38132.98
657.796	38194
658.147	37998.29
658.498	38139.31
658.849	38131.4
659.2	38034.45
659.551	37991.29
659.902	38059.76
660.253	37977.96
660.604	38111.29
660.955	37962.36
661.306	37995.58
661.656	37896.38
662.007	37957.62
662.358	38004.17
662.708	37958.75
663.059	38083.94
663.409	37832.42
663.76	38198.74
664.11	38023.83
664.461	38002.36
664.811	38063.15
665.161	38038.75
665.511	37905.19
665.862	38156.48
666.212	38195.13
666.562	38219.31
666.912	38050.95
667.262	38020.44
667.612	38064.28
667.962	38034.68
668.312	37926.43
668.662	38069.25
669.011	38060.44
669.361	37817.51
669.711	37753.78
670.06	37607.12
670.41	37561.47
670.76	37530.96
671.109	37612.99
671.459	37567.35
671.808	37448.93
672.157	37510.4
672.507	37340.01
672.856	37462.94
673.205	37421.36
673.554	37542.71
673.904	37405.99
674.253	37652.32
674.602	37330.74
674.951	36824.54
675.3	36815.73
675.649	37261.36
675.998	37178.66
676.346	37162.38
676.695	37319.22
677.044	37165.1
677.393	37299.33
677.741	37353.57
678.09	37205.55
678.438	37156.06
678.787	37142.05
679.135	37051.2
679.484	36925.78
679.832	37072.9
680.181	36863.64
680.529	36861.38
680.877	36689.18
681.225	36513.14
681.573	36796.29
681.922	36573.02
682.27	36445.57
682.618	36248.74
682.966	36288.28
683.314	36223.43
683.661	36053.49
684.009	35904.11
684.357	35845.81
684.705	35711.58
685.053	35779.37
685.4	35716.09
685.748	35651.69
686.095	35562.88
686.443	35523.11
686.79	35512.94
687.138	35584.35
687.485	35613.05
687.832	35478.36
688.18	35452.82
688.527	35197.24
688.874	35246.73
689.221	35154.75
689.568	35044.93
689.915	34899.17
690.262	34956.57
690.609	34915.66
690.956	34847.64
691.303	34754.31
691.65	34596.12
691.997	34698.49
692.344	34370.82
692.69	34285.62
693.037	34154.55
693.383	33854.67
693.73	34038.4
694.077	33807.9
694.423	33537.62
694.769	33665.3
695.116	33484.74
695.462	33407.23
695.808	33265.09
696.155	33327.91
696.501	32969.27
696.847	33056.05
697.193	32755.72
697.539	32844.76
697.885	32674.14
698.231	32625.55
698.577	32575.84
698.923	32591.88
699.269	32432.57
699.614	32263.08
699.96	32116.87
700.306	32183.53
700.651	32056.76
700.997	32018.56
701.342	31911.9
701.688	31779.93
702.033	31771.11
702.379	31745.35
702.724	31614.51
703.069	31758.46
703.415	31372.03
703.76	31363.21
704.105	31329.32
704.45	31177.23
704.795	31024.69
705.14	30925.49
705.485	30865.6
705.83	30880.06
706.175	30814.53
706.52	30636.45
706.865	30543.35
707.209	30472.84
707.554	30283.47
707.899	30308.33
708.243	30149.91
708.588	30145.39
708.932	30017.71
709.277	29927.09
709.621	29949.24
709.966	29743.14
710.31	29903.82
710.654	29470.38
710.998	29505.18
711.342	29572.53
711.687	29525.3
712.031	29427.45
712.375	29266.09
712.719	29344.51
713.063	29331.86
713.407	29331.63
713.75	29334.12
714.094	29196.94
714.438	29087.12
714.782	29243.5
715.125	29007.57
715.469	29161.69
715.812	28829.72
716.156	28756.5
716.499	28752.66
716.843	28805.54
717.186	28602.16
717.53	28798.08
717.873	28735.26
718.216	28709.95
718.559	28516.06
718.902	28330.53
719.246	28430.64
719.589	28401.03
719.932	28331.43
720.275	28296.63
720.617	28191.55
720.96	27981.16
721.303	28118.1
721.646	28043.3
721.989	27988.84
722.331	27953.81
722.674	27974.38
723.016	28083.3
723.359	28026.13
723.701	27853.48
724.044	27784.1
724.386	27645.57
724.729	27814.16
725.071	27713.37
725.413	27614.39
725.755	27608.96
726.097	27516.08
726.439	27421.85
726.782	27404.45
727.124	27518.57
727.465	27320.84
727.807	27344.56
728.149	27408.74
728.491	27415.75
728.833	27394.05
729.175	27362.87
729.516	27306.37
729.858	27331.91
730.199	27435.86
730.541	27386.82
730.882	27253.04
731.224	27427.73
731.565	27249.88
731.906	27219.6
732.248	27342.08
732.589	27014.63
732.93	27161.74
733.271	27174.4
733.612	27245.58
733.953	27186.6
734.294	27068.41
734.635	26992.93
734.976	27181.4
735.317	26968.98
735.658	27045.59
735.999	27087.62
736.339	26983.44
736.68	27050.79
737.021	26995.87
737.361	26838.36
737.702	27007.85
738.042	26885.14
738.383	26855.54
738.723	26975.53
739.063	26918.13
739.404	26865.71
739.744	26846.5
740.084	26969.88
740.424	26915.42
740.764	26848.53
741.104	26913.16
741.444	26706.16
741.784	26703.22
742.124	26880.62
742.464	26914.74
742.804	26860.73
743.143	26973.5
743.483	26867.74
743.823	26827.74
744.162	26860.06
744.502	27061.86
744.841	26844.46
745.181	27164.91
745.52	26946.16
745.86	27025.25
746.199	27042.2
746.538	26963.33
746.877	27159.26
747.216	27155.64
747.556	27153.83
747.895	27090.33
748.234	27001.97
748.573	27036.77
748.911	27173.49
749.25	27117.68
749.589	26978.7
749.928	27072.93
750.267	27169.2
750.605	27147.05
750.944	27174.85
751.283	27153.16
751.621	27323.55
751.96	27100.95
752.298	27147.28
752.636	27192.25
752.975	27168.97
753.313	27045.59
753.651	27283.1
753.989	27080.84
