Data from blue_shiny_book_FLMS001491_00017.txt Node
Date: Wed Feb 08 15:26:37 GMT 2017
User: dcchb
Spectrometer: FLMS00149
Trigger mode: 0
Integration Time (sec): 2.000000E-2
Scans to average: 10
Electric dark correction enabled: true
Nonlinearity correction enabled: false
Boxcar width: 0
XAxis mode: Wavelengths
Number of Pixels in Spectrum: 2048
>>>>>Begin Spectral Data<<<<<
341.393	-3.45
341.776	-3.45
342.16	-3.45
342.543	-59.72
342.927	-77.34
343.31	-73.27
343.693	-61.98
344.077	-51.58
344.46	-84.12
344.843	-51.13
345.226	-36.89
345.61	-32.82
345.993	-36.21
346.376	-13.84
346.759	27.74
347.142	8.08
347.525	48.3
347.908	48.98
348.291	73.39
348.674	103.44
349.057	131.92
349.44	122.65
349.823	136.89
350.206	165.36
350.588	187.96
350.971	215.53
351.354	239.03
351.737	239.71
352.119	256.43
352.502	260.95
352.884	269.54
353.267	309.31
353.65	313.61
354.032	328.52
354.414	317.9
354.797	347.73
355.179	331.46
355.562	349.54
355.944	354.28
356.326	355.41
356.709	350.67
357.091	359.48
357.473	351.57
357.855	372.14
358.238	380.27
358.62	355.87
359.002	376.88
359.384	352.7
359.766	363.1
360.148	349.76
360.53	357
360.912	356.54
361.294	347.28
361.676	352.7
362.057	357.9
362.439	351.57
362.821	362.19
363.203	361.06
363.584	357.45
363.966	353.15
364.348	344.34
364.729	352.25
365.111	372.36
365.493	342.53
365.874	346.15
366.256	316.32
366.637	346.83
367.019	357.45
367.4	357.45
367.781	349.54
368.163	350.44
368.544	345.47
368.925	333.49
369.306	360.61
369.688	358.8
370.069	366.94
370.45	354.06
370.831	346.6
371.212	371.69
371.593	356.32
371.974	362.19
372.355	361.29
372.736	350.44
373.117	349.31
373.498	364.23
373.879	364.91
374.26	345.25
374.641	366.71
375.021	344.79
375.402	356.32
375.783	364.45
376.163	383.44
376.544	396.32
376.925	378.24
377.305	384.57
377.686	390.44
378.066	381.4
378.447	409.65
378.827	424.34
379.208	407.84
379.588	402.19
379.968	410.1
380.349	440.61
380.729	416.43
381.109	418.24
381.489	418.01
381.87	403.1
382.25	442.19
382.63	413.72
383.01	426.15
383.39	420.27
383.77	435.19
384.15	449.88
384.53	446.49
384.91	445.13
385.29	455.52
385.67	468.63
386.049	457.56
386.429	451.68
386.809	440.16
387.189	484.68
387.568	493.49
387.948	493.94
388.328	496.65
388.707	462.3
389.087	497.11
389.466	495.52
389.846	502.3
390.225	522.87
390.605	524.45
390.984	533.71
391.363	537.1
391.743	540.95
392.122	514.73
392.501	564
392.881	548.4
393.26	554.28
393.639	567.16
394.018	555.64
394.397	593.83
394.776	567.61
395.155	589.53
395.534	607.61
395.913	578.46
396.292	612.13
396.671	620.94
397.05	640.15
397.429	628.4
397.808	615.07
398.186	648.97
398.565	621.17
398.944	639.7
399.323	662.07
399.701	654.39
400.08	659.81
400.458	681.73
400.837	700.49
401.215	672.02
401.594	719.47
401.972	702.07
402.351	695.74
402.729	681.06
403.107	718.79
403.486	728.74
403.864	758.34
404.242	757.21
404.62	770.32
404.999	769.64
405.377	785.46
405.755	801.5
406.133	799.24
406.511	807.61
406.889	815.97
407.267	822.07
407.645	856.64
408.023	845.57
408.401	885.34
408.779	870.88
409.156	872.46
409.534	903.65
409.912	930.99
410.29	957.21
410.667	938.22
411.045	985.91
411.422	949.3
411.8	1005.34
412.178	997.66
412.555	1039.69
412.933	1053.25
413.31	1056.86
413.687	1050.76
414.065	1121.04
414.442	1085.11
414.819	1124.66
415.197	1140.48
415.574	1138.9
415.951	1145.68
416.328	1146.58
416.705	1165.34
417.082	1203.53
417.46	1192.23
417.837	1238.33
418.214	1243.07
418.591	1256.86
418.967	1252.79
419.344	1276.29
419.721	1290.31
420.098	1294.82
420.475	1327.59
420.852	1321.72
421.228	1343.41
421.605	1357.87
421.982	1393.81
422.358	1385.9
422.735	1423.18
423.111	1435.84
423.488	1451.43
423.864	1473.13
424.241	1504.99
424.617	1501.82
424.994	1543.86
425.37	1551.77
425.746	1521.94
426.123	1557.87
426.499	1599
426.875	1618.66
427.251	1663.4
427.627	1693.46
428.003	1695.49
428.379	1725.77
428.756	1741.82
429.132	1758.09
429.507	1774.36
429.883	1795.38
430.259	1815.94
430.635	1872.66
431.011	1881.02
431.387	1918.76
431.763	1949.95
432.138	1997.63
432.514	2028.59
432.89	2047.8
433.265	2072.21
433.641	2122.83
434.016	2159.43
434.392	2191.3
434.767	2197.85
435.143	2195.82
435.518	2246.66
435.894	2253.22
436.269	2306.55
436.644	2312.43
437.02	2350.39
437.395	2368.24
437.77	2463.16
438.145	2481.69
438.52	2491.86
438.895	2532.76
439.271	2523.27
439.646	2599.2
440.021	2583.6
440.395	2619.31
440.77	2626.99
441.145	2637.61
441.52	2677.61
441.895	2732.98
442.27	2726.88
442.645	2772.75
443.019	2815.91
443.394	2804.39
443.769	2860.43
444.143	2838.29
444.518	2885.97
444.892	2918.74
445.267	2903.14
445.641	2962.58
446.016	2962.13
446.39	3010.03
446.764	3018.17
447.139	3027.43
447.513	3093.87
447.887	3110.37
448.262	3136.58
448.636	3126.64
449.01	3178.62
449.384	3195.79
449.758	3226.75
450.132	3295.22
450.506	3295.68
450.88	3321.89
451.254	3322.34
451.628	3408.22
452.002	3434.66
452.376	3494.09
452.75	3515.78
453.123	3551.26
453.497	3624.71
453.871	3653.63
454.244	3732.5
454.618	3734.08
454.992	3774.99
455.365	3791.03
455.739	3895.43
456.112	3939.95
456.486	3952.83
456.859	4001.19
457.232	4130.23
457.606	4113.51
457.979	4183.34
458.352	4306.5
458.725	4348.53
459.099	4369.09
459.472	4466.04
459.845	4522.99
460.218	4534.06
460.591	4575.42
460.964	4629.65
461.337	4729.54
461.71	4787.84
462.083	4883.66
462.456	4907.61
462.829	4908.97
463.201	5056.08
463.574	5083.2
463.947	5130.88
464.32	5297.66
464.692	5304.44
465.065	5370.42
465.438	5438.67
465.81	5513.47
466.183	5529.97
466.555	5648.38
466.928	5732.45
467.3	5739.23
467.672	5833.69
468.045	6010.41
468.417	6013.57
468.789	6067.81
469.161	6225.09
469.534	6300.79
469.906	6418.08
470.278	6496.72
470.65	6549.15
471.022	6652.65
471.394	6793.89
471.766	6831.4
472.138	6955.01
472.51	7061
472.882	7173.09
473.253	7298.96
473.625	7424.16
473.997	7603.81
474.369	7719.74
474.74	7783.47
475.112	7893.97
475.484	8101.65
475.855	8197.47
476.227	8271.14
476.598	8442.89
476.97	8510.23
477.341	8716.32
477.713	8834.06
478.084	8854.63
478.455	9246.93
478.827	9283.32
479.198	9549.75
479.569	9615.51
479.94	9889.85
480.311	9931.21
480.682	10189.28
481.053	10375.04
481.424	10582.49
481.795	10634.69
482.166	10887.57
482.537	10991.07
482.908	11260.44
483.279	11352.64
483.65	11556.48
484.021	11838.05
484.391	11944.04
484.762	12025.62
485.133	12169.79
485.503	12473.06
485.874	12741.76
486.244	12911.47
486.615	13172.7
486.985	13316.88
487.356	13561.39
487.726	13647.04
488.097	13943.76
488.467	13939.24
488.837	14241.83
489.207	14387.81
489.578	14624.42
489.948	14709.61
490.318	15014.46
490.688	15095.37
491.058	15413.78
491.428	15582.13
491.798	15700.55
492.168	16144.83
492.538	16181.66
492.908	16423.69
493.278	16626.62
493.648	16718.6
494.017	16805.38
494.387	16982.77
494.757	17161.3
495.126	17335.08
495.496	17355.65
495.866	17528.97
496.235	17764.67
496.605	18047.15
496.974	18086.93
497.344	18298.67
497.713	18497.31
498.082	18620.7
498.452	18917.86
498.821	19039.22
499.19	19173.45
499.559	19275.14
499.928	19297.29
500.298	19486.89
500.667	19717.39
501.036	19536.38
501.405	19907.89
501.774	19877.61
502.143	20092.52
502.512	20252.74
502.88	20401.67
503.249	20514.88
503.618	20649.57
503.987	20824.25
504.356	21102.21
504.724	21144.47
505.093	21291.14
505.462	21433.96
505.83	21625.82
506.199	21812.93
506.567	21939.03
506.936	22015.41
507.304	22235.97
507.672	22261.05
508.041	22434.38
508.409	22564.32
508.777	22737.88
509.145	23006.57
509.514	22833.69
509.882	23189.84
510.25	23218.32
510.618	23455.37
510.986	23636.38
511.354	23913.89
511.722	24238.18
512.09	24454.22
512.458	24378.96
512.826	24676.58
513.193	24717.26
513.561	24903.92
513.929	25069.79
514.297	25226.85
514.664	25397.69
515.032	25443.12
515.4	25698.93
515.767	25677.46
516.135	25913.16
516.502	25862.77
516.869	26325.8
517.237	26505.24
517.604	26629.53
517.972	26953.13
518.339	27218.66
518.706	27295.95
519.073	27475.15
519.44	27761.25
519.808	28055.48
520.175	27935.03
520.542	28275.13
520.909	28553.54
521.276	28441.91
521.643	28713.76
522.009	28751.96
522.376	28937.49
522.743	29233.07
523.11	29309.68
523.477	29721.65
523.843	29891.36
524.21	30278.24
524.577	30672.13
524.943	30771.56
525.31	30983.31
525.676	31411.55
526.043	31625.55
526.409	31995.94
526.776	32193.45
527.142	32306.66
527.508	32560.44
527.874	32597.96
528.241	32647.22
528.607	32929.47
528.973	33065.06
529.339	32977.16
529.705	33238.84
530.071	33479.97
530.437	33838.15
530.803	33828.88
531.169	34117.69
531.535	34128.99
531.901	34488.98
532.267	34669.09
532.632	35064.56
532.998	35337.32
533.364	35556.75
533.73	35818.89
534.095	36124.19
534.461	36249.39
534.826	36258.2
535.192	36479.66
535.557	36552.43
535.923	36518.53
536.288	36531.41
536.653	36628.13
537.019	36421.13
537.384	36672.2
537.749	36860.44
538.114	37021.12
538.479	37148.12
538.845	37295.69
539.21	37332.07
539.575	37602.57
539.94	37840.3
540.305	38236
540.67	38290.24
541.034	38597.12
541.399	38708.76
541.764	38890.9
542.129	38899.49
542.494	39024.45
542.858	39031.91
543.223	39244.56
543.587	39271.68
543.952	39221.74
544.316	39220.61
544.681	39136.09
545.045	39260.38
545.41	39477.78
545.774	39395.74
546.138	39461.96
546.503	39507.38
546.867	39665.57
547.231	40252.67
547.595	40316.62
547.959	40447.92
548.324	40721.81
548.688	40875.25
549.052	41056.49
549.416	41236.15
549.779	41317.05
550.143	41336.48
550.507	41560.88
550.871	41670.49
551.235	41467.33
551.599	41785.74
551.962	41712.97
552.326	41719.75
552.689	41693.08
553.053	41732.63
553.417	41715.23
553.78	42209.46
554.143	42063.24
554.507	42317.93
554.87	42425.72
555.234	42952.03
555.597	42669.56
555.96	43072.03
556.323	43416.88
556.686	43451.68
557.05	43807.61
557.413	44034.27
557.776	44194.49
558.139	44486.01
558.502	44431.77
558.865	44376.4
559.228	44752.21
559.59	44702.5
559.953	44775.94
560.316	45067.69
560.679	44922.83
561.041	44929.84
561.404	45197.63
561.767	45320.33
562.129	45182.03
562.492	45549.03
562.854	45508.8
563.217	45705.86
563.579	45898.62
563.941	46174.32
564.304	46480.98
564.666	46844.36
565.028	46891.82
565.39	47197.12
565.753	47437.79
566.115	47669.88
566.477	47811.12
566.839	47871.68
567.201	48004.33
567.563	47934.28
567.925	48177.89
568.287	48145.8
568.648	48098.11
569.01	48155.06
569.372	48284.32
569.734	48123.88
570.095	48343.31
570.457	48455.17
570.819	48497.43
571.18	48468.05
571.542	48773.35
571.903	48994.81
572.265	49151.42
572.626	49136.73
572.987	49343.28
573.349	49657.85
573.71	49849.25
574.071	50107.1
574.432	50088.12
574.794	50390.26
575.155	50517.71
575.516	50297.38
575.877	50494.44
576.238	50521.78
576.599	50556.35
576.96	50480.88
577.32	50469.12
577.681	50607.65
578.042	50627.76
578.403	50625.28
578.763	50596.58
579.124	50574.66
579.485	50631.15
579.845	50675.22
580.206	50698.95
580.566	50745.5
580.927	50738.27
581.287	51020.97
581.648	51010.58
582.008	51158.15
582.368	51207.41
582.728	51451.47
583.089	51417.8
583.449	51391.81
583.809	51521.75
584.169	51575.31
584.529	51580.73
584.889	51879.94
585.249	51564.24
585.609	51442.66
585.969	51562.66
586.329	51484.69
586.688	51429.55
587.048	51389.78
587.408	51291.02
587.768	51291.02
588.127	51298.71
588.487	51200.63
588.846	51371.7
589.206	51141.2
589.565	51184.13
589.925	51312.27
590.284	51247.41
590.643	51404.24
591.003	51509.55
591.362	51572.15
591.721	51590
592.08	51705.7
592.44	51860.05
592.799	51843.1
593.158	51830.9
593.517	51839.94
593.876	52021.4
594.235	51884
594.593	52050.78
594.952	51994.96
595.311	51967.84
595.67	52001.74
596.029	51980.05
596.387	51980.27
596.746	51984.57
597.104	51783.89
597.463	51671.81
597.822	51884.68
598.18	51634.52
598.538	51658.92
598.897	51897.79
599.255	51617.57
599.613	52044.9
599.972	51757.9
600.33	52005.58
600.688	51945.02
601.046	52221.62
601.404	52305.01
601.762	52192.02
602.12	52390.88
602.478	52480.82
602.836	52493.48
603.194	52388.62
603.552	52587.04
603.91	52506.81
604.268	52557.66
604.625	52473.82
604.983	52561.5
605.341	52460.94
605.698	52490.54
606.056	52600.59
606.413	52447.38
606.771	52597.2
607.128	52566.7
607.485	52298.46
607.843	52402.63
608.2	52610.99
608.557	52614.83
608.914	52429.53
609.272	52641.27
609.629	52693.25
609.986	52761.95
610.343	52632.46
610.7	52749.07
611.057	52863.86
611.414	52866.12
611.771	52953.13
612.127	53159.9
612.484	53190.41
612.841	53244.42
613.198	53246.23
613.554	53292.78
613.911	53469.27
614.267	53317.64
614.624	53417.97
614.98	53461.81
615.337	53553.79
615.693	53510.85
616.05	53421.14
616.406	53583.39
616.762	53405.09
617.118	53394.92
617.475	53262.27
617.831	53360.8
618.187	53433.11
618.543	53449.39
618.899	53565.09
619.255	53439.22
619.611	53349.95
619.967	53492.55
620.323	53447.13
620.678	53399.67
621.034	53427.92
621.39	53390.18
621.746	53450.29
622.101	53761.92
622.457	53560.34
622.812	53737.29
623.168	53864.29
623.523	53805.08
623.879	53924.18
624.234	53781.13
624.589	53944.06
624.945	54038.07
625.3	54053.66
625.655	54026.77
626.01	53915.36
626.365	53911.07
626.72	53879.43
627.075	53837.17
627.43	53836.04
627.785	53781.13
628.14	53845.31
628.495	53699.1
628.85	53620.45
629.205	53572.55
629.559	53652.54
629.914	53479.44
630.269	53445.32
630.623	53380.91
630.978	53342.72
631.332	53453
631.687	53556.95
632.041	53518.31
632.396	53451.65
632.75	53466.33
633.104	53413.91
633.459	53413.45
633.813	53415.49
634.167	53443.96
634.521	53318.99
634.875	53380.91
635.229	53431.98
635.583	53317.86
635.937	53362.38
636.291	53337.07
636.645	53433.57
636.999	53408.26
637.352	53392.66
637.706	53223.18
638.06	53335.49
638.413	53194.7
638.767	53072.45
639.121	52983.64
639.474	52800.82
639.828	52757.88
640.181	52713.36
640.534	52601.05
640.888	52446.25
641.241	52281.96
641.594	52494.83
641.947	52548.17
642.301	52318.79
642.654	52453.25
643.007	52252.13
643.36	52333.48
643.713	52274.05
644.066	52399.24
644.419	52279.47
644.771	52352.01
645.124	52286.7
645.477	52215.07
645.83	52095.97
646.182	51750.67
646.535	51506.84
646.888	51445.37
647.24	51214.87
647.593	51353.85
647.945	51276.11
648.298	51172.16
648.65	51077.02
649.002	51040.86
649.355	51201.08
649.707	51344.58
650.059	51395.65
650.411	51699.6
650.763	51824.8
651.115	52024.34
651.467	51702.09
651.819	51718.36
652.171	51566.5
652.523	51587.29
652.875	51470.91
653.227	51355.88
653.578	51643.78
653.93	51499.38
654.282	51355.2
654.633	51105.49
654.985	51278.6
655.337	51326.5
655.688	51262.78
656.039	51407.86
656.391	51166.96
656.742	51294.41
657.094	51415.31
657.445	51650.34
657.796	51459.61
658.147	51620.96
658.498	51622.99
658.849	51728.98
659.2	51739.15
659.551	51601.75
659.902	51686.49
660.253	51665.25
660.604	51647.85
660.955	51587.51
661.306	51710.45
661.656	51434.75
662.007	51472.49
662.358	51427.97
662.708	51379.38
663.059	51305.71
663.409	51087.64
663.76	51307.75
664.11	51080.41
664.461	51073.18
664.811	50904.37
665.161	50778.27
665.511	50806.29
665.862	50875.22
666.212	50966.74
666.562	50811.49
666.912	50900.75
667.262	50804.71
667.612	50939.4
667.962	51051.26
668.312	50959.73
668.662	51073.63
669.011	51064.59
669.361	51123.12
669.711	51054.42
670.06	50886.52
670.41	51049
670.76	51115.21
671.109	51245.38
671.459	51120.86
671.808	51011.03
672.157	51310.91
672.507	51026.85
672.856	51007.42
673.205	51118.15
673.554	51186.85
673.904	50991.37
674.253	51106.4
674.602	50864.59
674.951	50255.8
675.3	50242.92
675.649	50597.71
675.998	50350.94
676.346	50325.63
676.695	50360.65
677.044	49925.41
677.393	50092.19
677.741	50054.45
678.09	49911.63
678.438	49736.49
678.787	49818.52
679.135	49742.59
679.484	49452.2
679.832	49826.66
680.181	49715.02
680.529	49666.21
680.877	49767.67
681.225	49701.46
681.573	49995.92
681.922	49785.08
682.27	49719.09
682.618	49891.06
682.966	49810.61
683.314	49908.24
683.661	49836.83
684.009	49650.84
684.357	49614.01
684.705	49673.21
685.053	49706.66
685.4	49629.82
685.748	49322.94
686.095	49348.93
686.443	49195.71
686.79	49149.61
687.138	49127.47
687.485	49051.99
687.832	48918.66
688.18	48853.35
688.527	48482.28
688.874	48385.34
689.221	48243.19
689.568	48150.99
689.915	47923.43
690.262	47900.83
690.609	47713.04
690.956	47547.62
691.303	47472.82
691.65	47324.8
691.997	47155.09
692.344	46951.7
692.69	46948.31
693.037	46859.95
693.383	46586.52
693.73	46824.02
694.077	46625.16
694.423	46686.17
694.769	46546.74
695.116	46595.1
695.462	46744.7
695.808	46451.15
696.155	46641.88
696.501	46423.81
696.847	46450.93
697.193	46209.58
697.539	46321.66
697.885	46111.27
698.231	46021.56
698.577	45967.55
698.923	45946.98
699.269	45775.69
699.614	45455.47
699.96	45454.34
700.306	45339.99
700.651	45103.62
700.997	44816.62
701.342	44775.49
701.688	44444.88
702.033	44293.47
702.379	44399.68
702.724	44058.45
703.069	44102.74
703.415	43639.93
703.76	43518.8
704.105	43451.23
704.45	43173.05
704.795	43033.39
705.14	42742.1
705.485	42580.52
705.83	42545.04
706.175	42784.36
706.52	42507.3
706.865	42443.8
707.209	42529.22
707.554	42437.47
707.899	42530.12
708.243	42204.03
708.588	42391.37
708.932	42239.51
709.277	42257.36
709.621	42249.23
709.966	42043.58
710.31	42353.41
710.654	42065.5
710.998	42136.91
711.342	42154.99
711.687	41984.83
712.031	41986.86
712.375	41731.05
712.719	41727.43
713.063	41601.34
713.407	41623.26
713.75	41420.78
714.094	41560.21
714.438	41246.99
714.782	41210.16
715.125	40976.95
715.469	40967.68
715.812	40801.58
716.156	40393.23
716.499	40387.81
716.843	40290.64
717.186	40060.81
717.53	40126.8
717.873	39926.58
718.216	39674.38
718.559	39544.67
718.902	39277.78
719.246	39561.84
719.589	39451.79
719.932	39343.77
720.275	39259.02
720.617	39325.24
720.96	39306.93
721.303	39312.36
721.646	39432.8
721.989	39122.98
722.331	39261.51
722.674	39241.85
723.016	39416.99
723.359	39362.3
723.701	39583.99
724.044	39291.34
724.386	39128.41
724.729	39467.38
725.071	39295.18
725.413	39266.71
725.755	39226.71
726.097	39471.22
726.439	39018.58
726.782	39117.33
727.124	39154.17
727.465	39007.05
727.807	38937.45
728.149	38852.93
728.491	38738.36
728.833	38767.51
729.175	38455.66
729.516	38542.43
729.858	38371.82
730.199	38412.04
730.541	38074.87
730.882	38049.79
731.224	38195.32
731.565	37850.47
731.906	37864.26
732.248	37757.82
732.589	37629.24
732.93	37551.72
733.271	37477.38
733.612	37721.89
733.953	37620.42
734.294	37412.07
734.635	37325.52
734.976	37520.31
735.317	37195.58
735.658	37427.21
735.999	37366.64
736.339	37596.02
736.68	37759.18
737.021	37444.83
737.361	37390.15
737.702	37577.26
738.042	37495.45
738.383	37629.24
738.723	37648.22
739.063	37440.77
739.404	37642.34
739.744	37796.24
740.084	37647.32
740.424	37825.84
740.764	37739.97
741.104	37816.12
741.444	37602.8
741.784	37532.52
742.124	37749.69
742.464	37643.7
742.804	37564.38
743.143	37555.34
743.483	37516.47
743.823	37206.42
744.162	37324.61
744.502	37355.12
744.841	37288
745.181	37164.16
745.52	37136.37
745.86	37076.71
746.199	37078.97
746.538	36987.22
746.877	37032.42
747.216	37013.21
747.556	37086.65
747.895	36965.98
748.234	36943.6
748.573	36725.76
748.911	36783.61
749.25	36747.23
749.589	36678.53
749.928	36624.97
750.267	36702.71
750.605	36512.66
750.944	36779.09
751.283	36707.45
751.621	36802.59
751.96	36662.71
752.298	36664.74
752.636	36774.34
