Data from blue_clamp_base_FLMS001491_00034.txt Node
Date: Wed Feb 08 15:15:55 GMT 2017
User: dcchb
Spectrometer: FLMS00149
Trigger mode: 0
Integration Time (sec): 2.000000E-2
Scans to average: 10
Electric dark correction enabled: true
Nonlinearity correction enabled: false
Boxcar width: 0
XAxis mode: Wavelengths
Number of Pixels in Spectrum: 2048
>>>>>Begin Spectral Data<<<<<
341.393	-13.6
341.776	-13.6
342.16	-13.6
342.543	-49.98
342.927	-71
343.31	-65.8
343.693	-63.09
344.077	-56.09
344.46	-51.34
344.843	-60.15
345.226	-53.83
345.61	-25.8
345.993	-27.84
346.376	-8.86
346.759	21.65
347.142	33.18
347.525	32.05
347.908	43.35
348.291	85.61
348.674	95.1
349.057	101.88
349.44	136.23
349.823	142.33
350.206	180.07
350.588	181.65
350.971	208.99
351.354	228.65
351.737	238.82
352.119	249.44
352.502	271.59
352.884	277.01
353.267	280.85
353.65	300.97
354.032	306.16
354.414	313.85
354.797	308.42
355.179	324.02
355.562	318.14
355.944	318.82
356.326	340.74
356.709	324.92
357.091	339.61
357.473	346.84
357.855	334.41
358.238	337.8
358.62	342.55
359.002	334.19
359.384	333.28
359.766	343.23
360.148	341.42
360.53	341.87
360.912	326.73
361.294	346.39
361.676	344.58
362.057	319.95
362.439	340.97
362.821	319.95
363.203	311.59
363.584	331.47
363.966	334.64
364.348	318.59
364.729	327.63
365.111	328.99
365.493	309.55
365.874	310.68
366.256	304.13
366.637	333.51
367.019	304.81
367.4	318.82
367.781	325.82
368.163	303.45
368.544	307.29
368.925	312.72
369.306	306.62
369.688	328.99
370.069	315.43
370.45	296.45
370.831	309.55
371.212	319.27
371.593	315.2
371.974	319.95
372.355	328.76
372.736	331.93
373.117	338.25
373.498	340.51
373.879	344.81
374.26	318.37
374.641	321.76
375.021	357.01
375.402	324.47
375.783	331.47
376.163	341.19
376.544	338.93
376.925	346.39
377.305	327.18
377.686	335.77
378.066	336.22
378.447	328.08
378.827	341.42
379.208	340.74
379.588	345.94
379.968	323.34
380.349	371.47
380.729	350.68
381.109	360.17
381.489	351.81
381.87	358.37
382.25	339.16
382.63	356.56
383.01	367.63
383.39	350.68
383.77	351.36
384.15	345.03
384.53	367.86
384.91	378.7
385.29	363.79
385.67	371.93
386.049	387.74
386.429	387.52
386.809	391.81
387.189	383
387.568	379.61
387.948	368.54
388.328	401.75
388.707	392.26
389.087	396.56
389.466	397.91
389.846	397.91
390.225	390.46
390.605	405.6
390.984	397.46
391.363	413.28
391.743	423.22
392.122	427.29
392.501	408.08
392.881	413.05
393.26	424.13
393.639	454.86
394.018	443.34
394.397	427.07
394.776	451.25
395.155	435.2
395.534	465.26
395.913	456.67
396.292	456.67
396.671	476.56
397.05	474.97
397.429	470.91
397.808	462.54
398.186	462.54
398.565	486.05
398.944	479.04
399.323	480.4
399.701	489.21
400.08	514.29
400.458	521.07
400.837	515.42
401.215	496.44
401.594	498.48
401.972	518.59
402.351	543.67
402.729	543.45
403.107	525.14
403.486	560.85
403.864	566.04
404.242	527.85
404.62	548.42
404.999	545.93
405.377	571.47
405.755	573.73
406.133	576.21
406.511	571.47
406.889	607.17
407.267	609.43
407.645	609.43
408.023	615.53
408.401	620.51
408.779	620.05
409.156	644.91
409.534	634.29
409.912	642.2
410.29	657.12
410.667	669.54
411.045	687.62
411.422	684.46
411.8	681.97
412.178	693.27
412.555	703.22
412.933	695.76
413.31	720.16
413.687	723.33
414.065	718.58
414.442	736.21
414.819	761.07
415.197	767.85
415.574	772.14
415.951	800.84
416.328	770.78
416.705	776.66
417.082	770.33
417.46	799.94
417.837	811.46
418.214	809.43
418.591	825.7
418.967	832.93
419.344	843.1
419.721	827.73
420.098	858.47
420.475	809.65
420.852	862.99
421.228	884.23
421.605	897.34
421.982	880.16
422.358	907.73
422.735	896.43
423.111	927.16
423.488	959.48
423.864	931.68
424.241	936.43
424.617	957.45
424.994	958.58
425.37	948.86
425.746	976.88
426.123	992.02
426.499	1012.13
426.875	969.88
427.251	1028.41
427.627	1054.17
428.003	1051
428.379	1060.49
428.756	1109.08
429.132	1077.44
429.507	1119.48
429.883	1123.09
430.259	1123.09
430.635	1162.86
431.011	1132.13
431.387	1200.83
431.763	1210.55
432.138	1218.91
432.514	1256.2
432.89	1260.72
433.265	1286.48
433.641	1281.05
434.016	1284.9
434.392	1331.45
434.767	1321.96
435.143	1305.01
435.518	1345.23
435.894	1373.93
436.269	1373.71
436.644	1400.6
437.02	1401.73
437.395	1422.52
437.77	1441.05
438.145	1482.86
438.52	1453.93
438.895	1470.65
439.271	1505.91
439.646	1522.18
440.021	1540.48
440.395	1547.94
440.77	1555.4
441.145	1557.43
441.52	1591.1
441.895	1589.52
442.27	1620.48
442.645	1623.64
443.019	1666.13
443.394	1649.86
443.769	1670.2
444.143	1662.29
444.518	1692.12
444.892	1687.37
445.267	1688.73
445.641	1708.84
446.016	1713.13
446.39	1755.17
446.764	1738.89
447.139	1723.98
447.513	1746.35
447.887	1787.03
448.262	1803.53
448.636	1805.56
449.01	1846.91
449.384	1856.41
449.758	1814.83
450.132	1905.22
450.506	1878.55
450.88	1865.67
451.254	1922.84
451.628	1946.57
452.002	1986.35
452.376	1993.8
452.75	1994.71
453.123	1999
453.497	2030.41
453.871	2048.27
454.244	2089.39
454.618	2126.91
454.992	2128.04
455.365	2110.18
455.739	2181.37
456.112	2210.29
456.486	2229.05
456.859	2234.93
457.232	2262.27
457.606	2277.86
457.979	2325.55
458.352	2341.59
458.725	2381.36
459.099	2374.36
459.472	2437.41
459.845	2451.64
460.218	2452.32
460.591	2462.72
460.964	2503.62
461.337	2558.99
461.71	2578.87
462.083	2629.27
462.456	2622.26
462.829	2593.56
463.201	2682.15
463.574	2669.27
463.947	2715.59
464.32	2796.72
464.692	2792.65
465.065	2816.83
465.438	2839.21
465.81	2906.55
466.183	2919.88
466.555	2955.59
466.928	2987.9
467.3	3013.66
467.672	3019.09
468.045	3080.33
468.417	3110.16
468.789	3078.75
469.161	3181.34
469.534	3226.99
469.906	3236.93
470.278	3270.38
470.65	3309.25
471.022	3362.81
471.394	3417.27
471.766	3450.71
472.138	3450.26
472.51	3529.13
472.882	3569.13
473.253	3607.55
473.625	3694.32
473.997	3682.57
474.369	3757.6
474.74	3772.74
475.112	3857.94
475.484	3874.43
475.855	3935
476.227	3962.57
476.598	4048.44
476.97	4075.78
477.341	4143.35
477.713	4213.41
478.084	4235.33
478.455	4283.23
478.827	4371.37
479.198	4424.93
479.569	4437.36
479.94	4564.81
480.311	4621.08
480.682	4683.9
481.053	4780.4
481.424	4841.86
481.795	4869.66
482.166	4889.32
482.537	4953.5
482.908	5031.92
483.279	5099.94
483.65	5176.54
484.021	5271.68
484.391	5263.77
484.762	5324.56
485.133	5308.97
485.503	5376.99
485.874	5527.04
486.244	5546.93
486.615	5590.55
486.985	5660.6
487.356	5726.13
487.726	5732.69
488.097	5866.47
488.467	5841.61
488.837	5975.62
489.207	6005.68
489.578	6023.53
489.948	6106.92
490.318	6158.89
490.688	6143.07
491.058	6234.37
491.428	6306.68
491.798	6335.84
492.168	6461.93
492.538	6382.84
492.908	6536.06
493.278	6541.03
493.648	6569.05
494.017	6612.67
494.387	6683.4
494.757	6690.18
495.126	6797.74
495.496	6681.59
495.866	6761.59
496.235	6809.5
496.605	6826.22
496.974	6884.97
497.344	6947.12
497.713	6935.59
498.082	6928.81
498.452	7090.84
498.821	7022.37
499.19	7064.63
499.559	7083.16
499.928	7143.95
500.298	7160.67
500.667	7129.94
501.036	7144.63
501.405	7193.44
501.774	7184.4
502.143	7270.05
502.512	7255.81
502.88	7305.08
503.249	7256.49
503.618	7323.15
503.987	7374.23
504.356	7433.89
504.724	7463.26
505.093	7443.83
505.462	7443.6
505.83	7474.11
506.199	7592.07
506.567	7591.17
506.936	7563.15
507.304	7613.99
507.672	7653.09
508.041	7646.76
508.409	7731.51
508.777	7726.53
509.145	7847.66
509.514	7788
509.882	7820.99
510.25	7833.2
510.618	7880.43
510.986	7912.97
511.354	7968.56
511.722	7956.36
512.09	8015.11
512.458	8001.33
512.826	8069.35
513.193	8086.52
513.561	8124.26
513.929	8152.51
514.297	8204.94
514.664	8211.49
515.032	8251.49
515.4	8363.35
515.767	8310.25
516.135	8345.05
516.502	8301.21
516.869	8375.1
517.237	8404.48
517.604	8371.26
517.972	8523.12
518.339	8510.02
518.706	8497.59
519.073	8581.65
519.44	8535.55
519.808	8614.87
520.175	8611.26
520.542	8698.26
520.909	8735.1
521.276	8706.62
521.643	8801.53
522.009	8827.75
522.376	8905.94
522.743	8881.53
523.11	8949.33
523.477	8945.49
523.843	9043.56
524.21	9079.04
524.577	9137.12
524.943	9089.66
525.31	9189.55
525.676	9259.38
526.043	9260.51
526.409	9277.68
526.776	9414.17
527.142	9416.43
527.508	9435.87
527.874	9487.39
528.241	9541.63
528.607	9573.94
528.973	9639.93
529.339	9639.48
529.705	9654.17
530.071	9798.57
530.437	9810.77
530.803	9836.08
531.169	9888.96
531.535	9830.43
531.901	9869.75
532.267	9931.9
532.632	10026.81
532.998	10010.54
533.364	10070.88
533.73	10147.26
534.095	10142.52
534.461	10221.61
534.826	10255.73
535.192	10238.78
535.557	10336.41
535.923	10272.68
536.288	10328.27
536.653	10384.54
537.019	10287.82
537.384	10473.13
537.749	10464.54
538.114	10424.09
538.479	10478.78
538.845	10492.11
539.21	10469.29
539.575	10602.39
539.94	10508.38
540.305	10676.29
540.67	10688.26
541.034	10699.56
541.399	10722.16
541.764	10710.41
542.129	10672.22
542.494	10769.62
542.858	10818.66
543.223	10863.4
543.587	10904.53
543.952	10855.04
544.316	10962.38
544.681	10848.71
545.045	10960.8
545.41	11001.48
545.774	11089.38
546.138	11037.63
546.503	11103.17
546.867	11047.35
547.231	11184.75
547.595	11204.86
547.959	11265.65
548.324	11299.1
548.688	11187.46
549.052	11372.77
549.416	11284.41
549.779	11318.08
550.143	11304.29
550.507	11468.58
550.871	11396.04
551.235	11433.78
551.599	11563.27
551.962	11531.63
552.326	11517.39
552.689	11575.02
553.053	11550.39
553.417	11555.13
553.78	11753.09
554.143	11667.45
554.507	11657.96
554.87	11701.34
555.234	11835.35
555.597	11746.09
555.96	11834.67
556.323	11868.12
556.686	11818.18
557.05	11890.27
557.413	11939.3
557.776	12030.38
558.139	12077.61
558.502	12054.1
558.865	11969.59
559.228	12228.11
559.59	12181.56
559.953	12180.88
560.316	12259.97
560.679	12214.33
561.041	12325.74
561.404	12331.16
561.767	12430.37
562.129	12396.02
562.492	12582.9
562.854	12528.22
563.217	12529.12
563.579	12553.3
563.941	12627.42
564.304	12707.65
564.666	12765.5
565.028	12810.92
565.39	12835.1
565.753	12893.4
566.115	12902.44
566.477	13057.69
566.839	13014.53
567.201	13104.7
567.563	13088.43
567.925	13156.45
568.287	13143.34
568.648	13193.51
569.01	13249.55
569.372	13446.16
569.734	13295.43
570.095	13376.56
570.457	13536.32
570.819	13592.59
571.18	13571.8
571.542	13586.72
571.903	13637.34
572.265	13642.54
572.626	13701.52
572.987	13685.02
573.349	13742.42
573.71	13859.48
574.071	13784.23
574.432	13893.6
574.794	14012.24
575.155	13986.71
575.516	13901.51
575.877	14020.38
576.238	14007.05
576.599	14158.91
576.96	14014.96
577.32	14070.1
577.681	14142.18
578.042	14188.96
578.403	14241.62
578.763	14217.66
579.124	14370.65
579.485	14271.45
579.845	14369.3
580.206	14314.84
580.566	14344.44
580.927	14322.52
581.287	14411.33
581.648	14349.18
582.008	14424.21
582.368	14414.27
582.728	14433.02
583.089	14452.46
583.449	14430.09
583.809	14477.32
584.169	14512.12
584.529	14483.87
584.889	14624.66
585.249	14539.91
585.609	14481.84
585.969	14670.76
586.329	14614.04
586.688	14606.13
587.048	14602.06
587.408	14594.83
587.768	14560.25
588.127	14641.15
588.487	14590.08
588.846	14633.92
589.206	14632.12
589.565	14613.58
589.925	14709.63
590.284	14697.2
590.643	14650.65
591.003	14643.87
591.362	14739.91
591.721	14682.96
592.08	14683.41
592.44	14752.56
592.799	14702.85
593.158	14765.45
593.517	14811.09
593.876	14812.22
594.235	14696.52
594.593	14781.94
594.952	14821.71
595.311	14716.63
595.67	14783.07
596.029	14843.18
596.387	14943.07
596.746	14913.92
597.104	14778.78
597.463	14843.41
597.822	14901.94
598.18	14801.38
598.538	14871.43
598.897	14954.82
599.255	14767.7
599.613	14986.91
599.972	14838.66
600.33	14958.66
600.688	14828.95
601.046	14936.29
601.404	14986
601.762	14968.6
602.12	15054.7
602.478	14991.43
602.836	15012.9
603.194	14995.95
603.552	14947.14
603.91	14947.14
604.268	15064.42
604.625	15000.92
604.983	15080.47
605.341	14946.68
605.698	15039.34
606.056	15107.81
606.413	15100.13
606.771	15151.2
607.128	15134.7
607.485	15197.52
607.843	15082.5
608.2	15226.45
608.557	15234.59
608.914	15185.1
609.272	15321.81
609.629	15265.54
609.986	15257.41
610.343	15315.71
610.7	15305.32
611.057	15379.89
611.414	15357.29
611.771	15363.4
612.127	15403.62
612.484	15471.19
612.841	15393
613.198	15347.58
613.554	15378.99
613.911	15451.08
614.267	15444.75
614.624	15517.52
614.98	15558.64
615.337	15621.02
615.693	15547.12
616.05	15538.08
616.406	15645.65
616.762	15684.97
617.118	15574.24
617.475	15580.34
617.831	15640.68
618.187	15719.54
618.543	15683.16
618.899	15858.07
619.255	15754.12
619.611	15829.82
619.967	15834.8
620.323	15820.11
620.678	15699.66
621.034	15694.91
621.39	15755.93
621.746	15809.03
622.101	15857.62
622.457	15796.83
622.812	15763.61
623.168	15925.41
623.523	15868.24
623.879	15917.51
624.234	15844.29
624.589	15934
624.945	15930.39
625.3	16005.64
625.655	16032.08
626.01	15978.07
626.365	15966.77
626.72	15953.44
627.075	16096.48
627.43	15920.22
627.785	15958.18
628.14	16066.88
628.495	16061.91
628.85	16005.19
629.205	15989.59
629.559	16163.6
629.914	16053.32
630.269	16084.73
630.623	16061.23
630.978	16040.67
631.332	16050.16
631.687	16091.51
632.041	16113.21
632.396	16123.6
632.75	16028.24
633.104	16140.1
633.459	16084.51
633.813	16170.15
634.167	16079.08
634.521	16185.29
634.875	16178.97
635.229	16075.47
635.583	16053.09
635.937	16141.23
636.291	16005.19
636.645	16109.36
636.999	16046.99
637.352	16200.66
637.706	16129.03
638.06	16137.16
638.413	16134.45
638.767	16083.6
639.121	16161.11
639.474	16031.63
639.828	16053.09
640.181	16158.85
640.534	16174.9
640.888	16097.39
641.241	16051.74
641.594	16147.33
641.947	16219.64
642.301	16188.46
642.654	16261.9
643.007	16217.84
643.36	16225.29
643.713	16158.85
644.066	16261.9
644.419	16176.93
644.771	16134.9
645.124	16011.06
645.477	15960.89
645.83	15846.55
646.182	15847.9
646.535	15776.94
646.888	15872.99
647.24	15760.67
647.593	15888.58
647.945	16043.38
648.298	15738.75
648.65	15851.74
649.002	15860.33
649.355	15912.76
649.707	15865.98
650.059	15961.8
650.411	16102.81
650.763	16183.03
651.115	16391.62
651.467	16343.93
651.819	16363.6
652.171	16409.02
652.523	16314.56
652.875	16347.55
653.227	16259.42
653.578	16374.22
653.93	16422.58
654.282	16297.38
654.633	16397.49
654.985	16328.57
655.337	16381.9
655.688	16454.67
656.039	16458.96
656.391	16353.65
656.742	16343.48
657.094	16432.97
657.445	16512.74
657.796	16554.32
658.147	16490.15
658.498	16382.13
658.849	16571.73
659.2	16425.06
659.551	16472.52
659.902	16506.87
660.253	16602.01
660.604	16541.67
660.955	16465.06
661.306	16629.12
661.656	16496.7
662.007	16558.17
662.358	16543.48
662.708	16627.32
663.059	16531.05
663.409	16446.3
663.76	16509.13
664.11	16546.19
664.461	16595.68
664.811	16515
665.161	16530.14
665.511	16547.55
665.862	16523.59
666.212	16677.03
666.562	16497.38
666.912	16653.98
667.262	16502.12
667.612	16526.75
667.962	16547.55
668.312	16576.24
668.662	16554.32
669.011	16600.2
669.361	16480.65
669.711	16423.03
670.06	16481.56
670.41	16448.34
670.76	16360.21
671.109	16345.29
671.459	16442.69
671.808	16355.91
672.157	16349.13
672.507	16180.32
672.856	16245.63
673.205	16297.16
673.554	16285.18
673.904	16187.55
674.253	16293.77
674.602	16213.99
674.951	15971.52
675.3	15798.86
675.649	16089.25
675.998	16079.53
676.346	16082.25
676.695	16084.28
677.044	15934.23
677.393	15941.91
677.741	15989.37
678.09	15973.55
678.438	15901.01
678.787	15931.97
679.135	15883.61
679.484	15783.27
679.832	15809.49
680.181	15788.7
680.529	15839.54
680.877	15640.22
681.225	15664.18
681.573	15794.12
681.922	15651.75
682.27	15652.2
682.618	15618.98
682.966	15561.13
683.314	15659.66
683.661	15477.52
684.009	15400.23
684.357	15375.82
684.705	15366.56
685.053	15425.77
685.4	15397.07
685.748	15272.78
686.095	15282.95
686.443	15191.42
686.79	15244.75
687.138	15225.09
687.485	15328.82
687.832	15109.16
688.18	15200.24
688.527	15081.82
688.874	15081.37
689.221	15052.9
689.568	15018.09
689.915	14978.32
690.262	15034.82
690.609	14963.86
690.956	14972.45
691.303	14966.8
691.65	14881.37
691.997	14874.14
692.344	14847.7
692.69	14793.92
693.037	14866.46
693.383	14658.33
693.73	14814.48
694.077	14721.38
694.423	14653.58
694.769	14614.71
695.116	14612
695.462	14565.9
695.808	14648.61
696.155	14589.63
696.501	14449.97
696.847	14594.83
697.193	14415.85
697.539	14447.49
697.885	14409.52
698.231	14365.23
698.577	14363.87
698.923	14423.31
699.269	14315.74
699.614	14278.68
699.96	14257.44
700.306	14263.76
700.651	14197.1
700.997	14194.84
701.342	14133.6
701.688	14225.57
702.033	14148.51
702.379	14214.27
702.724	14141.05
703.069	14180.38
703.415	14017.22
703.76	14145.8
704.105	14090.21
704.45	14045.69
704.795	13938.35
705.14	13979.48
705.485	13968.4
705.83	13880.27
706.175	13948.52
706.52	13902.19
706.865	13928.4
707.209	13933.83
707.554	13788.52
707.899	14005.92
708.243	13762.99
708.588	13847.96
708.932	13723.44
709.277	13794.4
709.621	13788.3
709.966	13735.87
710.31	13783.1
710.654	13617
710.998	13680.05
711.342	13758.92
711.687	13551.47
712.031	13603.22
712.375	13628.53
712.719	13615.42
713.063	13634.4
713.407	13630.56
713.75	13689.32
714.094	13538.36
714.438	13592.59
714.782	13631.92
715.125	13608.87
715.469	13517.57
715.812	13548.53
716.156	13427.18
716.499	13499.72
716.843	13475.54
717.186	13385.37
717.53	13461.07
717.873	13513.73
718.216	13525.48
718.559	13461.07
718.902	13370.23
719.246	13414.29
719.589	13353.28
719.932	13355.31
720.275	13334.97
720.617	13408.42
720.96	13397.8
721.303	13398.25
721.646	13284.81
721.989	13222.66
722.331	13350.57
722.674	13347.86
723.016	13278.7
723.359	13276.67
723.701	13282.32
724.044	13242.77
724.386	13160.06
724.729	13266.73
725.071	13280.29
725.413	13292.49
725.755	13198.25
726.097	13140.4
726.439	13186.73
726.782	13150.35
727.124	13301.08
727.465	13150.8
727.807	13149.67
728.149	13087.52
728.491	13112.83
728.833	13172.04
729.175	13152.83
729.516	13107.18
729.858	13166.84
730.199	13255.88
730.541	13068.54
730.882	13106.73
731.224	13138.6
731.565	13033.97
731.906	13144.92
732.248	13213.85
732.589	13024.7
732.93	13054.08
733.271	13209.78
733.612	13063.34
733.953	13135.88
734.294	13134.98
734.635	13087.3
734.976	13118.48
735.317	13141.08
735.658	13094.53
735.999	13179.72
736.339	13164.58
736.68	13236.45
737.021	13199.84
737.361	13133.4
737.702	13335.2
738.042	13265.82
738.383	13311.25
738.723	13288.42
739.063	13345.37
739.404	13374.3
739.744	13377.01
740.084	13320.06
740.424	13357.8
740.764	13344.24
741.104	13354.41
741.444	13353.73
741.784	13306.05
742.124	13461.75
742.464	13422.2
742.804	13433.05
743.143	13429.66
743.483	13508.53
743.823	13398.02
744.162	13483.44
744.502	13529.32
744.841	13582.43
745.181	13563.67
745.52	13530
745.86	13596.66
746.199	13559.15
746.538	13640.28
746.877	13649.99
747.216	13723.44
747.556	13658.36
747.895	13738.58
748.234	13767.51
748.573	13836.43
748.911	13712.14
749.25	13858.35
749.589	13787.84
749.928	13794.62
750.267	13872.59
750.605	13887.05
750.944	13947.61
751.283	13811.8
751.621	13889.31
751.96	13867.16
752.298	13916.88
752.636	14015.18
752.975	13908.52
753.313	13892.7
753.651	14065.58
753.989	14071
754.327	14069.64
754.666	14030.1
755.004	14129.3
755.342	14141.51
755.679	14204.56
756.017	14170.88
756.355	14245.23
756.693	14169.53
