Data from blue_clamp_base_FLMS001491_00062.txt Node
Date: Wed Feb 08 15:16:21 GMT 2017
User: dcchb
Spectrometer: FLMS00149
Trigger mode: 0
Integration Time (sec): 2.000000E-2
Scans to average: 10
Electric dark correction enabled: true
Nonlinearity correction enabled: false
Boxcar width: 0
XAxis mode: Wavelengths
Number of Pixels in Spectrum: 2048
>>>>>Begin Spectral Data<<<<<
341.393	-11.75
341.776	-11.75
342.16	-11.75
342.543	-59.21
342.927	-72.99
343.31	-75.03
343.693	-66.66
344.077	-85.87
344.46	-52.43
344.843	-39.1
345.226	-57.17
345.61	-19.89
345.993	-8.81
346.376	-9.27
346.759	21.92
347.142	35.71
347.525	38.19
347.908	64.18
348.291	72.77
348.674	77.06
349.057	104.4
349.44	122.71
349.823	135.36
350.206	168.13
350.588	166.1
350.971	190.73
351.354	230.95
351.737	226.43
352.119	245.64
352.502	254.23
352.884	260.78
353.267	285.64
353.65	282.25
354.032	271.63
354.414	292.42
354.797	299.65
355.179	308.01
355.562	313.89
355.944	310.05
356.326	341.91
356.709	313.66
357.091	346.66
357.473	325.42
357.855	335.58
358.238	338.07
358.62	318.18
359.002	337.62
359.384	346.43
359.766	350.73
360.148	322.93
360.53	328.8
360.912	332.87
361.294	324.51
361.676	313.89
362.057	329.03
362.439	328.13
362.821	307.34
363.203	318.41
363.584	311.18
363.966	327
364.348	311.4
364.729	312.76
365.111	333.78
365.493	317.28
365.874	303.49
366.256	305.3
366.637	309.14
367.019	293.78
367.4	308.01
367.781	297.62
368.163	297.85
368.544	275.92
368.925	272.54
369.306	314.79
369.688	304.85
370.069	298.75
370.45	304.85
370.831	283.83
371.212	298.98
371.593	315.25
371.974	300.33
372.355	298.52
372.736	294.91
373.117	296.26
373.498	316.83
373.879	305.98
374.26	302.59
374.641	296.04
375.021	319.09
375.402	298.98
375.783	299.2
376.163	303.95
376.544	322.25
376.925	310.05
377.305	328.35
377.686	311.18
378.066	315.47
378.447	315.92
378.827	311.4
379.208	316.6
379.588	304.85
379.968	335.36
380.349	303.04
380.729	324.51
381.109	332.65
381.489	327.67
381.87	339.2
382.25	336.49
382.63	339.88
383.01	321.35
383.39	347.11
383.77	322.25
384.15	334.91
384.53	325.64
384.91	350.05
385.29	327.67
385.67	356.15
386.049	353.66
386.429	362.02
386.809	344.62
387.189	351.86
387.568	357.28
387.948	347.34
388.328	362.48
388.707	347.11
389.087	355.47
389.466	352.99
389.846	347.79
390.225	364.06
390.605	366.32
390.984	355.24
391.363	364.06
391.743	367.67
392.122	361.57
392.501	379.65
392.881	389.82
393.26	395.24
393.639	383.27
394.018	374.45
394.397	374.23
394.776	399.99
395.155	399.31
395.534	380.55
395.913	400.22
396.292	397.28
396.671	416.03
397.05	404.74
397.429	421.23
397.808	438.86
398.186	424.62
398.565	442.47
398.944	416.03
399.323	427.33
399.701	435.69
400.08	433.89
400.458	423.04
400.837	460.78
401.215	429.37
401.594	444.51
401.972	456.03
402.351	461.46
402.729	460.78
403.107	449.25
403.486	460.1
403.864	448.35
404.242	491.51
404.62	491.06
404.999	489.7
405.377	476.37
405.755	504.85
406.133	483.38
406.511	486.77
406.889	512.53
407.267	509.59
407.645	532.42
408.023	523.38
408.401	527.67
408.779	549.36
409.156	569.25
409.534	541
409.912	534.45
410.29	563.83
410.667	560.89
411.045	604.28
411.422	567.22
411.8	582.13
412.178	599.53
412.555	582.81
412.933	600.44
413.31	602.7
413.687	597.27
414.065	615.8
414.442	611.51
414.819	613.77
415.197	638.63
415.574	653.09
415.951	637.72
416.328	658.06
416.705	644.05
417.082	643.82
417.46	668.68
417.837	669.13
418.214	675.24
418.591	658.51
418.967	676.59
419.344	700.32
419.721	684.05
420.098	693.32
420.475	710.72
420.852	740.09
421.228	731.51
421.605	723.14
421.982	712.3
422.358	731.73
422.735	742.35
423.111	734.22
423.488	751.39
423.864	771.51
424.241	795.91
424.617	790.49
424.994	789.58
425.37	798.4
425.746	809.7
426.123	792.97
426.499	812.86
426.875	832.75
427.251	831.39
427.627	839.98
428.003	855.8
428.379	862.8
428.756	898.51
429.132	885.85
429.507	877.04
429.883	909.58
430.259	912.29
430.635	939.41
431.011	922.69
431.387	965.62
431.763	957.04
432.138	980.09
432.514	982.35
432.89	1009.46
433.265	1007.43
433.641	1049.69
434.016	1038.39
434.392	1038.39
434.767	1047.66
435.143	1055.34
435.518	1066.19
435.894	1097.82
436.269	1108.22
436.644	1138.28
437.02	1125.62
437.395	1135.11
437.77	1159.52
438.145	1169.01
438.52	1198.84
438.895	1186.86
439.271	1210.82
439.646	1221.21
440.021	1244.26
440.395	1218.5
440.77	1234.77
441.145	1260.98
441.52	1278.84
441.895	1262.79
442.27	1288.1
442.645	1294.66
443.019	1309.57
443.394	1316.8
443.769	1333.07
444.143	1322.9
444.518	1338.72
444.892	1366.97
445.267	1349.8
445.641	1362.9
446.016	1363.13
446.39	1363.58
446.764	1402.9
447.139	1433.41
447.513	1432.96
447.887	1443.35
448.262	1431.83
448.636	1438.61
449.01	1451.71
449.384	1461.2
449.758	1507.08
450.132	1515.44
450.506	1523.12
450.88	1529.9
451.254	1510.69
451.628	1534.65
452.002	1547.53
452.376	1551.82
452.75	1620.52
453.123	1627.53
453.497	1622.78
453.871	1631.37
454.244	1639.96
454.618	1677.02
454.992	1678.37
455.365	1705.94
455.739	1752.95
456.112	1755.66
456.486	1794.53
456.859	1763.8
457.232	1820.29
457.606	1787.98
457.979	1818.94
458.352	1842.21
458.725	1853.06
459.099	1892.15
459.472	1909.78
459.845	1940.06
460.218	1992.26
460.591	1941.19
460.964	1963.79
461.337	1987.29
461.71	2071.81
462.083	2062.32
462.456	2061.19
462.829	2094.86
463.201	2101.19
463.574	2109.78
463.947	2159.49
464.32	2176.67
464.692	2201.07
465.065	2197.91
465.438	2248.98
465.81	2274.97
466.183	2285.14
466.555	2334.63
466.928	2365.59
467.3	2300.5
467.672	2367.62
468.045	2419.6
468.417	2442.65
468.789	2441.29
469.161	2470.22
469.534	2494.85
469.906	2569.88
470.278	2570.33
470.65	2610.33
471.022	2631.8
471.394	2654.39
471.766	2685.35
472.138	2728.52
472.51	2715.86
472.882	2806.25
473.253	2816.65
473.625	2841.51
473.997	2904.1
474.369	2879.92
474.74	2939.36
475.112	2972.35
475.484	3002.41
475.855	3049.86
476.227	3077.21
476.598	3140.48
476.97	3202.18
477.341	3241.5
477.713	3257.54
478.084	3263.87
478.455	3371.44
478.827	3363.75
479.198	3467.48
479.569	3420.02
479.94	3526.69
480.311	3572.79
480.682	3575.05
481.053	3649.85
481.424	3680.81
481.795	3749.96
482.166	3772.33
482.537	3812.33
482.908	3876.73
483.279	3917.19
483.65	3988.14
484.021	4043.96
484.391	4032.44
484.762	4077.86
485.133	4083.06
485.503	4142.49
485.874	4174.35
486.244	4255.93
486.615	4278.53
486.985	4310.85
487.356	4375.7
487.726	4363.95
488.097	4477.85
488.467	4457.28
488.837	4508.36
489.207	4618.86
489.578	4665.19
489.948	4662.02
490.318	4634
490.688	4715.81
491.058	4752.19
491.428	4742.7
491.798	4812.08
492.168	4882.13
492.538	4900.21
492.908	4974.56
493.278	4965.07
493.648	4972.3
494.017	5028.34
494.387	5017.95
494.757	5073.76
495.126	5106.76
495.496	5085.52
495.866	5119.87
496.235	5162.12
496.605	5149.02
496.974	5214.55
497.344	5196.7
497.713	5257.71
498.082	5291.16
498.452	5287.77
498.821	5284.38
499.19	5302.69
499.559	5330.26
499.928	5337.71
500.298	5382.23
500.667	5445.51
501.036	5382.23
501.405	5388.11
501.774	5380.42
502.143	5410.48
502.512	5405.96
502.88	5481.21
503.249	5511.04
503.618	5485.73
503.987	5487.77
504.356	5499.29
504.724	5552.17
505.093	5541.78
505.462	5528.22
505.83	5559.85
506.199	5620.42
506.567	5654.77
506.936	5665.39
507.304	5704.48
507.672	5708.78
508.041	5758.94
508.409	5743.58
508.777	5778.83
509.145	5812.5
509.514	5771.15
509.882	5777.02
510.25	5829.68
510.618	5825.16
510.986	5811.37
511.354	5826.06
511.722	5910.13
512.09	5915.1
512.458	5891.82
512.826	5929.34
513.193	6004.14
513.561	5967.3
513.929	6044.13
514.297	6055.43
514.664	6028.77
515.032	6042.55
515.4	6056.79
515.767	6052.5
516.135	6155.77
516.502	6071.48
516.869	6190.57
517.237	6179.95
517.604	6182.44
517.972	6190.57
518.339	6206.39
518.706	6244.58
519.073	6225.37
519.44	6239.38
519.808	6308.08
520.175	6234.19
520.542	6307.86
520.909	6387.4
521.276	6365.03
521.643	6403.45
522.009	6437.34
522.376	6381.98
522.743	6474.86
523.11	6485.93
523.477	6539.94
523.843	6576.32
524.21	6580.84
524.577	6666.27
524.943	6588.98
525.31	6653.61
525.676	6703.33
526.043	6724.34
526.409	6766.6
526.776	6743.55
527.142	6832.81
527.508	6813.38
527.874	6874.17
528.241	6855.64
528.607	6902.64
528.973	6965.01
529.339	6908.07
529.705	6968.18
530.071	7009.31
530.437	7027.84
530.803	7080.49
531.169	7125.46
531.535	7035.52
531.901	7082.53
532.267	7118
532.632	7137.21
532.998	7147.38
533.364	7258.57
533.73	7202.52
534.095	7280.03
534.461	7244.56
534.826	7339.92
535.192	7321.84
535.557	7338.34
535.923	7349.41
536.288	7376.76
536.653	7359.58
537.019	7408.62
537.384	7415.85
537.749	7421.73
538.114	7493.14
538.479	7379.24
538.845	7495.62
539.21	7477.77
539.575	7518.45
539.94	7520.93
540.305	7603.19
540.67	7570.42
541.034	7543.08
541.399	7593.02
541.764	7615.39
542.129	7596.86
542.494	7630.08
542.858	7628.27
543.223	7656.97
543.587	7676.41
543.952	7662.62
544.316	7700.81
544.681	7651.78
545.045	7780.13
545.41	7759.12
545.774	7828.27
546.138	7782.39
546.503	7811.77
546.867	7748.72
547.231	7873.69
547.595	7848.38
547.959	7897.65
548.324	7904.65
548.688	7921.6
549.052	7955.05
549.416	7958.43
549.779	7930.41
550.143	7995.72
550.507	7984.87
550.871	8018.55
551.235	7979.45
551.599	8062.39
551.962	8059.9
552.326	8040.47
552.689	8088.6
553.053	8076.17
553.417	8047.25
553.78	8154.14
554.143	8120.01
554.507	8121.59
554.87	8115.04
555.234	8152.55
555.597	8226.68
555.96	8235.04
556.323	8220.12
556.686	8240.69
557.05	8286.34
557.413	8377.63
557.776	8305.54
558.139	8319.78
558.502	8353
558.865	8374.02
559.228	8341.48
559.59	8409.04
559.953	8375.15
560.316	8468.48
560.679	8438.2
561.041	8457.63
561.404	8493.79
561.767	8539.44
562.129	8444.98
562.492	8591.19
562.854	8602.49
563.217	8558.42
563.579	8595.71
563.941	8682.48
564.304	8654.91
564.666	8697.17
565.028	8723.16
565.39	8742.14
565.753	8729.94
566.115	8832.31
566.477	8832.08
566.839	8868.69
567.201	8931.29
567.563	8910.95
567.925	8919.77
568.287	8914.57
568.648	8994.34
569.01	8987.56
569.372	8967
569.734	9060.55
570.095	9071.4
570.457	9011.06
570.819	9193.66
571.18	9147.78
571.542	9180.78
571.903	9167.67
572.265	9229.36
572.626	9280.89
572.987	9283.82
573.349	9327.21
573.71	9274.56
574.071	9380.32
574.432	9404.5
574.794	9437.49
575.155	9436.14
575.516	9379.41
575.877	9410.83
576.238	9475.46
576.599	9468.45
576.96	9486.3
577.32	9493.54
577.681	9556.13
578.042	9572.4
578.403	9535.79
578.763	9641.55
579.124	9622.8
579.485	9648.79
579.845	9721.1
580.206	9708.45
580.566	9663.25
580.927	9697.82
581.287	9745.51
581.648	9772.4
582.008	9769.01
582.368	9698.28
582.728	9770.82
583.089	9792.51
583.449	9752.74
583.809	9748.44
584.169	9769.23
584.529	9739.4
584.889	9795
585.249	9795.45
585.609	9782.79
585.969	9832.74
586.329	9849.46
586.688	9841.55
587.048	9790.7
587.408	9829.8
587.768	9872.73
588.127	9840.87
588.487	9875.45
588.846	9924.03
589.206	9873.64
589.565	9813.75
589.925	9890.59
590.284	9830.93
590.643	9903.24
591.003	9994.77
591.362	9927.2
591.721	9845.39
592.08	9948.89
592.44	10006.74
592.799	10023.24
593.158	9895.78
593.517	9977.59
593.876	9940.3
594.235	9914.54
594.593	10033.63
594.952	9920.64
595.311	9960.64
595.67	9940.53
596.029	10026.85
596.387	10045.84
596.746	10056.91
597.104	10041.54
597.463	10090.36
597.822	10037.25
598.18	9984.6
598.538	10038.15
598.897	10051.49
599.255	9951.83
599.613	10071.6
599.972	10053.75
600.33	10027.76
600.688	10087.64
601.046	10099.4
601.404	10124.25
601.762	10056.91
602.12	10198.83
602.478	10104.59
602.836	10173.52
603.194	10060.3
603.552	10121.77
603.91	10098.27
604.268	10125.16
604.625	10112.5
604.983	10103.92
605.341	10122.45
605.698	10178.49
606.056	10193.18
606.413	10228.66
606.771	10211.93
607.128	10195.21
607.485	10247.41
607.843	10208.55
608.2	10220.75
608.557	10264.81
608.914	10211.71
609.272	10261.2
609.629	10282.67
609.986	10260.52
610.343	10231.37
610.7	10305.27
611.057	10352.95
611.414	10369.44
611.771	10265.27
612.127	10417.58
612.484	10364.7
612.841	10343.46
613.198	10306.17
613.554	10396.56
613.911	10407.18
614.267	10343.68
614.624	10388.43
614.98	10419.84
615.337	10424.81
615.693	10442.44
616.05	10431.14
616.406	10436.56
616.762	10465.26
617.118	10459.16
617.475	10437.92
617.831	10416.45
618.187	10479.72
618.543	10503.23
618.899	10526.5
619.255	10558.14
619.611	10554.07
619.967	10599.5
620.323	10570.8
620.678	10567.86
621.034	10557.69
621.39	10539.61
621.746	10532.15
622.101	10684.01
622.457	10586.84
622.812	10621.64
623.168	10681.98
623.523	10659.83
623.879	10717.01
624.234	10614.86
624.589	10686.05
624.945	10711.13
625.3	10627.07
625.655	10656.44
626.01	10702.77
626.365	10691.47
626.72	10727.63
627.075	10683.79
627.43	10772.37
627.785	10736.67
628.14	10709.77
628.495	10817.12
628.85	10792.71
629.205	10678.59
629.559	10778.47
629.914	10772.37
630.269	10671.58
630.623	10732.37
630.978	10721.3
631.332	10803.11
631.687	10795.2
632.041	10774.18
632.396	10800.62
632.75	10746.38
633.104	10820.05
633.459	10793.16
633.813	10775.54
634.167	10750.68
634.521	10776.89
634.875	10864.35
635.229	10861.18
635.583	10731.47
635.937	10783.22
636.291	10833.16
636.645	10845.82
636.999	10836.33
637.352	10915.19
637.706	10848.53
638.06	10898.02
638.413	10848.08
638.767	10823.22
639.121	10913.61
639.474	10819.15
639.828	10895.08
640.181	10864.12
640.534	10880.62
640.888	10890.79
641.241	10806.27
641.594	10915.19
641.947	10940.96
642.301	10983.67
642.654	11013.27
643.007	10963.55
643.36	10949.99
643.713	10898.02
644.066	10990.9
644.419	10955.64
644.771	10860.96
645.124	10792.26
645.477	10798.36
645.83	10845.14
646.182	10736.67
646.535	10729.66
646.888	10711.81
647.24	10750.45
647.593	10701.19
647.945	10716.33
648.298	10654.18
648.65	10723.56
649.002	10756.33
649.355	10752.03
649.707	10792.94
650.059	10835.65
650.411	10972.37
650.763	11004
651.115	11172.36
651.467	11129.65
651.819	11109.09
652.171	11105.92
652.523	11054.17
652.875	11076.54
653.227	11009.88
653.578	11155.86
653.93	11114.28
654.282	11108.86
654.633	11145.92
654.985	11172.36
655.337	11178.46
655.688	11172.59
656.039	11236.31
656.391	11186.82
656.742	11215.75
657.094	11160.61
657.445	11234.73
657.796	11108.18
658.147	11255.07
658.498	11163.55
658.849	11239.93
659.2	11322.64
659.551	11256.88
659.902	11313.6
660.253	11302.75
660.604	11244
660.955	11288.97
661.306	11268.4
661.656	11284
662.007	11264.34
662.358	11289.65
662.708	11250.1
663.059	11277.44
663.409	11213.72
663.76	11354.5
664.11	11284.9
664.461	11241.51
664.811	11267.27
665.161	11318.12
665.511	11238.57
665.862	11329.42
666.212	11338.23
666.562	11333.71
666.912	11291.23
667.262	11246.94
667.612	11289.65
667.962	11326.71
668.312	11328.74
668.662	11351.34
669.011	11236.77
669.361	11175.53
669.711	11206.26
670.06	11192.47
670.41	11202.87
670.76	11127.39
671.109	11162.64
671.459	11166.26
671.808	11084.68
672.157	11105.47
672.507	11071.8
672.856	11050.78
673.205	11032.25
673.554	11082.87
673.904	11080.61
674.253	11086.04
674.602	11006.49
674.951	10873.39
675.3	10798.13
675.649	10907.06
675.998	10900.96
676.346	10959.03
676.695	10998.58
677.044	10811.92
677.393	10885.59
677.741	10895.98
678.09	10833.84
678.438	10866.38
678.787	10780.73
679.135	10771.24
679.484	10665.71
679.832	10690.57
680.181	10681.3
680.529	10699.38
680.877	10679.95
681.225	10667.97
681.573	10658.7
681.922	10612.15
682.27	10543.9
682.618	10689.66
682.966	10515.43
683.314	10573.28
683.661	10531.25
684.009	10483.34
684.357	10437.47
684.705	10372.16
685.053	10402.21
685.4	10391.59
685.748	10409.44
686.095	10352.95
686.443	10289
686.79	10293.29
687.138	10290.35
687.485	10333.51
687.832	10264.14
688.18	10294.19
688.527	10255.78
688.874	10231.37
689.221	10223.46
689.568	10199.96
689.915	10124.25
690.262	10200.64
690.609	10115.89
690.956	10072.5
691.303	10055.1
691.65	10031.37
691.997	10064.59
692.344	9980.75
692.69	9965.16
693.037	10057.81
693.383	9929.91
693.73	10022.34
694.077	9907.54
694.423	9875.9
694.769	9911.38
695.116	9858.5
695.462	9905.05
695.808	9844.03
696.155	9829.8
696.501	9841.78
696.847	9869.35
697.193	9786.18
697.539	9795.45
697.885	9751.83
698.231	9795.45
698.577	9776.69
698.923	9747.99
699.269	9653.53
699.614	9637.94
699.96	9654.66
700.306	9698.95
700.651	9630.48
700.997	9575.57
701.342	9659.18
701.688	9603.59
702.033	9572.86
702.379	9588.67
702.724	9618.5
703.069	9636.13
703.415	9498.51
703.76	9545.74
704.105	9512.07
704.45	9492.18
704.795	9423.26
705.14	9449.92
705.485	9505.29
705.83	9430.49
706.175	9447.21
706.52	9442.24
706.865	9336.25
707.209	9400.43
707.554	9334.67
707.899	9420.09
708.243	9382.58
708.588	9321.34
708.932	9294.22
709.277	9317.95
709.621	9328.12
709.966	9317.72
710.31	9314.56
710.654	9208.8
710.998	9250.15
711.342	9285.63
711.687	9250.6
712.031	9231.85
712.375	9207.44
712.719	9269.59
713.063	9222.36
713.407	9322.24
713.75	9180.78
714.094	9189.59
714.438	9277.27
714.782	9243.82
715.125	9144.17
715.469	9204.5
715.812	9203.15
716.156	9109.59
716.499	9170.61
716.843	9128.8
717.186	9120.66
717.53	9173.54
717.873	9120.89
718.216	9136.03
718.559	9143.49
718.902	9112.98
719.246	9085.64
719.589	9150.27
719.932	9083.6
720.275	9099.87
720.617	9069.14
720.96	9048.8
721.303	9048.58
721.646	9088.35
721.989	9016.49
722.331	9169.25
722.674	9047.22
723.016	9042.02
723.359	9053.77
723.701	9028.24
724.044	9021.23
724.386	9002.93
724.729	9082.93
725.071	9060.33
725.413	9028.24
725.755	9089.03
726.097	8978.52
726.439	8953.66
726.782	9015.13
727.124	9104.39
727.465	9031.17
727.807	9016.49
728.149	9010.61
728.491	8983.27
728.833	9003.83
729.175	9069.82
729.516	8927
729.858	8987.79
730.199	8991.85
730.541	8988.92
730.882	8981.23
731.224	9057.39
731.565	9045.64
731.906	8989.82
732.248	9086.77
732.589	8974
732.93	9055.13
733.271	9056.26
733.612	9056.03
733.953	9068.69
734.294	8988.46
734.635	9035.02
734.976	9047.67
735.317	9094.45
735.658	9096.48
735.999	9079.99
736.339	9032.53
736.68	9135.13
737.021	9081.57
737.361	9065.3
737.702	9102.81
738.042	9178.97
738.383	9117.73
738.723	9223.26
739.063	9155.24
739.404	9204.28
739.744	9190.72
740.084	9200.44
740.424	9264.62
740.764	9220.77
741.104	9292.64
741.444	9271.17
741.784	9328.12
742.124	9322.92
742.464	9296.7
742.804	9344.61
743.143	9324.05
743.483	9343.26
743.823	9333.99
744.162	9321.11
744.502	9381.67
744.841	9382.13
745.181	9493.76
745.52	9428.68
745.86	9456.93
746.199	9498.28
746.538	9509.13
746.877	9580.99
747.216	9580.77
747.556	9603.36
747.895	9627.54
748.234	9604.49
748.573	9613.76
748.911	9646.07
749.25	9747.77
749.589	9630.93
749.928	9666.86
750.267	9745.96
750.605	9736.02
750.944	9804.04
751.283	9804.26
751.621	9839.06
751.96	9798.16
752.298	9820.98
752.636	9882.23
752.975	9850.59
753.313	9844.49
753.651	9886.75
753.989	9860.98
754.327	9956.12
754.666	9949.79
755.004	9975.1
755.342	10115.44
755.679	10066.4
756.017	10026.4
756.355	10102.33
756.693	10059.85
757.031	10144.82
757.368	10078.83
757.706	10097.36
758.044	10102.11
758.381	10206.06
758.719	10138.49
759.056	10235.21
759.394	10218.94
759.731	10176.46
760.068	10200.64
760.405	10176.91
760.743	10272.72
761.08	10253.74
761.417	10180.07
761.754	10287.19
762.091	10306.85
762.428	10320.86
762.765	10255.78
763.102	10310.24
763.438	10295.55
