Data from blue_clamp_base_FLMS001491_00027.txt Node
Date: Wed Feb 08 15:15:46 GMT 2017
User: dcchb
Spectrometer: FLMS00149
Trigger mode: 0
Integration Time (sec): 2.000000E-2
Scans to average: 10
Electric dark correction enabled: true
Nonlinearity correction enabled: false
Boxcar width: 0
XAxis mode: Wavelengths
Number of Pixels in Spectrum: 2048
>>>>>Begin Spectral Data<<<<<
341.393	-8.43
341.776	-8.43
342.16	-8.43
342.543	-44.82
342.927	-76.9
343.31	-81.42
343.693	-64.93
344.077	-63.35
344.46	-54.76
344.843	-46.17
345.226	-44.36
345.61	-50.46
345.993	-9.79
346.376	-20.86
346.759	20.49
347.142	44.67
347.525	31.57
347.908	75.63
348.291	67.72
348.674	87.84
349.057	108.18
349.44	127.84
349.823	135.75
350.206	166.25
350.588	197.66
350.971	207.16
351.354	228.85
351.737	226.36
352.119	244.67
352.502	260.26
352.884	271.56
353.267	264.1
353.65	296.42
354.032	278.57
354.414	304.78
354.797	293.71
355.179	307.72
355.562	326.02
355.944	316.31
356.326	317.66
356.709	333.03
357.091	338.68
357.473	321.28
357.855	337.55
358.238	325.34
358.62	343.2
359.002	327.38
359.384	345.68
359.766	353.59
360.148	328.28
360.53	340.71
360.912	322.41
361.294	318.57
361.676	342.52
362.057	329.86
362.439	326.93
362.821	328.96
363.203	309.53
363.584	318.79
363.966	297.77
364.348	322.18
364.729	307.72
365.111	303.42
365.493	292.58
365.874	305.46
366.256	322.18
366.637	297.55
367.019	309.75
367.4	304.33
367.781	301.39
368.163	297.77
368.544	301.39
368.925	323.08
369.306	321.73
369.688	298
370.069	298.68
370.45	300.26
370.831	303.42
371.212	315.4
371.593	289.64
371.974	310.88
372.355	309.53
372.736	290.09
373.117	318.34
373.498	305.68
373.879	302.97
374.26	309.98
374.641	305.68
375.021	306.81
375.402	302.97
375.783	304.33
376.163	321.95
376.544	323.31
376.925	327.38
377.305	302.29
377.686	305.91
378.066	325.57
378.447	297.32
378.827	320.6
379.208	306.81
379.588	326.25
379.968	327.38
380.349	321.05
380.729	319.47
381.109	342.52
381.489	329.64
381.87	333.25
382.25	330.54
382.63	349.52
383.01	326.7
383.39	326.02
383.77	329.19
384.15	335.74
384.53	321.05
384.91	347.49
385.29	342.52
385.67	340.94
386.049	340.94
386.429	341.62
386.809	328.96
387.189	344.1
387.568	349.07
387.948	342.52
388.328	339.36
388.707	349.52
389.087	367.38
389.466	358.11
389.846	364.21
390.225	354.04
390.605	354.5
390.984	351.56
391.363	365.8
391.743	350.65
392.122	358.34
392.501	371.45
392.881	387.72
393.26	398.34
393.639	413.93
394.018	407.15
394.397	387.49
394.776	389.07
395.155	397.89
395.534	391.33
395.913	408.28
396.292	393.59
396.671	424.1
397.05	421.61
397.429	417.55
397.808	421.39
398.186	401.05
398.565	418.22
398.944	405.34
399.323	429.3
399.701	427.94
400.08	431.33
400.458	427.94
400.837	451.22
401.215	452.8
401.594	455.74
401.972	464.55
402.351	442.86
402.729	462.74
403.107	467.26
403.486	470.2
403.864	494.61
404.242	474.72
404.62	496.87
404.999	470.65
405.377	486.92
405.755	486.7
406.133	503.42
406.511	501.84
406.889	514.04
407.267	508.16
407.645	512.23
408.023	550.2
408.401	555.62
408.779	545.9
409.156	546.13
409.534	534.83
409.912	579.58
410.29	579.58
410.667	564.43
411.045	564.21
411.422	563.08
411.8	584.09
412.178	575.06
412.555	571.44
412.933	619.12
413.31	611.89
413.687	605.56
414.065	626.58
414.442	604.43
414.819	654.38
415.197	623.87
415.574	655.05
415.951	635.39
416.328	666.58
416.705	639.46
417.082	691.21
417.46	678.78
417.837	663.41
418.214	683.08
418.591	694.15
418.967	695.28
419.344	705.45
419.721	713.81
420.098	702.51
420.475	721.27
420.852	732.79
421.228	720.14
421.605	758.1
421.982	745.45
422.358	748.16
422.735	785.22
423.111	744.32
423.488	776.86
423.864	795.84
424.241	807.14
424.617	776.18
424.994	796.07
425.37	825.44
425.746	821.6
426.123	825.67
426.499	836.52
426.875	834.26
427.251	853.47
427.627	910.87
428.003	879.23
428.379	906.57
428.756	903.86
429.132	948.61
429.507	922.39
429.883	920.36
430.259	916.06
430.635	926.46
431.011	963.07
431.387	998.55
431.763	967.36
432.138	1020.69
432.514	1018.66
432.89	1031.54
433.265	1031.09
433.641	1075.83
434.016	1061.82
434.392	1054.14
434.767	1092.1
435.143	1102.27
435.518	1113.8
435.894	1113.8
436.269	1149.5
436.644	1150.41
437.02	1158.99
437.395	1169.39
437.77	1179.56
438.145	1196.96
438.52	1202.16
438.895	1220.69
439.271	1223.63
439.646	1248.48
440.021	1252.1
440.395	1245.32
440.77	1280.12
441.145	1305.66
441.52	1291.65
441.895	1331.19
442.27	1329.61
442.645	1349.95
443.019	1348.14
443.394	1347.92
443.769	1386.11
444.143	1377.07
444.518	1411.19
444.892	1416.39
445.267	1408.71
445.641	1427.24
446.016	1415.71
446.39	1433.11
446.764	1477.63
447.139	1450.74
447.513	1459.78
447.887	1479.44
448.262	1430.17
448.636	1495.03
449.01	1520.79
449.384	1521.92
449.758	1521.92
450.132	1588.14
450.506	1549.27
450.88	1570.51
451.254	1582.49
451.628	1629.94
452.002	1625.65
452.376	1657.74
452.75	1663.16
453.123	1661.35
453.497	1697.06
453.871	1717.62
454.244	1738.41
454.618	1740.45
454.992	1784.97
455.365	1765.08
455.739	1826.77
456.112	1815.02
456.486	1822.03
456.859	1867.9
457.232	1907.45
457.606	1894.12
457.979	1900.22
458.352	1941.12
458.725	1937.73
459.099	1988.8
459.472	2029.93
459.845	2034.45
460.218	2029.25
460.591	2068.35
460.964	2066.09
461.337	2093.43
461.71	2126.88
462.083	2154.22
462.456	2152.42
462.829	2173.43
463.201	2206.88
463.574	2232.19
463.947	2284.62
464.32	2285.29
464.692	2293.2
465.065	2320.32
465.438	2353.54
465.81	2386.53
466.183	2376.59
466.555	2457.04
466.928	2456.59
467.3	2428.34
467.672	2467.89
468.045	2543.14
468.417	2558.28
468.789	2552.18
469.161	2612.29
469.534	2640.31
469.906	2669.01
470.278	2657.94
470.65	2720.54
471.022	2754.21
471.394	2795.11
471.766	2852.96
472.138	2843.7
472.51	2920.76
472.882	2961.66
473.253	2969.79
473.625	3005.05
473.997	3075.78
474.369	3098.38
474.74	3070.13
475.112	3176.8
475.484	3208.66
475.855	3219.28
476.227	3299.5
476.598	3346.51
476.97	3380.41
477.341	3432.16
477.713	3466.28
478.084	3467.63
478.455	3560.51
478.827	3560.74
479.198	3679.15
479.569	3656.56
479.94	3771.13
480.311	3786.95
480.682	3825.82
481.053	3923.67
481.424	3993.95
481.795	3988.3
482.166	4007.28
482.537	4123.44
482.908	4170.67
483.279	4191.23
483.65	4240.27
484.021	4291.79
484.391	4302.87
484.762	4316.2
485.133	4378.35
485.503	4393.71
485.874	4460.38
486.244	4568.85
486.615	4575.18
486.985	4641.62
487.356	4696.76
487.726	4729.97
488.097	4784.21
488.467	4876.41
488.837	4898.56
489.207	4899.46
489.578	4966.13
489.948	5036.41
490.318	5078.67
490.688	5046.35
491.058	5105.56
491.428	5175.84
491.798	5205.44
492.168	5288.38
492.538	5274.37
492.908	5283.41
493.278	5368.6
493.648	5352.11
494.017	5441.59
494.387	5473.46
494.757	5493.34
495.126	5512.1
495.496	5489.95
495.866	5508.71
496.235	5562.49
496.605	5632.1
496.974	5645.43
497.344	5660.8
497.713	5683.17
498.082	5761.59
498.452	5751.42
498.821	5762.26
499.19	5747.12
499.559	5815.82
499.928	5856.05
500.298	5859.44
500.667	5927.46
501.036	5887.01
501.405	5887.91
501.774	5904.41
502.143	5958.19
502.512	6009.26
502.88	5942.6
503.249	6020.11
503.618	6023.05
503.987	5991.18
504.356	6020.79
504.724	6076.83
505.093	6118.41
505.462	6066.44
505.83	6143.95
506.199	6165.19
506.567	6242.25
506.936	6179.2
507.304	6298.97
507.672	6253.55
508.041	6256.71
508.409	6351.17
508.777	6346.43
509.145	6416.71
509.514	6363.15
509.882	6415.58
510.25	6421.23
510.618	6453.77
510.986	6460.55
511.354	6496.93
511.722	6557.27
512.09	6606.99
512.458	6538.74
512.826	6598.17
513.193	6584.84
513.561	6612.18
513.929	6653.99
514.297	6688.34
514.664	6688.57
515.032	6731.96
515.4	6713.43
515.767	6765.85
516.135	6765.63
516.502	6737.61
516.869	6860.54
517.237	6846.76
517.604	6798.62
517.972	6885.62
518.339	6891.5
518.706	6900.31
519.073	6868.68
519.44	6904.38
519.808	6996.81
520.175	6997.71
520.542	7075.68
520.909	7095.11
521.276	7043.81
521.643	7135.33
522.009	7153.87
522.376	7120.65
522.743	7139.63
523.11	7215.33
523.477	7227.99
523.843	7273.41
524.21	7368.55
524.577	7352.73
524.943	7409.68
525.31	7373.07
525.676	7449.23
526.043	7491.48
526.409	7559.05
526.776	7571.26
527.142	7571.93
527.508	7641.08
527.874	7686.73
528.241	7695.77
528.607	7717.24
528.973	7731.93
529.339	7726.28
529.705	7808.54
530.071	7793.62
530.437	7855.09
530.803	7896.44
531.169	7934.18
531.535	7889.67
531.901	7910.68
532.267	7959.95
532.632	7972.15
532.998	8043.79
533.364	8066.61
533.73	8047.85
534.095	8061.64
534.461	8113.39
534.826	8224.35
535.192	8156.1
535.557	8248.53
535.923	8262.54
536.288	8194.97
536.653	8271.58
537.019	8251.01
537.384	8272.03
537.749	8268.64
538.114	8328.98
538.479	8300.73
538.845	8368.75
539.21	8302.99
539.575	8374.17
539.94	8355.19
540.305	8494.62
540.67	8381.86
541.034	8427.05
541.399	8453.49
541.764	8472.7
542.129	8534.17
542.494	8521.97
542.858	8498.91
543.223	8561.51
543.587	8621.62
543.952	8575.75
544.316	8559.25
544.681	8556.09
545.045	8609.65
545.41	8698.68
545.774	8681.51
546.138	8697.78
546.503	8669.76
546.867	8681.06
547.231	8780.49
547.595	8806.25
547.959	8767.16
548.324	8844.89
548.688	8788.85
549.052	8843.09
549.416	8720.6
549.779	8814.61
550.143	8803.77
550.507	8883.99
550.871	8869.3
551.235	8860.94
551.599	8879.47
551.962	8892.8
552.326	8897.32
552.689	8961.5
553.053	8974.16
553.417	8954.04
553.78	9013.25
554.143	9015.74
554.507	9069.52
554.87	9048.73
555.234	9111.1
555.597	9015.29
555.96	9080.14
556.323	9113.14
556.686	9087.37
557.05	9135.51
557.413	9192.46
557.776	9187.94
558.139	9217.77
558.502	9274.94
558.865	9215.05
559.228	9208.05
559.59	9287.37
559.953	9300.93
560.316	9335.5
560.679	9336.41
561.041	9363.75
561.404	9394.71
561.767	9419.12
562.129	9463.64
562.492	9520.81
562.854	9533.01
563.217	9469.51
563.579	9514.26
563.941	9585.89
564.304	9600.81
564.666	9651.88
565.028	9599.45
565.39	9640.13
565.753	9691.65
566.115	9752.89
566.477	9751.76
566.839	9756.51
567.201	9902.27
567.563	9858.88
567.925	9917.41
568.287	9929.61
568.648	9981.81
569.01	10062.94
569.372	10042.6
569.734	9996.5
570.095	10049.38
570.457	10090.06
570.819	10095.48
571.18	10081.02
571.542	10142.71
571.903	10115.37
572.265	10192.43
572.626	10193.79
572.987	10244.63
573.349	10215.25
573.71	10323.73
574.071	10394.91
574.432	10327.79
574.794	10392.2
575.155	10436.94
575.516	10381.58
575.877	10407.79
576.238	10453.67
576.599	10516.26
576.96	10382.03
577.32	10539.77
577.681	10524.17
578.042	10586.32
578.403	10537.51
578.763	10570.05
579.124	10566.88
579.485	10655.69
579.845	10680.78
580.206	10591.52
580.566	10711.51
580.927	10692.53
581.287	10764.17
581.648	10666.09
582.008	10823.37
582.368	10760.78
582.728	10766.88
583.089	10773.43
583.449	10779.31
583.809	10809.81
584.169	10782.02
584.529	10805.52
584.889	10827.67
585.249	10839.64
585.609	10785.86
585.969	10838.97
586.329	10840.32
586.688	10837.84
587.048	10791.96
587.408	10768.23
587.768	10853.43
588.127	10823.37
588.487	10796.71
588.846	10946.53
589.206	10819.08
589.565	10805.29
589.925	10952.18
590.284	10868.12
590.643	10908.57
591.003	10925.97
591.362	10984.5
591.721	10930.26
592.08	10900.43
592.44	10927.1
592.799	10954.9
593.158	11005.97
593.517	11022.24
593.876	10978.17
594.235	10974.33
594.593	10975.91
594.952	11017.49
595.311	10969.36
595.67	10963.48
596.029	11085.06
596.387	11069.92
596.746	11085.74
597.104	11063.37
597.463	10975.91
597.822	11093.65
598.18	10972.52
598.538	11062.46
598.897	11090.71
599.255	11081.9
599.613	11144.5
599.972	11100.43
600.33	11112.86
600.688	11076.47
601.046	11107.66
601.404	11170.03
601.762	11146.08
602.12	11195.57
602.478	11137.94
602.836	11158.51
603.194	11059.07
603.552	11102.69
603.91	11116.25
604.268	11118.06
604.625	11153.76
604.983	11243.02
605.341	11125.96
605.698	11188.11
606.056	11224.94
606.413	11243.25
606.771	11214.32
607.128	11278.73
607.485	11154.66
607.843	11271.72
608.2	11323.25
608.557	11356.24
608.914	11314.43
609.272	11349.01
609.629	11305.39
609.986	11389.69
610.343	11227.2
610.7	11429.01
611.057	11341.1
611.414	11423.81
611.771	11414.54
612.127	11435.33
612.484	11488.89
612.841	11476.46
613.198	11433.08
613.554	11463.13
613.911	11488.89
614.267	11478.72
614.624	11445.5
614.98	11568.44
615.337	11530.93
615.693	11540.87
616.05	11559.63
616.406	11603.69
616.762	11563.69
617.118	11572.96
617.475	11578.16
617.831	11557.82
618.187	11632.84
618.543	11658.15
618.899	11712.84
619.255	11718.49
619.611	11725.27
619.967	11631.94
620.323	11764.59
620.678	11727.08
621.034	11746.51
621.39	11775.44
621.746	11693.86
622.101	11805.27
622.457	11774.08
622.812	11775.44
623.168	11800.52
623.523	11727.53
623.879	11894.53
624.234	11762.33
624.589	11890.92
624.945	11894.53
625.3	11906.73
625.655	11912.38
626.01	11867.87
626.365	11953.51
626.72	11826.06
627.075	11863.8
627.43	11866.51
627.785	11946.28
628.14	11947.64
628.495	11964.81
628.85	11971.37
629.205	11906.06
629.559	11968.65
629.914	11981.54
630.269	11960.74
630.623	12013.85
630.978	12007.98
631.332	12004.59
631.687	11996.22
632.041	12036.45
632.396	12065.83
632.75	12014.08
633.104	11969.11
633.459	12001.65
633.813	12093.17
634.167	12020.18
634.521	12006.85
634.875	11992.83
635.229	12011.14
635.583	11968.43
635.937	11951.03
636.291	12044.13
636.645	12040.52
636.999	11917.36
637.352	12156.67
637.706	11998.03
638.06	12054.3
638.413	12028.09
638.767	12034.64
639.121	12071.48
639.474	12081.87
639.828	12096.33
640.181	12053.17
640.534	12047.75
640.888	11994.64
641.241	11984.7
641.594	12155.54
641.947	12151.02
642.301	12200.96
642.654	12183.56
643.007	12148.76
643.36	12126.62
643.713	12035.55
644.066	12189.44
644.419	12136.33
644.771	12159.38
645.124	12113.51
645.477	12073.28
645.83	12046.17
646.182	11958.71
646.535	11901.09
646.888	11886.62
647.24	11766.4
647.593	11844.36
647.945	11835.32
648.298	11800.52
648.65	11773.18
649.002	11856.57
649.355	11955.55
649.707	11929.56
650.059	12050.91
650.411	12178.59
650.763	12162.77
651.115	12350.57
651.467	12261.98
651.819	12279.83
652.171	12329.32
652.523	12299.27
652.875	12250.91
653.227	12319.83
653.578	12440.05
653.93	12406.61
654.282	12314.18
654.633	12300.62
654.985	12335.65
655.337	12394.41
655.688	12383.56
656.039	12453.61
656.391	12374.52
656.742	12424.91
657.094	12349.89
657.445	12413.16
657.796	12417.23
658.147	12399.83
658.498	12428.98
658.849	12351.24
659.2	12485.25
659.551	12432.14
659.902	12466.04
660.253	12456.33
660.604	12517.11
660.955	12459.71
661.306	12464.91
661.656	12495.65
662.007	12445.03
662.358	12445.93
662.708	12424.91
663.059	12498.36
663.409	12432.82
663.76	12508.98
664.11	12435.76
664.461	12535.87
664.811	12504.23
665.161	12504.23
665.511	12466.04
665.862	12490.22
666.212	12537.45
666.562	12457.91
666.912	12494.06
667.262	12515.31
667.612	12508.08
667.962	12504.46
668.312	12435.76
668.662	12483.22
669.011	12393.73
669.361	12358.25
669.711	12288.65
670.06	12415.42
670.41	12388.53
670.76	12331.36
671.109	12302.88
671.459	12289.32
671.808	12257.01
672.157	12203.9
672.507	12145.37
672.856	12134.98
673.205	12122.77
673.554	12235.09
673.904	12109.22
674.253	12173.62
674.602	12166.16
674.951	11960.74
675.3	11881.65
675.649	12099.5
675.998	12026.28
676.346	12025.83
676.695	12129.78
677.044	11966.85
677.393	11935.21
677.741	11971.14
678.09	11970.24
678.438	11940.18
678.787	11887.98
679.135	11932.95
679.484	11793.74
679.832	11864.48
680.181	11787.87
680.529	11776.34
680.877	11683.92
681.225	11763.46
681.573	11843.23
681.922	11650.02
682.27	11659.96
682.618	11636.46
682.966	11557.14
683.314	11622
683.661	11613.64
684.009	11525.05
684.357	11511.94
684.705	11454.32
685.053	11494.09
685.4	11422
685.748	11443.02
686.095	11452.28
686.443	11365.05
686.79	11358.5
687.138	11300.42
687.485	11433.3
687.832	11323.93
688.18	11299.75
688.527	11288.9
688.874	11303.59
689.221	11204.15
689.568	11223.59
689.915	11255.68
690.262	11273.98
690.609	11175.91
690.956	11219.52
691.303	11157.83
691.65	11106.53
691.997	11130.26
692.344	11117.15
692.69	11095.46
693.037	11088.45
693.383	11057.27
693.73	11058.85
694.077	10993.99
694.423	10996.7
694.769	10963.26
695.116	10931.62
695.462	10870.83
695.808	10877.16
696.155	10859.53
696.501	10884.61
696.847	10935.46
697.193	10755.13
697.539	10890.04
697.885	10720.78
698.231	10749.25
698.577	10713.77
698.923	10730.49
699.269	10725.3
699.614	10746.09
699.96	10706.54
700.306	10671.97
700.651	10580.22
700.997	10609.14
701.342	10636.49
701.688	10584.06
702.033	10577.28
702.379	10625.41
702.724	10565.08
703.069	10587.9
703.415	10543.15
703.76	10589.71
704.105	10564.4
704.45	10577.28
704.795	10513.1
705.14	10481.01
705.485	10515.81
705.83	10426.32
706.175	10530.27
706.52	10462.25
706.865	10439.43
707.209	10432.88
707.554	10414.57
707.899	10418.64
708.243	10418.19
708.588	10360.11
708.932	10338.87
709.277	10358.75
709.621	10371.86
709.966	10277.85
710.31	10331.41
710.654	10274.24
710.998	10244.63
711.342	10299.09
711.687	10271.3
712.031	10218.64
712.375	10242.6
712.719	10186.1
713.063	10210.28
713.407	10252.32
713.75	10265.42
714.094	10262.48
714.438	10180.45
714.782	10195.59
715.125	10128.7
715.469	10203.05
715.812	10178.42
716.156	10075.82
716.499	10061.36
716.843	10052.32
717.186	10087.35
717.53	10081.47
717.873	10166.67
718.216	10123.51
718.559	10055.94
718.902	10048.7
719.246	10038.76
719.589	10045.09
719.932	9962.15
720.275	9977.75
720.617	10050.96
720.96	10000.34
721.303	9931.65
721.646	10050.06
721.989	9955.83
722.331	10058.65
722.674	9957.18
723.016	10050.74
723.359	10020
723.701	9988.82
724.044	9945.66
724.386	9934.13
724.729	9906.79
725.071	9916.73
725.413	9897.97
725.755	9884.42
726.097	9861.14
726.439	9879.44
726.782	9885.55
727.124	9917.86
727.465	9911.76
727.807	9913.34
728.149	9892.1
728.491	9881.03
728.833	9925.54
729.175	9944.07
729.516	9933.91
729.858	9923.74
730.199	9959.22
730.541	9929.16
730.882	9885.55
731.224	9933.68
731.565	9910.86
731.906	9914.7
732.248	9938.43
732.589	9899.33
732.93	9846.45
733.271	9866.11
733.612	9926
733.953	9935.49
734.294	9953.34
734.635	9893.68
734.976	9970.97
735.317	9926.22
735.658	9942.27
735.999	9947.69
736.339	9983.4
736.68	10002.83
737.021	9987.01
737.361	9937.3
737.702	10002.6
738.042	10025.2
738.383	10017.97
738.723	10018.87
739.063	10045.99
739.404	10091.19
739.744	10065.43
740.084	10051.87
740.424	10082.38
740.764	10129.38
741.104	10050.74
741.444	10113.11
741.784	10079.66
742.124	10180.68
742.464	10114.24
742.804	10228.81
743.143	10160.34
743.483	10242.6
743.823	10173.45
744.162	10180
744.502	10241.92
744.841	10321.47
745.181	10302.71
745.52	10236.27
745.86	10360.11
746.199	10371.63
746.538	10363.5
746.877	10429.94
747.216	10424.51
747.556	10403.72
747.895	10369.15
748.234	10380.45
748.573	10437.85
748.911	10476.49
749.25	10549.71
749.589	10473.1
749.928	10537.73
750.267	10605.75
750.605	10561.91
750.944	10678.97
751.283	10598.75
751.621	10610.05
751.96	10568.47
752.298	10756.48
752.636	10690.04
752.975	10724.85
753.313	10667.45
753.651	10786.76
753.989	10687.78
754.327	10746.09
754.666	10755.8
755.004	10786.09
755.342	10880.32
755.679	10861.34
756.017	10798.06
756.355	10909.25
756.693	10837.38
757.031	10942.47
757.368	10895.69
757.706	10914.9
758.044	10952.64
758.381	10964.84
758.719	10921.9
759.056	11001.9
