Data from blue_shiny_book_FLMS001491_00097.txt Node
Date: Wed Feb 08 15:27:48 GMT 2017
User: dcchb
Spectrometer: FLMS00149
Trigger mode: 0
Integration Time (sec): 2.000000E-2
Scans to average: 10
Electric dark correction enabled: true
Nonlinearity correction enabled: false
Boxcar width: 0
XAxis mode: Wavelengths
Number of Pixels in Spectrum: 2048
>>>>>Begin Spectral Data<<<<<
341.393	-9.9
341.776	-9.9
342.16	-9.9
342.543	-55.32
342.927	-63.68
343.31	-64.81
343.693	-65.72
344.077	-96.9
344.46	-61.88
344.843	-56
345.226	-38.15
345.61	-16.23
345.993	-23.01
346.376	-18.71
346.759	4.56
347.142	27.39
347.525	66.26
347.908	68.29
348.291	63.77
348.674	97.89
349.057	113.26
349.44	143.54
349.823	136.54
350.206	166.59
350.588	192.13
350.971	212.69
351.354	212.92
351.737	238.23
352.119	239.58
352.502	267.38
352.884	286.36
353.267	277.78
353.65	295.63
354.032	301.96
354.414	322.29
354.797	297.44
355.179	323.65
355.562	327.94
355.944	323.2
356.326	336.3
356.709	346.93
357.091	346.25
357.473	359.13
357.855	356.42
358.238	351.45
358.62	345.8
359.002	345.12
359.384	349.64
359.766	356.87
360.148	361.16
360.53	357.77
360.912	331.11
361.294	342.86
361.676	342.86
362.057	340.6
362.439	361.39
362.821	312.12
363.203	316.87
363.584	344.44
363.966	328.4
364.348	331.33
364.729	334.5
365.111	312.35
365.493	338.11
365.874	349.64
366.256	331.79
366.637	307.6
367.019	355.97
367.4	327.72
367.781	343.99
368.163	331.56
368.544	321.16
368.925	321.84
369.306	313.25
369.688	329.3
370.069	303.31
370.45	324.1
370.831	320.49
371.212	328.62
371.593	311.22
371.974	336.53
372.355	338.11
372.736	327.27
373.117	320.94
373.498	323.42
373.879	337.21
374.26	331.11
374.641	339.02
375.021	340.15
375.402	335.85
375.783	334.95
376.163	353.25
376.544	359.81
376.925	320.71
377.305	348.06
377.686	372.24
378.066	331.79
378.447	343.99
378.827	348.96
379.208	350.99
379.588	356.19
379.968	368.17
380.349	363.65
380.729	371.11
381.109	355.51
381.489	379.47
381.87	327.94
382.25	359.35
382.63	361.84
383.01	376.76
383.39	370.43
383.77	377.21
384.15	391.9
384.53	386.47
384.91	382.41
385.29	374.95
385.67	390.31
386.049	385.34
386.429	404.78
386.809	374.72
387.189	398.45
387.568	385.34
387.948	405.46
388.328	401.16
388.707	414.04
389.087	405.46
389.466	412.69
389.846	443.42
390.225	413.36
390.605	449.07
390.984	424.44
391.363	436.64
391.743	446.81
392.122	440.26
392.501	440.93
392.881	464.89
393.26	450.43
393.639	427.38
394.018	454.49
394.397	433.25
394.776	456.98
395.155	468.96
395.534	460.14
395.913	452.01
396.292	472.35
396.671	469.18
397.05	476.19
397.429	477.77
397.808	475.74
398.186	476.87
398.565	466.24
398.944	497.43
399.323	472.8
399.701	494.27
400.08	504.44
400.458	504.89
400.837	516.41
401.215	520.71
401.594	505.57
401.972	524.77
402.351	523.42
402.729	532.46
403.107	543.08
403.486	567.71
403.864	570.65
404.242	545.11
404.62	575.62
404.999	544.21
405.377	578.33
405.755	583.53
406.133	579.69
406.511	575.17
406.889	598.22
407.267	614.26
407.645	604.32
408.023	610.65
408.401	604.09
408.779	616.07
409.156	630.53
409.534	657.65
409.912	654.26
410.29	648.84
410.667	700.14
411.045	676.86
411.422	670.08
411.8	681.15
412.178	697.2
412.555	729.29
412.933	704.43
413.31	728.38
413.687	760.02
414.065	764.54
414.442	772.68
414.819	741.27
415.197	772.23
415.574	751.44
415.951	804.77
416.328	800.7
416.705	810.19
417.082	838.44
417.46	818.1
417.837	844.54
418.214	835.05
418.591	835.5
418.967	874.14
419.344	828.04
419.721	846.12
420.098	873.69
420.475	889.51
420.852	899.91
421.228	901.04
421.605	911.66
421.982	959.57
422.358	955.05
422.735	960.47
423.111	943.07
423.488	978.1
423.864	979
424.241	987.81
424.617	983.07
424.994	995.27
425.37	1011.77
425.746	1015.38
426.123	1049.51
426.499	1031.2
426.875	1050.18
427.251	1096.28
427.627	1112.56
428.003	1134.25
428.379	1134.48
428.756	1150.75
429.132	1154.36
429.507	1147.36
429.883	1171.54
430.259	1215.83
430.635	1199.33
431.011	1243.85
431.387	1264.87
431.763	1275.49
432.138	1288.14
432.514	1276.84
432.89	1300.8
433.265	1315.26
433.641	1342.38
434.016	1328.14
434.392	1356.84
434.767	1416.5
435.143	1423.28
435.518	1418.99
435.894	1449.95
436.269	1487.01
436.644	1489.49
437.02	1522.04
437.395	1506.22
437.77	1520.23
438.145	1546.22
438.52	1563.84
438.895	1558.87
439.271	1591.86
439.646	1648.59
440.021	1676.61
440.395	1653.33
440.77	1642.26
441.145	1697.17
441.52	1711.64
441.895	1704.86
442.27	1754.8
442.645	1757.74
443.019	1761.8
443.394	1767.45
443.769	1771.52
444.143	1754.57
444.518	1800.67
444.892	1801.12
445.267	1847
445.641	1859.65
446.016	1862.14
446.39	1896.72
446.764	1894.91
447.139	1851.97
447.513	1924.96
447.887	1918.41
448.262	1913.44
448.636	1970.61
449.01	1978.75
449.384	2014.68
449.758	2022.59
450.132	2033.66
450.506	2066.65
450.88	2074.11
451.254	2052.87
451.628	2080.89
452.002	2123.6
452.376	2162.25
452.75	2175.58
453.123	2171.96
453.497	2234.79
453.871	2225.29
454.244	2217.84
454.618	2293.77
454.992	2349.36
455.365	2335.57
455.739	2382.13
456.112	2417.15
456.486	2449.24
456.859	2461.9
457.232	2519.52
457.606	2524.72
457.979	2536.47
458.352	2573.31
458.725	2613.31
459.099	2658.05
459.472	2692.17
459.845	2743.25
460.218	2711.16
460.591	2763.81
460.964	2776.24
461.337	2847.88
461.71	2919.97
462.083	2962.68
462.456	2976.01
462.829	2999.06
463.201	3053.75
463.574	3036.12
463.947	3084.03
464.32	3142.11
464.692	3213.29
465.065	3224.59
465.438	3255.78
465.81	3289.9
466.183	3345.94
466.555	3430.91
466.928	3480.18
467.3	3467.97
467.672	3527.18
468.045	3594.75
468.417	3639.49
468.789	3658.03
469.161	3731.92
469.534	3742.09
469.906	3808.98
470.278	3842.88
470.65	3912.48
471.022	3959.71
471.394	4071.12
471.766	4120.16
472.138	4107.96
472.51	4219.37
472.882	4328.52
473.253	4377.33
473.625	4384.79
473.997	4537.1
474.369	4516.31
474.74	4575.97
475.112	4668.39
475.484	4691.44
475.855	4822.51
476.227	4875.62
476.598	4981.38
476.97	5059.57
477.341	5144.99
477.713	5208.49
478.084	5253.69
478.455	5465.44
478.827	5510.86
479.198	5599.67
479.569	5651.42
479.94	5775.48
480.311	5800.12
480.682	5962.37
481.053	6074.91
481.424	6134.57
481.795	6235.36
482.166	6312.42
482.537	6435.81
482.908	6604.16
483.279	6595.35
483.65	6802.35
484.021	6907.66
484.391	6971.84
484.762	7055
485.133	7170.25
485.503	7259.96
485.874	7353.75
486.244	7464.48
486.615	7599.84
486.985	7694.3
487.356	7842.77
487.726	7873.51
488.097	8048.87
488.467	8057.46
488.837	8246.61
489.207	8400.95
489.578	8530.89
489.948	8508.75
490.318	8739.02
490.688	8852.92
491.058	8969.75
491.428	9118.45
491.798	9193.47
492.168	9352.34
492.538	9394.6
492.908	9480.47
493.278	9595.27
493.648	9600.92
494.017	9750.29
494.387	9867.81
494.757	9945.54
495.126	10018.54
495.496	10166.1
495.866	10240.45
496.235	10348.02
496.605	10472.08
496.974	10588.92
497.344	10673.66
497.713	10805.86
498.082	10867.55
498.452	11092.63
498.821	11036.36
499.19	11022.13
499.559	11148.45
499.928	11171.05
500.298	11260.09
500.667	11345.28
501.036	11328.11
501.405	11444.04
501.774	11540.76
502.143	11655.78
502.512	11738.04
502.88	11823.69
503.249	11919.95
503.618	12057.13
503.987	12084.02
504.356	12162.43
504.724	12302.54
505.093	12350.9
505.462	12512.48
505.83	12464.57
506.199	12574.4
506.567	12636.09
506.936	12725.58
507.304	12842.19
507.672	12873.15
508.041	12914.96
508.409	13067.5
508.777	13133.03
509.145	13364.89
509.514	13479.91
509.882	13530.76
510.25	13657.54
510.618	13737.31
510.986	13724.88
511.354	13981.82
511.722	14086.9
512.09	14120.8
512.458	14187.92
512.826	14291.64
513.193	14332.55
513.561	14282.38
513.929	14496.61
514.297	14464.52
514.664	14604.63
515.032	14692.76
515.4	14799.43
515.767	14933.21
516.135	15119.19
516.502	14968.46
516.869	15283.26
517.237	15341.79
517.604	15377.04
517.972	15647.09
518.339	15818.61
518.706	15771.61
519.073	15750.36
519.44	15872.39
519.808	16083.46
520.175	16016.8
520.542	16259.5
520.909	16235.1
521.276	16330.23
521.643	16454.75
522.009	16622.66
522.376	16734.07
522.743	16785.59
523.11	16938.81
523.477	17073.04
523.843	17348.29
524.21	17540.15
524.577	17881.61
524.943	17967.25
525.31	17899.01
525.676	18133.8
526.043	18215.16
526.409	18362.95
526.776	18414.93
527.142	18469.84
527.508	18475.94
527.874	18603.85
528.241	18737.85
528.607	18796.61
528.973	19037.51
529.339	18914.57
529.705	19184.17
530.071	19358.86
530.437	19503.94
530.803	19749.13
531.169	19806.3
531.535	19889.24
531.901	19871.16
532.267	20117.25
532.632	20338.94
532.998	20396.12
533.364	20573.96
533.73	20683.34
534.095	20749.1
534.461	20714.75
534.826	20758.82
535.192	20750.91
535.557	20912.94
535.923	20904.8
536.288	20904.8
536.653	21025.25
537.019	20920.85
537.384	21080.62
537.749	21253.49
538.114	21415.52
538.479	21471.57
538.845	21676.76
539.21	21651.45
539.575	21930.09
539.94	21980.48
540.305	22147.26
540.67	21991.33
541.034	22151.55
541.399	22185.45
541.764	22263.41
542.129	22277.42
542.494	22304.31
542.858	22352
543.223	22360.58
543.587	22323.75
543.952	22293.24
544.316	22334.14
544.681	22554.7
545.045	22533.01
545.41	22742.95
545.774	22706.79
546.138	22757.64
546.503	22913.79
546.867	23057.74
547.231	23283.05
547.595	23279.2
547.959	23446.66
548.324	23456.15
548.688	23542.7
549.052	23686.88
549.416	23560.78
549.779	23649.14
550.143	23604.17
550.507	23609.37
550.871	23764.39
551.235	23568.24
551.599	23672.64
551.962	23835.35
552.326	23768.68
552.689	23948.79
553.053	23800.32
553.417	23936.81
553.78	24362.57
554.143	24192.4
554.507	24498.38
554.87	24541.09
555.234	24744.48
555.597	24739.05
555.96	24845.72
556.323	24953.96
556.686	25040.29
557.05	25028.76
557.413	25164.8
557.776	25231.7
558.139	25196.67
558.502	25167.06
558.865	25190.34
559.228	25290
559.59	25311.02
559.953	25221.98
560.316	25484.8
560.679	25521.63
561.041	25706.71
561.404	25901.28
561.767	26033.48
562.129	25920.49
562.492	26290.65
562.854	26270.99
563.217	26432.12
563.579	26622.85
563.941	26963.85
564.304	27040.91
564.666	27098.76
565.028	27055.15
565.39	27186.45
565.753	27396.61
566.115	27437.74
566.477	27487.68
566.839	27494.23
567.201	27536.72
567.563	27382.15
567.925	27568.13
568.287	27579.43
568.648	27537.85
569.01	27637.96
569.372	27835.47
569.734	27752.31
570.095	28051.28
570.457	28169.92
570.819	28280.65
571.18	28327.43
571.542	28429.13
571.903	28599.52
572.265	28857.59
572.626	28791.15
572.987	28996.34
573.349	29140.07
573.71	29203.34
574.071	29354.52
574.432	29364.47
574.794	29508.87
575.155	29431.13
575.516	29368.54
575.877	29321.08
576.238	29330.57
576.599	29436.33
576.96	29397.01
577.32	29382.09
577.681	29631.58
578.042	29500.51
578.403	29628.19
578.763	29675.19
579.124	29769.2
579.485	29942.53
579.845	30039.25
580.206	29999.71
580.566	30116.31
580.927	30321.05
581.287	30405.57
581.648	30338.23
582.008	30561.72
582.368	30567.15
582.728	30732.79
583.089	30598.33
583.449	30552.01
583.809	30626.36
584.169	30724.43
584.529	30568.73
584.889	30806.46
585.249	30470.2
585.609	30574.15
585.969	30584.1
586.329	30592.46
586.688	30420.71
587.048	30492.57
587.408	30337.1
587.768	30373.26
588.127	30386.59
588.487	30376.87
588.846	30702.29
589.206	30596.3
589.565	30618.45
589.925	30678.78
590.284	30726.69
590.643	30875.16
591.003	30958.32
591.362	31118.09
591.721	31035.38
592.08	31112.9
592.44	31183.4
592.799	31264.53
593.158	31294.81
593.517	31282.38
593.876	31185.66
594.235	31214.81
594.593	31117.64
594.952	31184.08
595.311	30968.27
595.67	30929.85
596.029	31290.29
596.387	31129.17
596.746	31161.71
597.104	30914.94
597.463	31031.32
597.822	31107.92
598.18	31013.24
598.538	30946.57
598.897	31250.52
599.255	31093.46
599.613	31514.92
599.972	31298.2
600.33	31575.48
600.688	31561.25
601.046	31600.34
601.404	31717.17
601.762	31669.49
602.12	31790.39
602.478	31778.87
602.836	31881.01
603.194	31697.97
603.552	31810.96
603.91	31808.02
604.268	31759.66
604.625	31536.39
604.983	31594.47
605.341	31441.25
605.698	31541.81
606.056	31713.33
606.413	31563.28
606.771	31810.05
607.128	31692.99
607.485	31624.3
607.843	31720.11
608.2	31869.71
608.557	32054.11
608.914	31966.43
609.272	32194.22
609.629	32250.27
609.986	32318.97
610.343	32232.19
610.7	32317.84
611.057	32428.34
611.414	32479.19
611.771	32527.32
612.127	32732.97
612.484	32765.06
612.841	32811.16
613.198	32672.4
613.554	32725.96
613.911	32862.91
614.267	32867.88
614.624	32751.95
614.98	32852.51
615.337	32933.87
615.693	32942.9
616.05	32702.46
616.406	32845.73
616.762	32685.74
617.118	32694.32
617.475	32758.5
617.831	32789.69
618.187	32771.16
618.543	32885.73
618.899	33032.85
619.255	33019.97
619.611	33151.04
619.967	33200.53
620.323	33282.11
620.678	33191.94
621.034	33283.69
621.39	33247.3
621.746	33213.86
622.101	33565.94
622.457	33384.25
622.812	33563.91
623.168	33611.36
623.523	33649.1
623.879	33677.35
624.234	33476.68
624.589	33660.17
624.945	33640.29
625.3	33669.67
625.655	33589.67
626.01	33535.88
626.365	33426.28
626.72	33354.19
627.075	33461.99
627.43	33301.77
627.785	33236.68
628.14	33236.68
628.495	33223.8
628.85	33188.32
629.205	33157.59
629.559	33182.22
629.914	33085.5
630.269	33227.64
630.623	33150.13
630.978	33098.61
631.332	33368.66
631.687	33412.05
632.041	33341.09
632.396	33372.95
632.75	33257.02
633.104	33196.91
633.459	33166.63
633.813	33272.39
634.167	33254.99
634.521	33101.09
634.875	33221.09
635.229	33147.42
635.583	33061.77
635.937	33184.48
636.291	33002.34
636.645	33032.85
636.999	32952.85
637.352	32989.01
637.706	32589.24
638.06	32907.2
638.413	32779.75
638.767	32584.5
639.121	32435.35
639.474	32212.75
639.828	32363.26
640.181	32333.88
640.534	32313.32
640.888	32105.41
641.241	32105.64
641.594	32316.03
641.947	32310.83
642.301	32250.04
642.654	32272.41
643.007	32303.37
643.36	32345.41
643.713	32282.13
644.066	32472.86
644.419	32373.88
644.771	32349.7
645.124	32237.61
645.477	32157.16
645.83	32113.55
646.182	31848.7
646.535	31515.82
646.888	31339.78
647.24	31206.68
647.593	31311.08
647.945	30974.37
648.298	30929.17
648.65	31011.88
649.002	30851.66
649.355	31015.27
649.707	30994.26
650.059	31216.17
650.411	31532.09
650.763	31478.76
651.115	31758.76
651.467	31541.13
651.819	31610.06
652.171	31519.21
652.523	31420.91
652.875	31422.27
653.227	31402.38
653.578	31678.08
653.93	31617.06
654.282	31412.1
654.633	31370.06
654.985	31438.54
655.337	31395.83
655.688	31490.97
656.039	31585.65
656.391	31415.26
656.742	31537.07
657.094	31542.49
657.445	31935.02
657.796	31793.33
658.147	31606.67
658.498	31644.86
658.849	31777.96
659.2	31789.49
659.551	31649.61
659.902	31778.64
660.253	31606.89
660.604	31593.56
660.955	31392.89
661.306	31504.75
661.656	31433.79
662.007	31292.55
662.358	31283.06
662.708	31354.25
663.059	31243.51
663.409	31027.25
663.76	31213.91
664.11	30986.35
664.461	31033.8
664.811	30879
665.161	30850.3
665.511	30887.82
665.862	31021.6
666.212	31250.75
666.562	31221.37
666.912	31119.9
667.262	31162.84
667.612	31307.92
667.962	31384.98
668.312	31389.95
668.662	31603.05
669.011	31534.58
669.361	31602.6
669.711	31425.66
670.06	31413.23
670.41	31387.69
670.76	31362.61
671.109	31349.73
671.459	31344.08
671.808	31098.43
672.157	31351.31
672.507	31011.66
672.856	31026.12
673.205	31089.85
673.554	30989.28
673.904	30800.59
674.253	31032.9
674.602	30879.46
674.951	30263.88
675.3	30186.59
675.649	30685.11
675.998	30511.1
676.346	30446.7
676.695	30499.58
677.044	30202.86
677.393	30312.69
677.741	30374.16
678.09	30339.36
678.438	30218.23
678.787	30375.97
679.135	30267.04
679.484	30078.57
679.832	30238.57
680.181	30222.75
680.529	30307.04
680.877	30369.19
681.225	30492.12
681.573	30603.98
681.922	30339.58
682.27	30326.02
682.618	30366.02
682.966	30262.98
683.314	30320.6
683.661	30213.49
684.009	30067.27
684.357	30019.37
684.705	29902.53
685.053	29958.8
685.4	29967.39
685.748	29701.41
686.095	29634.52
686.443	29521.07
686.79	29447.4
687.138	29454.18
687.485	29214.64
687.832	29071.82
688.18	29211.25
688.527	28899.17
688.874	28823.24
689.221	28662.79
689.568	28614.21
689.915	28520.2
690.262	28587.54
690.609	28469.58
690.956	28353.2
691.303	28300.09
691.65	28123.6
691.997	28100.77
692.344	27894
692.69	27977.61
693.037	27906.65
693.383	27813.1
693.73	27860.78
694.077	27902.36
694.423	27984.84
694.769	27818.07
695.116	27704.62
695.462	27667.56
695.808	27614.46
696.155	27682.48
696.501	27567.23
696.847	27508.7
697.193	27341.47
697.539	27303.51
697.885	27215.82
698.231	27032.1
698.577	26956.85
698.923	26982.38
699.269	26833.01
699.614	26780.58
699.96	26679.34
700.306	26521.38
700.651	26325.9
700.997	26286.81
701.342	26103.08
701.688	25979.25
702.033	25824.9
702.379	25837.33
702.724	25686.37
703.069	25659.03
703.415	25425.59
703.76	25508.98
704.105	25464.23
704.45	25458.36
704.795	25204.13
705.14	25179.72
705.485	25074.19
705.83	25079.83
706.175	25160.96
706.52	25125.48
706.865	25113.73
707.209	25211.58
707.554	25140.85
707.899	25218.59
708.243	25045.71
708.588	25008.88
708.932	24943.79
709.277	24969.78
709.621	25031.25
709.966	24812.05
710.31	24908.31
710.654	24712.61
710.998	24731.14
711.342	24692.5
711.687	24626.74
712.031	24465.16
712.375	24381.1
712.719	24372.06
713.063	24232.63
713.407	24238.5
713.75	24146.07
714.094	23937.72
714.438	23868.34
714.782	23857.95
715.125	23758.06
715.469	23671.28
715.812	23515.81
716.156	23372.54
716.499	23366.21
716.843	23351.29
717.186	23164.41
717.53	23400.33
717.873	23376.6
718.216	23208.47
718.559	23069.72
718.902	22935.71
719.246	23242.82
719.589	23037.4
719.932	22992.43
720.275	22945.65
720.617	23070.4
720.96	23127.8
721.303	23109.04
721.646	23178.42
721.989	23213.9
722.331	23274.23
722.674	23178.42
723.016	23362.59
723.359	23209.38
723.701	23216.16
724.044	23110.4
724.386	22968.93
724.729	23152.65
725.071	22970.96
725.413	23078.31
725.755	23000.34
726.097	23047.8
726.439	22859.78
726.782	22717.64
727.124	22944.75
727.465	22639.67
727.807	22664.98
728.149	22555.38
728.491	22664.53
728.833	22675.83
729.175	22512.9
729.516	22458.43
729.858	22537.53
730.199	22495.27
730.541	22551.31
730.882	22521.26
731.224	22368.04
731.565	22280.59
731.906	22273.81
732.248	22342.28
732.589	22222.96
732.93	22265.22
733.271	22290.53
733.612	22309.06
733.953	22321.49
734.294	22217.54
734.635	22337.08
734.976	22295.5
735.317	22227.48
735.658	22299.34
735.999	22357.42
736.339	22326.23
736.68	22494.37
737.021	22351.09
737.361	22358.78
737.702	22465.89
738.042	22467.47
738.383	22406.23
738.723	22441.26
739.063	22505.67
739.404	22489.17
739.744	22648.03
740.084	22511.31
740.424	22540.92
740.764	22528.94
741.104	22647.36
741.444	22492.78
741.784	22434.48
742.124	22620.46
742.464	22430.87
742.804	22432.45
743.143	22548.83
743.483	22419.79
743.823	22217.99
744.162	22385.67
744.502	22436.06
744.841	22301.83
745.181	22377.31
745.52	22265.9
745.86	22346.57
746.199	22340.92
746.538	22254.6
746.877	22368.04
747.216	22393.35
747.556	22232.9
747.895	22337.76
748.234	22341.38
748.573	22383.18
748.911	22444.88
749.25	22454.14
749.589	22442.16
749.928	22479.9
750.267	22617.98
750.605	22455.27
750.944	22689.39
751.283	22480.58
751.621	22644.42
751.96	22694.59
752.298	22695.26
752.636	22814.13
752.975	22691.2
753.313	22733.91
753.651	22956.95
753.989	22795.83
754.327	22923.96
