Data from blue_chair_FLMS001491_00043.txt Node
Date: Wed Feb 08 10:30:53 GMT 2017
User: dcchb
Spectrometer: FLMS00149
Trigger mode: 0
Integration Time (sec): 2.000000E-2
Scans to average: 10
Electric dark correction enabled: true
Nonlinearity correction enabled: false
Boxcar width: 0
XAxis mode: Wavelengths
Number of Pixels in Spectrum: 2048
>>>>>Begin Spectral Data<<<<<
341.393	16.07
341.776	16.07
342.16	16.07
342.543	-54.66
342.927	-43.59
343.31	-71.61
343.693	-72.96
344.077	-56.47
344.46	-63.7
344.843	-45.62
345.226	-25.73
345.61	-21.67
345.993	-20.76
346.376	-0.65
346.759	-10.14
347.142	30.54
347.525	52.68
347.908	50.65
348.291	74.38
348.674	95.62
349.057	85.45
349.44	121.61
349.823	138.1
350.206	141.04
350.588	172.68
350.971	219.01
351.354	217.42
351.737	233.47
352.119	226.24
352.502	250.64
352.884	250.64
353.267	252.45
353.65	278.44
354.032	285.22
354.414	284.77
354.797	306.23
355.179	294.48
355.562	317.53
355.944	300.59
356.326	316.18
356.709	306.91
357.091	314.6
357.473	332.67
357.855	327.03
358.238	307.36
358.62	316.86
359.002	336.29
359.384	324.99
359.766	333.58
360.148	329.74
360.53	332.22
360.912	307.59
361.294	308.27
361.676	306.91
362.057	320.7
362.439	313.47
362.821	329.74
363.203	300.36
363.584	314.82
363.966	314.82
364.348	292.68
364.729	313.69
365.111	312.11
365.493	294.26
365.874	305.33
366.256	282.73
366.637	292
367.019	283.41
367.4	278.21
367.781	285.22
368.163	286.12
368.544	294.03
368.925	297.87
369.306	305.33
369.688	280.47
370.069	310.98
370.45	295.61
370.831	294.03
371.212	286.8
371.593	294.71
371.974	287.03
372.355	276.63
372.736	289.74
373.117	311.66
373.498	269.85
373.879	278.66
374.26	306.69
374.641	278.89
375.021	289.74
375.402	294.94
375.783	293.35
376.163	309.17
376.544	292.9
376.925	300.59
377.305	302.85
377.686	321.6
378.066	289.29
378.447	325.9
378.827	310.75
379.208	316.86
379.588	313.01
379.968	299.68
380.349	283.18
380.729	304.43
381.109	285.22
381.489	292.68
381.87	318.21
382.25	281.38
382.63	307.82
383.01	333.13
383.39	310.75
383.77	325.44
384.15	296.97
384.53	324.99
384.91	335.16
385.29	322.28
385.67	316.86
386.049	305.33
386.429	326.35
386.809	314.6
387.189	334.48
387.568	342.62
387.948	327.03
388.328	321.15
388.707	332.9
389.087	305.56
389.466	352.56
389.846	320.92
390.225	334.71
390.605	320.25
390.984	323.86
391.363	320.92
391.743	328.16
392.122	356.18
392.501	347.14
392.881	327.48
393.26	346.46
393.639	339
394.018	362.05
394.397	343.07
394.776	328.61
395.155	355.73
395.534	324.31
395.913	337.65
396.292	350.08
396.671	371.77
397.05	339.68
397.429	359.11
397.808	351.88
398.186	356.86
398.565	383.07
398.944	359.11
399.323	336.97
399.701	383.97
400.08	368.61
400.458	378.55
400.837	382.39
401.215	368.61
401.594	351.88
401.972	371.54
402.351	386.23
402.729	366.35
403.107	382.84
403.486	375.16
403.864	381.71
404.242	388.27
404.62	398.89
404.999	371.09
405.377	390.75
405.755	400.92
406.133	391.88
406.511	404.99
406.889	413.58
407.267	427.14
407.645	401.37
408.023	425.78
408.401	388.27
408.779	413.12
409.156	416.51
409.534	415.84
409.912	431.2
410.29	430.75
410.667	427.59
411.045	454.25
411.422	432.56
411.8	448.6
412.178	451.09
412.555	452.9
412.933	447.7
413.31	473.01
413.687	442.73
414.065	450.86
414.442	456.97
414.819	472.56
415.197	474.59
415.574	470.07
415.951	472.33
416.328	495.38
416.705	473.24
417.082	478.21
417.46	480.24
417.837	486.8
418.214	484.99
418.591	499.68
418.967	512.11
419.344	499.45
419.721	503.97
420.098	502.39
420.475	496.74
420.852	506.68
421.228	481.82
421.605	501.03
421.982	510.07
422.358	527.02
422.735	530.41
423.111	535.16
423.488	553.01
423.864	548.26
424.241	572.44
424.617	549.62
424.994	551.43
425.37	580.35
425.746	579.22
426.123	593.46
426.499	588.04
426.875	597.53
427.251	621.93
427.627	593.91
428.003	598.66
428.379	611.76
428.756	626
429.132	609.28
429.507	622.16
429.883	625.77
430.259	636.17
430.635	637.3
431.011	628.71
431.387	637.98
431.763	652.44
432.138	675.94
432.514	658.77
432.89	679.56
433.265	678.43
433.641	720.69
434.016	704.42
434.392	701.48
434.767	735.38
435.143	713.91
435.518	725.88
435.894	743.51
436.269	753.68
436.644	775.38
437.02	784.19
437.395	802.49
437.77	794.58
438.145	816.96
438.52	798.43
438.895	811.53
439.271	827.8
439.646	842.49
440.021	849.95
440.395	854.02
440.77	871.87
441.145	889.04
441.52	899.67
441.895	895.37
442.27	891.76
442.645	917.52
443.019	930.85
443.394	935.14
443.769	966.33
444.143	937.86
444.518	952.32
444.892	954.35
445.267	970.85
445.641	979.44
446.016	954.81
446.39	983.73
446.764	997.97
447.139	988.7
447.513	998.42
447.887	1006.33
448.262	1006.56
448.636	1010.17
449.01	1033.22
449.384	1014.46
449.758	1054.46
450.132	1064.41
450.506	1054.01
450.88	1063.28
451.254	1075.48
451.628	1089.27
452.002	1103.73
452.376	1100.34
452.75	1120.9
453.123	1115.71
453.497	1137.17
453.871	1144.4
454.244	1132.65
454.618	1138.3
454.992	1201.35
455.365	1195.93
455.739	1196.61
456.112	1217.85
456.486	1226.89
456.859	1232.99
457.232	1238.64
457.606	1262.59
457.979	1276.38
458.352	1301.24
458.725	1301.91
459.099	1320.45
459.472	1337.17
459.845	1348.69
460.218	1352.54
460.591	1355.02
460.964	1355.02
461.337	1373.78
461.71	1407.22
462.083	1408.35
462.456	1430.73
462.829	1426.66
463.201	1442.25
463.574	1465.3
463.947	1440.44
464.32	1503.49
464.692	1496.71
465.065	1510.72
465.438	1507.79
465.81	1566.09
466.183	1548.91
466.555	1580.78
466.928	1553.43
467.3	1575.81
467.672	1597.5
468.045	1621
468.417	1666.43
468.789	1656.26
469.161	1668.68
469.534	1689.93
469.906	1718.18
470.278	1761.34
470.65	1759.08
471.022	1774.9
471.394	1797.04
471.766	1778.74
472.138	1827.55
472.51	1846.08
472.882	1883.59
473.253	1902.58
473.625	1912.52
473.997	1962.69
474.369	1934.21
474.74	1961.78
475.112	1958.85
475.484	2020.09
475.855	2071.39
476.227	2034.1
476.598	2058.05
476.97	2096.24
477.341	2118.16
477.713	2172.17
478.084	2183.47
478.455	2236.35
478.827	2208.78
479.198	2267.77
479.569	2282
479.94	2286.3
480.311	2322.45
480.682	2354.99
481.053	2423.92
481.424	2447.87
481.795	2457.36
482.166	2473.64
482.537	2499.85
482.908	2508.44
483.279	2555.22
483.65	2617.81
484.021	2624.82
484.391	2615.78
484.762	2658.94
485.133	2675.66
485.503	2671.14
485.874	2728.77
486.244	2766.96
486.615	2812.84
486.985	2777.36
487.356	2814.64
487.726	2854.64
488.097	2877.01
488.467	2928.76
488.837	2948.43
489.207	2951.59
489.578	2966.05
489.948	3006.73
490.318	3039.95
490.688	3027.75
491.058	3022.77
491.428	3072.72
491.798	3097.35
492.168	3150.45
492.538	3130.79
492.908	3153.39
493.278	3175.31
493.648	3152.71
494.017	3232.26
494.387	3243.33
494.757	3239.04
495.126	3222.77
495.496	3216.44
495.866	3283.33
496.235	3294.63
496.605	3292.37
496.974	3318.59
497.344	3318.36
497.713	3308.64
498.082	3296.66
498.452	3330.79
498.821	3362.43
499.19	3345.25
499.559	3371.47
499.928	3397.45
500.298	3358.36
500.667	3374.63
501.036	3349.54
501.405	3430.45
501.774	3365.59
502.143	3380.05
502.512	3379.6
502.88	3439.94
503.249	3366.27
503.618	3408.98
503.987	3428.19
504.356	3427.73
504.724	3429.09
505.093	3387.51
505.462	3434.29
505.83	3415.08
506.199	3432.93
506.567	3420.73
506.936	3425.93
507.304	3457.79
507.672	3433.16
508.041	3460.95
508.409	3418.7
508.777	3517.68
509.145	3475.19
509.514	3481.29
509.882	3439.94
510.25	3448.75
510.618	3439.26
510.986	3411.24
511.354	3442.42
511.722	3462.99
512.09	3436.32
512.458	3420.96
512.826	3453.72
513.193	3456.66
513.561	3448.3
513.929	3441.29
514.297	3428.41
514.664	3439.94
515.032	3414.18
515.4	3425.02
515.767	3401.29
516.135	3436.1
516.502	3375.53
516.869	3416.44
517.237	3414.85
517.604	3361.97
517.972	3363.1
518.339	3422.09
518.706	3370.79
519.073	3375.53
519.44	3396.1
519.808	3373.27
520.175	3387.74
520.542	3399.94
520.909	3390.45
521.276	3321.07
521.643	3378.24
522.009	3392.71
522.376	3383.22
522.743	3379.15
523.11	3348.64
523.477	3383.67
523.843	3366.04
524.21	3370.11
524.577	3417.57
524.943	3367.4
525.31	3341.41
525.676	3366.72
526.043	3341.41
526.409	3354.52
526.776	3356.55
527.142	3339.83
527.508	3359.26
527.874	3334.4
528.241	3335.53
528.607	3329.43
528.973	3318.81
529.339	3294.18
529.705	3347.74
530.071	3353.61
530.437	3325.36
530.803	3302.54
531.169	3309.55
531.535	3285.82
531.901	3259.6
532.267	3300.51
532.632	3306.16
532.998	3278.13
533.364	3270.22
533.73	3234.07
534.095	3242.2
534.461	3235.2
534.826	3244.01
535.192	3239.94
535.557	3219.6
535.923	3175.99
536.288	3190.68
536.653	3196.33
537.019	3184.35
537.384	3177.57
537.749	3180.28
538.114	3155.2
538.479	3159.27
538.845	3159.27
539.21	3129.21
539.575	3126.05
539.94	3143.45
540.305	3107.74
540.67	3114.52
541.034	3101.42
541.399	3119.49
541.764	3078.59
542.129	3064.13
542.494	3036.11
542.858	3030.46
543.223	3059.83
543.587	2994.07
543.952	2982.32
544.316	3003.34
544.681	2973.28
545.045	2995.43
545.41	3007.41
545.774	2956.56
546.138	2952.04
546.503	2896.9
546.867	2920.86
547.231	2918.6
547.595	2916.79
547.959	2921.08
548.324	2881.99
548.688	2858.03
549.052	2845.15
549.416	2829.78
549.779	2827.3
550.143	2826.85
550.507	2805.6
550.871	2823.23
551.235	2810.12
551.599	2799.95
551.962	2791.59
552.326	2802.21
552.689	2766.96
553.053	2761.09
553.417	2769.22
553.78	2772.84
554.143	2752.05
554.507	2753.63
554.87	2713.63
555.234	2771.48
555.597	2744.81
555.96	2693.97
556.323	2720.41
556.686	2706.4
557.05	2697.36
557.413	2681.77
557.776	2703.23
558.139	2684.93
558.502	2683.57
558.865	2682.44
559.228	2697.81
559.59	2677.7
559.953	2655.78
560.316	2699.39
560.679	2645.38
561.041	2655.1
561.404	2653.52
561.767	2687.87
562.129	2657.59
562.492	2693.52
562.854	2687.87
563.217	2678.38
563.579	2678.6
563.941	2710.24
564.304	2672.5
564.666	2646.29
565.028	2679.51
565.39	2681.77
565.753	2655.33
566.115	2685.38
566.477	2713.63
566.839	2667.98
567.201	2655.55
567.563	2669.79
567.925	2691.03
568.287	2700.3
568.648	2690.8
569.01	2707.98
569.372	2712.5
569.734	2718.15
570.095	2700.75
570.457	2738.26
570.819	2738.94
571.18	2720.86
571.542	2727.19
571.903	2739.62
572.265	2746.17
572.626	2739.62
572.987	2770.12
573.349	2764.48
573.71	2788.66
574.071	2774.19
574.432	2754.53
574.794	2792.72
575.155	2801.31
575.516	2800.41
575.877	2808.99
576.238	2827.52
576.599	2825.94
576.96	2822.33
577.32	2847.41
577.681	2820.52
578.042	2848.31
578.403	2865.94
578.763	2863.23
579.124	2851.7
579.485	2858.48
579.845	2888.31
580.206	2869.11
580.566	2880.18
580.927	2881.08
581.287	2893.74
581.648	2872.04
582.008	2888.99
582.368	2880.86
582.728	2900.29
583.089	2932.38
583.449	2934.87
583.809	2914.75
584.169	2932.38
584.529	2919.05
584.889	2968.31
585.249	2915.66
585.609	2919.27
585.969	2964.7
586.329	2938.26
586.688	2914.53
587.048	2948.43
587.408	2944.36
587.768	2968.76
588.127	2922.21
588.487	2967.18
588.846	2977.13
589.206	2990.91
589.565	2962.66
589.925	2969.22
590.284	2959.72
590.643	2967.86
591.003	2978.48
591.362	2970.12
591.721	2936.45
592.08	2982.1
592.44	2936.9
592.799	2943.91
593.158	2979.38
593.517	2933.96
593.876	2930.57
594.235	2968.99
594.593	2980.51
594.952	2942.32
595.311	2923.12
595.67	2957.24
596.029	2953.62
596.387	2975.54
596.746	2953.4
597.104	2968.54
597.463	2962.21
597.822	2943
598.18	2940.97
598.538	2965.15
598.897	2970.12
599.255	2924.25
599.613	2960.18
599.972	2972.61
600.33	2919.5
600.688	2941.19
601.046	2963.11
601.404	2959.72
601.762	2939.39
602.12	2964.02
602.478	2981.19
602.836	2967.18
603.194	2966.96
603.552	2935.32
603.91	2937.35
604.268	2998.82
604.625	2960.63
604.983	2990.23
605.341	2968.31
605.698	2971.7
606.056	2959.05
606.413	2987.29
606.771	2973.96
607.128	2953.62
607.485	2940.06
607.843	2951.59
608.2	2976.45
608.557	3000.63
608.914	2936
609.272	2980.29
609.629	2945.94
609.986	3008.76
610.343	2981.87
610.7	2997.69
611.057	2986.39
611.414	2950.23
611.771	2956.33
612.127	2966.5
612.484	2984.36
612.841	2963.57
613.198	2974.64
613.554	2964.24
613.911	2974.41
614.267	2972.61
614.624	2976.22
614.98	3004.24
615.337	2988.2
615.693	2998.14
616.05	3005.37
616.406	2989.78
616.762	2988.65
617.118	3014.86
617.475	2998.37
617.831	2995.2
618.187	3008.99
618.543	3023
618.899	2978.71
619.255	3039.95
619.611	3035.2
619.967	3019.61
620.323	3013.06
620.678	3035.88
621.034	3044.92
621.39	3034.3
621.746	3026.39
622.101	3021.19
622.457	3018.48
622.812	3053.06
623.168	3031.13
623.523	3046.5
623.879	3051.02
624.234	3022.55
624.589	3047.18
624.945	2987.52
625.3	3025.03
625.655	3067.29
626.01	3048.08
626.365	3042.43
626.72	3002.66
627.075	3039.27
627.43	3018.25
627.785	3036.11
628.14	3031.13
628.495	3049.21
628.85	3025.94
629.205	2994.75
629.559	3026.39
629.914	3023.45
630.269	3023.23
630.623	3026.39
630.978	2983.45
631.332	2996.56
631.687	3032.49
632.041	2933.28
632.396	2993.17
632.75	2984.13
633.104	2996.33
633.459	3001.31
633.813	3007.41
634.167	3002.66
634.521	2981.64
634.875	2974.64
635.229	2973.28
635.583	2967.18
635.937	2963.11
636.291	2970.12
636.645	2945.71
636.999	3022.1
637.352	3004.92
637.706	2948.88
638.06	2936.9
638.413	2965.83
638.767	2950.69
639.121	2963.11
639.474	2968.31
639.828	2973.51
640.181	2954.75
640.534	2935.09
640.888	2979.16
641.241	2954.98
641.594	2952.49
641.947	2937.8
642.301	2944.36
642.654	2961.98
643.007	2949.1
643.36	3030.01
643.713	3008.08
644.066	2935.09
644.419	2931.7
644.771	2908.2
645.124	2889.44
645.477	2892.61
645.83	2938.93
646.182	2883.79
646.535	2898.48
646.888	2851.48
647.24	2833.17
647.593	2872.95
647.945	2899.61
648.298	2873.4
648.65	2883.34
649.002	2828.65
649.355	2859.84
649.707	2914.08
650.059	2878.82
650.411	2930.12
650.763	2930.12
651.115	2966.05
651.467	2959.95
651.819	2925.6
652.171	2931.25
652.523	2958.59
652.875	2928.76
653.227	2898.71
653.578	2957.69
653.93	2928.09
654.282	2918.82
654.633	2896.9
654.985	2934.64
655.337	2971.48
655.688	2921.76
656.039	2950.91
656.391	2923.34
656.742	2950.46
657.094	2968.09
657.445	2964.92
657.796	2942.78
658.147	2975.54
658.498	2942.55
658.849	2947.75
659.2	2914.3
659.551	2968.09
659.902	2978.93
660.253	2911.14
660.604	2986.16
660.955	2980.74
661.306	3013.28
661.656	2972.38
662.007	2976
662.358	2980.51
662.708	2959.27
663.059	2985.94
663.409	2961.31
663.76	2962.21
664.11	2962.44
664.461	2924.92
664.811	2972.15
665.161	2939.16
665.511	2949.1
665.862	2989.1
666.212	2977.35
666.562	2952.27
666.912	2955.66
667.262	2959.27
667.612	2948.2
667.962	2931.48
668.312	2971.25
668.662	2962.21
669.011	2941.87
669.361	2971.02
669.711	2970.57
670.06	2951.14
670.41	2926.5
670.76	2950.01
671.109	2949.33
671.459	2953.4
671.808	2956.79
672.157	2965.15
672.507	2920.63
672.856	2924.02
673.205	2928.54
673.554	2948.43
673.904	2927.18
674.253	2908.43
674.602	2905.26
674.951	2878.14
675.3	2878.6
675.649	2892.38
675.998	2882.89
676.346	2870.46
676.695	2879.95
677.044	2844.93
677.393	2893.29
677.741	2863
678.09	2854.42
678.438	2873.4
678.787	2851.03
679.135	2863
679.484	2839.73
679.832	2872.72
680.181	2834.98
680.529	2846.28
680.877	2799.5
681.225	2876.11
681.573	2830.69
681.922	2825.49
682.27	2828.2
682.618	2805.15
682.966	2844.7
683.314	2831.37
683.661	2800.63
684.009	2776.9
684.357	2764.93
684.705	2759.73
685.053	2786.62
685.4	2723.8
685.748	2716.79
686.095	2729.9
686.443	2741.88
686.79	2742.56
687.138	2753.63
687.485	2729.9
687.832	2715.89
688.18	2674.99
688.527	2723.57
688.874	2708.66
689.221	2702.1
689.568	2678.15
689.915	2688.77
690.262	2630.24
690.609	2662.33
690.956	2611.03
691.303	2677.92
691.65	2667.98
691.997	2641.31
692.344	2609.9
692.69	2605.38
693.037	2590.69
693.383	2617.81
693.73	2595.89
694.077	2584.82
694.423	2568.1
694.769	2592.28
695.116	2580.53
695.462	2566.74
695.808	2590.69
696.155	2583.92
696.501	2576.23
696.847	2564.03
697.193	2553.41
697.539	2523.35
697.885	2512.96
698.231	2524.71
698.577	2483.58
698.923	2492.84
699.269	2479.74
699.614	2498.04
699.96	2488.78
700.306	2474.77
700.651	2475.44
700.997	2446.29
701.342	2437.93
701.688	2439.29
702.033	2447.42
702.379	2457.36
702.724	2443.13
703.069	2471.83
703.415	2437.25
703.76	2464.37
704.105	2428.89
704.45	2430.25
704.795	2440.87
705.14	2435.22
705.485	2426.18
705.83	2372.17
706.175	2404.03
706.52	2379.4
706.865	2429.12
707.209	2431.15
707.554	2382.79
707.899	2427.99
708.243	2380.08
708.588	2408.55
708.932	2400.19
709.277	2399.97
709.621	2425.5
709.966	2401.32
710.31	2405.61
710.654	2383.24
710.998	2423.69
711.342	2420.76
711.687	2394.99
712.031	2408.33
712.375	2390.47
712.719	2396.8
713.063	2398.16
713.407	2377.37
713.75	2356.58
714.094	2411.04
714.438	2406.74
714.782	2434.31
715.125	2394.77
715.469	2405.16
715.812	2412.62
716.156	2390.93
716.499	2412.85
716.843	2413.07
717.186	2406.07
717.53	2456.69
717.873	2436.8
718.216	2458.95
718.559	2408.78
718.902	2395.67
719.246	2435.22
719.589	2422.11
719.932	2423.92
720.275	2428.89
720.617	2456.23
720.96	2444.26
721.303	2434.31
721.646	2438.16
721.989	2436.12
722.331	2462.79
722.674	2408.55
723.016	2462.56
723.359	2457.82
723.701	2492.39
724.044	2487.19
724.386	2521.54
724.729	2514.09
725.071	2481.32
725.413	2512.28
725.755	2496.69
726.097	2509.34
726.439	2503.01
726.782	2504.14
727.124	2558.38
727.465	2541.66
727.807	2568.55
728.149	2559.73
728.491	2545.05
728.833	2556.8
729.175	2595.67
729.516	2578.94
729.858	2573.97
730.199	2612.16
730.541	2622.56
730.882	2603.8
731.224	2622.56
731.565	2603.12
731.906	2638.15
732.248	2612.84
732.589	2665.27
732.93	2619.85
733.271	2632.95
733.612	2675.66
733.953	2707.53
734.294	2730.13
734.635	2693.06
734.976	2720.63
735.317	2732.39
735.658	2717.7
735.999	2754.53
736.339	2779.62
736.68	2756.34
737.021	2767.41
737.361	2798.6
737.702	2808.32
738.042	2803.34
738.383	2802.21
738.723	2869.11
739.063	2847.41
739.404	2873.63
739.744	2914.98
740.084	2893.74
740.424	2940.74
740.764	2964.7
741.104	2953.17
741.444	3025.03
741.784	3055.32
742.124	3065.48
742.464	3066.61
742.804	3099.61
743.143	3106.61
743.483	3148.87
743.823	3174.41
744.162	3206.05
744.502	3204.69
744.841	3261.86
745.181	3318.81
745.52	3330.34
745.86	3370.34
746.199	3422.99
746.538	3454.17
746.877	3491.01
747.216	3537.34
747.556	3558.58
747.895	3605.58
748.234	3600.84
748.573	3695.98
748.911	3734.85
749.25	3790.89
749.589	3806.26
749.928	3918.12
750.267	3940.26
750.605	4015.29
750.944	4055.51
751.283	4096.42
751.621	4177.55
751.96	4209.86
752.298	4247.37
752.636	4367.15
752.975	4417.54
753.313	4474.49
753.651	4580.92
753.989	4634.03
754.327	4694.14
754.666	4719.45
755.004	4807.13
755.342	4919.9
755.679	5000.35
756.017	5067.01
756.355	5178.2
756.693	5271.98
757.031	5369.83
757.368	5356.05
757.706	5536.38
758.044	5608.69
758.381	5708.35
758.719	5780.44
759.056	5838.07
759.394	5925.97
759.731	6022.92
760.068	6089.13
760.405	6184.05
760.743	6265.4
761.08	6361.89
761.417	6447.77
761.754	6516.47
762.091	6669.01
762.428	6707.2
762.765	6736.35
763.102	6928.89
763.438	6874.88
763.775	6977.25
764.112	7081.88
764.449	7171.82
764.785	7252.49
765.122	7292.04
765.458	7348.31
765.795	7440.96
766.131	7538.36
766.467	7598.7
766.804	7646.61
767.14	7706.72
767.476	7749.65
767.812	7886.37
768.148	7911.01
768.485	7913.27
768.821	8024.45
769.157	8038.91
769.492	8149.19
769.828	8199.59
770.164	8248.17
770.5	8290.88
