Data from blue_surface_keyboard_FLMS001491_094.txt Node
Date: Tue Feb 07 11:13:54 GMT 2017
User: dcchb
Spectrometer: FLMS00149
Trigger mode: 0
Integration Time (sec): 2.000000E-2
Scans to average: 10
Electric dark correction enabled: true
Nonlinearity correction enabled: false
Boxcar width: 0
XAxis mode: Wavelengths
Number of Pixels in Spectrum: 2048
>>>>>Begin Spectral Data<<<<<
341.393	-14.34
341.776	-14.34
342.16	-14.34
342.543	-80.55
342.927	-52.3
343.31	-63.37
343.693	-51.4
344.077	-48.69
344.46	-75.8
344.843	-37.61
345.226	-31.74
345.61	-35.8
345.993	-35.13
346.376	0.35
346.759	-18.4
347.142	27.7
347.525	53.23
347.908	65.66
348.291	77.19
348.674	86.23
349.057	87.58
349.44	120.35
349.823	169.39
350.206	154.47
350.588	157.86
350.971	186.34
351.354	199.9
351.737	213.23
352.119	231.08
352.502	222.27
352.884	254.13
353.267	275.37
353.65	272.66
354.032	272.21
354.414	295.71
354.797	301.36
355.179	287.58
355.562	271.08
355.944	308.59
356.326	305.88
356.709	309.72
357.091	316.28
357.473	336.39
357.855	303.85
358.238	328.48
358.62	298.2
359.002	315.37
359.384	325.09
359.766	314.7
360.148	311.53
360.53	330.74
360.912	311.08
361.294	331.87
361.676	303.62
362.057	302.94
362.439	309.05
362.821	291.42
363.203	287.13
363.584	300.46
363.966	291.64
364.348	301.81
364.729	312.89
365.111	281.7
365.493	306.33
365.874	306.11
366.256	286.45
366.637	303.62
367.019	289.39
367.4	288.03
367.781	303.4
368.163	285.32
368.544	291.19
368.925	267.69
369.306	282.83
369.688	275.15
370.069	292.77
370.45	295.94
370.831	275.37
371.212	274.7
371.593	273.79
371.974	276.96
372.355	288.93
372.736	297.07
373.117	291.19
373.498	276.96
373.879	274.24
374.26	282.38
374.641	284.41
375.021	278.76
375.402	292.77
375.783	284.41
376.163	278.09
376.544	310.4
376.925	295.49
377.305	309.5
377.686	293
378.066	317.86
378.447	301.59
378.827	275.6
379.208	293.45
379.588	276.05
379.968	304.98
380.349	302.49
380.729	304.75
381.109	298.42
381.489	302.49
381.87	307.01
382.25	315.15
382.63	302.04
383.01	307.92
383.39	311.76
383.77	309.95
384.15	318.99
384.53	294.36
384.91	302.72
385.29	297.07
385.67	303.85
386.049	333.23
386.429	301.14
386.809	315.15
387.189	324.19
387.568	318.54
387.948	315.15
388.328	303.17
388.707	294.13
389.087	285.77
389.466	316.5
389.846	326.22
390.225	329.84
390.605	300.01
390.984	312.21
391.363	302.27
391.743	334.13
392.122	321.47
392.501	321.93
392.881	315.15
393.26	321.7
393.639	319.21
394.018	332.55
394.397	327.8
394.776	318.99
395.155	337.97
395.534	322.6
395.913	326.45
396.292	327.12
396.671	316.05
397.05	318.08
397.429	322.15
397.808	337.29
398.186	342.49
398.565	347.24
398.944	333.68
399.323	331.19
399.701	333
400.08	332.32
400.458	337.29
400.837	346.33
401.215	334.81
401.594	333.23
401.972	339.33
402.351	354.47
402.729	349.04
403.107	342.27
403.486	330.29
403.864	347.69
404.242	360.34
404.62	336.16
404.999	359.89
405.377	331.87
405.755	362.38
406.133	352.43
406.511	358.31
406.889	347.24
407.267	372.77
407.645	367.8
408.023	351.76
408.401	344.3
408.779	375.26
409.156	357.63
409.534	359.89
409.912	380
410.29	378.42
410.667	387.01
411.045	362.83
411.422	357.63
411.8	353.56
412.178	373.22
412.555	388.59
412.933	365.09
413.31	387.24
413.687	388.59
414.065	390.4
414.442	400.57
414.819	378.42
415.197	400.12
415.574	389.5
415.951	392.66
416.328	388.14
416.705	393.56
417.082	380.68
417.46	387.24
417.837	389.72
418.214	395.14
418.591	406.22
418.967	399.44
419.344	396.27
419.721	415.26
420.098	397.18
420.475	407.12
420.852	390.63
421.228	414.13
421.605	423.84
421.982	399.44
422.358	411.19
422.735	413.22
423.111	388.37
423.488	394.69
423.864	389.27
424.241	416.39
424.617	426.33
424.994	427.01
425.37	423.62
425.746	428.82
426.123	411.87
426.499	431.53
426.875	426.56
427.251	416.39
427.627	438.53
428.003	427.46
428.379	441.47
428.756	431.98
429.132	443.51
429.507	453.45
429.883	443.28
430.259	452.54
430.635	442.6
431.011	451.64
431.387	438.99
431.763	468.82
432.138	449.15
432.514	462.71
432.89	441.02
433.265	458.42
433.641	455.03
434.016	476.5
434.392	486.89
434.767	454.35
435.143	497.06
435.518	459.55
435.894	479.66
436.269	503.39
436.644	467.01
437.02	485.54
437.395	480.11
437.77	496.39
438.145	502.03
438.52	487.57
438.895	498.42
439.271	496.39
439.646	488.48
440.021	493
440.395	509.04
440.77	500.45
441.145	496.39
441.52	518.53
441.895	506.1
442.27	530.28
442.645	511.98
443.019	518.53
443.394	509.94
443.769	535.25
444.143	501.58
444.518	525.09
444.892	544.29
445.267	537.74
445.641	534.35
446.016	520.11
446.39	523.5
446.764	533.9
447.139	532.99
447.513	558.76
447.887	548.59
448.262	526.44
448.636	570.73
449.01	556.5
449.384	548.81
449.758	538.64
450.132	556.95
450.506	587.46
450.88	579.09
451.254	556.5
451.628	566.67
452.002	573.22
452.376	565.54
452.75	572.77
453.123	579.77
453.497	587.46
453.871	587.23
454.244	593.56
454.618	589.04
454.992	604.18
455.365	597.63
455.739	604.63
456.112	591.75
456.486	620.68
456.859	631.52
457.232	640.11
457.606	617.51
457.979	631.3
458.352	633.1
458.725	649.6
459.099	627
459.472	636.72
459.845	645.31
460.218	645.76
460.591	642.6
460.964	652.31
461.337	656.38
461.71	669.49
462.083	652.09
462.456	651.86
462.829	693.44
463.201	692.99
463.574	648.02
463.947	685.76
464.32	725.98
464.692	680.11
465.065	689.83
465.438	708.58
465.81	699.09
466.183	740.9
466.555	742.71
466.928	718.98
467.3	725.53
467.672	739.77
468.045	739.54
468.417	719.2
468.789	745.19
469.161	748.58
469.534	732.31
469.906	752.2
470.278	783.38
470.65	763.72
471.022	791.29
471.394	789.26
471.766	810.05
472.138	779.09
472.51	797.62
472.882	824.29
473.253	819.77
473.625	828.13
473.997	826.55
474.369	819.31
474.74	871.06
475.112	843.27
475.484	849.6
475.855	859.31
476.227	876.04
476.598	876.26
476.97	882.14
477.341	893.44
477.713	900.67
478.084	921.23
478.455	929.59
478.827	922.59
479.198	948.35
479.569	938.63
479.94	970.95
480.311	948.58
480.682	961.01
481.053	989.93
481.424	984.28
481.795	994.45
482.166	993.77
482.537	995.58
482.908	1047.56
483.279	1043.49
483.65	1034.45
484.021	1058.86
484.391	1050.49
484.762	1043.04
485.133	1101.12
485.503	1076.26
485.874	1098.63
486.244	1103.83
486.615	1133.43
486.985	1128.23
487.356	1141.11
487.726	1117.16
488.097	1148.8
488.467	1149.02
488.837	1158.06
489.207	1186.31
489.578	1199.42
489.948	1181.79
490.318	1173.88
490.688	1180.89
491.058	1204.16
491.428	1253.2
491.798	1224.73
492.168	1241.45
492.538	1233.99
492.908	1240.55
493.278	1262.01
493.648	1261.34
494.017	1263.6
494.387	1255.01
494.757	1276.03
495.126	1279.64
495.496	1252.07
495.866	1276.25
496.235	1301.34
496.605	1296.36
496.974	1325.29
497.344	1308.79
497.713	1306.31
498.082	1324.84
498.452	1336.14
498.821	1286.65
499.19	1297.72
499.559	1340.2
499.928	1313.76
500.298	1323.03
500.667	1323.03
501.036	1362.58
501.405	1323.93
501.774	1369.13
502.143	1346.76
502.512	1339.75
502.88	1330.26
503.249	1372.29
503.618	1345.63
503.987	1332.07
504.356	1373.42
504.724	1348.11
505.093	1380.43
505.462	1386.31
505.83	1377.49
506.199	1348.57
506.567	1362.35
506.936	1363.71
507.304	1394.67
507.672	1405.51
508.041	1408.68
508.409	1365.29
508.777	1389.7
509.145	1381.56
509.514	1401.9
509.882	1415.46
510.25	1423.14
510.618	1405.51
510.986	1411.39
511.354	1427.89
511.722	1442.58
512.09	1438.06
512.458	1422.46
512.826	1412.97
513.193	1409.13
513.561	1420.2
513.929	1429.92
514.297	1466.76
514.664	1429.02
515.032	1456.81
515.4	1424.5
515.767	1474.89
516.135	1469.47
516.502	1459.75
516.869	1473.76
517.237	1455.68
517.604	1487.77
517.972	1458.39
518.339	1462.01
518.706	1455.68
519.073	1460.2
519.44	1490.26
519.808	1486.42
520.175	1500.43
520.542	1497.71
520.909	1479.86
521.276	1469.24
521.643	1526.19
522.009	1511.95
522.376	1498.84
522.743	1503.82
523.11	1536.36
523.477	1499.3
523.843	1538.62
524.21	1514.44
524.577	1524.83
524.943	1511.95
525.31	1538.17
525.676	1547.43
526.043	1531.61
526.409	1537.94
526.776	1542.01
527.142	1582.23
527.508	1540.43
527.874	1561.44
528.241	1543.36
528.607	1551.72
528.973	1579.75
529.339	1572.74
529.705	1588.11
530.071	1547.88
530.437	1586.98
530.803	1587.43
531.169	1587.66
531.535	1575
531.901	1570.48
532.267	1577.49
532.632	1594.21
532.998	1582.68
533.364	1601.44
533.73	1596.7
534.095	1599.63
534.461	1585.62
534.826	1622.91
535.192	1608.45
535.557	1632.17
535.923	1627.43
536.288	1609.35
536.653	1618.84
537.019	1601.89
537.384	1590.82
537.749	1624.94
538.114	1624.94
538.479	1640.76
538.845	1595.57
539.21	1619.75
539.575	1629.46
539.94	1630.37
540.305	1611.84
540.67	1626.3
541.034	1636.92
541.399	1594.89
541.764	1641.21
542.129	1616.81
542.494	1590.37
542.858	1584.94
543.223	1620.42
543.587	1621.1
543.952	1609.8
544.316	1634.66
544.681	1647.54
545.045	1654.77
545.41	1611.61
545.774	1626.3
546.138	1645.51
546.503	1635.34
546.867	1646.86
547.231	1632.63
547.595	1636.92
547.959	1639.18
548.324	1599.63
548.688	1651.38
549.052	1652.06
549.416	1643.02
549.779	1647.32
550.143	1643.02
550.507	1648.22
550.871	1664.26
551.235	1596.24
551.599	1640.99
551.962	1640.08
552.326	1643.02
552.689	1656.13
553.053	1656.58
553.417	1627.88
553.78	1659.97
554.143	1619.52
554.507	1661.55
554.87	1645.73
555.234	1665.62
555.597	1683.7
555.96	1653.19
556.323	1669.46
556.686	1652.29
557.05	1670.59
557.413	1657.71
557.776	1662.23
558.139	1672.63
558.502	1690.93
558.865	1662.91
559.228	1680.53
559.59	1686.18
559.953	1654.32
560.316	1696.35
560.679	1680.08
561.041	1694.09
561.404	1712.62
561.767	1681.89
562.129	1678.05
562.492	1728.9
562.854	1678.28
563.217	1682.12
563.579	1721.44
563.941	1712.17
564.304	1702.23
564.666	1736.58
565.028	1713.98
565.39	1712.4
565.753	1683.02
566.115	1735.67
566.477	1747.43
566.839	1725.28
567.201	1727.99
567.563	1723.02
567.925	1727.31
568.287	1761.21
568.648	1731.61
569.01	1722.79
569.372	1744.94
569.734	1762.57
570.095	1771.38
570.457	1753.08
570.819	1753.53
571.18	1752.17
571.542	1746.97
571.903	1754.43
572.265	1767.76
572.626	1799.4
572.987	1749.01
573.349	1774.09
573.71	1769.12
574.071	1779.74
574.432	1772.74
574.794	1778.16
575.155	1799.63
575.516	1770.7
575.877	1764.15
576.238	1759.63
576.599	1780.65
576.96	1804.6
577.32	1799.63
577.681	1782.23
578.042	1800.76
578.403	1808.67
578.763	1813.19
579.124	1822.45
579.485	1805.73
579.845	1854.32
580.206	1814.77
580.566	1860.64
580.927	1805.96
581.287	1811.38
581.648	1828.1
582.008	1798.27
582.368	1814.09
582.728	1843.92
583.089	1819.97
583.449	1814.32
583.809	1814.09
584.169	1789.46
584.529	1806.86
584.889	1827.42
585.249	1829.23
585.609	1822
585.969	1822.9
586.329	1811.38
586.688	1820.19
587.048	1821.77
587.408	1864.94
587.768	1836.24
588.127	1834.43
588.487	1831.04
588.846	1834.88
589.206	1822
589.565	1824.49
589.925	1836.69
590.284	1836.24
590.643	1876.46
591.003	1837.14
591.362	1859.06
591.721	1848.89
592.08	1853.64
592.44	1852.73
592.799	1824.26
593.158	1844.82
593.517	1849.12
593.876	1831.27
594.235	1818.38
594.593	1860.19
594.952	1898.38
595.311	1858.61
595.67	1844.15
596.029	1889.57
596.387	1903.13
596.746	1855.67
597.104	1851.83
597.463	1879.85
597.822	1857.48
598.18	1859.97
598.538	1876.01
598.897	1878.72
599.255	1903.35
599.613	1869.23
599.972	1878.5
600.33	1876.91
600.688	1852.28
601.046	1870.81
601.404	1901.32
601.762	1897.48
602.12	1891.6
602.478	1908.78
602.836	1892.96
603.194	1859.29
603.552	1883.92
603.91	1931.38
604.268	1893.41
604.625	1887.08
604.983	1922.34
605.341	1877.14
605.698	1908.55
606.056	1921.21
606.413	1929.57
606.771	1920.75
607.128	1885.95
607.485	1904.48
607.843	1929.57
608.2	1937.7
608.557	1923.69
608.914	1924.82
609.272	1932.51
609.629	1949.23
609.986	1932.05
610.343	1927.31
610.7	1969.11
611.057	1956.69
611.414	1953.75
611.771	1953.3
612.127	1926.4
612.484	1934.77
612.841	1961.43
613.198	1939.29
613.554	1973.86
613.911	1916.46
614.267	1949.23
614.624	1953.75
614.98	1974.99
615.337	1951.26
615.693	1963.01
616.05	1971.15
616.406	2004.14
616.762	1986.52
617.118	1981.09
617.475	1977.93
617.831	1970.02
618.187	2015.44
618.543	2024.25
618.899	1988.32
619.255	2027.64
619.611	2015.22
619.967	2003.92
620.323	2029.23
620.678	1998.49
621.034	2001.88
621.39	2003.24
621.746	2000.53
622.101	2025.16
622.457	2025.84
622.812	1992.39
623.168	2018.15
623.523	2044.82
623.879	2026.74
624.234	2024.71
624.589	2026.97
624.945	2031.03
625.3	2033.29
625.655	2033.52
626.01	2046.4
626.365	2075.55
626.72	2042.11
627.075	2074.87
627.43	2036.46
627.785	2054.76
628.14	2073.29
628.495	2077.13
628.85	2079.62
629.205	2079.62
629.559	2125.27
629.914	2102.22
630.269	2098.83
630.623	2087.53
630.978	2094.08
631.332	2122.33
631.687	2094.76
632.041	2117.13
632.396	2146.06
632.75	2100.86
633.104	2112.39
633.459	2145.16
633.813	2098.83
634.167	2140.18
634.521	2134.08
634.875	2090.24
635.229	2116.23
635.583	2112.84
635.937	2125.72
636.291	2130.01
636.645	2175.66
636.999	2151.71
637.352	2146.51
637.706	2178.83
638.06	2165.49
638.413	2151.03
638.767	2165.27
639.121	2187.41
639.474	2146.29
639.828	2193.74
640.181	2185.38
640.534	2193.06
640.888	2197.13
641.241	2185.61
641.594	2224.25
641.947	2227.41
642.301	2222.89
642.654	2200.52
643.007	2229.45
643.36	2216.34
643.713	2240.97
644.066	2284.36
644.419	2232.61
644.771	2222.44
645.124	2253.63
645.477	2252.05
645.83	2208.88
646.182	2236.68
646.535	2256.11
646.888	2273.51
647.24	2211.59
647.593	2259.28
647.945	2264.47
648.298	2278.94
648.65	2287.52
649.002	2281.2
649.355	2323
649.707	2329.33
650.059	2300.63
650.411	2348.99
650.763	2370.23
651.115	2376.56
651.467	2396
651.819	2400.06
652.171	2403
652.523	2418.82
652.875	2405.26
653.227	2434.64
653.578	2440.06
653.93	2457.46
654.282	2451.36
654.633	2476.67
654.985	2455.66
655.337	2467.63
655.688	2499.27
656.039	2522.32
656.391	2489.1
656.742	2530.46
657.094	2531.13
657.445	2546.5
657.796	2546.27
658.147	2556.9
658.498	2574.97
658.849	2589.21
659.2	2581.53
659.551	2607.74
659.902	2607.97
660.253	2633.28
660.604	2660.85
660.955	2636.22
661.306	2683.67
661.656	2715.54
662.007	2679.6
662.358	2660.62
662.708	2693.62
663.059	2699.49
663.409	2760.51
663.76	2760.28
664.11	2750.34
664.461	2772.71
664.811	2786.04
665.161	2808.87
665.511	2868.53
665.862	2855.87
666.212	2830.56
666.562	2864.01
666.912	2868.75
667.262	2920.73
667.612	2866.04
667.962	2876.89
668.312	2889.54
668.662	2966.83
669.011	2936.55
669.361	2931.35
669.711	2977
670.06	2981.52
670.41	2995.3
670.76	3004.57
671.109	3040.27
671.459	3034.17
671.808	3032.82
672.157	3050.22
672.507	3057
672.856	3051.8
673.205	3071.46
673.554	3092.02
673.904	3102.19
674.253	3150.1
674.602	3134.06
674.951	3125.47
675.3	3102.42
675.649	3158.69
675.998	3160.5
676.346	3189.87
676.695	3216.99
677.044	3209.53
677.393	3207.73
677.741	3245.69
678.09	3259.25
678.438	3259.93
678.787	3307.84
679.135	3258.57
679.484	3287.27
679.832	3294.73
680.181	3298.57
680.529	3304.22
680.877	3310.1
681.225	3322.07
681.573	3361.39
681.922	3356.65
682.27	3391
682.618	3378.57
682.966	3409.3
683.314	3340.6
683.661	3371.34
684.009	3412.01
684.357	3405.01
684.705	3448.17
685.053	3410.66
685.4	3395.29
685.748	3411.34
686.095	3460.83
686.443	3456.76
686.79	3430.09
687.138	3468.96
687.485	3476.42
687.832	3488.4
688.18	3516.42
688.527	3488.17
688.874	3511.22
689.221	3490.66
689.568	3494.05
689.915	3482.52
690.262	3527.49
690.609	3511.45
690.956	3479.36
691.303	3483.65
691.65	3541.05
691.997	3472.13
692.344	3517.1
692.69	3493.59
693.037	3543.54
693.383	3473.03
693.73	3517.55
694.077	3537.44
694.423	3502.41
694.769	3542.86
695.116	3525.01
695.462	3516.64
695.808	3502.63
696.155	3516.19
696.501	3505.57
696.847	3522.97
697.193	3467.38
697.539	3501.5
697.885	3487.49
698.231	3489.3
698.577	3528.85
698.923	3507.15
699.269	3473.48
699.614	3501.73
699.96	3474.61
700.306	3537.89
700.651	3489.07
700.997	3539.47
701.342	3512.58
701.688	3484.33
702.033	3527.49
702.379	3508.51
702.724	3472.13
703.069	3493.82
703.415	3461.05
703.76	3493.82
704.105	3463.99
704.45	3478.23
704.795	3439.36
705.14	3470.54
705.485	3470.77
705.83	3431.45
706.175	3450.88
706.52	3479.36
706.865	3445.23
707.209	3480.94
707.554	3431.22
707.899	3450.88
708.243	3442.07
708.588	3447.72
708.932	3418.57
709.277	3442.3
709.621	3430.55
709.966	3413.14
710.31	3456.53
710.654	3411.11
710.998	3420.83
711.342	3391.9
711.687	3430.77
712.031	3400.94
712.375	3374.5
712.719	3391.68
713.063	3402.52
713.407	3378.57
713.75	3397.1
714.094	3415.86
714.438	3402.52
714.782	3359.13
715.125	3383.99
715.469	3394.84
715.812	3384.67
716.156	3407.5
716.499	3392.13
716.843	3422.41
717.186	3399.59
717.53	3440.71
717.873	3377.21
718.216	3357.55
718.559	3396.87
718.902	3381.06
719.246	3364.56
719.589	3377.44
719.932	3318.91
720.275	3360.04
720.617	3416.53
720.96	3341.28
721.303	3377.44
721.646	3373.6
721.989	3350.32
722.331	3385.12
722.674	3394.84
723.016	3386.48
723.359	3374.95
723.701	3393.71
724.044	3389.19
724.386	3370.89
724.729	3399.36
725.071	3363.65
725.413	3405.46
725.755	3421.73
726.097	3419.02
726.439	3391.68
726.782	3407.5
727.124	3391.9
727.465	3379.93
727.807	3391
728.149	3377.21
728.491	3369.53
728.833	3416.53
729.175	3391.9
729.516	3406.37
729.858	3389.19
730.199	3414.95
730.541	3383.31
730.882	3372.24
731.224	3404.33
731.565	3381.06
731.906	3385.12
732.248	3432.81
732.589	3402.98
732.93	3408.4
733.271	3383.99
733.612	3413.82
733.953	3393.03
734.294	3421.96
734.635	3459.25
734.976	3432.58
735.317	3397.55
735.658	3421.96
735.999	3438.45
736.339	3415.18
736.68	3431.9
737.021	3447.72
737.361	3461.28
737.702	3459.7
738.042	3473.71
738.383	3449.08
738.723	3465.8
739.063	3500.83
739.404	3511.9
739.744	3511.22
740.084	3514.16
740.424	3525.91
740.764	3513.93
741.104	3535.18
741.444	3581.73
741.784	3569.52
742.124	3537.21
742.464	3574.27
742.804	3577.66
743.143	3561.62
743.483	3584.44
743.823	3570.88
744.162	3588.51
744.502	3613.14
744.841	3598.45
745.181	3625.79
745.52	3629.86
745.86	3676.19
746.199	3665.12
746.538	3641.84
746.877	3696.08
747.216	3716.19
747.556	3725.23
747.895	3740.82
748.234	3751.67
748.573	3734.27
748.911	3800.25
749.25	3821.72
749.589	3790.76
749.928	3868.5
750.267	3877.77
750.605	3849.29
750.944	3841.83
751.283	3893.13
751.621	3914.15
751.96	3950.76
752.298	3972.68
752.636	3967.03
752.975	3984.88
753.313	3992.11
753.651	3998.89
753.989	4038.89
754.327	4063.52
754.666	4066.23
755.004	4099.45
755.342	4149.85
755.679	4149.62
756.017	4179.23
756.355	4180.36
756.693	4179.68
757.031	4218.1
757.368	4205.89
757.706	4200.92
758.044	4248.6
758.381	4257.87
758.719	4264.65
759.056	4334.02
759.394	4319.34
759.731	4293.57
760.068	4291.31
760.405	4322.73
760.743	4355.49
761.08	4372.44
761.417	4338.54
761.754	4383.97
762.091	4442.27
762.428	4440.01
762.765	4398.43
763.102	4460.12
763.438	4428.49
763.775	4386
764.112	4456.06
764.449	4458.09
764.785	4485.43
765.122	4440.01
765.458	4498.54
765.795	4449.95
766.131	4456.28
766.467	4493.34
766.804	4492.89
767.14	4486.56
767.476	4490.4
767.812	4488.6
768.148	4479.78
768.485	4498.09
768.821	4500.12
769.157	4514.58
769.492	4502.61
769.828	4461.48
770.164	4430.07
770.5	4480.01
770.836	4441.14
771.171	4479.11
771.507	4431.87
771.842	4422.61
772.178	4446.34
