Data from blue_chair_FLMS001491_00098.txt Node
Date: Wed Feb 08 10:32:19 GMT 2017
User: dcchb
Spectrometer: FLMS00149
Trigger mode: 0
Integration Time (sec): 2.000000E-2
Scans to average: 10
Electric dark correction enabled: true
Nonlinearity correction enabled: false
Boxcar width: 0
XAxis mode: Wavelengths
Number of Pixels in Spectrum: 2048
>>>>>Begin Spectral Data<<<<<
341.393	3.22
341.776	3.22
342.16	3.22
342.543	-48.3
342.927	-72.94
343.31	-81.52
343.693	-58.25
344.077	-73.61
344.46	-46.95
344.843	-55.31
345.226	-47.4
345.61	-37.23
345.993	-17.8
346.376	-11.92
346.759	31.69
347.142	30.34
347.525	38.02
347.908	39.6
348.291	71.69
348.674	104.23
349.057	114.4
349.44	102.43
349.823	154.63
350.206	153.05
350.588	177
350.971	189.2
351.354	202.31
351.737	222.65
352.119	215.42
352.502	230.56
352.884	246.83
353.267	248.19
353.65	273.27
354.032	270.78
354.414	293.16
354.797	271.69
355.179	285.25
355.562	288.41
355.944	302.87
356.326	297
356.709	315.08
357.091	310.56
357.473	317.79
357.855	318.01
358.238	315.98
358.62	302.42
359.002	323.44
359.384	301.97
359.766	295.87
360.148	308.52
360.53	290.44
360.912	302.87
361.294	299.26
361.676	302.42
362.057	317.79
362.439	292.7
362.821	294.29
363.203	299.26
363.584	307.62
363.966	287.05
364.348	279.6
364.729	295.42
365.111	285.47
365.493	280.5
365.874	270.56
366.256	281.18
366.637	293.61
367.019	264.23
367.4	281.86
367.781	273.72
368.163	266.26
368.544	301.29
368.925	264.91
369.306	282.53
369.688	272.59
370.069	276.66
370.45	278.24
370.831	265.81
371.212	291.35
371.593	259.26
371.974	288.64
372.355	281.41
372.736	280.28
373.117	275.08
373.498	276.66
373.879	295.87
374.26	299.03
374.641	299.26
375.021	289.99
375.402	292.7
375.783	298.35
376.163	283.21
376.544	271.69
376.925	268.75
377.305	277.56
377.686	274.63
378.066	284.34
378.447	283.66
378.827	282.08
379.208	290.44
379.588	297.45
379.968	288.64
380.349	276.66
380.729	291.35
381.109	288.41
381.489	289.09
381.87	296.55
382.25	287.96
382.63	284.57
383.01	274.63
383.39	303.55
383.77	307.17
384.15	303.1
384.53	291.35
384.91	304.23
385.29	307.39
385.67	302.87
386.049	316.88
386.429	299.71
386.809	306.94
387.189	307.39
387.568	320.95
387.948	297
388.328	327.28
388.707	288.86
389.087	313.72
389.466	309.2
389.846	321.86
390.225	310.1
390.605	322.99
390.984	313.04
391.363	292.93
391.743	301.07
392.122	338.35
392.501	303.55
392.881	334.28
393.26	301.07
393.639	312.36
394.018	323.21
394.397	330.22
394.776	320.27
395.155	307.17
395.534	314.85
395.913	316.21
396.292	327.51
396.671	323.44
397.05	321.63
397.429	331.57
397.808	305.81
398.186	318.01
398.565	346.49
398.944	344
399.323	333.16
399.701	322.08
400.08	322.31
400.458	329.77
400.837	338.58
401.215	330.44
401.594	329.09
401.972	339.48
402.351	344.91
402.729	353.49
403.107	336.77
403.486	327.28
403.864	327.05
404.242	359.14
404.62	375.41
404.999	339.71
405.377	356.88
405.755	339.71
406.133	355.08
406.511	351.01
406.889	363.66
407.267	348.07
407.645	369.31
408.023	351.01
408.401	367.73
408.779	353.49
409.156	375.64
409.534	369.09
409.912	350.78
410.29	382.65
410.667	371.35
411.045	384.91
411.422	366.83
411.8	366.37
412.178	382.87
412.555	373.38
412.933	404.57
413.31	384.91
413.687	388.97
414.065	387.16
414.442	378.13
414.819	406.15
415.197	384.45
415.574	412.25
415.951	396.88
416.328	401.63
416.705	408.18
417.082	398.92
417.46	405.02
417.837	400.72
418.214	397.56
418.591	400.5
418.967	401.18
419.344	397.33
419.721	406.15
420.098	404.79
420.475	418.58
420.852	419.48
421.228	420.38
421.605	425.81
421.982	426.71
422.358	426.26
422.735	416.09
423.111	416.99
423.488	416.99
423.864	445.69
424.241	446.6
424.617	436.88
424.994	453.15
425.37	462.42
425.746	447.05
426.123	464.68
426.499	462.64
426.875	439.14
427.251	474.39
427.627	450.21
428.003	475.07
428.379	445.92
428.756	481.63
429.132	485.47
429.507	482.76
429.883	493.83
430.259	480.27
430.635	479.82
431.011	471.91
431.387	485.47
431.763	526.14
432.138	512.13
432.514	504.45
432.89	487.05
433.265	524.34
433.641	519.59
434.016	518.91
434.392	508.07
434.767	526.14
435.143	526.14
435.518	546.93
435.894	548.74
436.269	552.81
436.644	564.34
437.02	561.85
437.395	572.47
437.77	578.57
438.145	579.25
438.52	574.05
438.895	593.04
439.271	597.55
439.646	608.85
440.021	593.04
440.395	606.82
440.77	604.56
441.145	640.04
441.52	638.01
441.895	634.62
442.27	649.98
442.645	656.54
443.019	641.4
443.394	654.73
443.769	648.85
444.143	661.51
444.518	656.08
444.892	663.54
445.267	670.55
445.641	678
446.016	678.91
446.39	680.26
446.764	683.88
447.139	717.1
447.513	707.38
447.887	694.05
448.262	691.79
448.636	697.44
449.01	701.96
449.384	715.29
449.758	723.43
450.132	713.71
450.506	730.66
450.88	729.75
451.254	756.42
451.628	740.83
452.002	739.7
452.376	745.8
452.75	762.3
453.123	781.5
453.497	785.8
453.871	791.45
454.244	788.06
454.618	781.96
454.992	780.83
455.365	783.31
455.739	783.09
456.112	828.06
456.486	829.64
456.859	813.37
457.232	849.3
457.606	819.24
457.979	833.93
458.352	853.14
458.725	821.96
459.099	848.17
459.472	889.52
459.845	851.56
460.218	886.13
460.591	879.13
460.964	866.47
461.337	891.78
461.71	885.46
462.083	913.48
462.456	903.54
462.829	917.55
463.201	907.15
463.574	921.61
463.947	955.51
464.32	945.12
464.692	957.77
465.065	970.65
465.438	975.17
465.81	988.73
466.183	950.09
466.555	1004.32
466.928	998.22
467.3	1002.52
467.672	1012.91
468.045	1001.16
468.417	1038.45
468.789	1053.36
469.161	1048.84
469.534	1050.42
469.906	1060.14
470.278	1065.57
470.65	1111.67
471.022	1080.48
471.394	1098.56
471.766	1111.67
472.138	1139.69
472.51	1150.08
472.882	1128.39
473.253	1145.79
473.625	1172.46
473.997	1192.34
474.369	1184.66
474.74	1195.96
475.112	1218.78
475.484	1199.8
475.855	1215.17
476.227	1232.57
476.598	1269.63
476.97	1265.11
477.341	1280.93
477.713	1291.77
478.084	1304.65
478.455	1345.33
478.827	1325.67
479.198	1345.78
479.569	1357.08
479.94	1384.2
480.311	1395.5
480.682	1400.02
481.053	1436.63
481.424	1469.85
481.795	1422.39
482.166	1436.85
482.537	1481.83
482.908	1489.51
483.279	1501.94
483.65	1521.37
484.021	1541.26
484.391	1522.73
484.762	1543.07
485.133	1529.96
485.503	1533.35
485.874	1549.17
486.244	1593.69
486.615	1568.83
486.985	1610.64
487.356	1638.66
487.726	1621.48
488.097	1667.36
488.467	1688.37
488.837	1691.99
489.207	1687.47
489.578	1681.37
489.948	1728.82
490.318	1707.58
490.688	1702.61
491.058	1743.29
491.428	1751.65
491.798	1750.52
492.168	1769.5
492.538	1746.23
492.908	1760.24
493.278	1751.65
493.648	1783.06
494.017	1801.14
494.387	1819.44
494.757	1776.73
495.126	1819.9
495.496	1797.07
495.866	1817.86
496.235	1839.56
496.605	1863.28
496.974	1822.16
497.344	1836.39
497.713	1818.31
498.082	1849.5
498.452	1870.29
498.821	1859.22
499.19	1828.48
499.559	1885.2
499.928	1867.8
500.298	1860.12
500.667	1877.3
501.036	1844.98
501.405	1853.12
501.774	1855.37
502.143	1846.34
502.512	1881.81
502.88	1859.67
503.249	1876.62
503.618	1885.66
503.987	1847.47
504.356	1868.03
504.724	1841.36
505.093	1880.23
505.462	1861.48
505.83	1884.75
506.199	1834.13
506.567	1895.37
506.936	1854.47
507.304	1858.09
507.672	1857.86
508.041	1848.82
508.409	1884.53
508.777	1842.72
509.145	1889.72
509.514	1891.98
509.882	1900.57
510.25	1851.99
510.618	1891.53
510.986	1880.69
511.354	1890.85
511.722	1878.88
512.09	1851.99
512.458	1871.42
512.826	1895.37
513.193	1871.65
513.561	1869.39
513.929	1866
514.297	1884.07
514.664	1901.25
515.032	1840.69
515.4	1856.96
515.767	1867.8
516.135	1844.98
516.502	1850.86
516.869	1864.41
517.237	1850.86
517.604	1853.57
517.972	1851.08
518.339	1850.4
518.706	1853.79
519.073	1810.86
519.44	1841.14
519.808	1818.54
520.175	1838.65
520.542	1820.8
520.909	1841.82
521.276	1844.98
521.643	1842.72
522.009	1789.16
522.376	1811.99
522.743	1821.03
523.11	1839.78
523.477	1845.21
523.843	1802.72
524.21	1813.34
524.577	1792.55
524.943	1816.05
525.31	1830.74
525.676	1809.95
526.043	1820.57
526.409	1806.34
526.776	1793.91
527.142	1779.67
527.508	1799.78
527.874	1793.23
528.241	1797.07
528.607	1805.88
528.973	1786.68
529.339	1787.35
529.705	1770.86
530.071	1803.85
530.437	1768.82
530.803	1766.11
531.169	1789.61
531.535	1799.78
531.901	1765.43
532.267	1759.56
532.632	1740.58
532.998	1754.59
533.364	1756.39
533.73	1778.54
534.095	1761.59
534.461	1788.71
534.826	1726.56
535.192	1773.57
535.557	1727.92
535.923	1766.34
536.288	1759.11
536.653	1729.73
537.019	1708.49
537.384	1717.53
537.749	1701.71
538.114	1715.94
538.479	1691.09
538.845	1719.79
539.21	1695.83
539.575	1718.43
539.94	1692.67
540.305	1701.71
540.67	1679.33
541.034	1684.76
541.399	1669.39
541.764	1690.63
542.129	1689.96
542.494	1659.67
542.858	1661.26
543.223	1660.13
543.587	1647.02
543.952	1634.14
544.316	1622.84
544.681	1641.37
545.045	1625.1
545.41	1618.77
545.774	1610.64
546.138	1614.03
546.503	1633.91
546.867	1605.21
547.231	1597.3
547.595	1589.62
547.959	1590.3
548.324	1563.18
548.688	1581.03
549.052	1548.04
549.416	1593.69
549.779	1549.17
550.143	1556.63
550.507	1514.59
550.871	1555.04
551.235	1508.49
551.599	1529.28
551.962	1510.75
552.326	1533.58
552.689	1544.87
553.053	1505.33
553.417	1508.94
553.78	1531.54
554.143	1486.57
554.507	1492.9
554.87	1486.8
555.234	1507.59
555.597	1498.1
555.96	1496.74
556.323	1503.29
556.686	1478.21
557.05	1492.45
557.413	1489.73
557.776	1460.36
558.139	1479.11
558.502	1478.66
558.865	1450.64
559.228	1487.93
559.59	1477.08
559.953	1503.97
560.316	1471.66
560.679	1470.3
561.041	1457.42
561.404	1498.32
561.767	1465.78
562.129	1449.96
562.492	1489.73
562.854	1453.35
563.217	1457.65
563.579	1437.31
563.941	1467.36
564.304	1461.26
564.666	1442.5
565.028	1470.75
565.39	1457.42
565.753	1460.81
566.115	1444.09
566.477	1448.15
566.839	1454.03
567.201	1489.73
567.563	1477.98
567.925	1464.65
568.287	1481.83
568.648	1469.62
569.01	1453.35
569.372	1480.92
569.734	1480.47
570.095	1483.41
570.457	1483.63
570.819	1500.58
571.18	1480.92
571.542	1500.81
571.903	1495.38
572.265	1477.76
572.626	1489.28
572.987	1493.8
573.349	1497.42
573.71	1501.03
574.071	1489.96
574.432	1487.93
574.794	1516.17
575.155	1488.15
575.516	1517.98
575.877	1532.22
576.238	1571.99
576.599	1518.21
576.96	1522.95
577.32	1556.4
577.681	1563.18
578.042	1546.23
578.403	1543.74
578.763	1531.77
579.124	1556.63
579.485	1557.3
579.845	1526.34
580.206	1553.24
580.566	1564.76
580.927	1576.51
581.287	1575.61
581.648	1548.72
582.008	1576.96
582.368	1541.03
582.728	1586.91
583.089	1565.44
583.449	1590.07
583.809	1587.81
584.169	1566.57
584.529	1557.98
584.889	1603.18
585.249	1557.98
585.609	1583.29
585.969	1578.32
586.329	1578.09
586.688	1570.18
587.048	1581.26
587.408	1590.75
587.768	1580.35
588.127	1575.16
588.487	1581.03
588.846	1586.23
589.206	1588.72
589.565	1557.53
589.925	1576.29
590.284	1579.68
590.643	1591.88
591.003	1601.82
591.362	1587.36
591.721	1591.65
592.08	1611.31
592.44	1619.67
592.799	1600.24
593.158	1590.75
593.517	1584.42
593.876	1620.13
594.235	1581.94
594.593	1588.49
594.952	1603.18
595.311	1577.19
595.67	1563.41
596.029	1575.16
596.387	1615.38
596.746	1573.57
597.104	1576.74
597.463	1591.2
597.822	1544.2
598.18	1598.43
598.538	1597.98
598.897	1547.13
599.255	1533.35
599.613	1589.62
599.972	1564.08
600.33	1592.78
600.688	1598.88
601.046	1574.7
601.404	1572.67
601.762	1550.98
602.12	1581.48
602.478	1570.41
602.836	1578.32
603.194	1562.95
603.552	1617.19
603.91	1586.23
604.268	1582.39
604.625	1590.98
604.983	1600.01
605.341	1582.84
605.698	1555.04
606.056	1582.61
606.413	1575.83
606.771	1608.6
607.128	1586.68
607.485	1567.02
607.843	1580.13
608.2	1589.62
608.557	1589.17
608.914	1577.42
609.272	1571.54
609.629	1608.83
609.986	1586.68
610.343	1606.57
610.7	1611.31
611.057	1571.77
611.414	1601.37
611.771	1607.25
612.127	1583.97
612.484	1597.53
612.841	1600.47
613.198	1601.6
613.554	1597.75
613.911	1614.03
614.267	1586
614.624	1587.36
614.98	1567.25
615.337	1614.93
615.693	1608.38
616.05	1613.12
616.406	1620.58
616.762	1629.62
617.118	1628.26
617.475	1614.03
617.831	1618.09
618.187	1626.68
618.543	1624.87
618.899	1604.31
619.255	1599.56
619.611	1635.49
619.967	1604.76
620.323	1641.14
620.678	1608.38
621.034	1640.01
621.39	1665.55
621.746	1645.89
622.101	1626.68
622.457	1632.33
622.812	1610.86
623.168	1622.39
623.523	1630.3
623.879	1614.93
624.234	1633.91
624.589	1608.38
624.945	1666.45
625.3	1627.13
625.655	1626.68
626.01	1618.09
626.365	1658.09
626.72	1656.06
627.075	1609.73
627.43	1606.34
627.785	1652.22
628.14	1600.69
628.495	1638.66
628.85	1607.47
629.205	1623.29
629.559	1606.12
629.914	1610.41
630.269	1595.95
630.623	1626.68
630.978	1619.9
631.332	1638.43
631.687	1616.51
632.041	1635.27
632.396	1620.8
632.75	1606.12
633.104	1621.48
633.459	1624.42
633.813	1662.61
634.167	1638.43
634.521	1633.23
634.875	1628.49
635.229	1636.62
635.583	1635.72
635.937	1617.87
636.291	1626.68
636.645	1626.45
636.999	1606.57
637.352	1577.64
637.706	1612.22
638.06	1628.49
638.413	1598.21
638.767	1578.55
639.121	1630.07
639.474	1620.8
639.828	1590.3
640.181	1612.9
640.534	1614.7
640.888	1626.23
641.241	1587.59
641.594	1594.36
641.947	1627.58
642.301	1622.16
642.654	1632.1
643.007	1623.74
643.36	1625.78
643.713	1610.41
644.066	1593.91
644.419	1628.04
644.771	1602.95
645.124	1598.66
645.477	1600.92
645.83	1590.98
646.182	1611.77
646.535	1558.43
646.888	1591.88
647.24	1590.75
647.593	1584.87
647.945	1581.26
648.298	1577.87
648.65	1592.78
649.002	1578.09
649.355	1581.71
649.707	1593.46
650.059	1595.95
650.411	1600.01
650.763	1596.4
651.115	1629.62
651.467	1629.62
651.819	1606.57
652.171	1644.98
652.523	1632.56
652.875	1611.77
653.227	1618.77
653.578	1640.69
653.93	1642.73
654.282	1614.7
654.633	1622.84
654.985	1623.06
655.337	1616.74
655.688	1615.83
656.039	1645.21
656.391	1650.18
656.742	1628.26
657.094	1633.91
657.445	1686.34
657.796	1656.06
658.147	1666.45
658.498	1653.8
658.849	1616.29
659.2	1636.62
659.551	1628.04
659.902	1647.24
660.253	1663.29
660.604	1647.47
660.955	1647.24
661.306	1644.08
661.656	1637.98
662.007	1639.56
662.358	1685.89
662.708	1654.25
663.059	1650.18
663.409	1643.86
663.76	1640.01
664.11	1645.89
664.461	1685.89
664.811	1625.1
665.161	1674.36
665.511	1625.78
665.862	1646.79
666.212	1645.89
666.562	1660.35
666.912	1646.34
667.262	1674.36
667.612	1646.57
667.962	1652.67
668.312	1652.22
668.662	1676.62
669.011	1635.27
669.361	1651.76
669.711	1640.47
670.06	1622.16
670.41	1651.31
670.76	1627.13
671.109	1635.04
671.459	1663.29
671.808	1616.74
672.157	1635.04
672.507	1618.77
672.856	1624.19
673.205	1637.3
673.554	1620.13
673.904	1632.33
674.253	1613.57
674.602	1605.21
674.951	1647.7
675.3	1597.75
675.649	1610.64
675.998	1618.32
676.346	1635.27
676.695	1576.96
677.044	1608.83
677.393	1582.16
677.741	1617.87
678.09	1596.17
678.438	1597.3
678.787	1557.98
679.135	1603.18
679.484	1587.13
679.832	1636.4
680.181	1580.58
680.529	1584.65
680.877	1585.78
681.225	1574.93
681.573	1577.64
681.922	1583.74
682.27	1562.73
682.618	1555.04
682.966	1591.65
683.314	1569.96
683.661	1568.15
684.009	1536.51
684.357	1548.04
684.705	1570.86
685.053	1576.96
685.4	1569.73
685.748	1534.71
686.095	1561.6
686.443	1526.34
686.79	1519.11
687.138	1536.74
687.485	1547.13
687.832	1505.78
688.18	1560.24
688.527	1522.95
688.874	1510.53
689.221	1514.14
689.568	1499.68
689.915	1513.01
690.262	1505.78
690.609	1487.93
690.956	1473.24
691.303	1480.47
691.65	1455.16
691.997	1501.49
692.344	1478.66
692.69	1483.41
693.037	1470.98
693.383	1460.58
693.73	1468.72
694.077	1500.81
694.423	1467.59
694.769	1473.69
695.116	1451.09
695.462	1463.07
695.808	1473.69
696.155	1428.72
696.501	1449.51
696.847	1425.33
697.193	1444.54
697.539	1420.13
697.885	1430.98
698.231	1433.01
698.577	1441.6
698.923	1422.17
699.269	1416.06
699.614	1398.44
699.96	1436.63
700.306	1433.69
700.651	1409.74
700.997	1404.54
701.342	1391.66
701.688	1411.77
702.033	1391.21
702.379	1385.56
702.724	1416.29
703.069	1395.95
703.415	1386.91
703.76	1384.43
704.105	1354.37
704.45	1401.83
704.795	1379.23
705.14	1358.44
705.485	1364.99
705.83	1376.29
706.175	1364.99
706.52	1407.48
706.865	1364.54
707.209	1371.77
707.554	1350.3
707.899	1363.86
708.243	1380.13
708.588	1353.92
708.932	1355.73
709.277	1369.51
709.621	1385.33
709.966	1364.09
710.31	1371.09
710.654	1383.52
710.998	1385.56
711.342	1351.89
711.687	1363.86
712.031	1377.42
712.375	1373.13
712.719	1385.56
713.063	1379.91
713.407	1373.58
713.75	1367.7
714.094	1372
714.438	1404.99
714.782	1406.8
715.125	1377.2
715.469	1399.79
715.812	1370.87
716.156	1356.63
716.499	1358.44
716.843	1404.77
717.186	1401.15
717.53	1395.27
717.873	1376.29
718.216	1401.83
718.559	1411.54
718.902	1417.42
719.246	1432.79
719.589	1389.17
719.932	1392.79
720.275	1373.81
720.617	1414.26
720.96	1427.14
721.303	1448.15
721.646	1409.74
721.989	1416.06
722.331	1413.8
722.674	1419.23
723.016	1435.95
723.359	1465.78
723.701	1451.32
724.044	1459.91
724.386	1409.96
724.729	1449.51
725.071	1426.46
725.413	1443.41
725.755	1480.24
726.097	1442.05
726.439	1472.79
726.782	1443.18
727.124	1467.14
727.465	1480.24
727.807	1472.56
728.149	1500.58
728.491	1479.57
728.833	1517.76
729.175	1498.55
729.516	1489.28
729.858	1513.46
730.199	1519.79
730.541	1523.41
730.882	1528.38
731.224	1551.43
731.565	1536.97
731.906	1543.52
732.248	1552.33
732.589	1574.48
732.93	1528.38
733.271	1569.51
733.612	1578.77
733.953	1568.15
734.294	1592.11
734.635	1609.05
734.976	1564.76
735.317	1600.24
735.658	1599.34
735.999	1619
736.339	1619.22
736.68	1644.76
737.021	1651.09
737.361	1660.13
737.702	1654.93
738.042	1672.33
738.383	1708.26
738.723	1715.49
739.063	1697.41
739.404	1734.7
739.744	1689.28
740.084	1721.37
740.424	1754.59
740.764	1743.51
741.104	1778.54
741.444	1759.33
741.784	1792.33
742.124	1822.61
742.464	1821.03
742.804	1827.13
743.143	1858.09
743.483	1900.8
743.823	1892.66
744.162	1905.54
744.502	1956.84
744.841	1965.65
745.181	1971.98
745.52	1982.15
745.86	2047.01
746.199	2031.87
746.538	2034.81
746.877	2092.2
747.216	2124.52
747.556	2146.21
747.895	2165.2
748.234	2200.45
748.573	2182.6
748.911	2196.16
749.25	2250.17
749.589	2280.67
749.928	2320
750.267	2355.47
750.605	2387.79
750.944	2405.42
751.283	2462.14
751.621	2492.87
751.96	2524.51
752.298	2581.68
752.636	2602.25
752.975	2622.59
753.313	2677.73
753.651	2708.69
753.989	2736.71
754.327	2806.99
754.666	2838.17
755.004	2861.9
755.342	2959.07
755.679	2989.13
756.017	3017.83
756.355	3058.51
756.693	3140.99
757.031	3169.92
757.368	3211.05
757.706	3263.02
758.044	3301.44
758.381	3388.67
758.719	3398.61
759.056	3461.21
759.394	3504.6
759.731	3520.87
760.068	3567.19
760.405	3610.58
760.743	3691.26
761.08	3716.12
761.417	3740.07
761.754	3824.36
762.091	3829.56
762.428	3879.5
762.765	3911.37
763.102	3997.01
763.438	4045.37
763.775	4051.25
764.112	4132.15
764.449	4196.1
764.785	4216.44
765.122	4228.42
765.458	4284.92
765.795	4318.36
766.131	4358.13
766.467	4426.61
766.804	4452.37
767.14	4460.96
767.476	4528.3
767.812	4521.97
768.148	4591.8
768.485	4674.28
768.821	4614.62
769.157	4654.4
769.492	4707.5
769.828	4740.27
770.164	4755.19
770.5	4740.27
770.836	4764.45
771.171	4825.24
