Data from blue_shiny_book_FLMS001491_00024.txt Node
Date: Wed Feb 08 15:26:44 GMT 2017
User: dcchb
Spectrometer: FLMS00149
Trigger mode: 0
Integration Time (sec): 2.000000E-2
Scans to average: 10
Electric dark correction enabled: true
Nonlinearity correction enabled: false
Boxcar width: 0
XAxis mode: Wavelengths
Number of Pixels in Spectrum: 2048
>>>>>Begin Spectral Data<<<<<
341.393	3.83
341.776	3.83
342.16	3.83
342.543	-64.87
342.927	-70.52
343.31	-68.49
343.693	-48.15
344.077	-78.2
344.46	-35.72
344.843	-49.5
345.226	-54.02
345.61	-6.57
345.993	-30.07
346.376	-11.31
346.759	7.9
347.142	19.65
347.525	37.27
347.908	53.54
348.291	64.39
348.674	85.86
349.057	113.43
349.44	148
349.823	147.1
350.206	157.04
350.588	208.57
350.971	226.87
351.354	233.65
351.737	270.04
352.119	265.74
352.502	258.96
352.884	288.11
353.267	292.41
353.65	313.88
354.032	308.45
354.414	304.61
354.797	332.41
355.179	336.25
355.562	337.15
355.944	336.93
356.326	344.84
356.709	343.93
357.091	364.5
357.473	344.16
357.855	362.91
358.238	347.32
358.62	361.33
359.002	346.64
359.384	346.42
359.766	362.69
360.148	346.19
360.53	347.1
360.912	353.42
361.294	360.65
361.676	348
362.057	373.54
362.439	366.98
362.821	347.55
363.203	345.29
363.584	353.65
363.966	333.08
364.348	347.1
364.729	336.7
365.111	354.78
365.493	331.28
365.874	337.38
366.256	322.69
366.637	333.54
367.019	330.37
367.4	354.33
367.781	347.1
368.163	361.11
368.544	367.43
368.925	343.25
369.306	343.71
369.688	332.63
370.069	325.85
370.45	350.94
370.831	346.64
371.212	338.51
371.593	346.87
371.974	329.24
372.355	352.52
372.736	341.67
373.117	380.77
373.498	357.04
373.879	346.19
374.26	349.13
374.641	327.66
375.021	356.13
375.402	343.25
375.783	359.3
376.163	371.05
376.544	360.65
376.925	374.67
377.305	364.95
377.686	383.03
378.066	399.07
378.447	389.81
378.827	394.1
379.208	374.21
379.588	401.78
379.968	420.77
380.349	388.9
380.729	432.06
381.109	398.85
381.489	377.83
381.87	408.56
382.25	410.37
382.63	418.96
383.01	437.94
383.39	417.15
383.77	437.49
384.15	448.79
384.53	438.84
384.91	411.05
385.29	440.65
385.67	447.66
386.049	449.92
386.429	455.12
386.809	453.76
387.189	452.63
387.568	472.29
387.948	469.35
388.328	464.61
388.707	466.19
389.087	495.34
389.466	467.54
389.846	499.18
390.225	489.92
390.605	490.59
390.984	479.52
391.363	511.61
391.743	531.05
392.122	523.81
392.501	493.98
392.881	496.24
393.26	539.41
393.639	540.08
394.018	544.83
394.397	540.54
394.776	569.91
395.155	574.21
395.534	550.48
395.913	582.12
396.292	553.42
396.671	593.64
397.05	580.54
397.429	574.21
397.808	591.83
398.186	617.37
398.565	604.26
398.944	600.65
399.323	613.98
399.701	627.31
400.08	606.3
400.458	630.93
400.837	640.87
401.215	647.2
401.594	665.05
401.972	667.99
402.351	675.9
402.729	666.86
403.107	707.31
403.486	686.97
403.864	706.41
404.242	712.74
404.62	709.57
404.999	714.77
405.377	745.5
405.755	723.13
406.133	732.62
406.511	753.19
406.889	752.28
407.267	782.11
407.645	787.54
408.023	823.47
408.401	804.71
408.779	830.92
409.156	850.58
409.534	824.6
409.912	861.66
410.29	891.26
410.667	877.93
411.045	885.84
411.422	907.08
411.8	936.23
412.178	951.15
412.555	977.14
412.933	963.58
413.31	976.46
413.687	971.03
414.065	961.77
414.442	982.33
414.819	1029.11
415.197	1036.57
415.574	1048.32
415.951	1067.08
416.328	1093.06
416.705	1121.31
417.082	1100.07
417.46	1123.57
417.837	1124.93
418.214	1156.11
418.591	1129.45
418.967	1160.63
419.344	1155.44
419.721	1190.46
420.098	1174.19
420.475	1213.74
420.852	1230.69
421.228	1267.98
421.605	1234.3
421.982	1282.44
422.358	1291.25
422.735	1304.81
423.111	1283.79
423.488	1343.45
423.864	1332.38
424.241	1343.23
424.617	1364.92
424.994	1354.3
425.37	1418.25
425.746	1413.96
426.123	1443.56
426.499	1489.21
426.875	1448.99
427.251	1506.84
427.627	1526.95
428.003	1554.3
428.379	1567.4
428.756	1591.81
429.132	1594.07
429.507	1611.02
429.883	1655.31
430.259	1697.79
430.635	1689.66
431.011	1736.89
431.387	1744.57
431.763	1821.18
432.138	1812.37
432.514	1832.03
432.89	1820.28
433.265	1884.91
433.641	1910.44
434.016	1911.57
434.392	1945.47
434.767	2004
435.143	1997.9
435.518	2044.68
435.894	2089.2
436.269	2108.86
436.644	2166.71
437.02	2156.99
437.395	2174.39
437.77	2165.58
438.145	2244.22
438.52	2220.72
438.895	2262.07
439.271	2275.41
439.646	2342.75
440.021	2384.1
440.395	2389.53
440.77	2385.23
441.145	2426.14
441.52	2467.49
441.895	2464.78
442.27	2530.99
442.645	2521.05
443.019	2523.31
443.394	2535.51
443.769	2576.42
444.143	2532.12
444.518	2570.54
444.892	2601.95
445.267	2672.91
445.641	2731.21
446.016	2671.78
446.39	2723.53
446.764	2749.97
447.139	2751.33
447.513	2772.79
447.887	2769.18
448.262	2796.3
448.636	2837.65
449.01	2887.59
449.384	2899.34
449.758	2919.91
450.132	2989.29
450.506	2976.18
450.88	3007.59
451.254	3056.85
451.628	3107.7
452.002	3088.49
452.376	3173.91
452.75	3160.81
453.123	3234.93
453.497	3263.85
453.871	3279.67
454.244	3325.77
454.618	3377.98
454.992	3400.35
455.365	3432.66
455.739	3556.5
456.112	3615.03
456.486	3645.77
456.859	3660.23
457.232	3738.19
457.606	3730.51
457.979	3790.17
458.352	3855.7
458.725	3888.7
459.099	3927.57
459.472	4016.38
459.845	4062.25
460.218	4137.73
460.591	4102.93
460.964	4186.32
461.337	4296.82
461.71	4354.67
462.083	4431.96
462.456	4429.7
462.829	4461.56
463.201	4565.29
463.574	4569.58
463.947	4633.54
464.32	4745.17
464.692	4784.27
465.065	4773.42
465.438	4885.51
465.81	4977.26
466.183	5007.54
466.555	5159.62
466.928	5165.5
467.3	5263.58
467.672	5311.71
468.045	5407.3
468.417	5487.75
468.789	5531.82
469.161	5605.49
469.534	5650.46
469.906	5764.35
470.278	5819.27
470.65	5817.23
471.022	6050.67
471.394	6165.7
471.766	6177.22
472.138	6269.43
472.51	6442.3
472.882	6529.53
473.253	6619.7
473.625	6705.12
473.997	6824.67
474.369	6929.97
474.74	6973.59
475.112	7121.83
475.484	7244.77
475.855	7310.75
476.227	7391.43
476.598	7583.06
476.97	7682.04
477.341	7873
477.713	8019.21
478.084	8012.66
478.455	8297.17
478.827	8363.61
479.198	8635.01
479.569	8658.06
479.94	8873.2
480.311	8918.62
480.682	9106.64
481.053	9429.57
481.424	9495.33
481.795	9585.95
482.166	9800.86
482.537	9889.22
482.908	10158.81
483.279	10179.83
483.65	10446.94
484.021	10617.56
484.391	10703.66
484.762	10863.2
485.133	11056.19
485.503	11244.21
485.874	11450.98
486.244	11613.92
486.615	11817.75
486.985	11851.43
487.356	12177.29
487.726	12256.61
488.097	12493.44
488.467	12555.81
488.837	12802.59
489.207	12956.93
489.578	13272.86
489.948	13350.82
490.318	13542
490.688	13654.54
491.058	13862.9
491.428	14059.05
491.798	14241.42
492.168	14443.9
492.538	14539.72
492.908	14623.33
493.278	14872.59
493.648	14873.72
494.017	15116.65
494.387	15343.31
494.757	15478.9
495.126	15682.74
495.496	15677.54
495.866	15793.47
496.235	15971.77
496.605	16276.39
496.974	16389.16
497.344	16535.82
497.713	16669.6
498.082	16792.31
498.452	16949.82
498.821	17046.54
499.19	17117.73
499.559	17296.25
499.928	17529.69
500.298	17547.32
500.667	17698.73
501.036	17713.42
501.405	17853.75
501.774	18017.59
502.143	18256.91
502.512	18395.66
502.88	18602.89
503.249	18519.95
503.618	18687.63
503.987	18694.64
504.356	18881.98
504.724	18955.87
505.093	19143.89
505.462	19160.16
505.83	19420.04
506.199	19447.16
506.567	19688.96
506.936	19714.27
507.304	20003.08
507.672	20126.24
508.041	20280.58
508.409	20438.09
508.777	20595.38
509.145	20779.33
509.514	20839.66
509.882	21111.52
510.25	21090.73
510.618	21270.84
510.986	21431.29
511.354	21616.59
511.722	21785.63
512.09	21866.53
512.458	21872.86
512.826	22072.4
513.193	22186.97
513.561	22245.95
513.929	22420.19
514.297	22576.57
514.664	22873.96
515.032	23026.73
515.4	23225.59
515.767	23326.6
516.135	23620.16
516.502	23430.1
516.869	23968.17
517.237	24074.61
517.604	24132.91
517.972	24274.6
518.339	24330.65
518.706	24441.38
519.073	24573.58
519.44	24801.82
519.808	25045.66
520.175	25107.57
520.542	25341.69
520.909	25593.21
521.276	25625.53
521.643	25957.5
522.009	26077.72
522.376	26331.04
522.743	26557.25
523.11	26706.18
523.477	27113.4
523.843	27258.25
524.21	27578.47
524.577	27782.98
524.943	27807.84
525.31	27933.94
525.676	28202.18
526.043	28378
526.409	28496.19
526.776	28645.79
527.142	28824.31
527.508	29080.13
527.874	29207.81
528.241	29386.11
528.607	29461.13
528.973	29887.79
529.339	29874.45
529.705	30269.7
530.071	30578.16
530.437	30819.97
530.803	30995.78
531.169	31192.61
531.535	31274.64
531.901	31342.89
532.267	31454.98
532.632	31680.28
532.998	31820.17
533.364	32183.77
533.73	32036.88
534.095	32313.03
534.461	32409.53
534.826	32485.23
535.192	32569.75
535.557	32766.13
535.923	32848.61
536.288	32960.48
536.653	33252.9
537.019	33232.78
537.384	33553.23
537.749	33782.6
538.114	33921.58
538.479	33973.33
538.845	34226.66
539.21	34101.01
539.575	34357.95
539.94	34412.19
540.305	34631.17
540.67	34405.18
541.034	34606.08
541.399	34704.84
541.764	34701.45
542.129	34851.27
542.494	34884.72
542.858	35014.66
543.223	34962.23
543.587	35218.04
543.952	35246.06
544.316	35557.24
544.681	35563.34
545.045	35836.78
545.41	36145.7
545.774	36100.73
546.138	36102.54
546.503	36378.01
546.867	36382.53
547.231	36689.19
547.595	36777.78
547.959	36914.5
548.324	36978.9
548.688	37004.44
549.052	36994.27
549.416	37052.57
549.779	37092.12
550.143	36972.8
550.507	37198.1
550.871	37439.91
551.235	37278.78
551.599	37521.94
551.962	37565.55
552.326	37738.88
552.689	37898.65
553.053	37928.93
553.417	38147.23
553.78	38643.04
554.143	38587.9
554.507	38918.74
554.87	38921.22
555.234	39327.77
555.597	39196.02
555.96	39345.84
556.323	39549.68
556.686	39529.12
557.05	39587.87
557.413	39611.6
557.776	39756.23
558.139	39821.54
558.502	39861.08
558.865	39743.8
559.228	40074.86
559.59	40134.3
559.953	40234.41
560.316	40636.66
560.679	40709.65
561.041	41069.64
561.404	41171.56
561.767	41488.61
562.129	41438.44
562.492	41873.69
562.854	41955.27
563.217	41972.67
563.579	42401.36
563.941	42578.98
564.304	42656.94
564.666	42751.4
565.028	42658.98
565.39	42877.95
565.753	43060.32
566.115	43049.7
566.477	43089.47
566.839	43249.24
567.201	43362.69
567.563	43266.87
567.925	43508.67
568.287	43418.51
568.648	43686.97
569.01	43672.51
569.372	44126.06
569.734	43910.02
570.095	44430
570.457	44741.63
570.819	44748.41
571.18	44840.84
571.542	45175.97
571.903	45312.69
572.265	45549.07
572.626	45602.18
572.987	45653.02
573.349	45975.73
573.71	45967.82
574.071	45971.43
574.432	46087.36
574.794	46312.44
575.155	46117.42
575.516	46083.97
575.877	46068.83
576.238	46124.2
576.599	46340.69
576.96	46208.71
577.32	46275.15
577.681	46378.65
578.042	46532.55
578.403	46694.8
578.763	46653.22
579.124	46707.91
579.485	46968.24
579.845	47238.29
580.206	47267.44
580.566	47441
580.927	47458.63
581.287	47721.67
581.648	47505.63
582.008	47752.18
582.368	47669.24
582.728	47722.35
583.089	47655.68
583.449	47580.88
583.809	47500.66
584.169	47436.03
584.529	47513.76
584.889	47601.67
585.249	47418.4
585.609	47185.19
585.969	47505.4
586.329	47197.61
586.688	47321.91
587.048	47276.93
587.408	47295.47
587.768	47408.68
588.127	47584.27
588.487	47439.64
588.846	47885.51
589.206	47602.8
589.565	47709.47
589.925	47982.68
590.284	47760.09
590.643	47993.98
591.003	48195.1
591.362	48147.19
591.721	48149.45
592.08	48094.99
592.44	48203.24
592.799	48238.49
593.158	48012.28
593.517	48022.68
593.876	47964.37
594.235	47864.26
594.593	47923.92
594.952	47946.07
595.311	47790.14
595.67	47695.91
596.029	47891.61
596.387	47939.52
596.746	47927.77
597.104	47807.54
597.463	47831.5
597.822	48101.32
598.18	48115.33
598.538	48140.87
598.897	48458.37
599.255	48182
599.613	48701.08
599.972	48479.39
600.33	48650.01
600.688	48552.38
601.046	48764.35
601.404	48869.44
601.762	48720.29
602.12	48897.01
602.478	48752.83
602.836	48920.06
603.194	48659.95
603.552	48573.85
603.91	48459.95
604.268	48584.7
604.625	48335.44
604.983	48481.42
605.341	48228.77
605.698	48424.02
606.056	48518.94
606.413	48481.65
606.771	48711.47
607.128	48631.25
607.485	48565.26
607.843	48723.45
608.2	48937.68
608.557	49064.01
608.914	49057.9
609.272	49172.7
609.629	49317.79
609.986	49497.67
610.343	49482.53
610.7	49645.23
611.057	49574.95
611.414	49615.4
611.771	49602.75
612.127	49832.12
612.484	49813.14
612.841	49887.71
613.198	49715.51
613.554	49824.66
613.911	49816.53
614.267	49740.82
614.624	49620.83
614.98	49647.72
615.337	49841.39
615.693	49630.09
616.05	49578.8
616.406	49838.45
616.762	49732.01
617.118	49583.77
617.475	49577.67
617.831	49710.32
618.187	49819.01
618.543	49853.82
618.899	50235.5
619.255	50135.62
619.611	50148.27
619.967	50273.92
620.323	50292.22
620.678	50352.79
621.034	50395.5
621.39	50475.72
621.746	50435.95
622.101	50733.57
622.457	50448.38
622.812	50564.31
623.168	50527.24
623.523	50574.7
623.879	50657.86
624.234	50323.41
624.589	50393.92
624.945	50321.83
625.3	50395.95
625.655	50256.29
626.01	50173.36
626.365	50115.28
626.72	50003.64
627.075	50075.73
627.43	50168.38
627.785	50031.66
628.14	50143.98
628.495	50024.66
628.85	50075.05
629.205	49983.3
629.559	50189.85
629.914	50015.39
630.269	50134.94
630.623	50127.48
630.978	50105.56
631.332	50414.25
631.687	50465.1
632.041	50343.97
632.396	50387.36
632.75	50347.36
633.104	50303.97
633.459	50292.67
633.813	50241.6
634.167	50134.26
634.521	50060.14
634.875	50035.73
635.229	49888.62
635.583	49757.77
635.937	49743.76
636.291	49623.99
636.645	49623.09
636.999	49580.38
637.352	49500.83
637.706	49301.74
638.06	49338.58
638.413	49207.73
638.767	49029.43
639.121	48861.98
639.474	48859.72
639.828	48818.36
640.181	48839.15
640.534	48953.5
640.888	48962.09
641.241	48765.03
641.594	49101.97
641.947	49093.16
642.301	49196.21
642.654	49241.4
643.007	49281.18
643.36	49121.86
643.713	49143.55
644.066	49329.99
644.419	49183.78
644.771	49059.71
645.124	48977.46
645.477	48984.91
645.83	48708.31
646.182	48313.97
646.535	47965.5
646.888	47776.13
647.24	47243.49
647.593	47446.87
647.945	47217.95
648.298	47024.96
648.65	46956.49
649.002	46698.42
649.355	46982.93
649.707	47093.89
650.059	47317.61
650.411	47853.87
650.763	47828.33
651.115	48154.43
651.467	47994.88
651.819	47929.57
652.171	47830.14
652.523	47838.95
652.875	47824.27
653.227	47860.42
653.578	48213.18
653.93	48130.25
654.282	48069.91
654.633	47920.76
654.985	47965.05
655.337	48036.91
655.688	48010.93
656.039	48175.22
656.391	47882.57
656.742	47933.87
657.094	48072.39
657.445	48022.23
657.796	48006.41
658.147	47885.28
658.498	47929.57
658.849	47940.19
659.2	47760.54
659.551	47705.4
659.902	47709.69
660.253	47679.18
660.604	47633.99
660.955	47285.97
661.306	47406.65
661.656	47363.71
662.007	47325.52
662.358	47208.24
662.708	47267.22
663.059	47176.15
663.409	46924.18
663.76	47291.4
664.11	47241.46
664.461	47093.21
664.811	47231.06
665.161	47206.43
665.511	47334.56
665.862	47446.42
666.212	47705.85
666.562	47612.97
666.912	47520.09
667.262	47609.58
667.612	47554.89
667.962	47762.35
668.312	47733.42
668.662	47866.98
669.011	47873.98
669.361	47632.63
669.711	47778.84
670.06	47547.21
670.41	47479.64
670.76	47227.44
671.109	47424.5
671.459	47219.76
671.808	47217.95
672.157	47329.81
672.507	47071.52
672.856	46841.47
673.205	46931.18
673.554	47014.57
673.904	46699.77
674.253	46926.66
674.602	46642.83
674.951	45948.16
675.3	45853.92
675.649	46367.58
675.998	46295.27
676.346	46300.92
676.695	46596.73
677.044	46196.74
677.393	46283.06
677.741	46470.63
678.09	46564.41
678.438	46270.41
678.787	46518.76
679.135	46422.27
679.484	46302.5
679.832	46582.04
680.181	46325.1
680.529	46674.92
680.877	46536.62
681.225	46399.22
681.573	46684.18
681.922	46381.59
682.27	46314.93
682.618	46279.45
682.966	46193.8
683.314	46246.45
683.661	45994.71
684.009	45693.7
684.357	45637.2
684.705	45503.42
685.053	45300.72
685.4	45324.9
685.748	45138.46
686.095	44897.79
686.443	44828.41
686.79	44747.51
687.138	44575.54
687.485	44636.1
687.832	44334.19
688.18	44261.87
688.527	44071.82
688.874	44074.76
689.221	44005.83
689.568	43957.7
689.915	43684.49
690.262	43770.36
690.609	43772.17
690.956	43532.17
691.303	43752.06
691.65	43544.83
691.997	43585.73
692.344	43357.04
692.69	43453.98
693.037	43434.78
693.383	43292.18
693.73	43425.96
694.077	43228
694.423	43244.95
694.769	43151.85
695.116	42988.91
695.462	42977.16
695.808	42811.97
696.155	42945.98
696.501	42369.95
696.847	42287.01
697.193	42101.25
697.539	42301.02
697.885	42007.47
698.231	41628.04
698.577	41777.87
698.923	41496.97
699.269	41371.1
699.614	41011.56
699.96	40924.56
700.306	40873.04
700.651	40500.62
700.997	40387.4
701.342	40247.97
701.688	40100.85
702.033	39940.4
702.379	39971.14
702.724	39852.95
703.069	40082.32
703.415	39532.51
703.76	39691.6
704.105	39598.72
704.45	39655.21
704.795	39457.93
705.14	39371.38
705.485	39336.58
705.83	39281.66
706.175	39366.41
706.52	39267.88
706.865	39246.64
707.209	39191.95
707.554	39102.91
707.899	39241.89
708.243	39022.91
708.588	39131.39
708.932	38839.19
709.277	38807.78
709.621	38816.14
709.966	38489.6
710.31	38678.06
710.654	38069.49
710.998	38249.15
711.342	38263.84
711.687	38079.89
712.031	37944.52
712.375	37684.87
712.719	37623.4
713.063	37552.44
713.407	37499.56
713.75	37180.03
714.094	37126.69
714.438	36918.11
714.782	37000.59
715.125	36837.89
715.469	36801.96
715.812	36523.32
716.156	36346.15
716.499	36429.76
716.843	36322.19
717.186	36093.27
717.53	36288.98
717.873	36141.41
718.216	36096.66
718.559	36173.95
718.902	35907.06
719.246	36237.68
719.589	36114.74
719.932	36182.99
720.275	36198.36
720.617	36151.13
720.96	36042.43
721.303	36024.8
721.646	36204.23
721.989	36017.8
722.331	36213.27
722.674	36013.95
723.016	36134.18
723.359	36011.24
723.701	36042.43
724.044	35865.48
724.386	35739.61
724.729	35935.09
725.071	35752.49
725.413	35716.56
725.755	35634.53
726.097	35591.14
726.439	35291.94
726.782	35204.03
727.124	35245.61
727.465	34920.42
727.807	34853.76
728.149	34682.24
728.491	34572.18
728.833	34644.05
729.175	34472.07
729.516	34415.13
729.858	34468.23
730.199	34604.73
730.541	34351.85
730.882	34205.19
731.224	34381.91
731.565	34204.51
731.906	34114.34
732.248	34250.61
732.589	34199.76
732.93	34125.19
733.271	34285.64
733.612	34354.79
733.953	34387.56
734.294	34275.02
734.635	34306.65
734.976	34274.34
735.317	34254.9
735.658	34443.15
735.999	34369.03
736.339	34524.28
736.68	34523.82
737.021	34589.58
737.361	34356.6
737.702	34585.97
738.042	34416.26
738.383	34325.86
738.723	34445.18
739.063	34450.61
739.404	34399.99
739.744	34352.75
740.084	34227.11
740.424	34217.84
740.764	34199.54
741.104	34298.29
741.444	33997.06
741.784	33939.66
742.124	33987.57
742.464	33890.85
742.804	33729.95
743.143	33648.82
743.483	33643.17
743.823	33498.77
744.162	33526.11
744.502	33576.05
744.841	33407.92
745.181	33465.09
745.52	33366.57
745.86	33421.93
746.199	33464.19
746.538	33393.91
746.877	33575.6
747.216	33579.44
747.556	33562.72
747.895	33386.68
748.234	33397.53
748.573	33507.58
748.911	33412.21
749.25	33537.64
749.589	33451.08
749.928	33586
750.267	33699.44
750.605	33730.4
750.944	33715.26
751.283	33873.67
751.621	33940.11
751.96	33705.09
752.298	33834.12
752.636	34019.43
752.975	33933.78
753.313	33853.11
753.651	34056.94
