Data from blue_clamp_base_FLMS001491_00015.txt Node
Date: Wed Feb 08 15:15:37 GMT 2017
User: dcchb
Spectrometer: FLMS00149
Trigger mode: 0
Integration Time (sec): 2.000000E-2
Scans to average: 10
Electric dark correction enabled: true
Nonlinearity correction enabled: false
Boxcar width: 0
XAxis mode: Wavelengths
Number of Pixels in Spectrum: 2048
>>>>>Begin Spectral Data<<<<<
341.393	-21.37
341.776	-21.37
342.16	-21.37
342.543	-60.46
342.927	-59.11
343.31	-50.97
343.693	-79.22
344.077	-62.27
344.46	-58.88
344.843	-86.45
345.226	-50.52
345.61	-32.67
345.993	-23.63
346.376	-18.66
346.759	17.95
347.142	33.32
347.525	43.94
347.908	76.71
348.291	78.74
348.674	93.66
349.057	118.97
349.44	140.89
349.823	137.04
350.206	159.19
350.588	201.22
350.971	237.61
351.354	217.04
351.737	246.19
352.119	259.3
352.502	266.31
352.884	298.17
353.267	280.32
353.65	288
354.032	298.4
354.414	319.64
354.797	301.33
355.179	330.94
355.562	324.16
355.944	339.3
356.326	337.27
356.709	337.49
357.091	344.04
357.473	371.39
357.855	353.31
358.238	361.22
358.62	353.54
359.002	332.52
359.384	356.93
359.766	364.38
360.148	360.09
360.53	356.7
360.912	363.93
361.294	337.27
361.676	345.17
362.057	335.01
362.439	328
362.821	329.58
363.203	356.02
363.584	327.77
363.966	348.11
364.348	337.72
364.729	340.88
365.111	318.06
365.493	318.96
365.874	326.19
366.256	325.06
366.637	331.84
367.019	349.69
367.4	319.19
367.781	324.84
368.163	305.63
368.544	328.23
368.925	315.8
369.306	321.45
369.688	334.33
370.069	320.77
370.45	308.34
370.831	322.58
371.212	328.9
371.593	323.48
371.974	354.21
372.355	333.65
372.736	324.84
373.117	335.01
373.498	319.41
373.879	306.76
374.26	325.74
374.641	325.29
375.021	320.32
375.402	339.98
375.783	344.95
376.163	324.38
376.544	353.31
376.925	333.2
377.305	358.06
377.686	356.25
378.066	352.41
378.447	352.18
378.827	343.14
379.208	357.15
379.588	337.27
379.968	337.04
380.349	338.62
380.729	337.04
381.109	351.73
381.489	384.04
381.87	372.29
382.25	355.34
382.63	374.1
383.01	375.23
383.39	359.86
383.77	365.96
384.15	365.96
384.53	361.67
384.91	379.98
385.29	392.4
385.67	375
386.049	373.2
386.429	378.17
386.809	399.64
387.189	389.24
387.568	391.73
387.948	421.33
388.328	365.06
388.707	419.52
389.087	402.57
389.466	410.71
389.846	411.16
390.225	400.99
390.605	413.65
390.984	400.09
391.363	413.87
391.743	419.97
392.122	430.37
392.501	417.49
392.881	426.75
393.26	439.86
393.639	436.92
394.018	437.38
394.397	440.77
394.776	445.06
395.155	469.01
395.534	459.07
395.913	471.05
396.292	461.1
396.671	464.49
397.05	464.95
397.429	480.76
397.808	486.87
398.186	496.13
398.565	505.62
398.944	484.83
399.323	488
399.701	488.9
400.08	513.53
400.458	511.27
400.837	515.79
401.215	522.57
401.594	506.75
401.972	506.3
402.351	537.26
402.729	553.3
403.107	541.55
403.486	550.59
403.864	567.09
404.242	559.41
404.62	567.99
404.999	562.8
405.377	595.56
405.755	585.17
406.133	611.38
406.511	597.6
406.889	618.84
407.267	610.03
407.645	597.6
408.023	640.99
408.401	635.79
408.779	617.71
409.156	657.48
409.534	661.32
409.912	658.16
410.29	681.66
410.667	681.89
411.045	669.01
411.422	693.41
411.8	705.39
412.178	715.33
412.555	751.94
412.933	718.5
413.31	742.45
413.687	729.12
414.065	751.27
414.442	774.99
414.819	758.72
415.197	798.95
415.574	810.93
415.951	778.38
416.328	818.16
416.705	800.53
417.082	801.21
417.46	807.54
417.837	839.17
418.214	840.53
418.591	846.4
418.967	812.05
419.344	837.59
419.721	854.77
420.098	877.82
420.475	893.41
420.852	895.67
421.228	888.66
421.605	914.88
421.982	918.27
422.358	916.01
422.735	946.97
423.111	947.64
423.488	938.61
423.864	954.42
424.241	999.17
424.617	982.45
424.994	980.86
425.37	1004.14
425.746	978.83
426.123	1018.6
426.499	1041.43
426.875	1047.3
427.251	1048.21
427.627	1080.97
428.003	1079.62
428.379	1121.2
428.756	1124.36
429.132	1118.49
429.507	1128.2
429.883	1133.85
430.259	1182.89
430.635	1198.03
431.011	1179.28
431.387	1230.8
431.763	1253.4
432.138	1249.56
432.514	1244.36
432.89	1268.77
433.265	1272.16
433.641	1327.07
434.016	1325.26
434.392	1344.47
434.767	1376.56
435.143	1354.41
435.518	1392.83
435.894	1400.51
436.269	1422.66
436.644	1425.82
437.02	1459.5
437.395	1442.77
437.77	1505.82
438.145	1502.88
438.52	1529.78
438.895	1538.82
439.271	1541.08
439.646	1571.13
440.021	1558.25
440.395	1602.09
440.77	1587.85
441.145	1618.14
441.52	1650.68
441.895	1656.1
442.27	1675.99
442.645	1686.38
443.019	1679.38
443.394	1710.56
443.769	1713.5
444.143	1732.93
444.518	1727.06
444.892	1728.87
445.267	1780.17
445.641	1786.49
446.016	1784.01
446.39	1809.77
446.764	1812.25
447.139	1837.34
447.513	1882.31
447.887	1862.42
448.262	1882.99
448.636	1864
449.01	1892.03
449.384	1901.29
449.758	1942.87
450.132	1946.71
450.506	1968.86
450.88	2020.38
451.254	1983.1
451.628	2007.5
452.002	2049.76
452.376	2041.4
452.75	2089.76
453.123	2117.11
453.497	2086.15
453.871	2112.36
454.244	2174.5
454.618	2198.23
454.992	2219.25
455.365	2202.53
455.739	2289.08
456.112	2287.5
456.486	2303.32
456.859	2372.69
457.232	2367.72
457.606	2377.66
457.979	2406.14
458.352	2446.59
458.725	2438.68
459.099	2474.84
459.472	2548.05
459.845	2542.18
460.218	2568.62
460.591	2565.46
460.964	2635.51
461.337	2670.31
461.71	2699.69
462.083	2728.16
462.456	2749.86
462.829	2731.33
463.201	2817.88
463.574	2831.21
463.947	2844.77
464.32	2885.9
464.692	2933.36
465.065	2967.25
465.438	2996.86
465.81	3034.82
466.183	3033.69
466.555	3113.92
466.928	3135.84
467.3	3114.59
467.672	3155.5
468.045	3256.96
468.417	3248.6
468.789	3264.42
469.161	3300.58
469.534	3381.7
469.906	3402.04
470.278	3431.42
470.65	3444.53
471.022	3540.34
471.394	3565.43
471.766	3639.33
472.138	3611.76
472.51	3732.2
472.882	3761.36
473.253	3794.8
473.625	3808.59
473.997	3935.14
474.369	3908.24
474.74	3994.57
475.112	4045.87
475.484	4084.51
475.855	4189.37
476.227	4164.51
476.598	4293.09
476.97	4307.33
477.341	4413.77
477.713	4450.38
478.084	4409.7
478.455	4567.89
478.827	4562.69
479.198	4748.9
479.569	4698.05
479.94	4837.94
480.311	4893.53
480.682	4918.84
481.053	5066.18
481.424	5116.8
481.795	5143.47
482.166	5190.24
482.537	5268.21
482.908	5359.28
483.279	5366.74
483.65	5458.03
484.021	5531.25
484.391	5569.9
484.762	5674.3
485.133	5712.94
485.503	5768.31
485.874	5871.58
486.244	5879.49
486.615	5963.33
486.985	6054.4
487.356	6112.25
487.726	6166.26
488.097	6190.22
488.467	6225.92
488.837	6324.68
489.207	6389.08
489.578	6442.87
489.948	6488.97
490.318	6589.98
490.688	6560.38
491.058	6586.37
491.428	6683.99
491.798	6763.31
492.168	6876.08
492.538	6866.13
492.908	6937.09
493.278	6980.25
493.648	6992.46
494.017	7071.33
494.387	7066.35
494.757	7129.18
495.126	7258.44
495.496	7184.09
495.866	7196.75
496.235	7281.49
496.605	7303.64
496.974	7344.76
497.344	7339.11
497.713	7420.47
498.082	7420.24
498.452	7530.52
498.821	7495.95
499.19	7491.2
499.559	7597.19
499.928	7556.51
500.298	7597.19
500.667	7696.62
501.036	7700.46
501.405	7743.4
501.774	7719.44
502.143	7748.6
502.512	7778.65
502.88	7796.28
503.249	7847.12
503.618	7907.01
503.987	7845.54
504.356	7965.54
504.724	7922.38
505.093	7994.24
505.462	8050.73
505.83	8011.41
506.199	8092.09
506.567	8130.28
506.936	8181.58
507.304	8190.62
507.672	8210.28
508.041	8244.4
508.409	8320.56
508.777	8319.88
509.145	8346.32
509.514	8354.91
509.882	8414.11
510.25	8494.56
510.618	8451.85
510.986	8447.33
511.354	8529.59
511.722	8516.94
512.09	8650.27
512.458	8618.63
512.826	8696.82
513.193	8717.61
513.561	8647.78
513.929	8734.33
514.297	8788.79
514.664	8850.94
515.032	8832.63
515.4	8913.31
515.767	8890.26
516.135	8902.92
516.502	8913.08
516.869	8993.53
517.237	9025.17
517.604	8980.2
517.972	9077.6
518.339	9060.65
518.706	9125.51
519.073	9139.97
519.44	9199.63
519.808	9281.66
520.175	9190.37
520.542	9276.24
520.909	9366.18
521.276	9350.36
521.643	9443.69
522.009	9483.69
522.376	9488.44
522.743	9588.77
523.11	9616.8
523.477	9675.1
523.843	9782.44
524.21	9761.88
524.577	9895.66
524.943	9821.08
525.31	9897.01
525.676	10000.06
526.043	9998.48
526.409	10019.95
526.776	10151.92
527.142	10111.02
527.508	10151.02
527.874	10260.85
528.241	10266.27
528.607	10289.77
528.973	10318.92
529.339	10346.95
529.705	10474.17
530.071	10503.78
530.437	10512.14
530.803	10525.02
531.169	10581.74
531.535	10572.93
531.901	10644.11
532.267	10705.81
532.632	10739.7
532.998	10767.05
533.364	10809.76
533.73	10863.99
534.095	10876.88
534.461	10912.35
534.826	10948.51
535.192	10981.51
535.557	11092.24
535.923	11103.54
536.288	11068.06
536.653	11123.87
537.019	11147.15
537.384	11184.66
537.749	11223.31
538.114	11321.38
538.479	11251.55
538.845	11305.34
539.21	11311.21
539.575	11404.32
539.94	11482.51
540.305	11442.74
540.67	11443.87
541.034	11503.98
541.399	11527.48
541.764	11473.24
542.129	11556.86
542.494	11662.17
542.858	11652.67
543.223	11631.21
543.587	11694.25
543.952	11743.97
544.316	11747.36
544.681	11710.53
545.045	11730.19
545.41	11811.77
545.774	11876.4
546.138	11920.92
546.503	11915.27
546.867	11911.88
547.231	12018.09
547.595	11990.74
547.959	12039.1
548.324	12030.07
548.688	12113.9
549.052	12120.23
549.416	12132.44
549.779	12101.93
550.143	12162.04
550.507	12195.94
550.871	12242.49
551.235	12229.16
551.599	12294.46
551.962	12298.08
552.326	12322.49
552.689	12427.34
553.053	12352.09
553.417	12361.58
553.78	12566.1
554.143	12495.14
554.507	12520
554.87	12482.71
555.234	12671.4
555.597	12641.12
555.96	12632.76
556.323	12704.17
556.686	12647.22
557.05	12798.63
557.413	12782.36
557.776	12749.82
558.139	12892.19
558.502	12865.07
558.865	12835.47
559.228	12998.85
559.59	12930.83
559.953	13030.26
560.316	13186.42
560.679	13048.8
561.041	13109.58
561.404	13240.65
561.767	13264.38
562.129	13246.08
562.492	13315.23
562.854	13294.89
563.217	13339.41
563.579	13394.1
563.941	13523.81
564.304	13550.25
564.666	13660.98
565.028	13580.76
565.39	13637.25
565.753	13747.99
566.115	13769.23
566.477	13807.65
566.839	13808.78
567.201	13912.95
567.563	13886.51
567.925	14088.77
568.287	14019.17
568.648	13985.72
569.01	14118.37
569.372	14190.01
569.734	14200.4
570.095	14271.36
570.457	14346.39
570.819	14425.26
571.18	14380.96
571.542	14446.95
571.903	14529.21
572.265	14539.15
572.626	14554.97
572.987	14611.69
573.349	14618.7
573.71	14638.13
574.071	14833.16
574.432	14748.19
574.794	14900.72
575.155	14872.93
575.516	14841.97
575.877	14904.79
576.238	14992.7
576.599	14950.44
576.96	15123.99
577.32	15134.62
577.681	15104.33
578.042	15236.53
578.403	15192.92
578.763	15198.12
579.124	15268.17
579.485	15262.3
579.845	15262.52
580.206	15366.02
580.566	15327.15
580.927	15361.28
581.287	15413.93
581.648	15395.85
582.008	15459.13
582.368	15458
582.728	15497.54
583.089	15463.65
583.449	15519.46
583.809	15530.09
584.169	15495.28
584.529	15508.39
584.889	15645.79
585.249	15426.59
585.609	15517.2
585.969	15644.43
586.329	15556.75
586.688	15560.14
587.048	15617.32
587.408	15578.67
587.768	15692.12
588.127	15665.9
588.487	15598.56
588.846	15713.81
589.206	15615.51
589.565	15680.14
589.925	15687.14
590.284	15730.53
590.643	15757.42
591.003	15740.7
591.362	15805.78
591.721	15853.24
592.08	15775.96
592.44	15803.3
592.799	15888.49
593.158	15804.43
593.517	15910.41
593.876	15876.74
594.235	15892.56
594.593	15882.17
594.952	15938.21
595.311	15890.53
595.67	15819.8
596.029	15947.02
596.387	15921.49
596.746	16062.95
597.104	15982.73
597.463	15989.06
597.822	16018.21
598.18	15966.46
598.538	15850.08
598.897	16033.35
599.255	15944.76
599.613	16163.74
599.972	16126.23
600.33	16152.22
600.688	16012.33
601.046	16097.75
601.404	16179.56
601.762	16067.47
602.12	16083.29
602.478	16208.26
602.836	16134.36
603.194	16112.44
603.552	16156.06
603.91	16134.59
604.268	16252.55
604.625	16151.09
604.983	16236.51
605.341	16203.29
605.698	16219.33
606.056	16251.42
606.413	16281.93
606.771	16345.21
607.128	16333.68
607.485	16272.67
607.843	16378.65
608.2	16393.34
608.557	16479.21
608.914	16442.6
609.272	16380.01
609.629	16488.25
609.986	16545.2
610.343	16522.38
610.7	16574.58
611.057	16564.41
611.414	16521.47
611.771	16534.13
612.127	16604.41
612.484	16649.15
612.841	16725.31
613.198	16621.13
613.554	16593.11
613.911	16806.89
614.267	16707.91
614.624	16709.49
614.98	16768.02
615.337	16742.48
615.693	16810.96
616.05	16739.09
616.406	16898.19
616.762	16891.18
617.118	16861.8
617.475	16851.63
617.831	16957.39
618.187	16897.73
618.543	16918.98
618.899	17061.57
619.255	16993.1
619.611	16947.68
619.967	17118.07
620.323	17107.22
620.678	17041.46
621.034	17049.14
621.39	17069.93
621.746	17068.8
622.101	17277.38
622.457	17125.3
622.812	17189.25
623.168	17253.2
623.523	17174.56
623.879	17282.36
624.234	17141.57
624.589	17218.86
624.945	17330.49
625.3	17244.84
625.655	17233.32
626.01	17381.56
626.365	17420.21
626.72	17321.9
627.075	17335.24
627.43	17396.93
627.785	17417.95
628.14	17377.04
628.495	17410.49
628.85	17379.75
629.205	17350.83
629.559	17497.27
629.914	17345.63
630.269	17387.44
630.623	17390.6
630.978	17424.95
631.332	17511.5
631.687	17591.05
632.041	17553.99
632.396	17511.95
632.75	17547.43
633.104	17536.59
633.459	17492.97
633.813	17464.05
634.167	17441.9
634.521	17518.73
634.875	17543.37
635.229	17580.88
635.583	17490.94
635.937	17547.43
636.291	17614.1
636.645	17617.49
636.999	17520.09
637.352	17593.76
637.706	17457.94
638.06	17674.21
638.413	17566.64
638.767	17478.28
639.121	17566.87
639.474	17551.05
639.828	17435.35
640.181	17603.7
640.534	17583.59
640.888	17583.14
641.241	17505.18
641.594	17498.17
641.947	17579.98
642.301	17665.17
642.654	17624.72
643.007	17689.8
643.36	17610.26
643.713	17683.25
644.066	17671.72
644.419	17635.79
644.771	17551.95
645.124	17439.19
645.477	17346.99
645.83	17199.65
646.182	17369.59
646.535	17226.31
646.888	17295.69
647.24	17209.36
647.593	17357.38
647.945	17331.85
648.298	17129.14
648.65	17189.7
649.002	17223.6
649.355	17382.24
649.707	17313.99
650.059	17412.52
650.411	17650.26
650.763	17717.6
651.115	17835.34
651.467	17741.33
651.819	17895.67
652.171	17859.29
652.523	17838.5
652.875	17896.35
653.227	17781.33
653.578	17887.76
653.93	17841.89
654.282	17831.04
654.633	17704.72
654.985	17854.77
655.337	17836.47
655.688	17845.05
656.039	18023.35
656.391	17824.71
656.742	17875.56
657.094	17939.51
657.445	18053.86
657.796	17870.82
658.147	17940.42
658.498	17915.11
658.849	17923.02
659.2	17932.51
659.551	17943.13
659.902	18014.54
660.253	17952.62
660.604	17923.47
660.955	17817.26
661.306	17964.37
661.656	18016.12
662.007	17924.15
662.358	17964.82
662.708	17924.37
663.059	18014.54
663.409	17876.46
663.76	18006.41
664.11	18002.34
664.461	18048.21
664.811	18026.07
665.161	17939.51
665.511	18008.44
665.862	17975.22
666.212	18059.74
666.562	17964.15
666.912	17983.58
667.262	17933.64
667.612	17971.83
667.962	18082.56
668.312	17872.85
668.662	18061.77
669.011	17999.63
669.361	17816.13
669.711	17853.41
670.06	17905.16
670.41	17787.65
670.76	17864.94
671.109	17921.66
671.459	17814.09
671.808	17776.81
672.157	17710.37
672.507	17678.5
672.856	17688.67
673.205	17776.35
673.554	17752.17
673.904	17602.35
674.253	17857.71
674.602	17645.96
674.951	17389.92
675.3	17340.21
675.649	17617.71
675.998	17485.51
676.346	17579.3
676.695	17558.73
677.044	17446.19
677.393	17401.68
677.741	17521.9
678.09	17309.47
678.438	17379.3
678.787	17320.1
679.135	17368
679.484	17262.47
679.832	17273.09
680.181	17133.66
680.529	17206.88
680.877	17154
681.225	17150.83
681.573	17295.92
681.922	17109.71
682.27	16945.19
682.618	16972.76
682.966	17074.45
683.314	16922.37
683.661	16956.26
684.009	16832.65
684.357	16780
684.705	16846.21
685.053	16743.16
685.4	16760.11
685.748	16755.59
686.095	16722.15
686.443	16631.3
686.79	16579.32
687.138	16650.73
687.485	16612.09
687.832	16502.04
688.18	16595.82
688.527	16384.07
688.874	16468.37
689.221	16387.46
689.568	16355.38
689.915	16374.36
690.262	16383.85
690.609	16345.88
690.956	16387.24
691.303	16331.19
691.65	16254.59
691.997	16175.94
692.344	16149.5
692.69	16152.89
693.037	16128.94
693.383	16041.03
693.73	16041.94
694.077	15999.68
694.423	15902.51
694.769	15959
695.116	15937.53
695.462	15927.82
695.808	15884.65
696.155	15927.14
696.501	15836.74
696.847	15785.45
697.193	15695.73
697.539	15801.27
697.885	15693.7
698.231	15626.35
698.577	15624.77
698.923	15650.08
699.269	15697.77
699.614	15523.53
699.96	15547.26
700.306	15570.76
700.651	15498.45
700.997	15467.26
701.342	15508.62
701.688	15462.74
702.033	15456.64
702.379	15405.12
702.724	15360.37
703.069	15412.57
703.415	15341.84
703.76	15376.42
704.105	15357.21
704.45	15323.76
704.795	15256.19
705.14	15241.05
705.485	15181.17
705.83	15180.49
706.175	15190.89
706.52	15121.28
706.865	15084.9
707.209	15204.22
707.554	15109.98
707.899	15073.15
708.243	15104.56
708.588	15031.12
708.932	14898.01
709.277	14933.49
709.621	14972.13
709.966	14782.08
710.31	14889.88
710.654	14810.78
710.998	14868.86
711.342	14891.68
711.687	14809.88
712.031	14811.91
712.375	14819.6
712.719	14814.62
713.063	14764.68
713.407	14805.36
713.75	14718.36
714.094	14836.09
714.438	14679.26
714.782	14747.96
715.125	14671.35
715.469	14661.41
715.812	14662.09
716.156	14657.11
716.499	14553.61
716.843	14709.99
717.186	14536.44
717.53	14536.44
717.873	14607.4
718.216	14632.93
718.559	14560.62
718.902	14463.9
719.246	14497.8
719.589	14477.91
719.932	14423
720.275	14497.57
720.617	14483.56
720.96	14412.6
721.303	14383
721.646	14475.65
721.989	14384.35
722.331	14437.46
722.674	14463.67
723.016	14396.33
723.359	14471.13
723.701	14401.75
724.044	14349.33
724.386	14293.96
724.729	14317.91
725.071	14326.95
725.413	14314.3
725.755	14304.58
726.097	14239.5
726.439	14234.98
726.782	14235.66
727.124	14400.62
727.465	14290.57
727.807	14245.83
728.149	14275.66
728.491	14268.2
728.833	14286.95
729.175	14142.33
729.516	14216.45
729.858	14265.71
730.199	14213.74
730.541	14333.96
730.882	14253.51
731.224	14263.23
731.565	14140.74
731.906	14210.35
732.248	14282.44
732.589	14217.8
732.93	14147.52
733.271	14277.46
733.612	14244.47
733.953	14304.58
734.294	14289.21
734.635	14239.95
734.976	14308.42
735.317	14235.88
735.658	14287.86
735.999	14293.73
736.339	14250.12
736.68	14361.3
737.021	14341.64
737.361	14303.9
737.702	14364.01
738.042	14501.41
738.383	14396.1
738.723	14455.09
739.063	14414.41
739.404	14423.45
739.744	14433.39
740.084	14355.65
740.424	14501.86
740.764	14483.79
741.104	14538.93
741.444	14480.4
741.784	14536.67
742.124	14499.6
742.464	14559.94
742.804	14504.12
743.143	14637
743.483	14562.65
743.823	14589.32
744.162	14657.11
744.502	14641.52
744.841	14635.65
745.181	14614.4
745.52	14786.38
745.86	14768.52
746.199	14663.44
746.538	14666.61
746.877	14885.36
747.216	14781.18
747.556	14868.86
747.895	14899.37
748.234	14827.05
748.573	14857.34
748.911	14939.59
749.25	14931.68
749.589	14847.17
749.928	15035.64
750.267	15047.84
750.605	15091.23
750.944	15018.91
751.283	15016.88
751.621	15079.7
751.96	15051.23
752.298	15116.76
752.636	15109.98
752.975	15171.9
753.313	15145.01
753.651	15197.67
753.989	15194.73
754.327	15303.43
754.666	15130.32
755.004	15307.04
755.342	15356.08
755.679	15330.54
756.017	15264.1
756.355	15389.52
