Data from blue_clamp_base_FLMS001491_00099.txt Node
Date: Wed Feb 08 15:16:49 GMT 2017
User: dcchb
Spectrometer: FLMS00149
Trigger mode: 0
Integration Time (sec): 2.000000E-2
Scans to average: 10
Electric dark correction enabled: true
Nonlinearity correction enabled: false
Boxcar width: 0
XAxis mode: Wavelengths
Number of Pixels in Spectrum: 2048
>>>>>Begin Spectral Data<<<<<
341.393	8.69
341.776	8.69
342.16	8.69
342.543	-43.29
342.927	-74.02
343.31	-90.75
343.693	-67.7
344.077	-56.62
344.46	-61.37
344.843	-63.4
345.226	-47.13
345.61	-30.86
345.993	-20.92
346.376	-13.46
346.759	28.8
347.142	32.19
347.525	54.56
347.908	55.24
348.291	63.83
348.674	92.98
349.057	124.62
349.44	131.39
349.823	147.21
350.206	151.96
350.588	194.44
350.971	219.08
351.354	209.81
351.737	224.95
352.119	251.62
352.502	262.69
352.884	274.22
353.267	280.32
353.65	309.92
354.032	299.75
354.414	324.38
354.797	322.35
355.179	324.84
355.562	322.8
355.944	321.9
356.326	333.65
356.709	342.46
357.091	333.88
357.473	340.88
357.855	348.56
358.238	367.32
358.62	357.6
359.002	357.15
359.384	350.6
359.766	333.42
360.148	351.73
360.53	343.37
360.912	338.4
361.294	346.98
361.676	340.88
362.057	336.81
362.439	308.34
362.821	342.24
363.203	319.19
363.584	325.06
363.966	337.72
364.348	329.81
364.729	323.25
365.111	334.1
365.493	320.09
365.874	343.82
366.256	329.58
366.637	324.38
367.019	329.36
367.4	336.14
367.781	330.71
368.163	311.05
368.544	314.44
368.925	328.45
369.306	336.14
369.688	328.68
370.069	335.91
370.45	309.24
370.831	321.45
371.212	326.64
371.593	313.54
371.974	311.28
372.355	328.45
372.736	311.05
373.117	319.41
373.498	326.19
373.879	324.16
374.26	330.03
374.641	351.5
375.021	322.35
375.402	348.34
375.783	356.7
376.163	360.54
376.544	337.72
376.925	347.89
377.305	350.6
377.686	341.78
378.066	326.42
378.447	339.98
378.827	353.99
379.208	346.53
379.588	363.03
379.968	368.45
380.349	348.11
380.729	344.27
381.109	355.34
381.489	352.86
381.87	356.02
382.25	369.58
382.63	371.61
383.01	384.95
383.39	366.87
383.77	381.11
384.15	372.97
384.53	381.56
384.91	371.16
385.29	368.9
385.67	389.92
386.049	367.32
386.429	389.24
386.809	389.69
387.189	376.81
387.568	379.3
387.948	395.79
388.328	395.79
388.707	415.91
389.087	396.02
389.466	416.13
389.846	415.91
390.225	422.46
390.605	433.08
390.984	403.25
391.363	419.75
391.743	415.68
392.122	431.5
392.501	438.96
392.881	436.25
393.26	451.84
393.639	450.48
394.018	441.22
394.397	432.18
394.776	465.85
395.155	472.85
395.534	441.44
395.913	476.7
396.292	492.74
396.671	467.66
397.05	487.54
397.429	511.27
397.808	498.39
398.186	492.06
398.565	506.75
398.944	485.06
399.323	505.62
399.701	520.99
400.08	525.28
400.458	523.02
400.837	530.25
401.215	525.28
401.594	544.04
401.972	530.25
402.351	574.32
402.729	528.45
403.107	567.99
403.486	581.55
403.864	568.67
404.242	573.87
404.62	575.68
404.999	586.98
405.377	613.19
405.755	574.32
406.133	616.81
406.511	628.1
406.889	629.01
407.267	635.11
407.645	633.08
408.023	653.19
408.401	658.84
408.779	630.14
409.156	666.3
409.534	674.21
409.912	698.84
410.29	701.32
410.667	708.78
411.045	702.45
411.422	720.98
411.8	716.24
412.178	732.51
412.555	734.77
412.933	761.43
413.31	744.94
413.687	735.22
414.065	770.47
414.442	780.87
414.819	786.29
415.197	786.74
415.574	831.72
415.951	807.08
416.328	816.35
416.705	806.86
417.082	834.88
417.46	861.77
417.837	850.02
418.214	878.95
418.591	856.12
418.967	868.32
419.344	893.86
419.721	872.39
420.098	909.45
420.475	916.68
420.852	909.91
421.228	929.11
421.605	940.19
421.982	932.73
422.358	949.9
422.735	979.96
423.111	963.92
423.488	996.91
423.864	987.64
424.241	995.1
424.617	991.26
424.994	1033.52
425.37	1029.22
425.746	1029.22
426.123	1053.18
426.499	1050.47
426.875	1060.41
427.251	1077.58
427.627	1147.87
428.003	1123.46
428.379	1141.54
428.756	1173.85
429.132	1168.2
429.507	1165.72
429.883	1198.49
430.259	1199.16
430.635	1193.51
431.011	1241.87
431.387	1240.07
431.763	1261.76
432.138	1268.99
432.514	1272.16
432.89	1283.68
433.265	1334.3
433.641	1347.86
434.016	1355.32
434.392	1382.66
434.767	1413.62
435.143	1395.09
435.518	1430.34
435.894	1444.58
436.269	1468.99
436.644	1471.25
437.02	1490.23
437.395	1517.57
437.77	1516.9
438.145	1547.18
438.52	1562.54
438.895	1551.7
439.271	1579.94
439.646	1630.79
440.021	1605.71
440.395	1633.73
440.77	1606.16
441.145	1670.11
441.52	1700.85
441.895	1680.05
442.27	1714.4
442.645	1701.07
443.019	1727.96
443.394	1741.3
443.769	1765.93
444.143	1745.59
444.518	1769.54
444.892	1795.76
445.267	1810.45
445.641	1806.15
446.016	1847.51
446.39	1836.66
446.764	1875.76
447.139	1855.64
447.513	1902.87
447.887	1895.42
448.262	1912.82
448.636	1891.8
449.01	1940.39
449.384	1968.86
449.758	1961.63
450.132	1987.39
450.506	2003.44
450.88	2009.99
451.254	2025.13
451.628	2058.35
452.002	2080.04
452.376	2077.11
452.75	2082.3
453.123	2144.45
453.497	2184
453.871	2178.8
454.244	2214.28
454.618	2228.51
454.992	2239.36
455.365	2247.5
455.739	2318.23
456.112	2332.69
456.486	2322.75
456.859	2380.6
457.232	2436.19
457.606	2412.46
457.979	2434.84
458.352	2456.31
458.725	2519.35
459.099	2540.82
459.472	2582.63
459.845	2577.21
460.218	2604.1
460.591	2621.72
460.964	2659.24
461.337	2700.14
461.71	2754.38
462.083	2752.12
462.456	2776.07
462.829	2791.44
463.201	2845.45
463.574	2796.86
463.947	2844.32
464.32	2947.82
464.692	2934.26
465.065	2990.08
465.438	2997.76
465.81	3039.12
466.183	3091.32
466.555	3107.81
466.928	3135.38
467.3	3169.73
467.672	3149.85
468.045	3281.59
468.417	3270.75
468.789	3295.83
469.161	3264.19
469.534	3345.55
469.906	3420.57
470.278	3462.61
470.65	3446.11
471.022	3582.15
471.394	3581.93
471.766	3649.49
472.138	3663.96
472.51	3705.31
472.882	3796.84
473.253	3793.45
473.625	3817.4
473.997	3892.65
474.369	3881.35
474.74	3984.17
475.112	4022.37
475.484	4079.99
475.855	4171.97
476.227	4167.22
476.598	4277.95
476.97	4287.67
477.341	4378.74
477.713	4453.32
478.084	4439.53
478.455	4489.25
478.827	4591.62
479.198	4683.37
479.569	4669.58
479.94	4807.43
480.311	4832.29
480.682	4929.91
481.053	4986.86
481.424	5026.41
481.795	5050.59
482.166	5094.88
482.537	5201.32
482.908	5270.24
483.279	5324.48
483.65	5403.8
484.021	5455.77
484.391	5481.08
484.762	5525.15
485.133	5572.61
485.503	5652.15
485.874	5739.38
486.244	5774.64
486.615	5861.64
486.985	5882.66
487.356	5997.68
487.726	6020.51
488.097	6084.46
488.467	6063.22
488.837	6195.87
489.207	6228.41
489.578	6291.46
489.948	6352.25
490.318	6428.18
490.688	6406.03
491.058	6487.84
491.428	6558.34
491.798	6628.85
492.168	6672.01
492.538	6715.4
492.908	6730.32
493.278	6794.04
493.648	6795.4
494.017	6869.75
494.387	6893.7
494.757	6969.86
495.126	6928.96
495.496	6982.51
495.866	7011.89
496.235	7070.2
496.605	7051.44
496.974	7088.95
497.344	7134.83
497.713	7136.41
498.082	7240.81
498.452	7226.8
498.821	7246.91
499.19	7253.02
499.559	7250.76
499.928	7288.27
500.298	7358.1
500.667	7406.91
501.036	7337.31
501.405	7413.46
501.774	7502.5
502.143	7457.98
502.512	7449.85
502.88	7482.61
503.249	7525.55
503.618	7552.89
503.987	7520.13
504.356	7610.75
504.724	7596.28
505.093	7617.07
505.462	7643.51
505.83	7633.57
506.199	7667.47
506.567	7761.25
506.936	7716.96
507.304	7820.68
507.672	7822.49
508.041	7857.07
508.409	7855.26
508.777	7943.39
509.145	7937.52
509.514	7914.02
509.882	8018.42
510.25	8014.58
510.618	8029.27
510.986	8031.75
511.354	8124.63
511.722	8109.49
512.09	8213.44
512.458	8181.58
512.826	8241.92
513.193	8294.12
513.561	8155.36
513.929	8288.69
514.297	8339.31
514.664	8353.78
515.032	8403.49
515.4	8420.89
515.767	8492.98
516.135	8465.64
516.502	8412.53
516.869	8549.03
517.237	8559.2
517.604	8485.53
517.972	8542.47
518.339	8639.87
518.706	8624.28
519.073	8634
519.44	8689.59
519.808	8770.04
520.175	8743.15
520.542	8812.75
520.909	8831.73
521.276	8850.04
521.643	8892.75
522.009	8862.24
522.376	8921.67
522.743	8989.02
523.11	9061.78
523.477	9094.1
523.843	9121.44
524.21	9168.67
524.577	9240.99
524.943	9223.13
525.31	9274.21
525.676	9352.17
526.043	9377.03
526.409	9405.95
526.776	9487.98
527.142	9400.53
527.508	9497.02
527.874	9593.07
528.241	9570.47
528.607	9610.24
528.973	9666.29
529.339	9683.91
529.705	9807.98
530.071	9809.56
530.437	9810.01
530.803	9870.35
531.169	9874.64
531.535	9884.58
531.901	9949.44
532.267	9961.87
532.632	9969.33
532.998	10071.92
533.364	10122.77
533.73	10122.54
534.095	10247.06
534.461	10233.05
534.826	10252.94
535.192	10301.97
535.557	10375.42
535.923	10322.54
536.288	10405.02
536.653	10386.27
537.019	10380.16
537.384	10414.51
537.749	10488.86
538.114	10494.06
538.479	10472.82
538.845	10578.58
539.21	10550.56
539.575	10590.78
539.94	10590.33
540.305	10639.59
540.67	10675.98
541.034	10709.2
541.399	10755.75
541.764	10794.17
542.129	10818.35
542.494	10777.89
542.858	10887.5
543.223	10857.67
543.587	10903.99
543.952	10893.15
544.316	10951
544.681	10911.22
545.045	11039.36
545.41	11049.07
545.774	11114.61
546.138	11079.81
546.503	11120.94
546.867	11122.52
547.231	11119.58
547.595	11245.23
547.959	11260.14
548.324	11244.32
548.688	11241.39
549.052	11235.74
549.416	11299.91
549.779	11396.86
550.143	11303.76
550.507	11397.09
550.871	11446.13
551.235	11436.86
551.599	11468.95
551.962	11492.23
552.326	11477.31
552.689	11553.47
553.053	11536.97
553.417	11462.62
553.78	11713.01
554.143	11689.28
554.507	11644.76
554.87	11747.13
555.234	11822.84
555.597	11732.45
555.96	11790.52
556.323	11797.98
556.686	11813.57
557.05	11862.61
557.413	11907.36
557.776	11913.68
558.139	11917.07
558.502	12049.27
558.865	12103.96
559.228	12114.58
559.59	12128.82
559.953	12086.33
560.316	12259.21
560.679	12264.86
561.041	12297.85
561.404	12378.53
561.767	12435.25
562.129	12470.51
562.492	12426.21
562.854	12447.23
563.217	12530.39
563.579	12578.98
563.941	12591.63
564.304	12625.08
564.666	12726.54
565.028	12753.66
565.39	12710.5
565.753	12902.36
566.115	12922.24
566.477	12966.31
566.839	12992.53
567.201	13038.17
567.563	13033.2
567.925	13104.16
568.287	13086.99
568.648	13085.18
569.01	13246.98
569.372	13328.34
569.734	13248.34
570.095	13403.36
570.457	13437.94
570.819	13483.13
571.18	13521.1
571.542	13551.15
571.903	13611.49
572.265	13700.08
572.626	13650.81
572.987	13621.89
573.349	13767.19
573.71	13699.85
574.071	13838.61
574.432	13823.69
574.794	13981.65
575.155	13926.06
575.516	13863.46
575.877	14035.21
576.238	14011.26
576.599	14113.4
576.96	14085.38
577.32	14043.8
577.681	14168.54
578.042	14194.3
578.403	14183.23
578.763	14194.53
579.124	14270.91
579.485	14295.32
579.845	14314.52
580.206	14349.33
580.566	14393.84
580.927	14379.16
581.287	14533.05
581.648	14411.47
582.008	14425.03
582.368	14469.55
582.728	14486.5
583.089	14556.1
583.449	14519.27
583.809	14544.35
584.169	14599.04
584.529	14545.03
584.889	14663.44
585.249	14498.47
585.609	14561.3
585.969	14647.62
586.329	14610.79
586.688	14604.91
587.048	14608.53
587.408	14554.52
587.768	14631.13
588.127	14645.59
588.487	14691.46
588.846	14716.77
589.206	14608.98
589.565	14668.41
589.925	14632.03
590.284	14660.96
590.643	14716.77
591.003	14849.65
591.362	14788.64
591.721	14795.87
592.08	14742.54
592.44	14872.25
592.799	14904.57
593.158	14825.47
593.517	14743.44
593.876	14820.73
594.235	14722.42
594.593	14777.56
594.952	14825.02
595.311	14814.17
595.67	14758.35
596.029	14911.57
596.387	14975.3
596.746	14957.45
597.104	14881.29
597.463	14851.46
597.822	14932.59
598.18	14938.24
598.538	14893.94
598.897	15023.88
599.255	14931.23
599.613	15039.93
599.972	14971.68
600.33	15169.19
600.688	14952.02
601.046	15069.99
601.404	15043.55
601.762	15093.94
602.12	15136.65
602.478	15084.45
602.836	15106.59
603.194	15095.07
603.552	15160.38
603.91	15073.6
604.268	15085.35
604.625	15160.38
604.983	15196.76
605.341	15070.66
605.698	15178.68
606.056	15266.36
606.413	15222.07
606.771	15158.8
607.128	15249.42
607.485	15169.19
607.843	15220.94
608.2	15338.45
608.557	15336.19
608.914	15262.97
609.272	15386.59
609.629	15391.11
609.986	15490.31
610.343	15347.04
610.7	15438.56
611.057	15457.09
611.414	15458
611.771	15457.09
612.127	15411.22
612.484	15505.45
612.841	15522.85
613.198	15435.63
613.554	15608.73
613.911	15548.39
614.267	15564.66
614.624	15644.66
614.98	15627.71
615.337	15668.16
615.693	15638.11
616.05	15598.11
616.406	15747.48
616.762	15674.04
617.118	15684.21
617.475	15741.15
617.831	15813.24
618.187	15756.07
618.543	15719.23
618.899	15818.89
619.255	15861.38
619.611	15845.78
619.967	15883.07
620.323	15886.46
620.678	15882.17
621.034	15855.28
621.39	15867.7
621.746	15874.48
622.101	16024.54
622.457	15908.38
622.812	15920.58
623.168	16020.69
623.523	16035.84
623.879	16021.37
624.234	15946.8
624.589	16068.83
624.945	15961.71
625.3	16057.3
625.655	16092.56
626.01	16069.96
626.365	16149.73
626.72	16130.3
627.075	16168.04
627.43	16098.43
627.785	16053.69
628.14	16163.74
628.495	16126.68
628.85	16133.91
629.205	16151.09
629.559	16183.85
629.914	16101.82
630.269	16202.38
630.623	16151.76
630.978	16241.03
631.332	16281.48
631.687	16296.85
632.041	16253.68
632.396	16255.72
632.75	16138.21
633.104	16272.67
633.459	16257.75
633.813	16214.36
634.167	16194.02
634.521	16238.32
634.875	16300.01
635.229	16237.86
635.583	16149.28
635.937	16310.63
636.291	16254.59
636.645	16291.65
636.999	16303.17
637.352	16294.36
637.706	16228.6
638.06	16250.07
638.413	16293.68
638.767	16312.66
639.121	16384.98
639.474	16255.72
639.828	16300.91
640.181	16277.86
640.534	16428.82
640.888	16339.33
641.241	16254.59
641.594	16344.08
641.947	16369.61
642.301	16331.19
642.654	16410.51
643.007	16340.23
643.36	16397.18
643.713	16373.91
644.066	16400.35
644.419	16408.03
644.771	16262.72
645.124	16137.3
645.477	16096.85
645.83	15925.56
646.182	15918.32
646.535	15994.03
646.888	16139.34
647.24	16048.72
647.593	16181.14
647.945	16147.7
648.298	16102.5
648.65	16094.36
649.002	16076.51
649.355	16162.84
649.707	16060.47
650.059	16108.15
650.411	16395.83
650.763	16389.95
651.115	16602.37
651.467	16604.18
651.819	16599.21
652.171	16692.77
652.523	16556.73
652.875	16624.97
653.227	16568.7
653.578	16676.5
653.93	16731.41
654.282	16513.11
654.633	16606.44
654.985	16687.12
655.337	16775.93
655.688	16616.61
656.039	16797.17
656.391	16707.23
656.742	16695.25
657.094	16706.55
657.445	16768.25
657.796	16764.18
658.147	16773.44
658.498	16716.27
658.849	16815.48
659.2	16680.56
659.551	16833.33
659.902	16782.26
660.253	16831.97
660.604	16780.45
660.955	16686.21
661.306	16815.25
661.656	16809.6
662.007	16852.31
662.358	16892.08
662.708	16746.55
663.059	16903.16
663.409	16716.04
663.76	16855.7
664.11	16899.77
664.461	16901.12
664.811	16875.59
665.161	16850.05
665.511	16853.89
665.862	16777.74
666.212	16892.54
666.562	16886.43
666.912	16795.14
667.262	16840.56
667.612	16881.91
667.962	16840.56
668.312	16826.55
668.662	16902.71
669.011	16829.26
669.361	16862.93
669.711	16767.57
670.06	16778.19
670.41	16608.48
670.76	16674.01
671.109	16684.86
671.459	16612.09
671.808	16623.39
672.157	16605.31
672.507	16487.12
672.856	16535.94
673.205	16500.46
673.554	16533.9
673.904	16432.44
674.253	16509.72
674.602	16518.08
674.951	16325.77
675.3	16176.17
675.649	16410.97
675.998	16319.44
676.346	16291.42
676.695	16332.55
677.044	16192.67
677.393	16347.01
677.741	16335.26
678.09	16225.89
678.438	16159.9
678.787	16139.79
679.135	16142.73
679.484	16080.81
679.832	16072.67
680.181	16038.1
680.529	16018.66
680.877	16003.52
681.225	15933.24
681.573	16017.53
681.922	15879.46
682.27	15899.12
682.618	15837.65
682.966	15807.82
683.314	15839.46
683.661	15776.63
684.009	15690.31
684.357	15651.21
684.705	15617.32
685.053	15653.7
685.4	15630.65
685.748	15546.36
686.095	15563.31
686.443	15436.98
686.79	15533.93
687.138	15409.64
687.485	15455.06
687.832	15422.97
688.18	15468.17
688.527	15374.38
688.874	15344.1
689.221	15385.91
689.568	15256.19
689.915	15224.11
690.262	15325.57
690.609	15156.31
690.956	15232.47
691.303	15167.38
691.65	15076.09
691.997	15204.22
692.344	15063.21
692.69	14987.5
693.037	15108.4
693.383	14954.96
693.73	14996.99
694.077	14985.47
694.423	14927.62
694.769	14832.48
695.116	14862.31
695.462	14882.87
695.808	14792.48
696.155	14846.71
696.501	14727.4
696.847	14799.94
697.193	14704.8
697.539	14745.47
697.885	14672.71
698.231	14610.11
698.577	14618.47
698.923	14683.33
699.269	14633.39
699.614	14542.54
699.96	14486.95
700.306	14479.04
700.651	14513.84
700.997	14340.96
701.342	14424.35
701.688	14366.5
702.033	14500.96
702.379	14411.7
702.724	14329.21
703.069	14361.08
703.415	14265.49
703.76	14269.55
704.105	14259.84
704.45	14309.33
704.795	14191.14
705.14	14151.82
705.485	14236.56
705.83	14162.89
706.175	14153.17
706.52	14136.22
706.865	14105.94
707.209	14120.63
707.554	13973.06
707.899	14158.82
708.243	14030.92
708.588	14029.33
708.932	13985.49
709.277	14074.53
709.621	13961.09
709.966	13930.81
710.31	13979.84
710.654	13837.48
710.998	13940.98
711.342	13914.08
711.687	14022.1
712.031	13792.5
712.375	13857.81
712.719	13882.45
713.063	13812.84
713.407	13900.75
713.75	13776.69
714.094	13841.77
714.438	13800.19
714.782	13856.23
715.125	13783.47
715.469	13849.9
715.812	13774.2
716.156	13738.49
716.499	13734.88
716.843	13744.37
717.186	13610.81
717.53	13754.09
717.873	13794.99
718.216	13761.54
718.559	13679.74
718.902	13655.79
719.246	13590.25
719.589	13536.01
719.932	13543.7
720.275	13616.69
720.617	13576.47
720.96	13580.08
721.303	13546.18
721.646	13602.68
721.989	13539.63
722.331	13514.55
722.674	13542.57
723.016	13570.14
723.359	13554.54
723.701	13556.8
724.044	13489.46
724.386	13494.66
724.729	13503.02
725.071	13421.67
725.413	13543.92
725.755	13496.69
726.097	13475
726.439	13367.66
726.782	13416.02
727.124	13439.97
727.465	13462.12
727.807	13428.45
728.149	13422.57
728.491	13393.19
728.833	13488.78
729.175	13415.11
729.516	13430.71
729.858	13463.93
730.199	13407.88
730.541	13439.75
730.882	13452.4
731.224	13478.61
731.565	13420.31
731.906	13406.75
732.248	13500.99
732.589	13390.71
732.93	13454.43
733.271	13367.21
733.612	13497.37
733.953	13455.34
734.294	13439.29
734.635	13451.95
734.976	13473.87
735.317	13437.94
735.658	13476.81
735.999	13500.76
736.339	13470.93
736.68	13517.94
737.021	13469.8
737.361	13569.69
737.702	13655.56
738.042	13515.45
738.383	13632.73
738.723	13662.56
739.063	13642.45
739.404	13731.94
739.744	13626.41
740.084	13625.05
740.424	13719.06
740.764	13694.43
741.104	13792.96
741.444	13773.07
741.784	13752.96
742.124	13739.85
742.464	13745.95
742.804	13780.75
743.143	13850.81
743.483	13874.08
743.823	13828.66
744.162	13857.59
744.502	14008.77
744.841	13904.82
745.181	14030.46
745.52	13971.03
745.86	14063.91
746.199	13996.57
746.538	14037.02
746.877	14050.35
747.216	14118.82
747.556	14106.85
747.895	14220.74
748.234	14181.42
748.573	14187.3
748.911	14307.52
749.25	14219.39
749.589	14258.26
749.928	14347.97
750.267	14389.78
750.605	14387.07
750.944	14410.57
751.283	14437.46
751.621	14446.05
751.96	14383.22
752.298	14537.57
752.636	14538.02
752.975	14454.86
753.313	14430.68
753.651	14519.27
753.989	14572.15
754.327	14599.26
754.666	14487.85
755.004	14737.34
755.342	14703.22
755.679	14679.94
756.017	14641.75
