Data from blue_clamp_base_FLMS001491_00039.txt Node
Date: Wed Feb 08 15:15:56 GMT 2017
User: dcchb
Spectrometer: FLMS00149
Trigger mode: 0
Integration Time (sec): 2.000000E-2
Scans to average: 10
Electric dark correction enabled: true
Nonlinearity correction enabled: false
Boxcar width: 0
XAxis mode: Wavelengths
Number of Pixels in Spectrum: 2048
>>>>>Begin Spectral Data<<<<<
341.393	-4.46
341.776	-4.46
342.16	-4.46
342.543	-47.17
342.927	-82.88
343.31	-84.01
343.693	-61.18
344.077	-83.56
344.46	-34.74
344.843	-57.12
345.226	-27.51
345.61	-35.65
345.993	-14.63
346.376	-17.8
346.759	20.62
347.142	37.12
347.525	37.34
347.908	51.58
348.291	77.79
348.674	79.83
349.057	111.92
349.44	134.06
349.823	150.56
350.206	167.06
350.588	176.1
350.971	206.15
351.354	207.28
351.737	235.98
352.119	266.04
352.502	277.56
352.884	264.68
353.267	275.08
353.65	267.85
354.032	286.83
354.414	319.37
354.797	323.66
355.179	324.12
355.562	322.31
355.944	323.44
356.326	319.6
356.709	324.34
357.091	342.87
357.473	352.14
357.855	337.22
358.238	341.29
358.62	349.2
359.002	341.52
359.384	340.16
359.766	351.91
360.148	353.04
360.53	325.92
360.912	340.84
361.294	341.29
361.676	369.99
362.057	333.16
362.439	320.73
362.821	331.57
363.203	341.74
363.584	341.74
363.966	323.21
364.348	326.38
364.729	321.18
365.111	322.31
365.493	355.08
365.874	318.92
366.256	322.76
366.637	324.12
367.019	329.99
367.4	336.32
367.781	324.12
368.163	316.66
368.544	307.85
368.925	310.56
369.306	329.99
369.688	322.08
370.069	307.39
370.45	326.15
370.831	336.77
371.212	316.66
371.593	325.25
371.974	329.54
372.355	319.6
372.736	313.49
373.117	315.53
373.498	346.49
373.879	335.41
374.26	331.12
374.641	316.66
375.021	334.06
375.402	340.39
375.783	314.4
376.163	341.06
376.544	336.77
376.925	337.9
377.305	332.03
377.686	338.13
378.066	349.43
378.447	359.14
378.827	341.29
379.208	308.3
379.588	352.14
379.968	341.97
380.349	343.78
380.729	362.08
381.109	357.34
381.489	355.53
381.87	356.66
382.25	359.37
382.63	343.1
383.01	376.32
383.39	360.95
383.77	353.04
384.15	348.3
384.53	380.16
384.91	371.35
385.29	371.35
385.67	374.06
386.049	378.58
386.429	375.19
386.809	365.02
387.189	391.23
387.568	385.36
387.948	399.14
388.328	380.16
388.707	405.02
389.087	376.32
389.466	415.64
389.846	411.57
390.225	407.05
390.605	404.11
390.984	418.12
391.363	390.1
391.743	412.7
392.122	440.5
392.501	407.05
392.881	429.42
393.26	418.12
393.639	437.79
394.018	449.31
394.397	431.01
394.776	454.73
395.155	449.54
395.534	471.68
395.913	444.79
396.292	455.64
396.671	479.14
397.05	470.1
397.429	468.74
397.808	471.46
398.186	435.75
398.565	479.37
398.944	489.08
399.323	480.04
399.701	499.48
400.08	485.69
400.458	513.49
400.837	504.9
401.215	523.21
401.594	517.11
401.972	534.05
402.351	520.95
402.729	526.14
403.107	532.02
403.486	560.95
403.864	544.9
404.242	559.82
404.62	557.78
404.999	559.59
405.377	569.76
405.755	581.51
406.133	589.65
406.511	563.43
406.889	603.43
407.267	606.82
407.645	597.33
408.023	614.28
408.401	623.77
408.779	620.38
409.156	652.47
409.534	647.5
409.912	643.88
410.29	650.43
410.667	681.85
411.045	653.37
411.422	701.51
411.8	677.55
412.178	693.82
412.555	709.64
412.933	718.46
413.31	716.87
413.687	753.26
414.065	737.21
414.442	734.95
414.819	764.1
415.197	763.43
415.574	766.82
415.951	755.97
416.328	793.03
416.705	799.58
417.082	780.37
417.46	797.32
417.837	788.74
418.214	822.41
418.591	828.06
418.967	820.6
419.344	802.52
419.721	844.55
420.098	835.74
420.475	880.94
420.852	877.55
421.228	856.98
421.605	879.81
421.982	885.91
422.358	901.73
422.735	929.98
423.111	895.63
423.488	948.05
423.864	935.63
424.241	945.79
424.617	969.52
424.994	959.13
425.37	987.38
425.746	977.66
426.123	1002.29
426.499	1005.45
426.875	1033.48
427.251	1031.89
427.627	1065.57
428.003	1046.81
428.379	1059.01
428.756	1072.57
429.132	1111.67
429.507	1092.23
429.883	1107.82
430.259	1165.22
430.635	1134.72
431.011	1165.9
431.387	1175.62
431.763	1209.97
432.138	1203.64
432.514	1256.75
432.89	1239.8
433.265	1274.37
433.641	1277.54
434.016	1285.22
434.392	1321.15
434.767	1322.28
435.143	1336.52
435.518	1343.3
435.894	1377.87
436.269	1391.21
436.644	1413.58
437.02	1422.39
437.395	1395.27
437.77	1442.73
438.145	1454.26
438.52	1493.35
438.895	1495.38
439.271	1458.1
439.646	1529.28
440.021	1565.67
440.395	1527.25
440.77	1539
441.145	1541.03
441.52	1599.11
441.895	1564.08
442.27	1643.86
442.645	1584.2
443.019	1639.11
443.394	1628.94
443.769	1659.9
444.143	1662.61
444.518	1667.13
444.892	1680.46
445.267	1729.28
445.641	1717.3
446.016	1697.64
446.39	1732.89
446.764	1734.47
447.139	1759.56
447.513	1754.59
447.887	1769.95
448.262	1804.3
448.636	1813.12
449.01	1863.96
449.384	1855.83
449.758	1841.59
450.132	1896.05
450.506	1897.41
450.88	1917.97
451.254	1937.86
451.628	1960.46
452.002	1969.27
452.376	1964.52
452.75	2011.76
453.123	2031.19
453.497	2032.09
453.871	2079.78
454.244	2081.58
454.618	2091.98
454.992	2144.86
455.365	2128.14
455.739	2206.33
456.112	2191.64
456.486	2249.26
456.859	2240.9
457.232	2248.36
457.606	2286.78
457.979	2308.47
458.352	2372.2
458.725	2382.14
459.099	2384.4
459.472	2405.87
459.845	2424.4
460.218	2488.58
460.591	2512.76
460.964	2489.03
461.337	2561.12
461.71	2597.5
462.083	2608.8
462.456	2613.32
462.829	2661.68
463.201	2679.99
463.574	2728.8
463.947	2730.15
464.32	2768.35
464.692	2772.64
465.065	2836.14
465.438	2800.89
465.81	2898.29
466.183	2938.28
466.555	2951.17
466.928	2947.1
467.3	2971.05
467.672	3022.8
468.045	3073.87
468.417	3075.68
468.789	3115.91
469.161	3138.28
469.534	3181.44
469.906	3247.43
470.278	3286.07
470.65	3275
471.022	3360.65
471.394	3408.33
471.766	3420.53
472.138	3478.38
472.51	3542.11
472.882	3572.17
473.253	3596.35
473.625	3651.71
473.997	3735.78
474.369	3734.87
474.74	3760.86
475.112	3802.67
475.484	3871.14
475.855	3947.07
476.227	4016.67
476.598	4083.56
476.97	4048.09
477.341	4163.11
477.713	4182.77
478.084	4195.43
478.455	4355.87
478.827	4353.61
479.198	4482.65
479.569	4465.48
479.94	4593.61
480.311	4561.74
480.682	4707.5
481.053	4748.86
481.424	4817.78
481.795	4876.31
482.166	4927.16
482.537	4981.62
482.908	5032.69
483.279	5065.01
483.65	5173.71
484.021	5199.69
484.391	5269.52
484.762	5354.72
485.133	5341.38
485.503	5420.25
485.874	5511.32
486.244	5505.67
486.615	5625.22
486.985	5657.53
487.356	5759.91
487.726	5741.83
488.097	5876.29
488.467	5856.4
488.837	5960.13
489.207	6041.93
489.578	6056.39
489.948	6097.52
490.318	6132.78
490.688	6191.53
491.058	6226.11
491.428	6334.58
491.798	6393.79
492.168	6441.02
492.538	6453.22
492.908	6455.03
493.278	6533.67
493.648	6530.51
494.017	6606.89
494.387	6678.75
494.757	6685.53
495.126	6745.64
495.496	6711.29
495.866	6782.93
496.235	6796.94
496.605	6885.3
496.974	6876.03
497.344	6925.07
497.713	6935.92
498.082	6998.52
498.452	7019.76
498.821	7015.69
499.19	7046.2
499.559	7094.56
499.928	7098.63
500.298	7139.3
500.667	7156.03
501.036	7163.71
501.405	7248.91
501.774	7196.93
502.143	7258.85
502.512	7320.32
502.88	7314.89
503.249	7302.69
503.618	7387.21
503.987	7386.53
504.356	7407.77
504.724	7405.74
505.093	7417.04
505.462	7435.34
505.83	7512.4
506.199	7488
506.567	7636.47
506.936	7519.86
507.304	7625.17
507.672	7662.68
508.041	7739.51
508.409	7712.62
508.777	7763.24
509.145	7752.4
509.514	7852.51
509.882	7889.11
510.25	7849.34
510.618	7905.61
510.986	7867.65
511.354	7955.78
511.722	7926.4
512.09	8064.48
512.458	8018.38
512.826	8051.14
513.193	8039.17
513.561	8110.35
513.929	8146.06
514.297	8203.46
514.664	8213.4
515.032	8246.17
515.4	8335.66
515.767	8247.75
516.135	8311.48
516.502	8243
516.869	8398.48
517.237	8385.82
517.604	8356.9
517.972	8456.33
518.339	8407.52
518.706	8510.57
519.073	8472.15
519.44	8551.24
519.808	8671.24
520.175	8672.37
520.542	8706.27
520.909	8743.56
521.276	8717.79
521.643	8775.42
522.009	8803.21
522.376	8838.69
522.743	8888.18
523.11	8923.21
523.477	9049.31
523.843	9061.74
524.21	9088.18
524.577	9096.09
524.943	9179.02
525.31	9175.86
525.676	9225.35
526.043	9280.04
526.409	9303.99
526.776	9403.88
527.142	9405.23
527.508	9425.57
527.874	9503.99
528.241	9542.18
528.607	9511.44
528.973	9575.17
529.339	9575.85
529.705	9709.41
530.071	9754.6
530.437	9746.24
530.803	9767.48
531.169	9874.6
531.535	9791.21
531.901	9879.8
532.267	9920.93
532.632	10025.1
532.998	10018.32
533.364	10036.18
533.73	10092.22
534.095	10116.4
534.461	10189.17
534.826	10176.74
535.192	10306.9
535.557	10385.55
535.923	10275.04
536.288	10316.4
536.653	10467.8
537.019	10306.68
537.384	10355.04
537.749	10451.53
538.114	10533.79
538.479	10502.61
538.845	10487.92
539.21	10533.56
539.575	10562.94
539.94	10618.53
540.305	10644.3
540.67	10618.53
541.034	10672.77
541.399	10738.53
541.764	10764.07
542.129	10776.95
542.494	10764.97
542.858	10885.87
543.223	10798.87
543.587	10914.57
543.952	10918.19
544.316	10917.96
544.681	10942.82
545.045	10983.95
545.41	11083.61
545.774	11012.87
546.138	11021.69
546.503	11088.58
546.867	11122.93
547.231	11203.38
547.595	11141.91
547.959	11161.12
548.324	11217.16
548.688	11260.1
549.052	11258.29
549.416	11281.12
549.779	11323.83
550.143	11370.15
550.507	11386.42
550.871	11419.42
551.235	11387.33
551.599	11486.08
551.962	11525.63
552.326	11493.99
552.689	11652.63
553.053	11560.43
553.417	11607.43
553.78	11761.33
554.143	11632.74
554.507	11785.74
554.87	11795.9
555.234	11903.25
555.597	11757.26
555.96	11868.67
556.323	11846.07
556.686	11843.81
557.05	11986.41
557.413	11864.15
557.776	11984.15
558.139	11992.96
558.502	12072.28
558.865	12057.59
559.228	12123.81
559.59	12168.32
559.953	12219.62
560.316	12275.67
560.679	12298.94
561.041	12342.1
561.404	12414.42
561.767	12521.31
562.129	12468.2
562.492	12490.12
562.854	12577.35
563.217	12560.18
563.579	12630.91
563.941	12715.43
564.304	12751.36
564.666	12796.56
565.028	12812.83
565.39	12801.3
565.753	12902.77
566.115	12951.58
566.477	12979.15
566.839	13073.16
567.201	13147.28
567.563	13139.15
567.925	13147.28
568.287	13220.73
568.648	13256.43
569.01	13328.75
569.372	13388.41
569.734	13283.1
570.095	13384.79
570.457	13437.44
570.819	13494.16
571.18	13513.37
571.542	13625.46
571.903	13546.82
572.265	13575.07
572.626	13684.22
572.987	13672.47
573.349	13728.96
573.71	13848.51
574.071	13844.44
574.432	13865.91
574.794	13992.23
575.155	13992.68
575.516	13933.93
575.877	13998.11
576.238	13982.06
576.599	14090.53
576.96	14019.57
577.32	14139.57
577.681	14178.44
578.042	14215.95
578.403	14216.63
578.763	14324.88
579.124	14235.61
579.485	14352.45
579.845	14345.44
580.206	14321.49
580.566	14351.54
580.927	14359.68
581.287	14369.85
581.648	14424.54
582.008	14548.83
582.368	14515.61
582.728	14452.33
583.089	14484.42
583.449	14536.17
583.809	14547.7
584.169	14518.54
584.529	14510.41
584.889	14727.35
585.249	14596.28
585.609	14449.85
585.969	14606.23
586.329	14522.16
586.688	14615.49
587.048	14604.87
587.408	14549.28
587.768	14559.67
588.127	14614.14
588.487	14615.49
588.846	14695.72
589.206	14563.97
589.565	14629.73
589.925	14721.93
590.284	14610.29
590.643	14672.67
591.003	14677.18
591.362	14695.26
591.721	14730.29
592.08	14770.29
592.44	14761.93
592.799	14813.23
593.158	14776.84
593.517	14775.04
593.876	14797.18
594.235	14655.26
594.593	14774.81
594.952	14793.57
595.311	14766
595.67	14774.36
596.029	14862.94
596.387	14904.52
596.746	14888.03
597.104	14880.34
597.463	14757.18
597.822	14870.4
598.18	14812.77
598.538	14812.55
598.897	14966.67
599.255	14780.91
599.613	14945.65
599.972	14849.61
600.33	14931.64
600.688	14863.85
601.046	14855.26
601.404	14970.74
601.762	14965.99
602.12	15138.87
602.478	14942.04
602.836	15005.54
603.194	15001.02
603.552	14999.21
603.91	14927.57
604.268	15055.93
604.625	15038.31
604.983	15055.48
605.341	14987.01
605.698	15095.93
606.056	15091.64
606.413	15147.23
606.771	15161.01
607.128	15154.91
607.485	15074.91
607.843	15160.11
608.2	15197.85
608.557	15257.28
608.914	15118.76
609.272	15225.87
609.629	15246.44
609.986	15305.42
610.343	15270.62
610.7	15345.19
611.057	15281.69
611.414	15334.79
611.771	15410.27
612.127	15359.2
612.484	15399.43
612.841	15536.15
613.198	15441.46
613.554	15405.75
613.911	15444.85
614.267	15488.46
614.624	15546.99
614.98	15469.25
615.337	15600.78
615.693	15518.07
616.05	15546.99
616.406	15596.93
616.762	15604.17
617.118	15577.27
617.475	15728.68
617.831	15546.09
618.187	15706.54
618.543	15655.24
618.899	15765.07
619.255	15763.94
619.611	15692.53
619.967	15817.49
620.323	15892.29
620.678	15753.31
621.034	15684.39
621.39	15789.7
621.746	15687.1
622.101	15875.57
622.457	15682.36
622.812	15873.76
623.168	15837.83
623.523	15929.36
623.879	15941.56
624.234	15886.19
624.589	15911.95
624.945	15925.29
625.3	15986.98
625.655	15954.89
626.01	15971.84
626.365	16019.07
626.72	15982.46
627.075	15978.62
627.43	15943.14
627.785	15960.54
628.14	15930.71
628.495	16052.97
628.85	16095.9
629.205	16030.14
629.559	16117.15
629.914	15944.72
630.269	16031.27
630.623	16079.86
630.978	16048.45
631.332	16087.77
631.687	16126.41
632.041	16092.06
632.396	16151.95
632.75	16072.18
633.104	16014.32
633.459	16045.51
633.813	16091.61
634.167	16124.15
634.521	16093.87
634.875	16148.56
635.229	16105.62
635.583	16086.41
635.937	16157.6
636.291	16053.65
636.645	16185.85
636.999	16094.32
637.352	16149.01
637.706	16060.2
638.06	16159.63
638.413	16142.91
638.767	16096.36
639.121	16206.41
639.474	16098.39
639.828	16103.14
640.181	16164.83
640.534	16159.41
640.888	16101.1
641.241	16061.56
641.594	16115.56
641.947	16182.46
642.301	16068.56
642.654	16222.68
643.007	16211.83
643.36	16204.83
643.713	16116.92
644.066	16233.53
644.419	16166.19
644.771	16168.9
645.124	15933.87
645.477	15975
645.83	15839.19
646.182	15788.12
646.535	15770.72
646.888	15934.55
647.24	15792.18
647.593	15903.14
647.945	15926.19
648.298	15839.87
648.65	15765.52
649.002	15747.89
649.355	15890.03
649.707	15860.66
650.059	15891.62
650.411	16065.4
650.763	16161.67
651.115	16305.62
651.467	16327.54
651.819	16422
652.171	16346.29
652.523	16310.81
652.875	16298.61
653.227	16249.35
653.578	16493.18
653.93	16327.76
654.282	16412.05
654.633	16330.7
654.985	16369.12
655.337	16370.93
655.688	16348.1
656.039	16532.5
656.391	16275.33
656.742	16434.43
657.094	16408.89
657.445	16499.06
657.796	16553.07
658.147	16426.07
658.498	16534.09
658.849	16508.32
659.2	16418.83
659.551	16438.27
659.902	16525.5
660.253	16513.75
660.604	16567.98
660.955	16446.63
661.306	16523.46
661.656	16630.13
662.007	16523.69
662.358	16604.37
662.708	16490.47
663.059	16623.12
663.409	16429.91
663.76	16534.76
664.11	16602.11
664.461	16629
664.811	16593.97
665.161	16532.73
665.511	16551.94
665.862	16551.26
666.212	16597.59
666.562	16558.49
666.912	16559.4
667.262	16455.44
667.612	16533.63
667.962	16547.19
668.312	16471.26
668.662	16516.23
669.011	16487.76
669.361	16462
669.711	16438.95
670.06	16482.56
670.41	16381.77
670.76	16418.83
671.109	16342.9
671.459	16335.22
671.808	16270.82
672.157	16340.42
672.507	16273.75
672.856	16292.06
673.205	16336.35
673.554	16296.58
673.904	16211.61
674.253	16287.54
674.602	16148.56
674.951	15978.85
675.3	15813.2
675.649	16098.39
675.998	16040.99
676.346	16102.23
676.695	16128.45
677.044	15928.68
677.393	15923.48
677.741	15921.45
678.09	15976.59
678.438	15827.44
678.787	15930.26
679.135	15833.99
679.484	15806.19
679.832	15814.33
680.181	15720.1
680.529	15759.87
680.877	15724.16
681.225	15659.31
681.573	15816.82
681.922	15594
682.27	15550.83
682.618	15610.72
682.966	15491.63
683.314	15569.14
683.661	15483.49
684.009	15365.98
684.357	15377.73
684.705	15332.53
685.053	15420.22
685.4	15448.01
685.748	15219.77
686.095	15303.61
686.443	15197.85
686.79	15231.75
687.138	15238.3
687.485	15316.72
687.832	15165.08
688.18	15154.01
688.527	15176.15
688.874	15168.92
689.221	15018.64
689.568	14988.36
689.915	15009.61
690.262	14949.04
690.609	15021.58
690.956	14979.55
691.303	14907.24
691.65	14853.23
691.997	14887.35
692.344	14741.59
692.69	14873.11
693.037	14825.43
693.383	14705.21
693.73	14764.19
694.077	14712.44
694.423	14695.72
694.769	14713.79
695.116	14565.32
695.462	14580.01
695.808	14562.39
696.155	14596.06
696.501	14572.78
696.847	14485.1
697.193	14440.81
697.539	14544.31
697.885	14502.5
698.231	14399.23
698.577	14500.47
698.923	14398.77
699.269	14331.43
699.614	14326.23
699.96	14255.5
700.306	14261.15
700.651	14214.15
700.997	14189.06
701.342	14153.13
701.688	14186.58
702.033	14032.91
702.379	14213.92
702.724	14088.27
703.069	14147.26
703.415	13999.01
703.76	14064.09
704.105	14060.93
704.45	14117.88
704.795	13910.65
705.14	13950.65
705.485	13921.05
705.83	13990.42
706.175	13905.91
706.52	13917.43
706.865	13853.48
707.209	13998.78
707.554	13859.81
707.899	13926.47
708.243	13796.53
708.588	13800.6
708.932	13758.11
709.277	13797.89
709.621	13828.85
709.966	13696.42
710.31	13753.82
710.654	13685.35
710.998	13726.25
711.342	13656.19
711.687	13696.19
712.031	13578.68
712.375	13662.97
712.719	13660.49
713.063	13600.15
713.407	13639.02
713.75	13594.5
714.094	13650.55
714.438	13529.42
714.782	13666.14
715.125	13549.98
715.469	13575.29
715.812	13531.9
716.156	13470.66
716.499	13472.7
716.843	13514.5
717.186	13469.53
717.53	13470.44
717.873	13544.56
718.216	13420.27
718.559	13399.25
718.902	13328.75
719.246	13428.63
719.589	13375.52
719.932	13358.58
720.275	13316.99
720.617	13352.47
720.96	13388.86
721.303	13364
721.646	13412.13
721.989	13220.5
722.331	13338.46
722.674	13251.23
723.016	13247.62
723.359	13233.38
723.701	13363.77
724.044	13288.97
724.386	13159.03
724.729	13262.08
725.071	13199.03
725.413	13285.13
725.755	13164.23
726.097	13192.93
726.439	13157.68
726.782	13136.89
727.124	13259.82
727.465	13097.79
727.807	13080.62
728.149	13182.31
728.491	13127.62
728.833	13119.03
729.175	13160.61
729.516	13074.51
729.858	13105.7
730.199	13196.77
730.541	13093.72
730.882	13020.73
731.224	13179.14
731.565	13027.96
731.906	13095.76
732.248	13166.49
732.589	13092.37
732.93	13104.12
733.271	13128.3
733.612	13083.55
733.953	13249.2
734.294	13096.21
734.635	13139.82
734.976	13118.81
735.317	13135.53
735.658	13054.18
735.999	13081.97
736.339	13219.37
736.68	13202.65
737.021	13197.45
737.361	13140.95
737.702	13237
738.042	13262.53
738.383	13329.65
738.723	13309.76
739.063	13275.64
739.404	13316.54
739.744	13324.23
740.084	13211.01
740.424	13338.91
740.764	13371.46
741.104	13427.05
741.444	13360.84
741.784	13450.78
742.124	13440.61
742.464	13392.7
742.804	13469.31
743.143	13447.84
743.483	13548.63
743.823	13502.07
744.162	13490.78
744.502	13541.85
744.841	13451.91
745.181	13613.48
745.52	13547.95
745.86	13619.13
746.199	13647.38
746.538	13591.34
746.877	13694.84
747.216	13706.59
747.556	13767.6
747.895	13734.84
748.234	13685.12
748.573	13713.82
748.911	13767.83
749.25	13766.93
749.589	13750.88
749.928	13835.62
750.267	13837.21
750.605	13833.14
750.944	13847.15
751.283	13918.79
751.621	13958.33
751.96	13871.56
752.298	13954.27
752.636	13925.57
752.975	13901.61
753.313	13949.29
753.651	14078.56
753.989	14084.43
754.327	14124.43
754.666	14063.19
755.004	14071.32
755.342	14155.16
755.679	14116.3
756.017	14100.7
756.355	14147.71
