Data from blue_shiny_book_FLMS001491_00096.txt Node
Date: Wed Feb 08 15:27:48 GMT 2017
User: dcchb
Spectrometer: FLMS00149
Trigger mode: 0
Integration Time (sec): 2.000000E-2
Scans to average: 10
Electric dark correction enabled: true
Nonlinearity correction enabled: false
Boxcar width: 0
XAxis mode: Wavelengths
Number of Pixels in Spectrum: 2048
>>>>>Begin Spectral Data<<<<<
341.393	1.99
341.776	1.99
342.16	1.99
342.543	-46.82
342.927	-81.17
343.31	-70.55
343.693	-80.94
344.077	-57.44
344.46	-60.15
344.843	-75.97
345.226	-43.88
345.61	-36.43
345.993	-7.73
346.376	10.35
346.759	23.23
347.142	28.21
347.525	46.96
347.908	39.96
348.291	83.57
348.674	80.41
349.057	120.41
349.44	137.58
349.823	151.59
350.206	165.6
350.588	194.08
350.971	209.67
351.354	225.71
351.737	251.02
352.119	242.89
352.502	274.53
352.884	270.68
353.267	277.46
353.65	309.1
354.032	285.37
354.414	333.51
354.797	318.14
355.179	309.1
355.562	326.95
355.944	327.63
356.326	319.95
356.709	327.86
357.091	326.73
357.473	338.93
357.855	340.06
358.238	334.19
358.62	361.08
359.002	337.58
359.384	340.51
359.766	346.62
360.148	322.21
360.53	344.58
360.912	346.62
361.294	332.38
361.676	333.73
362.057	335.09
362.439	310.68
362.821	339.38
363.203	306.39
363.584	339.61
363.966	333.73
364.348	312.27
364.729	319.95
365.111	313.17
365.493	317.24
365.874	320.85
366.256	326.73
366.637	298.48
367.019	321.31
367.4	290.8
367.781	305.94
368.163	329.89
368.544	314.98
368.925	336.22
369.306	351.13
369.688	298.03
370.069	316.79
370.45	324.24
370.831	332.6
371.212	324.24
371.593	328.76
371.974	347.07
372.355	345.94
372.736	321.31
373.117	337.35
373.498	344.13
373.879	322.21
374.26	326.73
374.641	314.53
375.021	326.5
375.402	345.26
375.783	322.89
376.163	341.42
376.544	364.24
376.925	345.94
377.305	358.37
377.686	340.74
378.066	345.94
378.447	332.15
378.827	338.25
379.208	332.38
379.588	341.87
379.968	347.52
380.349	377.35
380.729	356.11
381.109	354.07
381.489	350
381.87	364.24
382.25	380.96
382.63	359.04
383.01	381.19
383.39	379.83
383.77	375.99
384.15	394.75
384.53	371.47
384.91	385.48
385.29	375.54
385.67	365.82
386.049	426.16
386.429	394.98
386.809	397.24
387.189	400.17
387.568	376.9
387.948	399.72
388.328	390.23
388.707	409.21
389.087	401.53
389.466	421.42
389.846	424.58
390.225	406.27
390.605	420.06
390.984	400.4
391.363	412.83
391.743	425.94
392.122	432.26
392.501	418.48
392.881	438.14
393.26	442.43
393.639	443.11
394.018	468.87
394.397	443.34
394.776	470.45
395.155	438.59
395.534	444.92
395.913	477.69
396.292	483.33
396.671	480.85
397.05	461.19
397.429	458.7
397.808	485.82
398.186	514.29
398.565	480.17
398.944	469.55
399.323	496.89
399.701	504.58
400.08	491.7
400.458	504.58
400.837	508.19
401.215	519.27
401.594	515.42
401.972	505.03
402.351	530.57
402.729	512.94
403.107	535.76
403.486	534.63
403.864	548.42
404.242	559.04
404.62	554.52
404.999	549.32
405.377	573.28
405.755	584.12
406.133	578.93
406.511	582.32
406.889	607.17
407.267	602.43
407.645	600.85
408.023	626.83
408.401	611.92
408.779	638.58
409.156	642.65
409.534	633.16
409.912	645.36
410.29	649.88
410.667	646.72
411.045	697.11
411.422	672.93
411.8	692.37
412.178	693.5
412.555	720.62
412.933	739.37
413.31	756.55
413.687	740.5
414.065	739.15
414.442	749.54
414.819	752.48
415.197	764.68
415.574	780.05
415.951	793.61
416.328	822.31
416.705	804
417.082	811.01
417.46	798.13
417.837	830.67
418.214	849.2
418.591	831.57
418.967	847.39
419.344	851.69
419.721	872.7
420.098	887.17
420.475	877.22
420.852	880.61
421.228	899.37
421.605	888.75
421.982	897.11
422.358	950.22
422.735	928.97
423.111	940.27
423.488	966.49
423.864	975.53
424.241	995.64
424.617	994.96
424.994	1003.32
425.37	1007.61
425.746	1032.47
426.123	1049.87
426.499	1043.32
426.875	1034.51
427.251	1086.48
427.627	1101.17
428.003	1104.56
428.379	1121.74
428.756	1121.06
429.132	1135.07
429.507	1148.4
429.883	1174.84
430.259	1174.84
430.635	1230.43
431.011	1221.17
431.387	1237.67
431.763	1269.08
432.138	1271.79
432.514	1270.66
432.89	1335.06
433.265	1345.68
433.641	1362.86
434.016	1356.31
434.392	1363.99
434.767	1406.02
435.143	1425.23
435.518	1423.65
435.894	1457.09
436.269	1450.31
436.644	1516.75
437.02	1495.96
437.395	1500.71
437.77	1516.3
438.145	1548.39
438.52	1566.47
438.895	1563.53
439.271	1603.31
439.646	1626.58
440.021	1618.22
440.395	1655.51
440.77	1640.14
441.145	1680.82
441.52	1739.35
441.895	1743.64
442.27	1759.01
442.645	1763.75
443.019	1752
443.394	1746.13
443.769	1768.05
444.143	1777.99
444.518	1817.08
444.892	1824.99
445.267	1839.01
445.641	1859.57
446.016	1854.82
446.39	1844.43
446.764	1896.63
447.139	1920.13
447.513	1908.83
447.887	1886.01
448.262	1915.84
448.636	1938.66
449.01	1977.76
449.384	1995.61
449.758	2001.03
450.132	2013.01
450.506	2051.88
450.88	2053.24
451.254	2059.34
451.628	2084.2
452.002	2155.16
452.376	2168.71
452.75	2142.73
453.123	2169.84
453.497	2174.36
453.871	2233.12
454.244	2317.64
454.618	2291.42
454.992	2328.03
455.365	2348.14
455.739	2391.53
456.112	2420.91
456.486	2448.48
456.859	2460.46
457.232	2511.53
457.606	2549.27
457.979	2560.79
458.352	2596.05
458.725	2608.48
459.099	2653.67
459.472	2727.34
459.845	2719.21
460.218	2726.89
460.591	2790.39
460.964	2827.23
461.337	2841.69
461.71	2910.84
462.083	2949.94
462.456	3003.27
462.829	2954
463.201	3057.96
463.574	3059.54
463.947	3085.75
464.32	3186.54
464.692	3199.87
465.065	3242.13
465.438	3224.96
465.81	3285.29
466.183	3344.5
466.555	3425.86
466.928	3411.39
467.3	3462.24
467.672	3571.16
468.045	3615.23
468.417	3629.24
468.789	3638.05
469.161	3692.97
469.534	3730.48
469.906	3859.52
470.278	3882.12
470.65	3863.58
471.022	3982
471.394	4007.54
471.766	4076.91
472.138	4119.85
472.51	4245.04
472.882	4282.1
473.253	4353.74
473.625	4384.48
473.997	4468.54
474.369	4503.57
474.74	4579.5
475.112	4655.2
475.484	4692.94
475.855	4795.09
476.227	4843.22
476.598	4978.58
476.97	5021.75
477.341	5121.18
477.713	5234.17
478.084	5261.74
478.455	5429.19
478.827	5427.84
479.198	5628.74
479.569	5637.1
479.94	5782.86
480.311	5856.07
480.682	5955.28
481.053	6100.59
481.424	6184.43
481.795	6190.76
482.166	6272.56
482.537	6453.8
482.908	6528.83
483.279	6637.52
483.65	6728.37
484.021	6933.11
484.391	7001.36
484.762	7021.24
485.133	7089.26
485.503	7225.98
485.874	7397.96
486.244	7474.11
486.615	7618.97
486.985	7652.41
487.356	7805.85
487.726	7818.96
488.097	8018.05
488.467	8117.71
488.837	8269.12
489.207	8340.98
489.578	8520.64
489.948	8619.84
490.318	8711.82
490.688	8738.26
491.058	9011.25
491.428	9102.77
491.798	9207.63
492.168	9324.68
492.538	9430.22
492.908	9486.71
493.278	9575.98
493.648	9590.67
494.017	9740.49
494.387	9827.27
494.757	9902.3
495.126	10025.91
495.496	10096.42
495.866	10233.59
496.235	10354.49
496.605	10501.83
496.974	10568.27
497.344	10648.94
497.713	10781.82
498.082	10862.95
498.452	11002.38
498.821	11007.35
499.19	11025.2
499.559	11100.23
499.928	11213
500.298	11227.46
500.667	11379.32
501.036	11381.13
501.405	11455.48
501.774	11517.39
502.143	11694.79
502.512	11824.28
502.88	11891.4
503.249	11822.7
503.618	12025.18
503.987	12123.03
504.356	12221.56
504.724	12242.35
505.093	12380.88
505.462	12387.2
505.83	12550.36
506.199	12596.69
506.567	12712.39
506.936	12633.75
507.304	12854.31
507.672	12768.21
508.041	12938.83
508.409	13093.62
508.777	13107.64
509.145	13345.6
509.514	13354.41
509.882	13577.68
510.25	13556.66
510.618	13720.27
510.986	13784.68
511.354	13933.15
511.722	14036.88
512.09	14188.74
512.458	14155.74
512.826	14266.48
513.193	14216.31
513.561	14250.66
513.929	14351.9
514.297	14455.4
514.664	14592.34
515.032	14642.06
515.4	14839.79
515.767	14871.66
516.135	15013.8
516.502	15043.4
516.869	15321.14
517.237	15368.59
517.604	15371.76
517.972	15595.03
518.339	15693.1
518.706	15758.41
519.073	15829.15
519.44	15846.32
519.808	16012.42
520.175	16026.2
520.542	16191.85
520.909	16313.2
521.276	16241.34
521.643	16426.64
522.009	16425.29
522.376	16657.15
522.743	16742.57
523.11	16994.31
523.477	17201.99
523.843	17372.16
524.21	17615.09
524.577	17760.17
524.943	17841.52
525.31	18005.81
525.676	18113.61
526.043	18196.09
526.409	18220.04
526.776	18469.75
527.142	18416.2
527.508	18548.62
527.874	18561.73
528.241	18745.68
528.607	18777.99
528.973	18886.01
529.339	18950.42
529.705	19186.12
530.071	19386.57
530.437	19391.99
530.803	19659.1
531.169	19799.21
531.535	19842.37
531.901	20037.4
532.267	20118.07
532.632	20189.71
532.998	20395.13
533.364	20412.3
533.73	20568
534.095	20729.58
534.461	20721.22
534.826	20763.25
535.192	20860.43
535.557	20938.16
535.923	20837.15
536.288	20856.36
536.653	21006.18
537.019	20948.79
537.384	21159.63
537.749	21287.08
538.114	21422.9
538.479	21461.09
538.845	21697.69
539.21	21705.6
539.575	21830.12
539.94	21990.79
540.305	22115.31
540.67	22027.63
541.034	22047.97
541.399	22152.6
541.764	22143.56
542.129	22330.22
542.494	22333.61
542.858	22280.95
543.223	22227.4
543.587	22328.41
543.952	22365.25
544.316	22409.76
544.681	22443.44
545.045	22642.07
545.41	22800.71
545.774	22653.6
546.138	22885.68
546.503	22857.21
546.867	23056.75
547.231	23319.8
547.595	23326.58
547.959	23452.67
548.324	23409.29
548.688	23545.55
549.052	23600.47
549.416	23603.18
549.779	23554.37
550.143	23660.58
550.507	23696.74
550.871	23705.55
551.235	23604.53
551.599	23720.24
551.962	23754.14
552.326	23712.1
552.689	23987.8
553.053	23716.17
553.417	23831.2
553.78	24192.32
554.143	24197.74
554.507	24382.14
554.87	24510.05
555.234	24852.41
555.597	24700.55
555.96	24881.11
556.323	24883.82
556.686	24905.74
557.05	25056.93
557.413	25140.09
557.776	25148.9
558.139	25286.52
558.502	25229.58
558.865	25256.02
559.228	25180.31
559.59	25233.64
559.953	25301.67
560.316	25493.07
560.679	25490.81
561.041	25681.99
561.404	25806.96
561.767	25930.8
562.129	25972.38
562.492	26278.59
562.854	26328.3
563.217	26486.27
563.579	26631.35
563.941	26922.64
564.304	27036.31
564.666	27139.58
565.028	27095.74
565.39	27261.16
565.753	27378.22
566.115	27395.85
566.477	27447.37
566.839	27616.86
567.201	27582.06
567.563	27384.1
567.925	27631.77
568.287	27548.61
568.648	27539.57
569.01	27588.61
569.372	27829.96
569.734	27788.83
570.095	27911.31
570.457	28071.76
570.819	28185.66
571.18	28296.16
571.542	28512.88
571.903	28612.54
572.265	28791.52
572.626	28828.8
572.987	29044.17
573.349	29105.86
573.71	29275.12
574.071	29289.13
574.432	29346.53
574.794	29428.34
575.155	29386.76
575.516	29248
575.877	29364.61
576.238	29416.13
576.599	29393.54
576.96	29384.72
577.32	29385.63
577.681	29546.07
578.042	29595.56
578.403	29643.92
578.763	29634.88
579.124	29696.13
579.485	29754.2
579.845	29927.98
580.206	29881.66
580.566	30111.26
580.927	30247.3
581.287	30437.35
581.648	30326.62
582.008	30541.98
582.368	30416.11
582.728	30522.54
583.089	30603.9
583.449	30636.44
583.809	30628.3
584.169	30567.29
584.529	30511.7
584.889	30741.07
585.249	30443.68
585.609	30502.43
585.969	30460.85
586.329	30361.87
586.688	30457.69
587.048	30520.51
587.408	30445.71
587.768	30426.5
588.127	30449.1
588.487	30257.69
588.846	30786.72
589.206	30600.06
589.565	30631.69
589.925	30730
590.284	30732.71
590.643	30879.82
591.003	31032.81
591.362	31162.3
591.721	31023.77
592.08	31150.33
592.44	31196.43
592.799	31231
593.158	31226.48
593.517	31097.67
593.876	31182.41
594.235	31079.37
594.593	31162.98
594.952	31160.27
595.311	30895.64
595.67	30996.2
596.029	31098.8
596.387	31072.59
596.746	31140.38
597.104	30941.52
597.463	30995.53
597.822	31118.01
598.18	30968.41
598.538	31033.27
598.897	31193.26
599.255	31034.4
599.613	31580.82
599.972	31332.02
600.33	31539.24
600.688	31509.86
601.046	31639.58
601.404	31743.98
601.762	31597.54
602.12	31901.27
602.478	31772.46
602.836	31797.54
603.194	31643.65
603.552	31848.16
603.91	31759.57
604.268	31759.35
604.625	31645.68
604.983	31621.27
605.341	31419.92
605.698	31506.25
606.056	31720.48
606.413	31634.15
606.771	31864.2
607.128	31707.6
607.485	31545.57
607.843	31686.36
608.2	31872.11
608.557	31983.3
608.914	32097.42
609.272	32179
609.629	32068.27
609.986	32273.01
610.343	32127.02
610.7	32397.52
611.057	32374.25
611.414	32507.8
611.771	32625.99
612.127	32681.58
612.484	32722.71
612.841	32833.44
613.198	32641.81
613.554	32789.83
613.911	32893.78
614.267	32914.8
614.624	32764.29
614.98	32709.38
615.337	32968.13
615.693	32686.78
616.05	32734.46
616.406	32889.71
616.762	32699.44
617.118	32648.59
617.475	32608.82
617.831	32757.29
618.187	32750.28
618.543	32766.33
618.899	33134
619.255	33076.83
619.611	33023.5
619.967	33115.92
620.323	33315.92
620.678	33136.26
621.034	33226.65
621.39	33315.47
621.746	33287.9
622.101	33540.77
622.457	33358.4
622.812	33451.28
623.168	33585.97
623.523	33550.04
623.879	33672.97
624.234	33468.23
624.589	33533.54
624.945	33570.6
625.3	33773.76
625.655	33576.48
626.01	33598.17
626.365	33359.76
626.72	33452.86
627.075	33355.69
627.43	33336.48
627.785	33294
628.14	33275.47
628.495	33235.92
628.85	33154.34
629.205	33110.5
629.559	33225.52
629.914	33022.82
630.269	33235.69
630.623	33093.55
630.978	33075.25
631.332	33272.3
631.687	33324.96
632.041	33150.05
632.396	33390.04
632.75	33228.24
633.104	33273.21
633.459	33214.9
633.813	33207.22
634.167	33211.29
634.521	33079.99
634.875	33169.48
635.229	33148.24
635.583	33010.84
635.937	33014.46
636.291	33004.06
636.645	32969.94
636.999	32719.55
637.352	32917.06
637.706	32717.29
638.06	32823.5
638.413	32708.25
638.767	32493.11
639.121	32344.42
639.474	32257.64
639.828	32317.07
640.181	32305.77
640.534	32298.77
640.888	32085.67
641.241	32095.16
641.594	32186.46
641.947	32301.48
642.301	32148.04
642.654	32346
643.007	32209.96
643.36	32260.8
643.713	32276.62
644.066	32460.57
644.419	32283.63
644.771	32308.94
645.124	32214.03
645.477	32241.82
645.83	32131.09
646.182	31965.67
646.535	31513.25
646.888	31417.44
647.24	31048.63
647.593	31218.8
647.945	30986.04
648.298	30867.39
648.65	30861.97
649.002	30922.08
649.355	30971.12
649.707	31088.63
650.059	31101.96
650.411	31519.58
650.763	31648.62
651.115	31817.2
651.467	31404.1
651.819	31588.51
652.171	31517.55
652.523	31401.39
652.875	31450.2
653.227	31354.39
653.578	31677.54
653.93	31561.84
654.282	31371.79
654.633	31346.03
654.985	31418.34
655.337	31481.39
655.688	31449.75
656.039	31604.1
656.391	31457.44
656.742	31637.77
657.094	31719.58
657.445	31647.71
657.796	31812.45
658.147	31728.16
658.498	31656.98
658.849	31851.1
659.2	31786.92
659.551	31486.14
659.902	31605
660.253	31561.16
660.604	31679.12
660.955	31456.31
661.306	31484.78
661.656	31244.79
662.007	31287.5
662.358	31189.42
662.708	31207.95
663.059	31157.33
663.409	31021.74
663.76	31089.31
664.11	30965.02
664.461	30982.19
664.811	30994.62
665.161	30977.22
665.511	30925.02
665.862	30984.91
666.212	31139.25
666.562	31133.38
666.912	30967.73
667.262	31192.81
667.612	31287.5
667.962	31259.02
668.312	31404.33
668.662	31488.4
669.011	31431
669.361	31510.09
669.711	31395.52
670.06	31475.06
670.41	31380.15
670.76	31357.78
671.109	31354.61
671.459	31279.81
671.808	31249.98
672.157	31247.72
672.507	30989.2
672.856	31082.08
673.205	31081.85
673.554	30859.94
673.904	30801.63
674.253	30959.14
674.602	30640.96
674.951	30401.64
675.3	30156.45
675.649	30550.79
675.998	30416.78
676.346	30415.66
676.695	30534.07
677.044	30185.38
677.393	30243.46
677.741	30281.87
678.09	30262.89
678.438	30227.19
678.787	30302.21
679.135	30290.23
679.484	30132.72
679.832	30331.59
680.181	30179.96
680.529	30377.69
680.877	30263.12
681.225	30259.5
681.573	30483.45
681.922	30346.5
682.27	30330.69
682.618	30343.57
682.966	30303.34
683.314	30259.73
683.661	30266.05
684.009	30047.76
684.357	29961.66
684.705	29978.38
685.053	29933.63
685.4	29968.44
685.748	29707.43
686.095	29659.74
686.443	29515.11
686.79	29302.01
687.138	29369.58
687.485	29311.28
687.832	29098.85
688.18	29098.85
688.527	28857.28
688.874	28779.77
689.221	28674.01
689.568	28603.73
689.915	28507.91
690.262	28488.02
690.609	28448.7
690.956	28245.09
691.303	28234.47
691.65	28111.99
691.997	28136.84
692.344	27948.83
692.69	28056.4
693.037	27962.16
693.383	27735.05
693.73	27741.6
694.077	27835.61
694.423	27957.19
694.769	27712.22
695.116	27703.64
695.462	27704.77
695.808	27506.13
696.155	27750.87
696.501	27632.23
696.847	27520.14
697.193	27341.61
697.539	27426.81
697.885	27187.27
698.231	27093.03
698.577	27026.82
698.923	27140.49
699.269	26811
699.614	26662.53
699.96	26631.57
700.306	26595.42
700.651	26378.7
700.997	26174.64
701.342	26077.69
701.688	26029.56
702.033	25886.06
702.379	25674.31
702.724	25718.15
703.069	25780.75
703.415	25463.24
703.76	25506.86
704.105	25484.26
704.45	25419.4
704.795	25198.17
705.14	25118.17
705.485	25125.4
705.83	25072.29
706.175	25306.86
706.52	25042.69
706.865	25112.52
707.209	25106.64
707.554	25158.17
707.899	25156.81
708.243	24960.21
708.588	25012.63
708.932	24897.16
709.277	24929.25
709.621	24980.77
709.966	24861.45
710.31	24886.53
710.654	24612.64
710.998	24711.62
711.342	24686.09
711.687	24569.71
712.031	24389.37
712.375	24413.33
712.719	24281.35
713.063	24222.37
713.407	24361.12
713.75	24023.05
714.094	23927.01
714.438	23892.21
714.782	23805.89
715.125	23761.82
715.469	23643.18
715.812	23532.45
716.156	23400.92
716.499	23267.82
716.843	23412.9
717.186	23280.48
717.53	23339.46
717.873	23269.18
718.216	23134.94
718.559	23070.31
718.902	23058.11
719.246	23184.88
719.589	23117.09
719.932	23200.48
720.275	23026.24
720.617	23137.65
720.96	23090.65
721.303	23106.47
721.646	23189.63
721.989	23119.12
722.331	23265.11
722.674	23168.84
723.016	23265.79
723.359	23238.22
723.701	23150.31
724.044	23113.25
724.386	22956.87
724.729	23120.03
725.071	23127.71
725.413	23094.49
725.755	23099.46
726.097	22979.47
726.439	22832.8
726.782	22854.27
727.124	22834.84
727.465	22667.38
727.807	22625.8
728.149	22494.96
728.491	22570.21
728.833	22605.24
729.175	22560.72
729.516	22480.72
729.858	22495.19
730.199	22586.03
730.541	22472.81
730.882	22287.51
731.224	22417
731.565	22245.93
731.906	22254.51
732.248	22208.64
732.589	22220.39
732.93	22145.59
733.271	22111.69
733.612	22324.34
733.953	22248.41
734.294	22249.99
734.635	22243.89
734.976	22196.89
735.317	22316.43
735.658	22282.76
735.999	22384
736.339	22406.37
736.68	22255.42
737.021	22237.57
737.361	22432.14
737.702	22478.91
738.042	22442.98
738.383	22452.02
738.723	22518.24
739.063	22510.1
739.404	22651.11
739.744	22576.99
740.084	22518.46
740.424	22624
740.764	22559.14
741.104	22669.19
741.444	22476.43
741.784	22449.54
742.124	22494.28
742.464	22425.13
742.804	22431.91
743.143	22351.46
743.483	22420.16
743.823	22318.01
744.162	22302.42
744.502	22409.31
744.841	22238.92
745.181	22329.09
745.52	22194.85
745.86	22332.93
746.199	22346.04
746.538	22245.47
746.877	22322.31
747.216	22316.66
747.556	22377.45
747.895	22323.89
748.234	22326.38
748.573	22372.02
748.911	22436.2
749.25	22435.75
749.589	22414.28
749.928	22509.42
750.267	22671.9
750.605	22458.58
750.944	22621.28
751.283	22523.21
751.621	22672.13
751.96	22600.04
752.298	22717.1
752.636	22713.03
752.975	22806.82
753.313	22727.04
753.651	22918
753.989	22965.68
754.327	22937.89
754.666	22897.89
755.004	23011.78
