Data from blue_surface_keyboard_FLMS001491_019.txt Node
Date: Tue Feb 07 11:12:43 GMT 2017
User: dcchb
Spectrometer: FLMS00149
Trigger mode: 0
Integration Time (sec): 2.000000E-2
Scans to average: 10
Electric dark correction enabled: true
Nonlinearity correction enabled: false
Boxcar width: 0
XAxis mode: Wavelengths
Number of Pixels in Spectrum: 2048
>>>>>Begin Spectral Data<<<<<
341.393	-20.96
341.776	-20.96
342.16	-20.96
342.543	-57.57
342.927	-68.64
343.31	-60.28
343.693	-52.6
344.077	-77.23
344.46	-55.99
344.843	-54.41
345.226	-48.98
345.61	-31.58
345.993	-33.61
346.376	-10.79
346.759	28.76
347.142	28.76
347.525	29.89
347.908	62.88
348.291	80.28
348.674	87.06
349.057	107.85
349.44	120.73
349.823	138.81
350.206	151.24
350.588	173.84
350.971	204.12
351.354	237.11
351.737	206.83
352.119	229.43
352.502	234.4
352.884	248.64
353.267	258.35
353.65	255.42
354.032	263.78
354.414	282.76
354.797	280.28
355.179	304.23
355.562	284.12
355.944	270.56
356.326	292.93
356.709	292.7
357.091	304.68
357.473	308.75
357.855	321.86
358.238	321.86
358.62	315.75
359.002	329.09
359.384	304.23
359.766	323.89
360.148	311.69
360.53	298.58
360.912	298.58
361.294	312.82
361.676	280.5
362.057	291.57
362.439	300.61
362.821	305.36
363.203	303.55
363.584	304.23
363.966	283.66
364.348	293.38
364.729	273.72
365.111	298.13
365.493	266.26
365.874	271.46
366.256	278.47
366.637	278.24
367.019	293.38
367.4	273.72
367.781	273.72
368.163	286.38
368.544	297.9
368.925	291.12
369.306	299.48
369.688	280.28
370.069	272.82
370.45	278.47
370.831	285.92
371.212	264.23
371.593	266.72
371.974	298.58
372.355	274.63
372.736	286.6
373.117	283.44
373.498	274.17
373.879	288.18
374.26	272.82
374.641	284.34
375.021	296.09
375.402	270.33
375.783	277.11
376.163	299.94
376.544	295.64
376.925	304.23
377.305	278.92
377.686	301.29
378.066	279.15
378.447	288.41
378.827	291.12
379.208	307.39
379.588	288.64
379.968	289.09
380.349	304.91
380.729	304
381.109	317.11
381.489	288.86
381.87	303.1
382.25	300.61
382.63	287.51
383.01	300.61
383.39	306.49
383.77	309.2
384.15	308.52
384.53	310.56
384.91	287.28
385.29	294.96
385.67	307.85
386.049	306.94
386.429	304.68
386.809	310.33
387.189	273.5
387.568	297.9
387.948	313.27
388.328	310.1
388.707	329.54
389.087	315.75
389.466	308.07
389.846	314.17
390.225	306.26
390.605	309.65
390.984	311.23
391.363	323.21
391.743	306.72
392.122	309.43
392.501	325.02
392.881	324.34
393.26	305.59
393.639	316.21
394.018	318.01
394.397	317.34
394.776	334.51
395.155	327.73
395.534	328.86
395.913	336.54
396.292	325.02
396.671	351.46
397.05	326.15
397.429	330.9
397.808	324.57
398.186	353.27
398.565	328.86
398.944	328.64
399.323	325.02
399.701	324.57
400.08	332.25
400.458	334.28
400.837	346.94
401.215	342.87
401.594	335.87
401.972	328.18
402.351	311.69
402.729	347.39
403.107	338.13
403.486	348.52
403.864	342.19
404.242	329.09
404.62	348.3
404.999	354.62
405.377	356.43
405.755	343.32
406.133	351.69
406.511	349.65
406.889	348.52
407.267	355.08
407.645	373.83
408.023	358.47
408.401	354.62
408.779	369.76
409.156	358.92
409.534	361.63
409.912	350.78
410.29	377
410.667	351.46
411.045	367.5
411.422	362.76
411.8	359.82
412.178	363.89
412.555	364.57
412.933	363.44
413.31	346.71
413.687	381.06
414.065	380.39
414.442	382.87
414.819	366.83
415.197	370.22
415.574	380.61
415.951	387.39
416.328	368.63
416.705	392.59
417.082	385.36
417.46	407.96
417.837	395.07
418.214	384.91
418.591	367.73
418.967	365.24
419.344	396.2
419.721	377
420.098	405.92
420.475	393.94
420.852	416.09
421.228	404.34
421.605	398.01
421.982	373.38
422.358	412.25
422.735	401.18
423.111	416.77
423.488	386.04
423.864	391.68
424.241	422.19
424.617	398.24
424.994	400.5
425.37	403.66
425.746	402.08
426.123	414.96
426.499	398.46
426.875	411.12
427.251	431.01
427.627	431.91
428.003	414.06
428.379	443.66
428.756	438.69
429.132	455.19
429.507	441.17
429.883	431.46
430.259	442.08
430.635	443.43
431.011	431.46
431.387	454.06
431.763	443.66
432.138	449.54
432.514	461.29
432.89	473.04
433.265	443.43
433.641	455.41
434.016	463.77
434.392	464
434.767	469.2
435.143	473.94
435.518	483.66
435.894	490.67
436.269	489.99
436.644	463.55
437.02	479.82
437.395	473.49
437.77	489.08
438.145	498.8
438.52	469.42
438.895	489.76
439.271	474.85
439.646	480.5
440.021	490.89
440.395	515.98
440.77	490.21
441.145	500.16
441.52	515.75
441.895	486.6
442.27	491.79
442.645	507.61
443.019	502.19
443.394	509.87
443.769	515.75
444.143	521.62
444.518	520.27
444.892	503.09
445.267	529.08
445.641	520.27
446.016	530.21
446.39	512.81
446.764	522.3
447.139	498.57
447.513	511
447.887	532.02
448.262	530.66
448.636	541.29
449.01	521.17
449.384	547.84
449.758	555.52
450.132	554.84
450.506	535.18
450.88	553.49
451.254	567.27
451.628	564.79
452.002	536.31
452.376	562.98
452.75	561.17
453.123	577.89
453.497	549.19
453.871	586.03
454.244	574.73
454.618	576.99
454.992	569.53
455.365	591
455.739	589.65
456.112	596.2
456.486	600.49
456.859	596.88
457.232	614.5
457.606	596.42
457.979	586.71
458.352	628.29
458.725	590.55
459.099	624.22
459.472	601.17
459.845	616.99
460.218	624.9
460.591	637.33
460.964	640.27
461.337	637.55
461.71	657.67
462.083	668.74
462.456	672.81
462.829	649.98
463.201	638.68
463.574	664.67
463.947	659.25
464.32	678.68
464.692	667.84
465.065	660.15
465.438	673.03
465.81	682.3
466.183	686.59
466.555	724.56
466.928	695.41
467.3	707.16
467.672	692.69
468.045	682.52
468.417	715.97
468.789	715.74
469.161	725.01
469.534	754.16
469.906	735.63
470.278	735.18
470.65	761.84
471.022	758.23
471.394	751.68
471.766	768.62
472.138	762.52
472.51	786.02
472.882	765.01
473.253	786.7
473.625	801.84
473.997	830.09
474.369	805.91
474.74	788.96
475.112	841.84
475.484	838.45
475.855	827.61
476.227	861.5
476.598	862.86
476.97	873.48
477.341	866.25
477.713	849.3
478.084	873.93
478.455	878.23
478.827	912.35
479.198	903.76
479.569	895.4
479.94	919.58
480.311	952.35
480.682	942.63
481.053	950.77
481.424	960.48
481.795	979.24
482.166	967.94
482.537	979.01
482.908	998.9
483.279	976.08
483.65	1010.43
484.021	1004.78
484.391	1046.81
484.762	1025.79
485.133	1011.1
485.503	1046.81
485.874	1045.68
486.244	1068.73
486.615	1092.01
486.985	1094.27
487.356	1110.76
487.726	1095.39
488.097	1125.22
488.467	1129.52
488.837	1113.7
489.207	1134.26
489.578	1130.2
489.948	1156.41
490.318	1139.24
490.688	1160.93
491.058	1151.66
491.428	1156.86
491.798	1163.42
492.168	1224.66
492.538	1174.26
492.908	1186.24
493.278	1210.65
493.648	1211.1
494.017	1198.9
494.387	1242.06
494.757	1234.6
495.126	1256.52
495.496	1221.95
495.866	1245.67
496.235	1222.17
496.605	1234.37
496.974	1247.03
497.344	1278.44
497.713	1284.99
498.082	1256.97
498.452	1267.59
498.821	1250.42
499.19	1297.2
499.559	1307.82
499.928	1292.68
500.298	1285.9
500.667	1302.17
501.036	1282.28
501.405	1300.59
501.774	1321.15
502.143	1311.89
502.512	1315.73
502.88	1311.43
503.249	1308.5
503.618	1281.38
503.987	1315.28
504.356	1329.06
504.724	1331.55
505.093	1316.86
505.462	1345.56
505.83	1320.02
506.199	1336.29
506.567	1339
506.936	1320.25
507.304	1335.84
507.672	1333.58
508.041	1331.55
508.409	1377.87
508.777	1339.68
509.145	1340.36
509.514	1375.84
509.882	1375.16
510.25	1371.32
510.618	1385.78
510.986	1394.37
511.354	1396.63
511.722	1381.04
512.09	1368.16
512.458	1376.29
512.826	1396.86
513.193	1393.47
513.561	1402.96
513.929	1401.6
514.297	1403.64
514.664	1399.79
515.032	1418.78
515.4	1424.43
515.767	1404.99
516.135	1405.44
516.502	1407.7
516.869	1410.64
517.237	1395.27
517.604	1406.57
517.972	1405.22
518.339	1416.52
518.706	1426.69
519.073	1429.17
519.44	1460.58
519.808	1449.06
520.175	1427.14
520.542	1442.5
520.909	1439.34
521.276	1438.44
521.643	1419.91
522.009	1474.82
522.376	1444.99
522.743	1448.83
523.11	1461.49
523.477	1447.48
523.843	1454.93
524.21	1469.4
524.577	1493.58
524.943	1490.19
525.31	1498.32
525.676	1488.38
526.043	1525.67
526.409	1477.31
526.776	1481.15
527.142	1476.85
527.508	1479.79
527.874	1514.59
528.241	1511.43
528.607	1515.72
528.973	1530.41
529.339	1491.32
529.705	1531.54
530.071	1532.22
530.437	1547.59
530.803	1550.07
531.169	1549.39
531.535	1534.48
531.901	1516.4
532.267	1523.63
532.632	1539.23
532.998	1541.03
533.364	1560.47
533.73	1539.9
534.095	1526.34
534.461	1545.33
534.826	1552.78
535.192	1537.42
535.557	1567.47
535.923	1567.25
536.288	1530.41
536.653	1550.3
537.019	1551.88
537.384	1553.01
537.749	1538.32
538.114	1564.54
538.479	1544.87
538.845	1557.3
539.21	1530.19
539.575	1573.12
539.94	1587.81
540.305	1530.64
540.67	1581.48
541.034	1571.99
541.399	1563.41
541.764	1573.35
542.129	1543.07
542.494	1599.11
542.858	1584.2
543.223	1559.79
543.587	1546
543.952	1540.13
544.316	1533.12
544.681	1584.42
545.045	1553.24
545.41	1564.99
545.774	1578.77
546.138	1583.52
546.503	1594.36
546.867	1579.9
547.231	1587.59
547.595	1564.76
547.959	1584.65
548.324	1583.97
548.688	1586.91
549.052	1579.9
549.416	1590.52
549.779	1556.85
550.143	1567.25
550.507	1577.19
550.871	1582.61
551.235	1577.64
551.599	1608.15
551.962	1571.09
552.326	1577.19
552.689	1624.19
553.053	1580.35
553.417	1609.05
553.78	1594.59
554.143	1597.08
554.507	1615.16
554.87	1592.78
555.234	1630.07
555.597	1590.07
555.96	1596.4
556.323	1612.9
556.686	1590.3
557.05	1588.26
557.413	1633.91
557.776	1584.2
558.139	1615.61
558.502	1640.24
558.865	1613.8
559.228	1612.44
559.59	1626.23
559.953	1608.6
560.316	1642.73
560.679	1621.71
561.041	1644.31
561.404	1658.77
561.767	1614.93
562.129	1639.11
562.492	1668.71
562.854	1657.64
563.217	1640.01
563.579	1636.62
563.941	1639.11
564.304	1684.76
564.666	1674.59
565.028	1673.01
565.39	1682.27
565.753	1654.25
566.115	1647.92
566.477	1704.64
566.839	1680.01
567.201	1692.89
567.563	1704.19
567.925	1689.96
568.287	1679.79
568.648	1663.06
569.01	1676.62
569.372	1698.09
569.734	1666.68
570.095	1670.97
570.457	1673.91
570.819	1687.7
571.18	1715.04
571.542	1711.42
571.903	1715.94
572.265	1702.84
572.626	1716.4
572.987	1711.88
573.349	1711.2
573.71	1709.16
574.071	1708.94
574.432	1746.9
574.794	1747.13
575.155	1733.8
575.516	1733.12
575.877	1719.11
576.238	1731.76
576.599	1730.86
576.96	1763.17
577.32	1749.16
577.681	1749.39
578.042	1718.43
578.403	1738.32
578.763	1741.03
579.124	1737.41
579.485	1754.36
579.845	1766.34
580.206	1738.99
580.566	1740.35
580.927	1749.39
581.287	1750.52
581.648	1737.19
582.008	1718.43
582.368	1743.51
582.728	1761.59
583.089	1767.92
583.449	1737.41
583.809	1759.33
584.169	1772.21
584.529	1756.17
584.889	1750.97
585.249	1769.95
585.609	1767.92
585.969	1781.48
586.329	1771.54
586.688	1761.82
587.048	1767.02
587.408	1778.09
587.768	1749.84
588.127	1754.13
588.487	1772.89
588.846	1811.08
589.206	1764.53
589.565	1771.08
589.925	1756.39
590.284	1787.13
590.643	1796.39
591.003	1788.94
591.362	1774.93
591.721	1762.95
592.08	1774.02
592.44	1787.58
592.799	1777.18
593.158	1804.98
593.517	1784.64
593.876	1806.56
594.235	1786.22
594.593	1782.61
594.952	1821.7
595.311	1811.53
595.67	1809.27
596.029	1814.7
596.387	1795.72
596.746	1789.84
597.104	1777.41
597.463	1788.26
597.822	1804.53
598.18	1776.05
598.538	1809.5
598.897	1802.72
599.255	1812.21
599.613	1807.24
599.972	1835.71
600.33	1818.09
600.688	1810.18
601.046	1781.7
601.404	1812.44
601.762	1822.16
602.12	1820.57
602.478	1816.51
602.836	1863.96
603.194	1833
603.552	1817.64
603.91	1795.72
604.268	1837.07
604.625	1846.56
604.983	1820.12
605.341	1838.65
605.698	1840.01
606.056	1842.49
606.413	1845.66
606.771	1846.56
607.128	1830.74
607.485	1861.02
607.843	1840.69
608.2	1896.73
608.557	1860.8
608.914	1854.02
609.272	1842.72
609.629	1890.18
609.986	1894.02
610.343	1890.4
610.7	1893.34
611.057	1855.83
611.414	1883.4
611.771	1892.66
612.127	1899.44
612.484	1872.32
612.841	1923.4
613.198	1878.43
613.554	1886.56
613.911	1906.45
614.267	1922.27
614.624	1911.42
614.98	1914.81
615.337	1901.7
615.693	1922.94
616.05	1905.77
616.406	1926.79
616.762	1886.11
617.118	1928.59
617.475	1921.14
617.831	1916.39
618.187	1898.76
618.543	1939.67
618.899	1954.36
619.255	1924.98
619.611	1939.89
619.967	1934.92
620.323	1957.52
620.678	1969.04
621.034	1911.87
621.39	1937.18
621.746	1922.27
622.101	1970.85
622.457	1984.41
622.812	1972.89
623.168	1948.48
623.523	1970.63
623.879	1980.34
624.234	1963.39
624.589	1964.3
624.945	1974.24
625.3	1990.06
625.655	1975.82
626.01	1987.12
626.365	1956.84
626.72	2019.21
627.075	1964.52
627.43	1966.11
627.785	1975.37
628.14	1987.57
628.495	2003.17
628.85	2016.5
629.205	1991.19
629.559	2004.52
629.914	2012.21
630.269	1998.2
630.623	2022.83
630.978	2011.76
631.332	2045.2
631.687	2033.45
632.041	2021.47
632.396	1999.78
632.75	2060.57
633.104	2049.04
633.459	2065.09
633.813	2037.97
634.167	2065.09
634.521	2049.04
634.875	2077.06
635.229	2061.92
635.583	2067.57
635.937	2047.69
636.291	2052.66
636.645	2073
636.999	2085.65
637.352	2104.18
637.706	2082.71
638.06	2095.82
638.413	2127.91
638.767	2062.15
639.121	2067.57
639.474	2057.4
639.828	2069.15
640.181	2074.58
640.534	2115.48
640.888	2110.51
641.241	2144.63
641.594	2098.31
641.947	2148.7
642.301	2142.83
642.654	2133.79
643.007	2209.49
643.36	2162.94
643.713	2159.32
644.066	2188.93
644.419	2185.99
644.771	2197.29
645.124	2110.06
645.477	2175.37
645.83	2163.16
646.182	2191.64
646.535	2145.08
646.888	2159.1
647.24	2163.39
647.593	2166.78
647.945	2174.91
648.298	2165.42
648.65	2213.33
649.002	2199.55
649.355	2211.3
649.707	2232.31
650.059	2251.07
650.411	2273.44
650.763	2278.87
651.115	2295.59
651.467	2324.97
651.819	2328.13
652.171	2316.61
652.523	2316.15
652.875	2330.84
653.227	2337.17
653.578	2352.54
653.93	2365.64
654.282	2328.81
654.633	2367.68
654.985	2389.6
655.337	2395.7
655.688	2409.26
656.039	2439.77
656.391	2417.39
656.742	2447.9
657.094	2436.6
657.445	2454.91
657.796	2476.15
658.147	2490.39
658.498	2528.58
658.849	2514.34
659.2	2511.85
659.551	2513.21
659.902	2538.29
660.253	2592.53
660.604	2585.07
660.955	2564.51
661.306	2594.34
661.656	2594.11
662.007	2617.84
662.358	2627.33
662.708	2642.92
663.059	2610.84
663.409	2639.31
663.76	2672.75
664.11	2660.55
664.461	2694.22
664.811	2675.01
665.161	2682.25
665.511	2725.41
665.862	2768.57
666.212	2755.01
666.562	2778.29
666.912	2771.96
667.262	2805.18
667.612	2788.46
667.962	2814.9
668.312	2816.48
668.662	2854.44
669.011	2853.09
669.361	2859.87
669.711	2872.98
670.06	2879.3
670.41	2857.16
670.76	2891.73
671.109	2937.38
671.459	2917.27
671.808	2932.63
672.157	2987.55
672.507	2949.81
672.856	2998.62
673.205	2995.91
673.554	3004.5
673.904	2997.27
674.253	3045.63
674.602	3042.24
674.951	3035.68
675.3	3013.31
675.649	3060.99
675.998	3079.52
676.346	3072.74
676.695	3113.19
677.044	3084.04
677.393	3119.3
677.741	3166.3
678.09	3150.48
678.438	3142.57
678.787	3151.61
679.135	3209.24
679.484	3203.14
679.832	3216.92
680.181	3200.65
680.529	3252.17
680.877	3203.59
681.225	3224.15
681.573	3261.67
681.922	3234.55
682.27	3261.89
682.618	3305.05
682.966	3295.34
683.314	3310.7
683.661	3293.3
684.009	3297.6
684.357	3311.16
684.705	3343.47
685.053	3359.29
685.4	3299.4
685.748	3345.73
686.095	3331.95
686.443	3356.8
686.79	3357.93
687.138	3326.75
687.485	3388.89
687.832	3377.37
688.18	3403.81
688.527	3364.94
688.874	3408.1
689.221	3412.62
689.568	3386.63
689.915	3409.23
690.262	3443.81
690.609	3449.01
690.956	3426.18
691.303	3433.86
691.65	3413.98
691.997	3449.23
692.344	3390.48
692.69	3435.9
693.037	3455.56
693.383	3441.1
693.73	3437.25
694.077	3433.86
694.423	3445.16
694.769	3428.21
695.116	3468.21
695.462	3432.51
695.808	3429.57
696.155	3443.81
696.501	3413.07
696.847	3411.94
697.193	3403.58
697.539	3415.11
697.885	3436.58
698.231	3425.73
698.577	3456.69
698.923	3442
699.269	3448.55
699.614	3409.91
699.96	3426.63
700.306	3428.67
700.651	3415.33
700.997	3418.95
701.342	3417.14
701.688	3412.17
702.033	3401.32
702.379	3397.26
702.724	3446.52
703.069	3453.75
703.415	3386.41
703.76	3442.45
704.105	3376.46
704.45	3394.54
704.795	3378.27
705.14	3350.48
705.485	3364.94
705.83	3376.92
706.175	3371.49
706.52	3365.62
706.865	3321.55
707.209	3352.28
707.554	3374.66
707.899	3376.92
708.243	3343.02
708.588	3406.29
708.932	3347.77
709.277	3365.62
709.621	3373.3
709.966	3323.13
710.31	3347.54
710.654	3348.89
710.998	3351.15
711.342	3368.33
711.687	3318.16
712.031	3313.64
712.375	3321.78
712.719	3337.37
713.063	3337.82
713.407	3315
713.75	3311.61
714.094	3309.8
714.438	3349.57
714.782	3346.86
715.125	3332.62
715.469	3357.26
715.812	3349.57
716.156	3293.3
716.499	3347.77
716.843	3339.4
717.186	3292.4
717.53	3336.92
717.873	3382.79
718.216	3351.15
718.559	3327.65
718.902	3296.02
719.246	3303.25
719.589	3348.44
719.932	3299.63
720.275	3307.99
720.617	3319.74
720.96	3307.31
721.303	3280.65
721.646	3333.98
721.989	3306.18
722.331	3343.47
722.674	3314.77
723.016	3332.62
723.359	3287.43
723.701	3305.05
724.044	3320.42
724.386	3293.53
724.729	3365.62
725.071	3311.83
725.413	3325.39
725.755	3331.72
726.097	3337.37
726.439	3339.4
726.782	3337.6
727.124	3323.58
727.465	3318.61
727.807	3301.66
728.149	3320.2
728.491	3367.43
728.833	3318.84
729.175	3300.76
729.516	3331.04
729.858	3331.27
730.199	3346.86
730.541	3370.36
730.882	3332.17
731.224	3362.23
731.565	3310.93
731.906	3385.73
732.248	3378.27
732.589	3337.6
732.93	3338.27
733.271	3343.02
733.612	3355.9
733.953	3379.63
734.294	3384.15
734.635	3347.77
734.976	3381.44
735.317	3336.92
735.658	3380.31
735.999	3377.82
736.339	3352.06
736.68	3397.26
737.021	3395.22
737.361	3406.07
737.702	3442.9
738.042	3424.83
738.383	3407.2
738.723	3394.54
739.063	3422.79
739.404	3424.15
739.744	3434.54
740.084	3463.69
740.424	3426.63
740.764	3470.02
741.104	3485.16
741.444	3474.77
741.784	3453.3
742.124	3489.46
742.464	3533.3
742.804	3477.48
743.143	3516.12
743.483	3509.79
743.823	3512.28
744.162	3541.21
744.502	3529.46
744.841	3560.19
745.181	3567.65
745.52	3568.78
745.86	3614.88
746.199	3601.09
746.538	3584.14
746.877	3646.51
747.216	3627.08
747.556	3623.92
747.895	3673.18
748.234	3671.82
748.573	3732.39
748.911	3721.54
749.25	3720.86
749.589	3725.16
749.928	3787.08
750.267	3792.05
750.605	3814.87
750.944	3813.52
751.283	3814.42
751.621	3830.01
751.96	3837.7
752.298	3867.75
752.636	3885.15
752.975	3907.52
753.313	3910.24
753.651	3945.94
753.989	3977.13
754.327	3943.68
754.666	4011.7
755.004	4017.35
755.342	4013.74
755.679	4015.09
756.017	4047.18
756.355	4093.73
756.693	4071.36
757.031	4108.2
757.368	4089.21
757.706	4075.88
758.044	4115.65
758.381	4219.61
758.719	4206.05
759.056	4202.43
759.394	4217.35
759.731	4196.78
760.068	4234.75
760.405	4277.46
760.743	4260.51
761.08	4321.75
761.417	4257.8
761.754	4281.3
762.091	4289.66
762.428	4341.41
762.765	4306.16
763.102	4340.73
763.438	4331.47
763.775	4300.28
764.112	4349.77
764.449	4399.71
764.785	4391.58
765.122	4357.23
765.458	4327.17
765.795	4337.57
766.131	4354.52
766.467	4363.11
766.804	4372.6
767.14	4342.99
767.476	4354.29
767.812	4358.13
768.148	4394.29
768.485	4389.09
768.821	4354.74
769.157	4325.59
769.492	4392.03
769.828	4365.37
770.164	4342.77
770.5	4326.5
770.836	4342.77
771.171	4333.73
771.507	4368.53
771.842	4326.95
772.178	4373.05
772.513	4292.82
