Data from blue_shiny_book_FLMS001491_00039.txt Node
Date: Wed Feb 08 15:26:53 GMT 2017
User: dcchb
Spectrometer: FLMS00149
Trigger mode: 0
Integration Time (sec): 2.000000E-2
Scans to average: 10
Electric dark correction enabled: true
Nonlinearity correction enabled: false
Boxcar width: 0
XAxis mode: Wavelengths
Number of Pixels in Spectrum: 2048
>>>>>Begin Spectral Data<<<<<
341.393	-20.24
341.776	-20.24
342.16	-20.24
342.543	-56.4
342.927	-81.93
343.31	-64.53
343.693	-71.76
344.077	-64.31
344.46	-70.41
344.843	-69.5
345.226	-36.74
345.61	-19.79
345.993	-27.92
346.376	-10.97
346.759	24.28
347.142	22.25
347.525	58.63
347.908	50.72
348.291	80.55
348.674	101.11
349.057	98.4
349.44	106.54
349.823	136.82
350.206	177.72
350.588	217.95
350.971	203.94
351.354	222.47
351.737	230.6
352.119	230.6
352.502	257.27
352.884	280.32
353.267	297.49
353.65	305.18
354.032	292.97
354.414	316.47
354.797	306.53
355.179	320.32
355.562	344.5
355.944	325.97
356.326	344.72
356.709	340.43
357.091	331.84
357.473	342.01
357.855	334.33
358.238	333.65
358.62	342.46
359.002	345.17
359.384	346.08
359.766	359.86
360.148	348.11
360.53	343.59
360.912	340.43
361.294	335.91
361.676	363.93
362.057	322.8
362.439	324.61
362.821	336.36
363.203	339.98
363.584	334.78
363.966	320.09
364.348	324.16
364.729	344.5
365.111	342.69
365.493	327.77
365.874	332.75
366.256	329.36
366.637	331.84
367.019	319.19
367.4	321.45
367.781	324.84
368.163	326.64
368.544	320.77
368.925	339.3
369.306	351.28
369.688	350.37
370.069	335.01
370.45	331.39
370.831	328.68
371.212	339.98
371.593	340.43
371.974	344.72
372.355	321.9
372.736	326.87
373.117	344.27
373.498	329.58
373.879	327.77
374.26	332.75
374.641	327.1
375.021	342.24
375.402	357.6
375.783	347.89
376.163	363.25
376.544	345.17
376.925	335.68
377.305	344.5
377.686	360.99
378.066	344.72
378.447	358.73
378.827	361.22
379.208	364.84
379.588	372.07
379.968	349.92
380.349	350.6
380.729	394.66
381.109	370.71
381.489	369.35
381.87	369.35
382.25	386.08
382.63	374.55
383.01	397.6
383.39	399.64
383.77	397.38
384.15	403.25
384.53	400.31
384.91	402.12
385.29	403.7
385.67	395.34
386.049	376.13
386.429	411.84
386.809	420.65
387.189	440.54
387.568	416.13
387.948	430.14
388.328	431.73
388.707	405.74
389.087	436.25
389.466	419.52
389.846	447.32
390.225	416.81
390.605	462.01
390.984	425.17
391.363	439.64
391.743	448.45
392.122	447.32
392.501	464.49
392.881	478.96
393.26	438.28
393.639	509.01
394.018	471.95
394.397	473.98
394.776	480.99
395.155	503.59
395.534	493.42
395.913	487.54
396.292	495
396.671	505.17
397.05	485.06
397.429	517.83
397.808	521.22
398.186	530.71
398.565	539.29
398.944	540.2
399.323	518.96
399.701	539.52
400.08	531.16
400.458	542.91
400.837	551.95
401.215	550.37
401.594	559.63
401.972	557.6
402.351	563.93
402.729	572.74
403.107	582.23
403.486	618.39
403.864	602.12
404.242	609.57
404.62	608.9
404.999	628.33
405.377	601.44
405.755	629.01
406.133	637.14
406.511	664.04
406.889	653.42
407.267	669.01
407.645	657.71
408.023	698.61
408.401	692.06
408.779	673.98
409.156	725.73
409.534	696.35
409.912	712.4
410.29	732.96
410.667	754.43
411.045	722.79
411.422	757.82
411.8	765.5
412.178	790.59
412.555	812.96
412.933	809.57
413.31	809.57
413.687	843.47
414.065	834.2
414.442	824.26
414.819	846.86
415.197	865.61
415.574	873.97
415.951	876.91
416.328	880.53
416.705	903.13
417.082	919.4
417.46	942
417.837	944.93
418.214	950.13
418.591	996.23
418.967	984.71
419.344	981.32
419.721	995.78
420.098	974.76
420.475	1025.16
420.852	1017.47
421.228	1016.34
421.605	1041.43
421.982	1069.68
422.358	1039.39
422.735	1059.73
423.111	1089.11
423.488	1105.83
423.864	1117.36
424.241	1144.25
424.617	1135.44
424.994	1141.99
425.37	1173.85
425.746	1193.74
426.123	1220.18
426.499	1187.41
426.875	1224.02
427.251	1237.58
427.627	1256.56
428.003	1252.5
428.379	1299.05
428.756	1287.75
429.132	1298.14
429.507	1337.01
429.883	1347.86
430.259	1399.16
430.635	1389.89
431.011	1404.13
431.387	1435.54
431.763	1448.65
432.138	1461.08
432.514	1497.91
432.89	1504.01
433.265	1541.98
433.641	1567.74
434.016	1587.85
434.392	1620.4
434.767	1636.67
435.143	1652.03
435.518	1662.65
435.894	1705.82
436.269	1709.88
436.644	1747.4
437.02	1767.74
437.395	1751.47
437.77	1789.43
438.145	1803.89
438.52	1858.81
438.895	1849.99
439.271	1866.49
439.646	1901.29
440.021	1942.65
440.395	1958.47
440.77	1956.21
441.145	1992.59
441.52	2028.52
441.895	2023.77
442.27	2055.41
442.645	2016.09
443.019	2087.95
443.394	2044.79
443.769	2070.78
444.143	2117.11
444.518	2120.27
444.892	2147.16
445.267	2138.35
445.641	2179.93
446.016	2194.39
446.39	2190.78
446.764	2237.1
447.139	2275.29
447.513	2266.03
447.887	2297.89
448.262	2312.35
448.636	2312.13
449.01	2316.65
449.384	2380.83
449.758	2396.42
450.132	2402.07
450.506	2434.84
450.88	2471.22
451.254	2455.18
451.628	2519.13
452.002	2527.49
452.376	2531.78
452.75	2599.8
453.123	2604.32
453.497	2657.66
453.871	2662.18
454.244	2722.97
454.618	2740.82
454.992	2756.86
455.365	2771.55
455.739	2848.61
456.112	2863.53
456.486	2942.85
456.859	2950.08
457.232	2985.56
457.606	2998.66
457.979	3016.74
458.352	3098.32
458.725	3140.13
459.099	3164.99
459.472	3230.07
459.845	3273.46
460.218	3290.63
460.591	3376.96
460.964	3384.19
461.337	3460.8
461.71	3463.74
462.083	3545.32
462.456	3586.67
462.829	3589.61
463.201	3665.31
463.574	3691.98
463.947	3748.02
464.32	3824.63
464.692	3886.55
465.065	3891.75
465.438	3971.52
465.81	4029.15
466.183	4044.96
466.555	4104.62
466.928	4164.96
467.3	4165.41
467.672	4270.5
468.045	4344.84
468.417	4345.75
468.789	4409.02
469.161	4433.88
469.534	4511.84
469.906	4579.87
470.278	4627.1
470.65	4710.71
471.022	4796.13
471.394	4894.66
471.766	4979.85
472.138	5017.59
472.51	5115.22
472.882	5192.05
473.253	5216.23
473.625	5292.16
473.997	5449.67
474.369	5438.15
474.74	5514.3
475.112	5656.67
475.484	5714.52
475.855	5824.58
476.227	5930.34
476.598	6035.65
476.97	6144.34
477.341	6251.69
477.713	6405.58
478.084	6396.31
478.455	6601.28
478.827	6639.47
479.198	6837.21
479.569	6856.42
479.94	7009.41
480.311	7084.66
480.682	7284.88
481.053	7405.78
481.424	7523.29
481.795	7620.92
482.166	7800.57
482.537	7871.08
482.908	8076.04
483.279	8205.53
483.65	8230.16
484.021	8476.03
484.391	8589.48
484.762	8640.55
485.133	8747.21
485.503	8855.91
485.874	9025.17
486.244	9161.21
486.615	9248.9
486.985	9456.35
487.356	9658.83
487.726	9684.59
488.097	9942.21
488.467	10023.56
488.837	10268.76
489.207	10295.42
489.578	10503.55
489.948	10589.88
490.318	10718.24
490.688	10801.85
491.058	10958.45
491.428	11078.68
491.798	11224.44
492.168	11444.32
492.538	11447.71
492.908	11539.23
493.278	11691.99
493.648	11727.02
494.017	11930.63
494.387	12079.78
494.757	12225.54
495.126	12473.9
495.496	12500.56
495.866	12679.54
496.235	12755.47
496.605	12948.01
496.974	12954.56
497.344	13110.94
497.713	13141
498.082	13228.9
498.452	13338.28
498.821	13420.31
499.19	13452.63
499.559	13655.56
499.928	13628.22
500.298	13790.02
500.667	13946.17
501.036	13946.62
501.405	14256
501.774	14336.9
502.143	14468.42
502.512	14561.52
502.88	14641.07
503.249	14676.32
503.618	14749.09
503.987	14863.66
504.356	14917.67
504.724	14994.96
505.093	15038.12
505.462	15143.88
505.83	15256.19
506.199	15330.32
506.567	15601.95
506.936	15557.66
507.304	15737.09
507.672	15863.64
508.041	16001.49
508.409	16193.35
508.777	16316.96
509.145	16384.07
509.514	16505.43
509.882	16637.18
510.25	16535.48
510.618	16844.4
510.986	16841.69
511.354	16945.19
511.722	17044.62
512.09	17130.27
512.458	17154.45
512.826	17291.85
513.193	17505.18
513.561	17554.21
513.929	17713.98
514.297	17788.78
514.664	18045.5
515.032	18150.58
515.4	18367.53
515.767	18588.54
516.135	18627.86
516.502	18530.91
516.869	18898.59
517.237	18940.84
517.604	18866.72
517.972	19092.25
518.339	19228.52
518.706	19205.47
519.073	19263.55
519.44	19497.21
519.808	19605.46
520.175	19607.04
520.542	19836.41
520.909	20050.65
521.276	20225.78
521.643	20471.65
522.009	20591.2
522.376	20832.32
522.743	20886.33
523.11	21170.62
523.477	21356.6
523.843	21471.85
524.21	21669.13
524.577	21826.64
524.943	21823.25
525.31	21837.49
525.676	22149.57
526.043	22205.39
526.409	22205.39
526.776	22524.03
527.142	22606.96
527.508	22690.8
527.874	22817.58
528.241	23084.69
528.607	23303.67
528.973	23563.32
529.339	23605.35
529.705	23831.11
530.071	24048.28
530.437	24171.67
530.803	24468.38
531.169	24526.01
531.535	24402.62
531.901	24515.84
532.267	24612.33
532.632	24788.6
532.998	24806.9
533.364	25006.67
533.73	24947.01
534.095	25121.92
534.461	25145.2
534.826	25347.91
535.192	25563.95
535.557	25702.47
535.923	25882.13
536.288	25831.74
536.653	26061.33
537.019	26106.53
537.384	26357.37
537.749	26397.14
538.114	26575.67
538.479	26555.78
538.845	26675.1
539.21	26646.18
539.575	26727.98
539.94	26791.71
540.305	26983.8
540.67	26752.39
541.034	26888.88
541.399	27017.02
541.764	27012.95
542.129	27055.21
542.494	27287.29
542.858	27295.2
543.223	27347.63
543.587	27584.91
543.952	27769.31
544.316	27869.87
544.681	27978.12
545.045	28118.46
545.41	28363.19
545.774	28304.44
546.138	28262.41
546.503	28363.19
546.867	28367.71
547.231	28470.76
547.595	28566.58
547.959	28622.17
548.324	28597.31
548.688	28585.56
549.052	28709.4
549.416	28701.94
549.779	28626.46
550.143	28722.51
550.507	28904.2
550.871	29087.92
551.235	29011.31
551.599	29375.82
551.962	29522.94
552.326	29394.81
552.689	29658.08
553.053	29660.56
553.417	29789.82
553.78	30216.71
554.143	30133.77
554.507	30106.88
554.87	30298.96
555.234	30520.43
555.597	30166.99
555.96	30245.63
556.323	30429.58
556.686	30419.19
557.05	30490.14
557.413	30705.96
557.776	30715.9
558.139	30826.86
558.502	30915.22
558.865	30888.78
559.228	31211.93
559.59	31221.65
559.953	31357.69
560.316	31693.95
560.679	31666.38
561.041	31957
561.404	32119.48
561.767	32290.32
562.129	32207.61
562.492	32523.76
562.854	32521.28
563.217	32468.17
563.579	32608.51
563.941	32745.45
564.304	32811.89
564.666	32899.12
565.028	32871.55
565.39	33077.87
565.753	33203.97
566.115	33204.65
566.477	33400.8
566.839	33478.31
567.201	33670.63
567.563	33601.02
567.925	33930.28
568.287	33982.71
568.648	34121.24
569.01	34262.7
569.372	34505.18
569.734	34245.3
570.095	34779.52
570.457	34954.43
570.819	34899.97
571.18	34808
571.542	35065.17
571.903	35158.5
572.265	35236.46
572.626	35397.59
572.987	35283.69
573.349	35443.46
573.71	35561.88
574.071	35623.57
574.432	35711.48
574.794	35719.39
575.155	35836.44
575.516	35563.01
575.877	35878.03
576.238	36127.28
576.599	36224.23
576.96	36148.53
577.32	36277.11
577.681	36583.32
578.042	36707.16
578.403	36640.04
578.763	36783.09
579.124	36853.82
579.485	37048.16
579.845	37071.67
580.206	36977.66
580.566	37052.91
580.927	37111.89
581.287	37067.15
581.648	36976.08
582.008	37240.25
582.368	37098.78
582.728	37134.26
583.089	37034.15
583.449	37049.29
583.809	37072.12
584.169	37229.18
584.529	37133.13
584.889	37373.81
585.249	37320.93
585.609	37169.07
585.969	37406.12
586.329	37345.56
586.688	37270.53
587.048	37332.68
587.408	37336.52
587.768	37479.11
588.127	37582.39
588.487	37561.82
588.846	37884.75
589.206	37474.82
589.565	37530.86
589.925	37642.5
590.284	37566.57
590.643	37571.99
591.003	37667.36
591.362	37763.85
591.721	37630.97
592.08	37479.11
592.44	37691.54
592.799	37778.31
593.158	37586.46
593.517	37627.36
593.876	37682.5
594.235	37626
594.593	37702.84
594.952	37928.37
595.311	37776.73
595.67	37734.02
596.029	38008.82
596.387	37928.37
596.746	38225.76
597.104	37979.21
597.463	38049.49
597.822	38200.22
598.18	38159.55
598.538	38163.16
598.897	38340.79
599.255	38082.94
599.613	38614
599.972	38281.35
600.33	38264.86
600.688	38326.77
601.046	38399.77
601.404	38450.61
601.762	38237.74
602.12	38619.42
602.478	38538.75
602.836	38389.15
603.194	38226.21
603.552	38366.1
603.91	38132.43
604.268	38330.62
604.625	38246.78
604.983	38406.55
605.341	38268.02
605.698	38520.89
606.056	38508.46
606.413	38700.78
606.771	38851.51
607.128	38814.67
607.485	38733.77
607.843	38867.1
608.2	39032.52
608.557	39101.67
608.914	38880.88
609.272	39181.89
609.629	39260.08
609.986	39400.64
610.343	39116.81
610.7	39295.34
611.057	39403.36
611.414	39174.66
611.771	39285.39
612.127	39541.21
612.484	39337.82
612.841	39510.7
613.198	39354.32
613.554	39301.44
613.911	39513.86
614.267	39523.81
614.624	39470.93
614.98	39541.88
615.337	39730.58
615.693	39723.57
616.05	39632.05
616.406	39969.67
616.762	39777.36
617.118	39866.4
617.475	39866.4
617.831	39936.22
618.187	40036.11
618.543	40040.18
618.899	40368.3
619.255	40265.71
619.611	40265.25
619.967	40326.72
620.323	40412.6
620.678	40119.95
621.034	40154.3
621.39	40253.73
621.746	40201.08
622.101	40501.18
622.457	40209.21
622.812	40193.39
623.168	40346.83
623.523	40298.25
623.879	40296.21
624.234	40011.25
624.589	40203.79
624.945	40331.02
625.3	40271.81
625.655	40183.68
626.01	40295.76
626.365	40287.18
626.72	40189.78
627.075	40321.3
627.43	40272.03
627.785	40200.62
628.14	40096.67
628.495	40251.92
628.85	40191.81
629.205	40198.59
629.559	40480.16
629.914	40218.02
630.269	40224.8
630.623	40334.41
630.978	40094.64
631.332	40362.43
631.687	40278.59
632.041	40281.3
632.396	40338.02
632.75	40122.89
633.104	40015.54
633.459	39886.73
633.813	39886.51
634.167	39723.35
634.521	39577.59
634.875	39722.22
635.229	39816.23
635.583	39659.17
635.937	39430.47
636.291	39499.4
636.645	39481.77
636.999	39324.04
637.352	39551.15
637.706	39263.25
638.06	39458.04
638.413	39290.59
638.767	39280.87
639.121	39276.58
639.474	39001.33
639.828	38954.55
640.181	39110.03
640.534	39050.6
640.888	38918.85
641.241	39033.42
641.594	39035.46
641.947	39120.65
642.301	39189.58
642.654	39205.17
643.007	39126.53
643.36	39020.32
643.713	38769.47
644.066	39063.03
644.419	38821
644.771	38808.8
645.124	38602.7
645.477	38446.77
645.83	38193.67
646.182	37998.42
646.535	37619
646.888	37362.05
647.24	37100.59
647.593	37223.98
647.945	37033.93
648.298	36860.15
648.65	36865.12
649.002	36828.28
649.355	37035.74
649.707	37230.08
650.059	37513.01
650.411	38014.24
650.763	38012.21
651.115	38303.05
651.467	38149.6
651.819	38115.03
652.171	38046.56
652.523	37922.72
652.875	37946.45
653.227	37996.39
653.578	38177.17
653.93	38024.41
654.282	37889.5
654.633	37798.43
654.985	37664.87
655.337	37870.29
655.688	37785.77
656.039	37774.92
656.391	37533.12
656.742	37614.48
657.094	37734.47
657.445	37803.17
657.796	37696.73
658.147	37452.22
658.498	37551.43
658.849	37656.06
659.2	37388.27
659.551	37480.47
659.902	37571.31
660.253	37386.23
660.604	37504.65
660.955	37486.12
661.306	37656.51
661.656	37337.2
662.007	37507.14
662.358	37293.13
662.708	37443.86
663.059	37469.17
663.409	37153.02
663.76	37591.2
664.11	37505.55
664.461	37530.41
664.811	37503.52
665.161	37416.29
665.511	37527.25
665.862	37598.43
666.212	37718.88
666.562	37607.25
666.912	37556.85
667.262	37421.49
667.612	37446.57
667.962	37511.2
668.312	37395.05
668.662	37482.73
669.011	37386.69
669.361	37470.07
669.711	37294.71
670.06	37064.89
670.41	36987.15
670.76	37055.4
671.109	37087.49
671.459	36836.19
671.808	36851.33
672.157	37049.07
672.507	36776.98
672.856	36923.65
673.205	36880.94
673.554	36969.07
673.904	36824.22
674.253	37068.95
674.602	36794.61
674.951	36371.57
675.3	36311.69
675.649	36853.37
675.998	36674.61
676.346	36762.97
676.695	36876.19
677.044	36594.39
677.393	36694.28
677.741	36622.86
678.09	36553.94
678.438	36545.35
678.787	36489.08
679.135	36449.31
679.484	36270.11
679.832	36499.03
680.181	36061.07
680.529	36287.05
680.877	36104.91
681.225	36118.92
681.573	36243.67
681.922	35998.25
682.27	35769.1
682.618	35933.39
682.966	35783.34
683.314	35716.67
683.661	35675.77
684.009	35300.19
684.357	35202.11
684.705	35147.88
685.053	35281.43
685.4	35316.46
685.748	35080.98
686.095	35010.93
686.443	34968.67
686.79	35075.56
687.138	35052.28
687.485	35028.33
687.832	34927.54
688.18	34942.68
688.527	34718.28
688.874	34556.48
689.221	34485.07
689.568	34556.48
689.915	34561.45
690.262	34506.54
690.609	34371.85
690.956	34348.12
691.303	34318.29
691.65	34028.13
691.997	34132.76
692.344	33731.19
692.69	33655.49
693.037	33818.42
693.383	33314.48
693.73	33479.22
694.077	33264.08
694.423	33215.04
694.769	33001.04
695.116	32876.07
695.462	32765.11
695.808	32853.25
696.155	32854.38
696.501	32620.26
696.847	32438.79
697.193	32356.31
697.539	32471.11
697.885	32342.53
698.231	32186.6
698.577	32182.3
698.923	32062.31
699.269	31982.76
699.614	31825.93
699.96	31896.66
700.306	31767.63
700.651	31672.26
700.997	31370.57
701.342	31452.38
701.688	31214.42
702.033	31339.39
702.379	31376
702.724	31233.4
703.069	31264.14
703.415	30796.58
703.76	30929.46
704.105	30774.66
704.45	30719.74
704.795	30594.55
705.14	30402.01
705.485	30394.78
705.83	30298.74
706.175	30416.93
706.52	30234.33
706.865	29974
707.209	30021.23
707.554	29911.4
707.899	29836.6
708.243	29593.9
708.588	29574.01
708.932	29301.25
709.277	29513.9
709.621	29389.16
709.966	29373.79
710.31	29416.27
710.654	29122.72
710.998	29109.39
711.342	29226.68
711.687	29127.02
712.031	28893.35
712.375	28900.58
712.719	28797.31
713.063	28867.14
713.407	28840.24
713.75	28714.82
714.094	28836.4
714.438	28611.1
714.782	28814.03
715.125	28619.23
715.469	28730.64
715.812	28474.6
716.156	28292.91
716.499	28358
716.843	28365.91
717.186	28237.1
717.53	28205.68
717.873	28240.26
718.216	28199.36
718.559	28035.97
718.902	27838.24
719.246	28074.61
719.589	27967.73
719.932	27938.12
720.275	27885.69
720.617	27789.2
720.96	27590.11
721.303	27546.72
721.646	27628.3
721.989	27639.6
722.331	27614.51
722.674	27524.12
723.016	27571.13
723.359	27494.07
723.701	27501.75
724.044	27273.28
724.386	27255.2
724.729	27506.04
725.071	27251.36
725.413	27236.44
725.755	27202.77
726.097	27241.19
726.439	27095.21
726.782	27147.41
727.124	27074.64
727.465	27085.94
727.807	26929.11
728.149	26939.96
728.491	26902.44
728.833	26996
729.175	26914.65
729.516	26816.79
729.858	26821.99
730.199	27009.78
730.541	26985.38
730.882	26947.41
731.224	27008.43
731.565	26756.01
731.906	26947.41
732.248	27003.46
732.589	26762.11
732.93	26721.43
733.271	26717.59
733.612	26793.74
733.953	26824.03
734.294	26605.28
734.635	26631.49
734.976	26641.43
735.317	26469.46
735.658	26530.47
735.999	26587.87
736.339	26554.88
736.68	26586.52
737.021	26576.8
737.361	26329.8
737.702	26631.94
738.042	26488.44
738.383	26527.08
738.723	26567.08
739.063	26509.01
739.404	26688.21
739.744	26407.09
740.084	26505.39
740.424	26511.94
740.764	26400.08
741.104	26527.31
741.444	26378.16
741.784	26472.4
742.124	26422.45
742.464	26440.08
742.804	26513.98
743.143	26509.91
743.483	26555.56
743.823	26519.18
744.162	26508.33
744.502	26608.89
744.841	26527.31
745.181	26711.94
745.52	26529.34
745.86	26604.37
746.199	26708.32
746.538	26540.19
746.877	26739.06
747.216	26803.91
747.556	26744.25
747.895	26671.49
748.234	26637.82
748.573	26699.74
748.911	26741.99
749.25	26821.99
749.589	26641.21
749.928	26701.77
750.267	26764.59
750.605	26768.89
750.944	26831.71
751.283	26702.9
751.621	26894.53
751.96	26685.05
752.298	26762.79
752.636	26800.07
752.975	26711.26
753.313	26797.81
753.651	26930.92
753.989	26758.27
