Data from blue_clamp_base_FLMS001491_00032.txt Node
Date: Wed Feb 08 15:15:54 GMT 2017
User: dcchb
Spectrometer: FLMS00149
Trigger mode: 0
Integration Time (sec): 2.000000E-2
Scans to average: 10
Electric dark correction enabled: true
Nonlinearity correction enabled: false
Boxcar width: 0
XAxis mode: Wavelengths
Number of Pixels in Spectrum: 2048
>>>>>Begin Spectral Data<<<<<
341.393	-1.47
341.776	-1.47
342.16	-1.47
342.543	-58.42
342.927	-47.12
343.31	-81.24
343.693	-71.98
344.077	-61.58
344.46	-59.77
344.843	-45.31
345.226	-40.56
345.61	-20.45
345.993	-24.52
346.376	-8.93
346.759	10.96
347.142	22.71
347.525	54.8
347.908	62.03
348.291	72.65
348.674	92.31
349.057	98.87
349.44	120.11
349.823	136.15
350.206	153.33
350.588	208.24
350.971	194.46
351.354	231.52
351.737	230.39
352.119	247.79
352.502	251.86
352.884	261.12
353.267	263.61
353.65	287.34
354.032	303.83
354.414	310.16
354.797	307.9
355.179	328.92
355.562	334.79
355.944	328.24
356.326	319.2
356.709	345.19
357.091	344.51
357.473	356.04
357.855	338.18
358.238	333.21
358.62	344.28
359.002	340.44
359.384	337.73
359.766	344.51
360.148	344.06
360.53	356.71
360.912	311.97
361.294	342.25
361.676	337.28
362.057	342.93
362.439	333.44
362.821	321.01
363.203	341.12
363.584	334.79
363.966	324.85
364.348	326.88
364.729	335.25
365.111	321.01
365.493	326.88
365.874	318.52
366.256	334.79
366.637	328.24
367.019	332.76
367.4	316.94
367.781	302.03
368.163	327.11
368.544	316.94
368.925	317.84
369.306	302.03
369.688	317.84
370.069	305.19
370.45	336.15
370.831	324.85
371.212	305.64
371.593	316.94
371.974	347.22
372.355	316.26
372.736	332.53
373.117	336.83
373.498	329.37
373.879	325.98
374.26	305.19
374.641	332.53
375.021	303.38
375.402	315.81
375.783	332.08
376.163	340.44
376.544	331.18
376.925	323.72
377.305	344.51
377.686	327.56
378.066	324.17
378.447	341.8
378.827	347.9
379.208	339.31
379.588	339.54
379.968	346.54
380.349	342.02
380.729	370.5
381.109	357.84
381.489	346.77
381.87	364.4
382.25	363.27
382.63	383.83
383.01	364.4
383.39	354.45
383.77	368.24
384.15	376.6
384.53	366.66
384.91	380.67
385.29	403.04
385.67	375.24
386.049	397.84
386.429	378.86
386.809	377.96
387.189	400.1
387.568	394
387.948	381.12
388.328	377.96
388.707	398.29
389.087	376.83
389.466	399.2
389.846	400.78
390.225	431.06
390.605	429.48
390.984	397.84
391.363	402.81
391.743	418.86
392.122	417.05
392.501	424.51
392.881	450.72
393.26	455.47
393.639	448.24
394.018	445.3
394.397	455.69
394.776	437.39
395.155	451.17
395.534	439.88
395.913	466.32
396.292	465.64
396.671	470.61
397.05	462.7
397.429	456.37
397.808	462.93
398.186	471.29
398.565	490.95
398.944	477.39
399.323	499.76
399.701	519.2
400.08	520.1
400.458	502.47
400.837	495.47
401.215	502.92
401.594	522.13
401.972	523.26
402.351	531.17
402.729	526.43
403.107	542.92
403.486	542.92
403.864	575.47
404.242	556.93
404.62	556.03
404.999	560.55
405.377	549.7
405.755	576.6
406.133	581.34
406.511	601.68
406.889	581.57
407.267	622.02
407.645	603.03
408.023	628.57
408.401	602.81
408.779	626.54
409.156	663.82
409.534	661.79
409.912	660.66
410.29	677.84
410.667	678.29
411.045	685.07
411.422	674.22
411.8	676.25
412.178	681
412.555	711.96
412.933	696.59
413.31	722.35
413.687	748.57
414.065	727.55
414.442	746.31
414.819	748.12
415.197	764.39
415.574	785.63
415.951	780.66
416.328	807.78
416.705	769.13
417.082	797.83
417.46	816.81
417.837	807.1
418.214	814.78
418.591	829.02
418.967	834.22
419.344	849.36
419.721	857.49
420.098	845.51
420.475	860.2
420.852	907.43
421.228	876.93
421.605	890.26
421.982	900.43
422.358	895.68
422.735	923.48
423.111	928.45
423.488	920.09
423.864	934.78
424.241	952.86
424.617	919.41
424.994	976.58
425.37	976.36
425.746	983.14
426.123	994.89
426.499	1003.25
426.875	1016.13
427.251	1040.99
427.627	1045.74
428.003	1072.63
428.379	1099.29
428.756	1065.4
429.132	1126.64
429.507	1111.72
429.883	1136.13
430.259	1129.8
430.635	1142
431.011	1152.4
431.387	1205.05
431.763	1233.98
432.138	1219.97
432.514	1248.44
432.89	1262.23
433.265	1268.55
433.641	1293.64
434.016	1282.79
434.392	1310.14
434.767	1345.84
435.143	1347.87
435.518	1379.51
435.894	1359.63
436.269	1359.63
436.644	1423.8
437.02	1416.35
437.395	1404.6
437.77	1418.15
438.145	1454.76
438.52	1460.87
438.895	1502.45
439.271	1511.03
439.646	1534.31
440.021	1508.55
440.395	1554.2
440.77	1550.81
441.145	1555.55
441.52	1607.98
441.895	1583.35
442.27	1619.28
442.645	1634.87
443.019	1634.65
443.394	1657.92
443.769	1631.93
444.143	1621.99
444.518	1648.43
444.892	1694.98
445.267	1727.3
445.641	1721.88
446.016	1736.34
446.39	1752.84
446.764	1739.5
447.139	1743.57
447.513	1792.38
447.887	1792.83
448.262	1803.68
448.636	1820.4
449.01	1872.83
449.384	1850.01
449.758	1848.65
450.132	1859.95
450.506	1912.83
450.88	1890.91
451.254	1914.86
451.628	1931.14
452.002	1971.36
452.376	1954.86
452.75	1999.61
453.123	2012.04
453.497	2026.27
453.871	2050.91
454.244	2079.83
454.618	2099.72
454.992	2124.8
455.365	2145.59
455.739	2203.22
456.112	2216.1
456.486	2197.12
456.859	2233.27
457.232	2287.51
457.606	2290
457.979	2310.79
458.352	2337
458.725	2390.56
459.099	2386.72
459.472	2426.94
459.845	2464.45
460.218	2462.42
460.591	2504.68
460.964	2519.59
461.337	2524.79
461.71	2593.04
462.083	2644.34
462.456	2592.59
462.829	2642.08
463.201	2670.1
463.574	2685.47
463.947	2736.31
464.32	2808.63
464.692	2804.56
465.065	2790.32
465.438	2856.54
465.81	2849.98
466.183	2901.96
466.555	2983.31
466.928	2995.51
467.3	2985.8
467.672	3052.69
468.045	3066.93
468.417	3089.98
468.789	3134.49
469.161	3123.65
469.534	3152.57
469.906	3246.36
470.278	3273.25
470.65	3273.25
471.022	3385.11
471.394	3391.21
471.766	3418.55
472.138	3466.91
472.51	3557.76
472.882	3598.44
473.253	3590.3
473.625	3639.79
473.997	3703.74
474.369	3740.58
474.74	3779.67
475.112	3804.31
475.484	3885.89
475.855	3920.24
476.227	3966.56
476.598	4057.63
476.97	4087.69
477.341	4173.79
477.713	4205.43
478.084	4262.83
478.455	4323.16
478.827	4410.84
479.198	4442.48
479.569	4466.44
479.94	4551.18
480.311	4613.78
480.682	4688.58
481.053	4786.43
481.424	4825.75
481.795	4883.83
482.166	4901.68
482.537	4914.11
482.908	5062.35
483.279	5143.25
483.65	5160.88
484.021	5255.12
484.391	5314.32
484.762	5293.99
485.133	5368.79
485.503	5400.87
485.874	5531.27
486.244	5535.11
486.615	5646.74
486.985	5679.74
487.356	5725.84
487.726	5792.05
488.097	5897.13
488.467	5825.04
488.837	5952.72
489.207	6006.96
489.578	6054.64
489.948	6110.23
490.318	6168.54
490.688	6186.39
491.058	6263.9
491.428	6294.86
491.798	6345.26
492.168	6447.63
492.538	6439.94
492.908	6493.73
493.278	6590.9
493.648	6570.56
494.017	6589.32
494.387	6672.93
494.757	6703.67
495.126	6768.07
495.496	6758.81
495.866	6785.7
496.235	6814.85
496.605	6877.45
496.974	6841.29
497.344	6907.5
497.713	6907.05
498.082	6957.44
498.452	7035.63
498.821	7082.19
499.19	7000.61
499.559	7056.42
499.928	7079.47
500.298	7121.06
500.667	7213.93
501.036	7126.93
501.405	7237.89
501.774	7224.33
502.143	7273.82
502.512	7252.58
502.88	7324.44
503.249	7337.55
503.618	7333.71
503.987	7406.7
504.356	7408.51
504.724	7410.31
505.093	7430.43
505.462	7446.7
505.83	7482.18
506.199	7537.99
506.567	7591.1
506.936	7534.6
507.304	7643.08
507.672	7673.58
508.041	7691.66
508.409	7767.37
508.777	7774.6
509.145	7784.32
509.514	7792.22
509.882	7801.94
510.25	7769.4
510.618	7901.6
510.986	7907.93
511.354	7947.93
511.722	8011.88
512.09	8079.9
512.458	8068.15
512.826	8065.66
513.193	8108.15
513.561	8132.55
513.929	8147.7
514.297	8180.24
514.664	8221.14
515.032	8246.68
515.4	8335.49
515.767	8253.68
516.135	8336.39
516.502	8273.79
516.869	8388.82
517.237	8436.5
517.604	8399.89
517.972	8436.73
518.339	8485.31
518.706	8449.16
519.073	8472.88
519.44	8549.94
519.808	8625.87
520.175	8595.82
520.542	8689.6
520.909	8732.99
521.276	8665.42
521.643	8775.25
522.009	8782.48
522.376	8858.86
522.743	8861.8
523.11	9015.92
523.477	8997.16
523.843	9078.29
524.21	9075.81
524.577	9161.23
524.943	9172.3
525.31	9218.18
525.676	9291.62
526.043	9302.02
526.409	9354.9
526.776	9386.08
527.142	9384.27
527.508	9437.15
527.874	9513.99
528.241	9528.45
528.607	9552.4
528.973	9613.87
529.339	9633.76
529.705	9699.07
530.071	9773.64
530.437	9777.93
530.803	9789.46
531.169	9927.31
531.535	9869.68
531.901	9900.42
532.267	9930.02
532.632	10018.83
532.998	9999.4
533.364	10064.48
533.73	10073.75
534.095	10222.22
534.461	10223.35
534.826	10201.88
535.192	10276.9
535.557	10361.42
535.923	10355.55
536.288	10407.52
536.653	10332.5
537.019	10347.41
537.384	10460.4
537.749	10449.78
538.114	10491.36
538.479	10543.56
538.845	10537.24
539.21	10562.55
539.575	10620.4
539.94	10536.11
540.305	10695.88
540.67	10646.61
541.034	10690.91
541.399	10677.57
541.764	10744.01
542.129	10772.71
542.494	10814.52
542.858	10809.55
543.223	10858.13
543.587	10921.63
543.952	10874.86
544.316	10928.19
544.681	10994.63
545.045	11013.61
545.41	11000.95
545.774	11136.77
546.138	11115.98
546.503	11151.91
546.867	11167.95
547.231	11180.16
547.595	11216.54
547.959	11280.04
548.324	11259.48
548.688	11283.43
549.052	11274.17
549.416	11364.11
549.779	11347.39
550.143	11334.05
550.507	11412.69
550.871	11418.12
551.235	11403.2
551.599	11532.01
551.962	11579.7
552.326	11506.25
552.689	11659.69
553.053	11566.81
553.417	11588.06
553.78	11724.78
554.143	11654.27
554.507	11708.28
554.87	11736.3
555.234	11890.42
555.597	11828.5
555.96	11809.52
556.323	11865.34
556.686	11823.08
557.05	11884.09
557.413	11965.67
557.776	11962.06
558.139	12009.51
558.502	12032.56
558.865	12124.31
559.228	12173.8
559.59	12216.74
559.953	12239.11
560.316	12304.87
560.679	12362.05
561.041	12427.58
561.404	12395.27
561.767	12468.49
562.129	12449.73
562.492	12527.24
562.854	12511.65
563.217	12583.96
563.579	12616.28
563.941	12649.72
564.304	12753.9
564.666	12786.67
565.028	12808.82
565.39	12807.46
565.753	12882.26
566.115	12909.83
566.477	12905.08
566.839	13028.47
567.201	13118.64
567.563	13050.84
567.925	13225.98
568.287	13171.74
568.648	13216.26
569.01	13306.43
569.372	13467.33
569.734	13385.75
570.095	13457.84
570.457	13434.79
570.819	13473.43
571.18	13501.23
571.542	13605.18
571.903	13650.15
572.265	13634.56
572.626	13686.08
572.987	13677.49
573.349	13743.71
573.71	13821.9
574.071	13822.35
574.432	13816.7
574.794	13985.06
575.155	13961.78
575.516	13930.82
575.877	14143.02
576.238	14095.34
576.599	14077.48
576.96	14114.54
577.32	14068.44
577.681	14221.21
578.042	14237.48
578.403	14185.95
578.763	14248.33
579.124	14254.65
579.485	14350.47
579.845	14339.62
580.206	14344.59
580.566	14322.9
580.927	14436.57
581.287	14456.46
581.648	14342.11
582.008	14481.31
582.368	14434.76
582.728	14538.49
583.089	14577.13
583.449	14450.13
583.809	14552.27
584.169	14573.06
584.529	14507.08
584.889	14656.45
585.249	14554.98
585.609	14564.7
585.969	14620.75
586.329	14597.7
586.688	14664.59
587.048	14595.44
587.408	14649.67
587.768	14544.82
588.127	14653.74
588.487	14506.85
588.846	14737.13
589.206	14630.01
589.565	14629.56
589.925	14660.07
590.284	14710.69
590.643	14707.3
591.003	14679.95
591.362	14810.57
591.721	14821.19
592.08	14739.16
592.44	14776.22
592.799	14818.48
593.158	14809.67
593.517	14763.34
593.876	14813.73
594.235	14793.17
594.593	14861.64
594.952	14840.4
595.311	14733.28
595.67	14815.09
596.029	14895.54
596.387	14871.13
596.746	14992.04
597.104	14968.53
597.463	14856.45
597.822	14914.3
598.18	14808.09
598.538	14885.15
598.897	14811.47
599.255	14758.59
599.613	15023.9
599.972	14959.27
600.33	14890.57
600.688	14851.25
601.046	14971.02
601.404	15017.8
601.762	14976.67
602.12	15030.9
602.478	14925.14
602.836	15006.72
603.194	15002.88
603.552	15027.06
603.91	14926.73
604.268	15069.1
604.625	15001.53
604.983	15082.43
605.341	15011.02
605.698	15133.73
606.056	15100.28
606.413	15034.07
606.771	15106.83
607.128	15227.06
607.485	15106.16
607.843	15166.72
608.2	15262.54
608.557	15209.2
608.914	15215.98
609.272	15199.04
609.629	15306.15
609.986	15330.11
610.343	15300.5
610.7	15382.99
611.057	15353.38
611.414	15361.29
611.771	15358.35
612.127	15382.08
612.484	15398.35
612.841	15481.06
613.198	15426.83
613.554	15387.05
613.911	15481.97
614.267	15455.53
614.624	15448.07
614.98	15559.7
615.337	15592.25
615.693	15605.35
616.05	15556.09
616.406	15626.37
616.762	15611.45
617.118	15628.85
617.475	15590.89
617.831	15712.02
618.187	15731.45
618.543	15631.79
618.899	15760.83
619.255	15772.58
619.611	15792.92
619.967	15822.75
620.323	15821.62
620.678	15794.27
621.034	15822.97
621.39	15810.32
621.746	15727.61
622.101	15947.94
622.457	15794.05
622.812	15879.47
623.168	15951.11
623.523	15933.25
623.879	15894.38
624.234	15833.14
624.589	15954.72
624.945	15941.84
625.3	16010.31
625.655	15993.59
626.01	15985.68
626.365	16037.88
626.72	16045.79
627.075	16033.59
627.43	15899.58
627.785	15996.53
628.14	16000.82
628.495	16077.43
628.85	16025.68
629.205	16081.95
629.559	16139.12
629.914	16056.87
630.269	16122.63
630.623	16029.52
630.978	16039.01
631.332	16146.13
631.687	16221.61
632.041	16033.59
632.396	16173.47
632.75	16090.99
633.104	16109.52
633.459	16122.63
633.813	16138.45
634.167	16127.15
634.521	16077.66
634.875	16193.13
635.229	16250.53
635.583	16042.63
635.937	16189.29
636.291	16203.3
636.645	16150.42
636.999	16152.23
637.352	16183.87
637.706	16037.66
638.06	16199.46
638.413	16217.31
638.767	16137.32
639.121	16163.76
639.474	16110.88
639.828	16141.61
640.181	16260.7
640.534	16062.97
640.888	16174.6
641.241	16149.52
641.594	16133.47
641.947	16344.99
642.301	16149.52
642.654	16200.36
643.007	16240.14
643.36	16193.36
643.713	16206.92
644.066	16346.58
644.419	16148.16
644.771	16170.99
645.124	16031.33
645.477	15928.06
645.83	15840.37
646.182	15866.36
646.535	15732.35
646.888	15850.54
647.24	15754.05
647.593	15870.2
647.945	15900.49
648.298	15874.95
648.65	15870.43
649.002	15771.9
649.355	15919.69
649.707	15936.87
650.059	15956.76
650.411	16181.38
650.763	16188.61
651.115	16451.21
651.467	16336.18
651.819	16373.69
652.171	16335.05
652.523	16398.55
652.875	16307.71
653.227	16344.99
653.578	16449.17
653.93	16379.8
654.282	16494.14
654.633	16368.27
654.985	16399.91
655.337	16391.09
655.688	16477.19
656.039	16504.31
656.391	16513.35
656.742	16473.13
657.094	16457.99
657.445	16518.55
657.796	16448.49
658.147	16461.15
658.498	16514.03
658.849	16528.49
659.2	16507.02
659.551	16520.58
659.902	16594.03
660.253	16443.97
660.604	16564.2
660.955	16523.97
661.306	16553.35
661.656	16587.02
662.007	16575.5
662.358	16580.47
662.708	16601.03
663.059	16462.96
663.409	16471.54
663.76	16622.5
664.11	16539.11
664.461	16472.9
664.811	16554.93
665.161	16504.76
665.511	16555.38
665.862	16605.33
666.212	16553.8
666.562	16513.58
666.912	16538.21
667.262	16494.82
667.612	16502.28
667.962	16574.82
668.312	16572.56
668.662	16560.13
669.011	16439.45
669.361	16490.75
669.711	16540.24
670.06	16447.14
670.41	16415.05
670.76	16341.83
671.109	16349.06
671.459	16292.34
671.808	16372.34
672.157	16387.03
672.507	16237.2
672.856	16232.91
673.205	16266.58
673.554	16278.33
673.904	16199.24
674.253	16297.31
674.602	16167.15
674.951	15938.9
675.3	15788.62
675.649	16053.93
675.998	16108.62
676.346	16151.1
676.695	16141.84
677.044	15952.69
677.393	16011.9
677.741	16071.55
678.09	15949.3
678.438	15931.45
678.787	15943.2
679.135	15961.05
679.484	15817.32
679.832	15818.45
680.181	15771
680.529	15825.01
680.877	15764.44
681.225	15674.28
681.573	15704.33
681.922	15625.92
682.27	15564.9
682.618	15559.93
682.966	15599.48
683.314	15614.84
683.661	15526.71
684.009	15421.18
684.357	15414.17
684.705	15418.01
685.053	15383.21
685.4	15414.62
685.748	15302.08
686.095	15302.31
686.443	15342.53
686.79	15248.07
687.138	15214.85
687.485	15211.01
687.832	15152.93
688.18	15188.87
688.527	15160.17
688.874	15082.2
689.221	15148.19
689.568	14990.23
689.915	14987.74
690.262	15006.5
690.609	15002.43
690.956	14968.53
691.303	14970.79
691.65	14835.66
691.997	14921.3
692.344	14839.27
692.69	14824.13
693.037	14817.35
693.383	14700.97
693.73	14792.94
694.077	14755.66
694.423	14747.52
694.769	14659.39
695.116	14731.48
695.462	14645.38
695.808	14639.5
696.155	14595.21
696.501	14559.96
696.847	14544.36
697.193	14420.52
697.539	14513.18
697.885	14425.72
698.231	14398.38
698.577	14471.82
698.923	14409.23
699.269	14299.85
699.614	14277.93
699.96	14351.83
700.306	14330.81
700.651	14196.8
700.997	14214.43
701.342	14128.1
701.688	14122.45
702.033	14101.89
702.379	14122.45
702.724	14131.94
703.069	14242
703.415	14040.42
703.76	14023.47
704.105	14045.85
704.45	14089.91
704.795	13985.51
705.14	13949.8
705.485	13958.84
705.83	13952.74
706.175	13887.88
706.52	13957.03
706.865	13869.58
707.209	13895.34
707.554	13874.1
707.899	13894.66
708.243	13853.99
708.588	13834.78
708.932	13743.25
709.277	13716.14
709.621	13850.6
709.966	13713.88
710.31	13785.06
710.654	13624.61
710.998	13698.06
711.342	13736.7
711.687	13680.21
712.031	13646.53
712.375	13660.77
712.719	13613.54
713.063	13701.9
713.407	13664.61
713.75	13628.23
714.094	13631.84
714.438	13581.22
714.782	13594.56
715.125	13557.04
715.469	13618.06
715.812	13513.2
716.156	13410.83
716.499	13525.63
716.843	13521.11
717.186	13486.76
717.53	13536.48
717.873	13552.53
718.216	13473.21
718.559	13449.25
718.902	13408.12
719.246	13455.58
719.589	13325.41
719.932	13323.15
720.275	13373.55
720.617	13337.84
720.96	13374.45
721.303	13314.79
721.646	13372.87
721.989	13310.72
722.331	13339.2
722.674	13328.8
723.016	13293.1
723.359	13268.92
723.701	13308.46
724.044	13291.29
724.386	13123.16
724.729	13262.14
725.071	13240.44
725.413	13244.74
725.755	13235.02
726.097	13179.88
726.439	13088.36
726.782	13199.77
727.124	13194.34
727.465	13162.25
727.807	13192.31
728.149	13115.02
728.491	13152.08
728.833	13122.93
729.175	13109.15
729.516	13117.06
729.858	13206.55
730.199	13128.13
730.541	13106.66
730.882	13209.03
731.224	13152.31
731.565	13108.02
731.906	13108.69
732.248	13129.49
732.589	13081.58
732.93	13034.8
733.271	13135.59
733.612	13127.9
733.953	13069.6
734.294	13112.08
734.635	13188.92
734.976	13201.35
735.317	13153.89
735.658	13190.5
735.999	13191.86
736.339	13091.97
736.68	13276.6
737.021	13158.41
737.361	13186.66
737.702	13317.73
738.042	13256.71
738.383	13249.26
738.723	13300.78
739.063	13267.11
739.404	13347.56
739.744	13311.18
740.084	13316.15
740.424	13344.62
740.764	13302.14
741.104	13500.55
741.444	13465.97
741.784	13356.6
742.124	13428.01
742.464	13463.04
742.804	13478.85
743.143	13468.91
743.483	13530.15
743.823	13425.75
744.162	13491.06
744.502	13543.71
744.841	13550.72
745.181	13621.9
745.52	13527.21
745.86	13678.17
746.199	13618.96
746.538	13636.82
746.877	13758.62
747.216	13655.8
747.556	13739.64
747.895	13763.14
748.234	13723.14
748.573	13707.78
748.911	13712.07
749.25	13766.76
749.589	13783.03
749.928	13858.96
750.267	13933.08
750.605	13862.57
750.944	13851.73
751.283	13841.33
751.621	13954.55
751.96	13876.81
752.298	13959.29
752.636	13967.43
752.975	13872.06
753.313	13986.64
753.651	14073.19
753.989	14104.37
754.327	13954.55
754.666	14066.86
755.004	14073.19
755.342	14141.66
755.679	14209.46
756.017	14147.31
756.355	14213.07
756.693	14203.36
