Data from breadboard_white_FLMS001491_00055.txt Node
Date: Wed Feb 08 10:47:56 GMT 2017
User: dcchb
Spectrometer: FLMS00149
Trigger mode: 0
Integration Time (sec): 2.000000E-2
Scans to average: 10
Electric dark correction enabled: true
Nonlinearity correction enabled: false
Boxcar width: 0
XAxis mode: Wavelengths
Number of Pixels in Spectrum: 2048
>>>>>Begin Spectral Data<<<<<
341.393	-23.13
341.776	-23.13
342.16	-23.13
342.543	-49.57
342.927	-65.85
343.31	-84.15
343.693	-67.88
344.077	-66.52
344.46	-50.25
344.843	-40.99
345.226	-40.31
345.61	-10.93
345.993	-19.75
346.376	-2.8
346.759	-5.28
347.142	22.06
347.525	41.5
347.908	42.85
348.291	81.95
348.674	80.82
349.057	119.69
349.44	134.15
349.823	158.78
350.206	185
350.588	230.87
350.971	231.55
351.354	234.03
351.737	245.11
352.119	253.69
352.502	296.18
352.884	293.24
353.267	293.92
353.65	322.62
354.032	324.43
354.414	330.3
354.797	337.08
355.179	349.51
355.562	350.87
355.944	340.7
356.326	345.44
356.709	370.75
357.091	360.13
357.473	376.4
357.855	376.63
358.238	355.84
358.62	363.07
359.002	364.65
359.384	356.52
359.766	354.93
360.148	386.12
360.53	360.13
360.912	370.3
361.294	358.1
361.676	366.01
362.057	368.49
362.439	361.94
362.821	348.15
363.203	369.62
363.584	361.71
363.966	362.17
364.348	349.74
364.729	361.94
365.111	352.45
365.493	348.83
365.874	353.13
366.256	352.45
366.637	357.65
367.019	359.91
367.4	340.47
367.781	374.82
368.163	342.96
368.544	346.8
368.925	342.05
369.306	345.22
369.688	353.35
370.069	353.8
370.45	356.97
370.831	363.97
371.212	354.03
371.593	357.65
371.974	377.08
372.355	376.85
372.736	361.04
373.117	357.65
373.498	354.03
373.879	369.17
374.26	352.22
374.641	358.78
375.021	364.88
375.402	380.02
375.783	363.97
376.163	429.28
376.544	392
376.925	401.71
377.305	377.53
377.686	406.68
378.066	397.87
378.447	394.93
378.827	414.82
379.208	385.22
379.588	414.14
379.968	412.79
380.349	414.82
380.729	413.24
381.109	420.02
381.489	431.99
381.87	413.69
382.25	430.19
382.63	432.45
383.01	430.86
383.39	405.1
383.77	440.81
384.15	467.02
384.53	443.07
384.91	439
385.29	421.37
385.67	474.25
386.049	461.6
386.429	442.62
386.809	500.02
387.189	476.29
387.568	477.19
387.948	465.21
388.328	480.58
388.707	490.07
389.087	502.95
389.466	505.21
389.846	509.28
390.225	507.92
390.605	515.38
390.984	498.89
391.363	506.57
391.743	538.43
392.122	545.66
392.501	552.67
392.881	566.23
393.26	553.57
393.639	555.38
394.018	544.99
394.397	593.35
394.776	597.41
395.155	593.35
395.534	580.92
395.913	613.91
396.292	633.57
396.671	636.06
397.05	621.59
397.429	636.51
397.808	634.7
398.186	664.98
398.565	645.32
398.944	644.19
399.323	658.43
399.701	694.13
400.08	685.09
400.458	689.84
400.837	733.46
401.215	737.75
401.594	726.9
401.972	753.34
402.351	746.11
402.729	760.57
403.107	782.72
403.486	793.11
403.864	799.22
404.242	812.78
404.62	805.77
404.999	838.76
405.377	843.28
405.755	870.17
406.133	903.85
406.511	910.17
406.889	933.45
407.267	936.84
407.645	953.34
408.023	989.27
408.401	990.85
408.779	1022.94
409.156	1021.36
409.534	1051.41
409.912	1073.33
410.29	1114.91
410.667	1127.8
411.045	1127.34
411.422	1152.43
411.8	1174.12
412.178	1201.92
412.555	1229.49
412.933	1231.97
413.31	1263.84
413.687	1290.5
414.065	1286.44
414.442	1335.47
414.819	1344.96
415.197	1374.34
415.574	1394.68
415.951	1422.02
416.328	1447.33
416.705	1450.05
417.082	1447.11
417.46	1493.21
417.837	1493.21
418.214	1517.84
418.591	1551.96
418.967	1578.18
419.344	1619.99
419.721	1606.65
420.098	1630.83
420.475	1668.57
420.852	1666.09
421.228	1705.18
421.605	1694.33
421.982	1744.95
422.358	1732.07
422.735	1804.84
423.111	1791.28
423.488	1858.62
423.864	1851.62
424.241	1871.73
424.617	1910.6
424.994	1936.36
425.37	1927.77
425.746	1953.08
426.123	1961.67
426.499	1965.29
426.875	2021.56
427.251	2058.17
427.627	2110.59
428.003	2137.71
428.379	2164.15
428.756	2205.28
429.132	2205.28
429.507	2243.25
429.883	2273.3
430.259	2317.82
430.635	2344.03
431.011	2349.01
431.387	2424.03
431.763	2471.71
432.138	2479.62
432.514	2510.58
432.89	2532.28
433.265	2570.02
433.641	2657.92
434.016	2658.38
434.392	2707.19
434.767	2759.16
435.143	2755.32
435.518	2797.36
435.894	2832.16
436.269	2873.51
436.644	2883.68
437.02	2920.74
437.395	2946.5
437.77	3025.37
438.145	3049.55
438.52	3087.74
438.895	3120.74
439.271	3114.64
439.646	3207.97
440.021	3202.77
440.395	3228.3
440.77	3245.25
441.145	3279.83
441.52	3323.22
441.895	3356.66
442.27	3378.36
442.645	3401.63
443.019	3416.77
443.394	3446.38
443.769	3483.89
444.143	3458.13
444.518	3539.03
444.892	3518.92
445.267	3552.82
445.641	3590.56
446.016	3619.03
446.39	3636.43
446.764	3675.98
447.139	3667.16
447.513	3746.26
447.887	3721.4
448.262	3759.14
448.636	3785.35
449.01	3838.23
449.384	3868.51
449.758	3925.24
450.132	3966.14
450.506	3997.55
450.88	4035.29
451.254	4002.97
451.628	4066.47
452.002	4127.72
452.376	4166.36
452.75	4217.66
453.123	4238.67
453.497	4372.46
453.871	4356.86
454.244	4452.91
454.618	4502.4
454.992	4537.2
455.365	4541.94
455.739	4678.66
456.112	4706.91
456.486	4803.63
456.859	4834.36
457.232	4905.77
457.606	4908.26
457.979	4978.54
458.352	5063.74
458.725	5091.53
459.099	5147.12
459.472	5257.4
459.845	5371.3
460.218	5422.82
460.591	5421.47
460.964	5482.93
461.337	5625.76
461.71	5681.57
462.083	5766.09
462.456	5773.32
462.829	5801.12
463.201	5894.45
463.574	5954.11
463.947	6035.01
464.32	6202.46
464.692	6207.66
465.065	6291.95
465.438	6361.33
465.81	6501.67
466.183	6561.55
466.555	6730.81
466.928	6755.67
467.3	6768.1
467.672	6893.52
468.045	7083.12
468.417	7074.08
468.789	7125.6
469.161	7239.5
469.534	7343.45
469.906	7512.26
470.278	7541.64
470.65	7672.26
471.022	7886.49
471.394	8007.39
471.766	7990.21
472.138	8126.03
472.51	8282.86
472.882	8431.33
473.253	8555.4
473.625	8712.68
473.997	8823.86
474.369	8957.19
474.74	9034.93
475.112	9288.26
475.484	9393.11
475.855	9488.93
476.227	9634.69
476.598	9898.86
476.97	9957.85
477.341	10249.14
477.713	10339.53
478.084	10445.52
478.455	10711.27
478.827	10838.27
479.198	11098.38
479.569	11154.65
479.94	11464.25
480.311	11623.11
480.682	11868.3
481.053	12141.06
481.424	12317.78
481.795	12386.93
482.166	12555.29
482.537	12741.73
482.908	13114.6
483.279	13247.7
483.65	13395.95
484.021	13731.31
484.391	13846.56
484.762	14028.47
485.133	14182.37
485.503	14312.53
485.874	14676.59
486.244	14701.45
486.615	15042.91
486.985	15237.25
487.356	15620.07
487.726	15664.14
488.097	15986.39
488.467	16144.58
488.837	16517.9
489.207	16651.45
489.578	16846.48
489.948	16916.31
490.318	17233.59
490.688	17351.78
491.058	17664.08
491.428	17923.06
491.798	18078.31
492.168	18455.25
492.538	18469.49
492.908	18709.71
493.278	19062.92
493.648	18993.31
494.017	19350.37
494.387	19468.56
494.757	19644.14
495.126	19885.72
495.496	19901.99
495.866	20174.07
496.235	20207.52
496.605	20545.14
496.974	20695.42
497.344	20832.59
497.713	20889.31
498.082	21162.07
498.452	21442.52
498.821	21462.4
499.19	21586.01
499.559	21792.11
499.928	22037.08
500.298	21972.44
500.667	22304.87
501.036	22227.13
501.405	22603.39
501.774	22587.34
502.143	22956.37
502.512	22973.1
502.88	23258.96
503.249	23350.94
503.618	23385.52
503.987	23698.05
504.356	23628.22
504.724	23887.65
505.093	24008.55
505.462	24205.83
505.83	24271.14
506.199	24526.05
506.567	24890.33
506.936	24847.62
507.304	25127.84
507.672	25287.61
508.041	25354.05
508.409	25586.59
508.777	25843.08
509.145	26016.63
509.514	26080.59
509.882	26231.99
510.25	26380.01
510.618	26660.46
510.986	26717.86
511.354	27048.24
511.722	27159.2
512.09	27494.56
512.458	27376.6
512.826	27761.45
513.193	27904.72
513.561	28040.76
513.929	28243.01
514.297	28648.2
514.664	28790.34
515.032	28906.5
515.4	29207.96
515.767	29371.8
516.135	29627.84
516.502	29365.02
516.869	29949.41
517.237	29993.7
517.604	30126.58
517.972	30388.04
518.339	30610.18
518.706	30794.13
519.073	31040.91
519.44	31227.34
519.808	31520.67
520.175	31676.6
520.542	32052.18
520.909	32142.12
521.276	32247.88
521.643	32606.29
522.009	32733.74
522.376	33167.4
522.743	33259.38
523.11	33524.01
523.477	33874.5
523.843	34105.91
524.21	34489.4
524.577	34779.79
524.943	34885.78
525.31	35067.24
525.676	35484.18
526.043	35645.31
526.409	35722.82
526.776	36206.87
527.142	36312.41
527.508	36499.97
527.874	36833.07
528.241	37087.08
528.607	37155.55
528.973	37544.24
529.339	37611.13
529.705	38019.71
530.071	38293.6
530.437	38364.78
530.803	38585.57
531.169	38838.44
531.535	38841.15
531.901	38995.5
532.267	39177.64
532.632	39501.7
532.998	39557.07
533.364	39934.01
533.73	40180.78
534.095	40370.61
534.461	40510.26
534.826	40701.22
535.192	40790.26
535.557	41128.55
535.923	41082.45
536.288	41349.34
536.653	41490.12
537.019	41356.34
537.384	41673.17
537.749	41873.62
538.114	42038.58
538.479	42022.99
538.845	42308.86
539.21	42406.26
539.575	42515.41
539.94	42675.86
540.305	42982.51
540.67	42890.76
541.034	43068.84
541.399	43369.85
541.764	43307.48
542.129	43497.98
542.494	43585.66
542.858	43803.28
543.223	43696.17
543.587	44236.04
543.952	44145.42
544.316	44367.11
544.681	44380.22
545.045	44631.06
545.41	44686.42
545.774	44836.93
546.138	45000.54
546.503	45070.82
546.867	45156.24
547.231	45398.27
547.595	45620.64
547.959	45519.17
548.324	45698.15
548.688	45910.8
549.052	45936.11
549.416	46014.07
549.779	46100.4
550.143	46261.98
550.507	46676.43
550.871	46624.68
551.235	46712.59
551.599	46964.1
551.962	47105.57
552.326	47149.64
552.689	47351.89
553.053	47268.95
553.417	47493.58
553.78	47961.37
554.143	47785.55
554.507	47976.73
554.87	48137.63
555.234	48528.36
555.597	48347.34
555.96	48564.51
556.323	48746.43
556.686	48839.31
557.05	49151.84
557.413	49258.73
557.776	49408.56
558.139	49469.35
558.502	49704.15
558.865	49722.45
559.228	49954.76
559.59	50057.58
559.953	50109.33
560.316	50504.35
560.679	50489.89
561.041	50696.66
561.404	50912.47
561.767	51084.9
562.129	50976.2
562.492	51340.49
562.854	51346.81
563.217	51482.63
563.579	51551.55
563.941	51809.4
564.304	51926.91
564.666	52169.16
565.028	52160.13
565.39	52324.64
565.753	52500.46
566.115	52458.42
566.477	52746.78
566.839	52826.77
567.201	52987.9
567.563	53044.4
567.925	53195.35
568.287	53261.34
568.648	53281.45
569.01	53436.02
569.372	53676.7
569.734	53531.84
570.095	53854.09
570.457	53921.21
570.819	53958.04
571.18	54034.88
571.542	54201.43
571.903	54327.3
572.265	54337.02
572.626	54419.95
572.987	54432.83
573.349	54507.41
573.71	54603.68
574.071	54721.19
574.432	54744.24
574.794	55077.34
575.155	55011.12
575.516	54932.93
575.877	55097
576.238	55122.08
576.599	55227.16
576.96	55200.5
577.32	55306.94
577.681	55367.95
578.042	55478.23
578.403	55497.21
578.763	55423.09
579.124	55467.84
579.485	55633.71
579.845	55713.7
580.206	55585.57
580.566	55580.15
580.927	55666.93
581.287	55744.44
581.648	55643.88
582.008	55842.06
582.368	55729.98
582.728	55884.55
583.089	55716.19
583.449	55747.38
583.809	55819.24
584.169	55808.39
584.529	55797.77
584.889	55996.63
585.249	55834.38
585.609	55739.24
585.969	55963.87
586.329	55847.03
586.688	55912.57
587.048	55946.01
587.408	55917.54
587.768	55864.66
588.127	55873.02
588.487	55864.89
588.846	56019.46
589.206	55796.64
589.565	55883.19
589.925	56002.74
590.284	55880.93
590.643	55922.29
591.003	56013.58
591.362	56130.64
591.721	55999.12
592.08	56046.35
592.44	56077.31
592.799	56061.94
593.158	56040.25
593.517	56005.9
593.876	56117.08
594.235	55990.31
594.593	56126.12
594.952	56138.78
595.311	55996.63
595.67	56121.38
596.029	56209.28
596.387	56274.37
596.746	56318.21
597.104	56167.93
597.463	56167.7
597.822	56325.67
598.18	56174.03
598.538	56186.23
598.897	56364.53
599.255	56056.52
599.613	56553.46
599.972	56360.69
600.33	56372.67
600.688	56283.63
601.046	56425.78
601.404	56492.44
601.762	56433.23
602.12	56494.93
602.478	56584.64
602.836	56652.44
603.194	56472.55
603.552	56540.58
603.91	56421.03
604.268	56552.78
604.625	56466.91
604.983	56590.29
605.341	56551.2
605.698	56620.57
606.056	56705.09
606.413	56638.43
606.771	56730.18
607.128	56825.09
607.485	56696.96
607.843	56767.01
608.2	56873.22
608.557	56978.76
608.914	56816.95
609.272	56895.59
609.629	56961.58
609.986	57056.04
610.343	56994.12
610.7	57148.24
611.057	57120
611.414	57111.41
611.771	57100.33
612.127	57229.37
612.484	57177.62
612.841	57289.03
613.198	57206.32
613.554	57225.98
613.911	57405.41
614.267	57334.9
614.624	57296.26
614.98	57299.43
615.337	57441.79
615.693	57373.55
616.05	57409.25
616.406	57581.9
616.762	57469.82
617.118	57441.79
617.475	57475.01
617.831	57545.52
618.187	57654.9
618.543	57620.1
618.899	57765.85
619.255	57697.16
619.611	57645.86
619.967	57739.41
620.323	57794.78
620.678	57664.16
621.034	57612.41
621.39	57555.46
621.746	57577.38
622.101	57931.73
622.457	57622.58
622.812	57766.76
623.168	57769.92
623.523	57760.2
623.879	57827.55
624.234	57630.94
624.589	57775.12
624.945	57751.17
625.3	57728.34
625.655	57756.36
626.01	57720.21
626.365	57783.71
626.72	57710.26
627.075	57703.03
627.43	57776.02
627.785	57679.98
628.14	57638.17
628.495	57735.12
628.85	57726.31
629.205	57622.58
629.559	57717.72
629.914	57621.23
630.269	57598.17
630.623	57542.81
630.978	57512.98
631.332	57651.96
631.687	57604.95
632.041	57514.11
632.396	57570.83
632.75	57426.2
633.104	57458.52
633.459	57404.73
633.813	57332.87
634.167	57334.68
634.521	57294.68
634.875	57342.59
635.229	57311.4
635.583	57111.18
635.937	57215.36
636.291	57211.74
636.645	57104.63
636.999	57073.89
637.352	57192.31
637.706	57011.52
638.06	57155.02
638.413	56981.02
638.767	56953.67
639.121	57032.54
639.474	56836.16
639.828	56900.34
640.181	56931.98
640.534	56859.66
640.888	56747.35
641.241	56687.01
641.594	56718.65
641.947	56808.82
642.301	56655.83
642.654	56702.83
643.007	56631.87
643.36	56610.86
643.713	56569.95
644.066	56658.09
644.419	56536.51
644.771	56440.92
645.124	56109.17
645.477	56115.05
645.83	55860.82
646.182	55668.73
646.535	55616.08
646.888	55693.82
647.24	55417.44
647.593	55605.68
647.945	55592.35
648.298	55438.91
648.65	55404.79
649.002	55323.21
649.355	55481.39
649.707	55400.49
650.059	55525.69
650.411	55779.69
650.763	55854.04
651.115	56105.33
651.467	55986.69
651.819	55996.18
652.171	55834.61
652.523	55821.5
652.875	55839.12
653.227	55739.69
653.578	55951.21
653.93	55865.34
654.282	55685.68
654.633	55609.07
654.985	55691.56
655.337	55685.23
655.688	55685.91
656.039	55850.42
656.391	55537.21
656.742	55556.19
657.094	55618.79
657.445	55597.78
657.796	55640.03
658.147	55441.62
658.498	55483.88
658.849	55599.58
659.2	55475.07
659.551	55434.16
659.902	55555.97
660.253	55450.43
660.604	55567.49
660.955	55262.19
661.306	55472.35
661.656	55338.12
662.007	55406.59
662.358	55348.97
662.708	55297.22
663.059	55340.38
663.409	55203.44
663.76	55393.49
664.11	55308.52
664.461	55321.85
664.811	55244.79
665.161	55262.19
665.511	55192.36
665.862	55251.8
666.212	55273.49
666.562	55169.76
666.912	55150.56
667.262	55182.19
667.612	55157.11
667.962	55167.05
668.312	55108.97
668.662	55231.01
669.011	55133.15
669.361	55128.64
669.711	55168.86
670.06	55030.78
670.41	54986.72
670.76	54961.86
671.109	55086.83
671.459	55022.2
671.808	54873.73
672.157	55015.87
672.507	54857.68
672.856	54822.2
673.205	54849.32
673.554	54947.4
673.904	54744.24
674.253	54956.66
674.602	54868.53
674.951	54467.64
675.3	54311.71
675.649	54771.58
675.998	54740.17
676.346	54725.48
676.695	54746.05
677.044	54523
677.393	54572.72
677.741	54729.55
678.09	54479.84
678.438	54540.4
678.787	54564.36
679.135	54491.82
679.484	54337.02
679.832	54460.4
680.181	54284.14
680.529	54341.09
680.877	54156.01
681.225	54242.33
681.573	54335.89
681.922	54112.62
682.27	54178.6
682.618	54046.86
682.966	53939.29
683.314	54060.64
683.661	53994.88
684.009	53778.61
684.357	53767.32
684.705	53752.85
685.053	53748.56
685.4	53659.3
685.748	53558.51
686.095	53571.16
686.443	53408.91
686.79	53393.54
687.138	53440.32
687.485	53427.21
687.832	53284.16
688.18	53313.32
688.527	53125.07
688.874	53015.7
689.221	52965.98
689.568	52853.21
689.915	52871.75
690.262	52830.39
690.609	52782.48
690.956	52700.9
691.303	52621.81
691.65	52407.35
691.997	52337.97
692.344	52173.68
692.69	52258.2
693.037	52232.21
693.383	51967.81
693.73	52099.11
694.077	51829.96
694.423	51879.68
694.769	51688.73
695.116	51650.76
695.462	51631.55
695.808	51401.5
696.155	51585.68
696.501	51216.2
696.847	51201.51
697.193	50990.44
697.539	51171.68
697.885	50897.56
698.231	50796.55
698.577	50776.43
698.923	50798.81
699.269	50590.22
699.614	50424.8
699.96	50244.7
700.306	50333.06
700.651	50223.23
700.997	50061.65
701.342	50035.66
701.688	50047.41
702.033	49887.42
702.379	49835.89
702.724	49795.89
703.069	49807.42
703.415	49315.45
703.76	49513.19
704.105	49378.05
704.45	49255.34
704.795	49103.71
705.14	48916.82
705.485	48878.4
705.83	48873.21
706.175	48771.29
706.52	48623.95
706.865	48610.39
707.209	48465.53
707.554	48211.53
707.899	48357.06
708.243	48078.2
708.588	48155.94
708.932	47887.02
709.277	47856.28
709.621	47944.64
709.966	47513.69
710.31	47583.07
710.654	47253.81
710.998	47417.2
711.342	47403.64
711.687	47172.91
712.031	47110.09
712.375	46866.48
712.719	47023.09
713.063	47031.9
713.407	46880.49
713.75	46730.89
714.094	46695.64
714.438	46502.87
714.782	46543.55
715.125	46482.53
715.469	46452.25
715.812	46223.78
716.156	46141.07
716.499	46146.95
716.843	46155.54
717.186	45815.43
717.53	45978.82
717.873	45913.51
718.216	45843
718.559	45646.4
718.902	45481.21
719.246	45626.74
719.589	45292.51
719.932	45139.29
720.275	45275.79
720.617	45078.96
720.96	45015.23
721.303	45021.78
721.646	45060.88
721.989	44844.61
722.331	44919.19
722.674	44729.81
723.016	44732.3
723.359	44575.24
723.701	44524.62
724.044	44294.12
724.386	44224.74
724.729	44402.14
725.071	44240.11
725.413	44098.42
725.755	44066.55
726.097	43996.27
726.439	43717.41
726.782	43824.07
727.124	44066.55
727.465	43753.12
727.807	43574.14
728.149	43583.18
728.491	43474.25
728.833	43497.53
729.175	43255.28
729.516	43180.02
729.858	43217.31
730.199	43223.86
730.541	43134.37
730.882	43055.96
731.224	43192.45
731.565	42854.16
731.906	42825.68
732.248	42910.88
732.589	42771.9
732.93	42615.97
733.271	42549.08
733.612	42473.6
733.953	42540.27
734.294	42258.92
734.635	42215.08
734.976	42418.23
735.317	42205.81
735.658	42145.02
735.999	42138.92
736.339	42009.43
736.68	42032.93
737.021	41800.85
737.361	41728.54
737.702	41975.08
738.042	41792.26
738.383	41677.46
738.723	41844.46
739.063	41545.94
739.404	41514.08
739.744	41503.91
740.084	41229.11
740.424	41343.01
740.764	41141.21
741.104	41291.03
741.444	41081.55
741.784	40961.1
742.124	40985.5
742.464	40904.6
742.804	40951.83
743.143	40642.01
743.483	40703.48
743.823	40390.04
744.162	40343.26
744.502	40656.02
744.841	40423.94
745.181	40543.48
745.52	40198.18
745.86	40421
746.199	40211.29
746.538	40316.14
746.877	40180.78
747.216	40229.59
747.556	39966.32
747.895	40061.91
748.234	39751.86
748.573	39662.6
748.911	39642.04
749.25	39655.6
749.589	39317.75
749.928	39554.81
750.267	39397.98
750.605	39184.87
750.944	39147.36
751.283	39030.75
751.621	39146.91
751.96	38886.12
752.298	38880.7
752.636	38866.24
