Data from breadboard_white_FLMS001491_00014.txt Node
Date: Wed Feb 08 10:47:20 GMT 2017
User: dcchb
Spectrometer: FLMS00149
Trigger mode: 0
Integration Time (sec): 2.000000E-2
Scans to average: 10
Electric dark correction enabled: true
Nonlinearity correction enabled: false
Boxcar width: 0
XAxis mode: Wavelengths
Number of Pixels in Spectrum: 2048
>>>>>Begin Spectral Data<<<<<
341.393	-14.66
341.776	-14.66
342.16	-14.66
342.543	-49.01
342.927	-63.47
343.31	-65.28
343.693	-62.57
344.077	-59.18
344.46	-58.5
344.843	-62.12
345.226	-49.69
345.61	-49.01
345.993	-18.28
346.376	7.94
346.759	10.88
347.142	29.18
347.525	41.16
347.908	47.48
348.291	68.95
348.674	100.82
349.057	118.22
349.44	121.38
349.823	115.96
350.206	157.76
350.588	227.37
350.971	236.63
351.354	243.86
351.737	259.23
352.119	266.91
352.502	273.02
352.884	284.09
353.267	317.99
353.65	325.67
354.032	316.18
354.414	325.22
354.797	329.96
355.179	327.25
355.562	355.5
355.944	365.22
356.326	359.11
356.709	351.43
357.091	355.5
357.473	377.42
357.855	367.7
358.238	386.01
358.62	363.86
359.002	365.22
359.384	376.29
359.766	375.16
360.148	374.71
360.53	368.15
360.912	357.53
361.294	351.88
361.676	363.18
362.057	365.67
362.439	363.63
362.821	374.03
363.203	389.62
363.584	359.34
363.966	358.66
364.348	368.15
364.729	372.45
365.111	354.14
365.493	368.83
365.874	348.04
366.256	358.21
366.637	372
367.019	351.43
367.4	365.22
367.781	364.76
368.163	358.66
368.544	352.79
368.925	355.5
369.306	374.48
369.688	367.48
370.069	351.43
370.45	374.03
370.831	369.96
371.212	380.36
371.593	381.71
371.974	359.79
372.355	374.03
372.736	359.34
373.117	366.35
373.498	381.26
373.879	364.31
374.26	381.26
374.641	355.05
375.021	360.02
375.402	367.93
375.783	376.06
376.163	397.53
376.544	393.01
376.925	384.2
377.305	392.33
377.686	415.16
378.066	410.41
378.447	373.13
378.827	388.04
379.208	404.09
379.588	415.61
379.968	427.36
380.349	424.42
380.729	421.49
381.109	412.22
381.489	423.52
381.87	427.36
382.25	426.91
382.63	440.02
383.01	434.59
383.39	435.27
383.77	447.93
384.15	454.71
384.53	449.51
384.91	450.64
385.29	467.59
385.67	442.05
386.049	465.78
386.429	457.19
386.809	475.04
387.189	459
387.568	483.86
387.948	472.56
388.328	482.5
388.707	488.38
389.087	475.72
389.466	499
389.846	514.59
390.225	536.29
390.605	511.65
390.984	531.54
391.363	529.96
391.743	531.54
392.122	539.22
392.501	520.69
392.881	564.99
393.26	566.57
393.639	565.44
394.018	593.46
394.397	590.75
394.776	605.44
395.155	609.96
395.534	591.43
395.913	603.63
396.292	595.27
396.671	635.27
397.05	637.53
397.429	653.34
397.808	639.56
398.186	660.58
398.565	692.67
398.944	645.21
399.323	662.16
399.701	699.9
400.08	679.56
400.458	735.15
400.837	722.72
401.215	734.7
401.594	749.39
401.972	781.25
402.351	774.02
402.729	786.45
403.107	784.19
403.486	810.85
403.864	822.15
404.242	822.83
404.62	851.53
404.999	852.21
405.377	861.25
405.755	894.92
406.133	892.21
406.511	924.52
406.889	919.55
407.267	923.39
407.645	955.48
408.023	1008.14
408.401	1018.53
408.779	1036.84
409.156	1068.93
409.534	1045.65
409.912	1096.5
410.29	1116.84
410.667	1136.04
411.045	1160
411.422	1180.56
411.8	1171.07
412.178	1208.36
412.555	1240.67
412.933	1246.32
413.31	1284.51
413.687	1309.15
414.065	1336.72
414.442	1337.85
414.819	1381.01
415.197	1386.21
415.574	1410.39
415.951	1450.39
416.328	1438.86
416.705	1484.73
417.082	1490.84
417.46	1513.21
417.837	1555.92
418.214	1594.34
418.591	1569.93
418.967	1587.11
419.344	1628.91
419.721	1659.42
420.098	1643.83
420.475	1671.62
420.852	1699.64
421.228	1718.4
421.605	1749.13
421.982	1780.32
422.358	1809.47
422.735	1826.19
423.111	1802.69
423.488	1840.88
423.864	1878.85
424.241	1885.63
424.617	1904.16
424.994	1958.85
425.37	1962.46
425.746	1986.87
426.123	2011.27
426.499	2034.1
426.875	2061.44
427.251	2099.63
427.627	2165.4
428.003	2164.72
428.379	2232.29
428.756	2253.08
429.132	2275
429.507	2315.67
429.883	2315.45
430.259	2346.63
430.635	2400.42
431.011	2401.32
431.387	2494.88
431.763	2510.24
432.138	2519.28
432.514	2570.81
432.89	2584.59
433.265	2644.25
433.641	2668.21
434.016	2731.93
434.392	2720.18
434.767	2826.62
435.143	2845.38
435.518	2825.26
435.894	2919.27
436.269	2953.62
436.644	3002.44
437.02	2964.24
437.395	2986.84
437.77	3079.72
438.145	3073.17
438.52	3134.86
438.895	3149.78
439.271	3175.31
439.646	3267.51
440.021	3304.57
440.395	3290.56
440.77	3251.69
441.145	3330.56
441.52	3413.72
441.895	3415.53
442.27	3422.09
442.645	3406.27
443.019	3459.37
443.394	3502.08
443.769	3540.27
444.143	3499.82
444.518	3553.83
444.892	3582.98
445.267	3578.69
445.641	3677.22
446.016	3716.31
446.39	3698.24
446.764	3764.45
447.139	3742.08
447.513	3761.96
447.887	3826.82
448.262	3843.99
448.636	3857.78
449.01	3900.26
449.384	3957.89
449.758	4010.32
450.132	4017.55
450.506	4038.79
450.88	4130.99
451.254	4074.72
451.628	4184.1
452.002	4199.24
452.376	4231.78
452.75	4302.74
453.123	4300.03
453.497	4385.45
453.871	4414.6
454.244	4512.68
454.618	4535.05
454.992	4636.52
455.365	4637.42
455.739	4747.25
456.112	4805.55
456.486	4844.19
456.859	4879.22
457.232	4978.88
457.606	4961.48
457.979	5057.52
458.352	5184.52
458.725	5191.98
459.099	5239.89
459.472	5377.06
459.845	5406.44
460.218	5467.68
460.591	5502.26
460.964	5558.3
461.337	5710.39
461.71	5738.86
462.083	5833.55
462.456	5877.84
462.829	5888.01
463.201	5979.76
463.574	6041.23
463.947	6138.17
464.32	6254.55
464.692	6307.21
465.065	6372.52
465.438	6422.01
465.81	6591.49
466.183	6593.75
466.555	6781.09
466.928	6802.34
467.3	6846.85
467.672	6959.62
468.045	7145.6
468.417	7127.75
468.789	7209.56
469.161	7353.73
469.534	7457.69
469.906	7662.2
470.278	7695.42
470.65	7748.98
471.022	7961.17
471.394	8012.47
471.766	8128.18
472.138	8248.4
472.51	8445.68
472.882	8491.1
473.253	8644.32
473.625	8805.22
473.997	8962.28
474.369	8961.15
474.74	9121.6
475.112	9307.81
475.484	9513.22
475.855	9588.7
476.227	9683.84
476.598	9997.05
476.97	10049.71
477.341	10272.3
477.713	10483.14
478.084	10496.48
478.455	10784.6
478.827	10936.24
479.198	11217.36
479.569	11175.33
479.94	11540.29
480.311	11671.59
480.682	11902.54
481.053	12143.66
481.424	12467.27
481.795	12466.59
482.166	12738.22
482.537	12853.25
482.908	13168.27
483.279	13194.26
483.65	13603.29
484.021	13858.19
484.391	13963.28
484.762	14119.43
485.133	14201.01
485.503	14460.89
485.874	14782.46
486.244	14938.84
486.615	15234.88
486.985	15422.9
487.356	15657.24
487.726	15768.65
488.097	16173.16
488.467	16141.75
488.837	16579.71
489.207	16734.73
489.578	16953.25
489.948	17060.14
490.318	17360.48
490.688	17332.68
491.058	17742.84
491.428	17932.89
491.798	18111.64
492.168	18492.2
492.538	18527.9
492.908	18823.26
493.278	19023.26
493.648	19168.56
494.017	19381.44
494.387	19578.72
494.757	19727.87
495.126	19964.48
495.496	20050.57
495.866	20180.06
496.235	20445.37
496.605	20505.48
496.974	20687.39
497.344	20865.92
497.713	21008.74
498.082	21159.02
498.452	21341.39
498.821	21613.47
499.19	21608.95
499.559	21800.58
499.928	21953.8
500.298	22155.15
500.667	22311.31
501.036	22400.8
501.405	22600.79
501.774	22665.65
502.143	22968.24
502.512	23050.04
502.88	23183.6
503.249	23364.16
503.618	23488.9
503.987	23608.9
504.356	23828.78
504.724	23971.83
505.093	23988.1
505.462	24206.85
505.83	24267.41
506.199	24578.82
506.567	24783.78
506.936	24804.12
507.304	25149.65
507.672	25255.64
508.041	25410.66
508.409	25572.24
508.777	25885.22
509.145	25982.4
509.514	25982.85
509.882	26238.21
510.25	26462.16
510.618	26570.4
510.986	26628.25
511.354	27009.71
511.722	27195.02
512.09	27395.24
512.458	27445.86
512.826	27647.21
513.193	27867.54
513.561	27990.25
513.929	28176.24
514.297	28533.29
514.664	28661.87
515.032	28692.61
515.4	29145.7
515.767	29208.07
516.135	29376.66
516.502	29272.7
516.869	29806.93
517.237	29878.34
517.604	29884.89
517.972	30329.85
518.339	30521.26
518.706	30624.08
519.073	30871.76
519.44	31023.85
519.808	31517.62
520.175	31344.51
520.542	31754.45
520.909	32004.16
521.276	32018.4
521.643	32451.6
522.009	32641.43
522.376	32878.03
522.743	33080.97
523.11	33399.38
523.477	33675.3
523.843	33930.89
524.21	34300.14
524.577	34560.25
524.943	34604.99
525.31	34924.99
525.676	35244.3
526.043	35350.74
526.409	35456.27
526.776	36104.39
527.142	36130.38
527.508	36353.2
527.874	36696.69
528.241	36685.39
528.607	36865.95
528.973	37303
529.339	37383.23
529.705	37667.29
530.071	37944.12
530.437	38077.9
530.803	38273.37
531.169	38513.59
531.535	38491.45
531.901	38731.67
532.267	38902.73
532.632	39163.97
532.998	39231.54
533.364	39552.43
533.73	39655.48
534.095	39963.5
534.461	39981.8
534.826	40236.94
535.192	40374.33
535.557	40766.87
535.923	40706.75
536.288	40882.8
536.653	41107.2
537.019	41091.38
537.384	41244.82
537.749	41491.14
538.114	41578.6
538.479	41683.23
538.845	41819.27
539.21	41829.66
539.575	42019.94
539.94	42112.59
540.305	42424
540.67	42470.1
541.034	42560.49
541.399	42861.27
541.764	42842.74
542.129	42930.42
542.494	43066.24
542.858	43197.54
543.223	43373.58
543.587	43747.35
543.952	43501.71
544.316	43722.49
544.681	43934.01
545.045	44117.96
545.41	44326.77
545.774	44307.56
546.138	44297.39
546.503	44491.74
546.867	44508.91
547.231	44806.99
547.595	44929.24
547.959	45166.98
548.324	45157.03
548.688	45213.08
549.052	45369
549.416	45442.45
549.779	45578.49
550.143	45772.84
550.507	46052.6
550.871	45935.77
551.235	46023.22
551.599	46446.49
551.962	46518.35
552.326	46596.54
552.689	46878.57
553.053	46659.14
553.417	46888.96
553.78	47377.31
554.143	47184.1
554.507	47478.33
554.87	47577.99
555.234	47922.38
555.597	47796.96
555.96	47938.43
556.323	48048.03
556.686	48210.06
557.05	48549.49
557.413	48506.32
557.776	48562.82
558.139	48956.93
558.502	49033.09
558.865	49049.13
559.228	49433.08
559.59	49557.14
559.953	49519.86
560.316	49872.62
560.679	49895.89
561.041	50170.01
561.404	50182.44
561.767	50504.01
562.129	50395.09
562.492	50746.94
562.854	50704.01
563.217	50786.49
563.579	51007.73
563.941	51162.98
564.304	51421.73
564.666	51499.47
565.028	51557.77
565.39	51671.66
565.753	51887.48
566.115	51896.97
566.477	52017.19
566.839	52174.25
567.201	52423.51
567.563	52419.44
567.925	52705.99
568.287	52623.28
568.648	52775.14
569.01	52874.57
569.372	53066.2
569.734	52971.74
570.095	53184.39
570.457	53309.59
570.819	53313.43
571.18	53332.64
571.542	53615.57
571.903	53535.8
572.265	53760.42
572.626	53786.41
572.987	53885.17
573.349	54027.31
573.71	54052.84
574.071	54184.37
574.432	54282.44
574.794	54422.55
575.155	54363.57
575.516	54314.31
575.877	54493.06
576.238	54467.97
576.599	54573.73
576.96	54613.06
577.32	54683.56
577.681	54739.61
578.042	54805.37
578.403	54834.74
578.763	54858.02
579.124	54900.96
579.485	54936.21
579.845	55051.46
580.206	54946.38
580.566	55021.18
580.927	55124.68
581.287	55207.16
581.648	55109.09
582.008	55196.09
582.368	55115.87
582.728	55221.85
583.089	55066.15
583.449	55166.49
583.809	55213.27
584.169	55223.21
584.529	55146.83
584.889	55371.68
585.249	55178.01
585.609	55145.47
585.969	55348.18
586.329	55245.58
586.688	55186.6
587.048	55302.08
587.408	55253.72
587.768	55265.69
588.127	55220.72
588.487	55166.26
588.846	55338.46
589.206	55205.58
589.565	55167.84
589.925	55295.98
590.284	55268.41
590.643	55246.49
591.003	55326.48
591.362	55352.47
591.721	55294.62
592.08	55313.83
592.44	55431.79
592.799	55405.13
593.158	55333.49
593.517	55300.04
593.876	55356.09
594.235	55315.64
594.593	55366.93
594.952	55389.98
595.311	55343.88
595.67	55343.88
596.029	55512.47
596.387	55501.85
596.746	55539.13
597.104	55453.94
597.463	55465.24
597.822	55625.46
598.18	55460.94
598.538	55458.23
598.897	55633.82
599.255	55417.55
599.613	55686.25
599.972	55542.3
600.33	55641.5
600.688	55542.07
601.046	55598.57
601.404	55730.09
601.762	55680.82
602.12	55792.01
602.478	55778.22
602.836	55903.87
603.194	55641.5
603.552	55774.61
603.91	55721.73
604.268	55805.57
604.625	55730.31
604.983	55876.07
605.341	55766.92
605.698	55920.14
606.056	55962.4
606.413	55961.49
606.771	55980.48
607.128	56011.89
607.485	55994.49
607.843	55980.93
608.2	56231.32
608.557	56204.88
608.914	56116.07
609.272	56177.31
609.629	56266.8
609.986	56373.46
610.343	56225.89
610.7	56412.1
611.057	56286.23
611.414	56258.66
611.771	56355.38
612.127	56457.07
612.484	56396.51
612.841	56538.2
613.198	56357.42
613.554	56387.02
613.911	56510.41
614.267	56611.42
614.624	56478.09
614.98	56539.11
615.337	56665.43
615.693	56595.38
616.05	56594.25
616.406	56742.94
616.762	56641.93
617.118	56634.47
617.475	56600.8
617.831	56748.82
618.187	56747.91
618.543	56793.11
618.899	56890.51
619.255	56843.73
619.611	56808.48
619.967	56925.76
620.323	56989.04
620.678	56838.76
621.034	56804.86
621.39	56800.57
621.746	56712.21
622.101	57063.16
622.457	56768.25
622.812	56942.71
623.168	56950.4
623.523	56896.16
623.879	57027
624.234	56796.73
624.589	56900
624.945	56962.37
625.3	56965.31
625.655	56952.66
626.01	56930.73
626.365	56961.69
626.72	56911.07
627.075	56889.61
627.43	56882.37
627.785	56818.65
628.14	56801.25
628.495	56848.03
628.85	56823.39
629.205	56723.28
629.559	56908.14
629.914	56690.06
630.269	56749.27
630.623	56646
630.978	56570.74
631.332	56742.27
631.687	56681.48
632.041	56611.2
632.396	56614.13
632.75	56507.69
633.104	56489.16
633.459	56431.99
633.813	56380.69
634.167	56354.93
634.521	56463.4
634.875	56377.98
635.229	56374.59
635.583	56231.32
635.937	56260.24
636.291	56210.3
636.645	56262.5
636.999	56126.91
637.352	56197.65
637.706	56016.86
638.06	56106.58
638.413	56058.89
638.767	55959.46
639.121	56030.19
639.474	55840.82
639.828	55916.3
640.181	55866.13
640.534	55843.98
640.888	55709.98
641.241	55699.13
641.594	55650.77
641.947	55709.98
642.301	55716.53
642.654	55686.02
643.007	55758.56
643.36	55599.02
643.713	55604.44
644.066	55658.23
644.419	55506.59
644.771	55284.68
645.124	55108.41
645.477	55061.63
645.83	54778.93
646.182	54634.75
646.535	54633.85
646.888	54606.73
647.24	54442.44
647.593	54527.41
647.945	54420.07
648.298	54266.4
648.65	54285.15
649.002	54164.03
649.355	54338.03
649.707	54264.14
650.059	54432.95
650.411	54726.95
650.763	54747.52
651.115	55016.66
651.467	54913.39
651.819	54899.6
652.171	54809.43
652.523	54764.69
652.875	54766.05
653.227	54650.79
653.578	54869.32
653.93	54721.08
654.282	54604.69
654.633	54549.33
654.985	54675.2
655.337	54603.34
655.688	54580.06
656.039	54636.33
656.391	54398.37
656.742	54418.03
657.094	54354.31
657.445	54514.3
657.796	54387.07
658.147	54363.34
658.498	54345.72
658.849	54398.15
659.2	54336.68
659.551	54288.77
659.902	54371.48
660.253	54303.01
660.604	54296.45
660.955	54145.72
661.306	54283.35
661.656	54189.34
662.007	54222.56
662.358	54198.15
662.708	54195.67
663.059	54100.07
663.409	53992.96
663.76	54184.59
664.11	54004.03
664.461	54038.38
664.811	54155.67
665.161	54071.37
665.511	53932.62
665.862	53920.64
666.212	54039.51
666.562	54049.23
666.912	53948.67
667.262	53908.89
667.612	53903.02
667.962	53974.2
668.312	53840.19
668.662	54022.11
669.011	53938.95
669.361	53845.17
669.711	53846.52
670.06	53816.92
670.41	53753.42
670.76	53653.08
671.109	53872.28
671.459	53686.3
671.808	53628.45
672.157	53689.01
672.507	53470.03
672.856	53472.29
673.205	53558.17
673.554	53635.45
673.904	53487.89
674.253	53606.53
674.602	53461.9
674.951	53047
675.3	52898.98
675.649	53413.77
675.998	53331.73
676.346	53303.03
676.695	53400.88
677.044	53205.18
677.393	53246.09
677.741	53371.05
678.09	53232.3
678.438	53131.06
678.787	53189.59
679.135	53171.51
679.484	52927
679.832	53119.08
680.181	52990.73
680.529	52953.21
680.877	52852.42
681.225	52844.97
681.573	53013.78
681.922	52744.63
682.27	52721.13
682.618	52747.57
682.966	52616.95
683.314	52691.07
683.661	52663.73
684.009	52429.16
684.357	52385.54
684.705	52333.34
685.053	52305.77
685.4	52177.87
685.748	52186
686.095	52110.75
686.443	52003.63
686.79	51958.44
687.138	52006.8
687.485	51918.89
687.832	51792.79
688.18	51842.51
688.527	51658.1
688.874	51619.46
689.221	51508.5
689.568	51316.65
689.915	51395.51
690.262	51356.64
690.609	51283.2
690.956	51065.35
691.303	50998.46
691.65	50894.06
691.997	50910.55
692.344	50648.41
692.69	50677.34
693.037	50737.23
693.383	50325.71
693.73	50468.31
694.077	50215.21
694.423	50292.04
694.769	50054.08
695.116	50016.79
695.462	50043.91
695.808	49811.15
696.155	49936.57
696.501	49568.44
696.847	49718.72
697.193	49350.14
697.539	49489.8
697.885	49252.74
698.231	49058.85
698.577	49054.11
698.923	48991.73
699.269	48750.61
699.614	48653.66
699.96	48612.99
700.306	48828.57
700.651	48583.16
700.997	48365.08
701.342	48310.62
701.688	48169.84
702.033	48057.52
702.379	47976.17
702.724	47986.79
703.069	47975.04
703.415	47494.37
703.76	47582.96
704.105	47471.55
704.45	47361.95
704.795	47186.13
705.14	46997.44
705.485	46976.19
705.83	46731.91
706.175	46829.76
706.52	46768.97
706.865	46525.58
707.209	46614.17
707.554	46394.51
707.899	46474.74
708.243	46249.43
708.588	46133.5
708.932	45925.37
709.277	45952.27
709.621	45956.79
709.966	45632.5
710.31	45566.51
710.654	45324.49
710.998	45442.68
711.342	45437.03
711.687	45318.38
712.031	45204.49
712.375	44984.83
712.719	45005.17
713.063	44918.17
713.407	45034.1
713.75	44684.28
714.094	44750.49
714.438	44392.99
714.782	44469.14
715.125	44467.56
715.469	44472.08
715.812	44164.06
716.156	44041.81
716.499	44058.53
716.843	44064.86
717.186	43767.69
717.53	43903.28
717.873	43982.6
718.216	43830.51
718.559	43668.71
718.902	43368.38
719.246	43449.28
719.589	43323.41
719.932	43175.84
720.275	43137.65
720.617	43089.52
720.96	42902.63
721.303	42932.46
721.646	43053.13
721.989	42695.4
722.331	42879.58
722.674	42559.14
723.016	42582.19
723.359	42504.9
723.701	42382.42
724.044	42185.36
724.386	42200.05
724.729	42345.13
725.071	42145.81
725.413	42031.69
725.755	41979.72
726.097	41817.46
726.439	41759.16
726.782	41714.19
727.124	41837.35
727.465	41612.27
727.807	41518.03
728.149	41313.74
728.491	41333.18
728.833	41310.35
729.175	41081.43
729.516	41067.87
729.858	41093.41
730.199	41018.38
730.541	41076.01
730.882	40852.06
731.224	40983.13
731.565	40810.03
731.906	40714.44
732.248	40853.19
732.589	40571.62
732.93	40290.04
733.271	40403.49
733.612	40518.28
733.953	40416.82
734.294	40229.48
734.635	40088.24
734.976	40003.27
735.317	39959.88
735.658	39941.12
735.999	39958.3
736.339	39827.68
736.68	39896.61
737.021	39688.25
737.361	39524.19
737.702	39621.13
738.042	39598.31
738.383	39396.28
738.723	39539.1
739.063	39274.02
739.404	39453.91
739.744	39233.35
740.084	39177.76
740.424	39174.37
740.764	39128.72
741.104	39142.28
741.444	38958.55
741.784	38757.65
742.124	38743.87
742.464	38658.67
742.804	38761.04
743.143	38497.1
743.483	38679.69
743.823	38435.18
744.162	38386.36
744.502	38507.04
744.841	38299.59
745.181	38352.47
745.52	38116.77
745.86	38110.89
746.199	38037.9
746.538	38052.81
746.877	37955.64
747.216	38088.52
747.556	37893.5
747.895	37845.81
748.234	37640.17
748.573	37584.12
748.911	37576.89
749.25	37419.84
749.589	37201.31
749.928	37391.59
750.267	37349.55
750.605	37199.28
750.944	37030.47
751.283	36888.32
751.621	36985.5
751.96	36803.81
752.298	36760.87
752.636	36753.19
