Data from breadboard_black_back_FLMS001491_00031.txt Node
Date: Wed Feb 08 10:50:17 GMT 2017
User: dcchb
Spectrometer: FLMS00149
Trigger mode: 0
Integration Time (sec): 2.000000E-2
Scans to average: 10
Electric dark correction enabled: true
Nonlinearity correction enabled: false
Boxcar width: 0
XAxis mode: Wavelengths
Number of Pixels in Spectrum: 2048
>>>>>Begin Spectral Data<<<<<
341.393	-10.96
341.776	-10.96
342.16	-10.96
342.543	-66.55
342.927	-57.96
343.31	-64.07
343.693	-67.46
344.077	-60.9
344.46	-66.55
344.843	-62.48
345.226	-29.26
345.61	-39.43
345.993	-33.33
346.376	3.95
346.759	0.34
347.142	13.67
347.525	28.36
347.908	45.54
348.291	92.31
348.674	97.96
349.057	141.35
349.44	123.73
349.823	130.28
350.206	136.15
350.588	209.6
350.971	189.94
351.354	217.06
351.737	246.43
352.119	260.45
352.502	255.25
352.884	255.25
353.267	290.73
353.65	286.66
354.032	307.45
354.414	310.39
354.797	320.33
355.179	322.36
355.562	335.92
355.944	345.41
356.326	332.31
356.709	333.21
357.091	348.13
357.473	330.05
357.855	335.25
358.238	347.45
358.62	340.67
359.002	358.07
359.384	344.06
359.766	326.88
360.148	355.58
360.53	350.84
360.912	363.27
361.294	373.21
361.676	335.47
362.057	314.46
362.439	332.53
362.821	351.52
363.203	338.86
363.584	352.65
363.966	332.08
364.348	345.19
364.729	356.26
365.111	335.47
365.493	335.47
365.874	327.34
366.256	333.44
366.637	329.37
367.019	331.18
367.4	347.45
367.781	343.38
368.163	319.43
368.544	332.08
368.925	333.66
369.306	356.04
369.688	349.03
370.069	308.35
370.45	342.25
370.831	358.07
371.212	347.9
371.593	345.87
371.974	345.19
372.355	342.7
372.736	358.97
373.117	354
373.498	314.46
373.879	342.02
374.26	338.64
374.641	347.9
375.021	360.56
375.402	389.03
375.783	373.89
376.163	386.54
376.544	355.81
376.925	377.05
377.305	356.94
377.686	372.53
378.066	378.63
378.447	390.61
378.827	389.93
379.208	378.41
379.588	371.85
379.968	379.76
380.349	389.93
380.729	391.74
381.109	407.79
381.489	422.02
381.87	409.37
382.25	387.67
382.63	395.13
383.01	410.05
383.39	412.31
383.77	399.88
384.15	418.41
384.53	420.21
384.91	411.18
385.29	415.47
385.67	421.57
386.049	429.48
386.429	398.97
386.809	427.45
387.189	441.01
387.568	425.64
387.948	434.23
388.328	444.17
388.707	448.69
389.087	452.08
389.466	465.64
389.846	476.48
390.225	472.87
390.605	461.8
390.984	482.13
391.363	458.63
391.743	480.78
392.122	478.07
392.501	498.4
392.881	499.76
393.26	499.53
393.639	504.73
394.018	491.85
394.397	529.59
394.776	490.27
395.155	500.44
395.534	511.51
395.913	525.3
396.292	558.29
396.671	518.97
397.05	528.46
397.429	528.69
397.808	560.78
398.186	529.14
398.565	544.73
398.944	560.78
399.323	556.26
399.701	549.48
400.08	571.85
400.458	592.64
400.837	579.98
401.215	581.79
401.594	601.91
401.972	589.02
402.351	591.06
402.729	590.15
403.107	601.23
403.486	617.95
403.864	626.09
404.242	633.54
404.62	638.74
404.999	615.01
405.377	613.88
405.755	630.38
406.133	663.82
406.511	632.64
406.889	651.17
407.267	660.89
407.645	673.09
408.023	686.42
408.401	670.15
408.779	702.24
409.156	696.37
409.534	711.51
409.912	722.58
410.29	740.88
410.667	752.86
411.045	785.63
411.422	763.48
411.8	768.68
412.178	765.97
412.555	793.99
412.933	778.4
413.31	781.34
413.687	789.47
414.065	803.03
414.442	840.77
414.819	850.94
415.197	854.78
415.574	861.79
415.951	859.98
416.328	871.5
416.705	884.84
417.082	859.07
417.46	884.16
417.837	901.11
418.214	896.36
418.591	920.99
418.967	904.72
419.344	925.96
419.721	956.02
420.098	928.9
420.475	945.4
420.852	967.55
421.228	974.78
421.605	991.73
421.982	995.34
422.358	998.73
422.735	1029.92
423.111	1012.52
423.488	1021.78
423.864	1050.25
424.241	1042.35
424.617	1046.41
424.994	1051.38
425.37	1091.61
425.746	1067.66
426.123	1122.34
426.499	1107.2
426.875	1115.79
427.251	1115.56
427.627	1157.82
428.003	1188.1
428.379	1201.21
428.756	1177.94
429.132	1202.12
429.507	1230.14
429.883	1203.02
430.259	1254.09
430.635	1259.29
431.011	1276.69
431.387	1297.71
431.763	1303.13
432.138	1307.2
432.514	1334.32
432.89	1356.69
433.265	1370.25
433.641	1404.37
434.016	1393.97
434.392	1409.79
434.767	1455.67
435.143	1478.27
435.518	1459.51
435.894	1468.55
436.269	1500.19
436.644	1518.04
437.02	1549.22
437.395	1538.6
437.77	1548.55
438.145	1584.93
438.52	1597.81
438.895	1603.01
439.271	1620.41
439.646	1654.08
440.021	1639.84
440.395	1689.79
440.77	1646.62
441.145	1684.81
441.52	1705.6
441.895	1718.94
442.27	1727.75
442.645	1749.9
443.019	1761.2
443.394	1756.23
443.769	1770.01
444.143	1745.83
444.518	1834.42
444.892	1803.68
445.267	1812.72
445.641	1837.8
446.016	1813.17
446.39	1823.34
446.764	1886.17
447.139	1886.84
447.513	1896.79
447.887	1913.51
448.262	1900.4
448.636	1906.28
449.01	1960.51
449.384	1975.88
449.758	1957.12
450.132	2004.13
450.506	2007.29
450.88	2044.35
451.254	2031.02
451.628	2071.47
452.002	2097.46
452.376	2138.36
452.75	2132.49
453.123	2150.34
453.497	2179.94
453.871	2235.31
454.244	2226.04
454.618	2252.48
454.992	2263.56
455.365	2282.54
455.739	2353.72
456.112	2333.84
456.486	2384.68
456.859	2390.11
457.232	2433.95
457.606	2480.05
457.979	2463.1
458.352	2532.7
458.725	2560.72
459.099	2577.22
459.472	2656.99
459.845	2647.73
460.218	2682.3
460.591	2715.75
460.964	2720.04
461.337	2806.82
461.71	2847.5
462.083	2863.54
462.456	2901.05
462.829	2890.21
463.201	2944.89
463.574	2983.99
463.947	3003.88
464.32	3058.34
464.692	3094.72
465.065	3111.67
465.438	3184.89
465.81	3185.11
466.183	3215.62
466.555	3289.29
466.928	3310.53
467.3	3338.1
467.672	3416.07
468.045	3457.88
468.417	3473.24
468.789	3496.07
469.161	3560.25
469.534	3607.48
469.906	3656.74
470.278	3713.69
470.65	3773.8
471.022	3776.96
471.394	3863.06
471.766	3905.32
472.138	3988.93
472.51	4023.96
472.882	4113.9
473.253	4135.37
473.625	4195.71
473.997	4272.99
474.369	4362.94
474.74	4423.05
475.112	4436.83
475.484	4536.49
475.855	4601.35
476.227	4658.97
476.598	4786.43
476.97	4817.16
477.341	4942.13
477.713	5021.9
478.084	5038.85
478.455	5181.22
478.827	5206.3
479.198	5401.1
479.569	5383.7
479.94	5489.23
480.311	5585.05
480.682	5726.06
481.053	5818.94
481.424	5910.92
481.795	5929.45
482.166	6077.69
482.537	6091.03
482.908	6230.46
483.279	6371.7
483.65	6401.3
484.021	6554.74
484.391	6660.05
484.762	6710.9
485.133	6735.98
485.503	6878.35
485.874	6960.38
486.244	7026.59
486.615	7219.81
486.985	7234.27
487.356	7364.67
487.726	7473.36
488.097	7656.41
488.467	7685.33
488.837	7864.54
489.207	7964.88
489.578	8022.05
489.948	8071.77
490.318	8203.51
490.688	8257.3
491.058	8441.02
491.428	8510.85
491.798	8552.43
492.168	8711.52
492.538	8780.9
492.908	8916.04
493.278	9007.79
493.648	9049.82
494.017	9170.49
494.387	9186.31
494.757	9251.17
495.126	9404.61
495.496	9438.06
495.866	9561.9
496.235	9678.95
496.605	9711.27
496.974	9778.16
497.344	9894.77
497.713	9976.8
498.082	10023.13
498.452	10248.88
498.821	10237.81
499.19	10234.87
499.559	10351.93
499.928	10445.94
500.298	10480.06
500.667	10653.62
501.036	10596.67
501.405	10753.5
501.774	10776.33
502.143	10829.21
502.512	10879.37
502.88	11032.82
503.249	10994.63
503.618	11114.4
503.987	11166.15
504.356	11268.97
504.724	11314.39
505.093	11390.32
505.462	11464.44
505.83	11584.22
506.199	11612.01
506.567	11805.68
506.936	11817.43
507.304	11927.71
507.672	11988.05
508.041	12140.58
508.409	12159.12
508.777	12197.08
509.145	12325.89
509.514	12343.29
509.882	12442.05
510.25	12441.59
510.618	12653.11
510.986	12735.82
511.354	12878.87
511.722	12962.48
512.09	13100.79
512.458	13044.29
512.826	13185.53
513.193	13301.01
513.561	13369.93
513.929	13423.49
514.297	13560.66
514.664	13702.8
515.032	13753.42
515.4	13914.1
515.767	13873.87
516.135	14008.78
516.502	13985.28
516.869	14181.21
517.237	14318.83
517.604	14287.42
517.972	14421.43
518.339	14561.99
518.706	14614.64
519.073	14715.21
519.44	14877.69
519.808	15082.43
520.175	15055.31
520.542	15159.04
520.909	15335.08
521.276	15305.02
521.643	15522.64
522.009	15589.99
522.376	15686.25
522.743	15789.3
523.11	16006.02
523.477	16204.43
523.843	16251.21
524.21	16471.09
524.577	16606.46
524.943	16640.58
525.31	16735.49
525.676	16991.08
526.043	17071.53
526.409	17081.25
526.776	17270.62
527.142	17340.67
527.508	17463.38
527.874	17581.12
528.241	17757.61
528.607	17755.35
528.973	18020.43
529.339	17967.78
529.705	18173.87
530.071	18287.09
530.437	18375.45
530.803	18422.68
531.169	18676.01
531.535	18755.55
531.901	18811.82
532.267	18775.66
532.632	19051.59
532.998	19052.95
533.364	19158.93
533.73	19162.1
534.095	19458.36
534.461	19422.43
534.826	19583.55
535.192	19735.87
535.557	19654.51
535.923	19824.68
536.288	19901.28
536.653	19894.28
537.019	19996.88
537.384	20062.41
537.749	20230.09
538.114	20266.25
538.479	20279.35
538.845	20366.36
539.21	20377.2
539.575	20510.76
539.94	20612.45
540.305	20706.24
540.67	20685.67
541.034	20840.02
541.399	20952.78
541.764	20904.65
542.129	21088.37
542.494	20987.58
542.858	21174.02
543.223	21250.18
543.587	21397.29
543.952	21306.45
544.316	21430.06
544.681	21403.62
545.045	21696.72
545.41	21685.19
545.774	21704.4
546.138	21802.48
546.503	21983.72
546.867	21860.56
547.231	22134.9
547.595	22147.78
547.959	22253.77
548.324	22245.4
548.688	22230.04
549.052	22385.29
549.416	22500.09
549.779	22524.94
550.143	22568.33
550.507	22678.39
550.871	22814.43
551.235	22852.85
551.599	22992.73
551.962	23021.43
552.326	23134.87
552.689	23399.72
553.053	23293.74
553.417	23289.22
553.78	23623.67
554.143	23553.39
554.507	23725.36
554.87	23704.12
555.234	23920.61
555.597	23800.17
555.96	24071.8
556.323	24044
556.686	24135.07
557.05	24402.64
557.413	24376.2
557.776	24450.77
558.139	24578.45
558.502	24605.79
558.865	24667.71
559.228	24863.87
559.59	25037.42
559.953	25065.67
560.316	25217.98
560.679	25335.72
561.041	25546.33
561.404	25582.49
561.767	25790.4
562.129	25694.58
562.492	26011.63
562.854	25930.73
563.217	26005.08
563.579	26192.64
563.941	26279.87
564.304	26308.12
564.666	26574.78
565.028	26590.15
565.39	26749.24
565.753	26914.43
566.115	26897.48
566.477	27111.72
566.839	27212.5
567.201	27302.67
567.563	27402.78
567.925	27641.19
568.287	27627.64
568.648	27630.12
569.01	27867.63
569.372	27984.69
569.734	27923.45
570.095	28148.07
570.457	28203.44
570.819	28236.43
571.18	28432.36
571.542	28571.34
571.903	28533.37
572.265	28590.32
572.626	28819.92
572.987	28752.58
573.349	28910.54
573.71	28922.06
574.071	29083.19
574.432	29208.84
574.794	29364.09
575.155	29322.05
575.516	29235.05
575.877	29356.4
576.238	29463.75
576.599	29635.94
576.96	29538.77
577.32	29541.94
577.681	29758.88
578.042	29787.58
578.403	29824.87
578.763	29775.83
579.124	29891.3
579.485	30007.01
579.845	30075.25
580.206	30033.9
580.566	30003.39
580.927	30143.05
581.287	30210.62
581.648	29977.18
582.008	30283.84
582.368	30247.45
582.728	30257.4
583.089	30279.77
583.449	30300.79
583.809	30265.53
584.169	30269.37
584.529	30260.11
584.889	30472.76
585.249	30270.05
585.609	30223.05
585.969	30445.64
586.329	30449.93
586.688	30379.2
587.048	30349.37
587.408	30396.6
587.768	30282.93
588.127	30290.16
588.487	30308.47
588.846	30534
589.206	30367.22
589.565	30341.46
589.925	30471.85
590.284	30348.02
590.643	30401.57
591.003	30510.5
591.362	30614.45
591.721	30565.64
592.08	30646.99
592.44	30638.4
592.799	30648.12
593.158	30588.91
593.517	30646.99
593.876	30674.56
594.235	30545.3
594.593	30581.68
594.952	30711.62
595.311	30618.52
595.67	30713.43
596.029	30915.91
596.387	30931.28
596.746	30835.69
597.104	30801.34
597.463	30739.19
597.822	30948.23
598.18	30778.74
598.538	30849.02
598.897	30912.52
599.255	30774.22
599.613	31137.83
599.972	30975.57
600.33	30985.06
600.688	30858.28
601.046	31100.54
601.404	31239.52
601.762	30997.94
602.12	31284.94
602.478	31162.46
602.836	31223.25
603.194	31192.51
603.552	31201.78
603.91	31111.16
604.268	31299.18
604.625	31152.51
604.983	31346.86
605.341	31181.67
605.698	31380.08
606.056	31580.75
606.413	31301.89
606.771	31551.37
607.128	31579.85
607.485	31451.04
607.843	31452.17
608.2	31584.14
608.557	31732.84
608.914	31764.93
609.272	31835.66
609.629	31801.76
609.986	32001.08
610.343	31769.45
610.7	32042.89
611.057	31955.66
611.414	31941.42
611.771	31992.94
612.127	32043.11
612.484	31891.7
612.841	32173.96
613.198	31997.46
613.554	32027.52
613.911	32343.9
614.267	32141.64
614.624	32204.46
614.98	32234.29
615.337	32531.24
615.693	32370.56
616.05	32304.57
616.406	32501.63
616.762	32447.17
617.118	32453.27
617.475	32449.66
617.831	32488.52
618.187	32586.15
618.543	32650.78
618.899	32734.85
619.255	32613.27
619.611	32644.9
619.967	32793.6
620.323	32719.7
620.678	32625.02
621.034	32581.4
621.39	32632.25
621.746	32519.48
622.101	32930.32
622.457	32694.62
622.812	32695.07
623.168	32819.14
623.523	32761.06
623.879	32963.54
624.234	32713.6
624.589	32694.17
624.945	32802.41
625.3	32836.76
625.655	32834.73
626.01	32729.65
626.365	32795.18
626.72	32683.1
627.075	32725.58
627.43	32713.83
627.785	32657.33
628.14	32722.19
628.495	32842.64
628.85	32559.93
629.205	32550.44
629.559	32940.94
629.914	32687.62
630.269	32695.3
630.623	32676.54
630.978	32576.88
631.332	32637.9
631.687	32671.34
632.041	32559.48
632.396	32516.32
632.75	32483.55
633.104	32451.92
633.459	32371.69
633.813	32377.11
634.167	32361.75
634.521	32245.82
634.875	32332.37
635.229	32220.73
635.583	32094.64
635.937	32210.11
636.291	32124.92
636.645	32091.7
636.999	31923.34
637.352	32160.4
637.706	31887.41
638.06	32150
638.413	32003.79
638.767	31931.02
639.121	32013.28
639.474	31765.38
639.828	31669.11
640.181	31818.49
640.534	31799.73
640.888	31733.97
641.241	31609.68
641.594	31591.37
641.947	31613.07
642.301	31545.72
642.654	31598.83
643.007	31579.4
643.36	31482.9
643.713	31423.24
644.066	31458.72
644.419	31376.24
644.771	31328.33
645.124	30835.69
645.477	30777.16
645.83	30628.69
646.182	30512.53
646.535	30383.72
646.888	30350.28
647.24	30080
647.593	30415.36
647.945	30223.05
648.298	30034.13
648.65	29887.01
649.002	30014.69
649.355	30102.37
649.707	30113.9
650.059	30230.05
650.411	30528.8
650.763	30608.35
651.115	30978.28
651.467	30726.31
651.819	30722.92
652.171	30498.75
652.523	30529.93
652.875	30552.3
653.227	30321.8
653.578	30761.79
653.93	30518.18
654.282	30435.24
654.633	30189.15
654.985	30375.36
655.337	30385.3
655.688	30510.72
656.039	30498.52
656.391	30296.27
656.742	30226.21
657.094	30305.76
657.445	30424.62
657.796	30294.68
658.147	30104.86
658.498	30194.57
658.849	30272.99
659.2	30183.73
659.551	30171.75
659.902	30241.58
660.253	30153.22
660.604	30165.42
660.955	29980.57
661.306	30173.78
661.656	30028.93
662.007	30128.59
662.358	29925.2
662.708	30055.37
663.059	30035.26
663.409	29770.86
663.76	30014.47
664.11	30014.69
664.461	30013.11
664.811	30014.92
665.161	29959.1
665.511	29881.59
665.862	29949.38
666.212	29974.47
666.562	29903.96
666.912	29797.07
667.262	29724.76
667.612	29857.63
667.962	29967.46
668.312	29790.97
668.662	30026.67
669.011	29746.9
669.361	29766.56
669.711	29685.89
670.06	29593.91
670.41	29611.76
670.76	29626.23
671.109	29788.93
671.459	29604.53
671.808	29637.07
672.157	29630.97
672.507	29512.56
672.856	29457.87
673.205	29461.49
673.554	29582.16
673.904	29465.55
674.253	29560.24
674.602	29536.06
674.951	28993.02
675.3	28983.53
675.649	29334.03
675.998	29352.79
676.346	29370.64
676.695	29414.03
677.044	29146.92
677.393	29250.87
677.741	29256.97
678.09	29287.25
678.438	29049.74
678.787	29169.29
679.135	29113.47
679.484	28918.67
679.832	29051.78
680.181	28895.4
680.529	29066.69
680.877	29028.5
681.225	28953.48
681.573	29012.23
681.922	28772.92
682.27	28701.73
682.618	28729.53
682.966	28781.73
683.314	28789.41
683.661	28666.48
684.009	28482.75
684.357	28418.8
684.705	28461.96
685.053	28522.75
685.4	28335.87
685.748	28227.85
686.095	28166.6
686.443	28140.84
686.79	28012.26
687.138	28078.02
687.485	28220.84
687.832	27924.12
688.18	28079.15
688.527	27953.05
688.874	27732.49
689.221	27782.21
689.568	27735.65
689.915	27649.1
690.262	27637.58
690.609	27506.96
690.956	27522.55
691.303	27433.74
691.65	27182.45
691.997	27263.12
692.344	27130.02
692.69	27083.92
693.037	27155.33
693.383	26713.08
693.73	26987.88
694.077	26766.64
694.423	26829.24
694.769	26624.95
695.116	26646.19
695.462	26621.33
695.808	26556.02
696.155	26567.32
696.501	26381.34
696.847	26356.48
697.193	26248.01
697.539	26332.3
697.885	26038.75
698.231	26103.83
698.577	26085.3
698.923	26043.72
699.269	25808.7
699.614	25728.7
699.96	25639.21
700.306	25740.45
700.651	25508.82
700.997	25465.88
701.342	25391.31
701.688	25373.01
702.033	25350.41
702.379	25315.15
702.724	25238.09
703.069	25318.32
703.415	25049.17
703.76	24999.91
704.105	24959
704.45	24772.12
704.795	24702.97
705.14	24807.37
705.485	24851.89
705.83	24575.74
706.175	24547.94
706.52	24507.94
706.865	24389.08
707.209	24380.04
707.554	24300.49
707.899	24395.4
708.243	24143.88
708.588	24253.26
708.932	24050.33
709.277	23999.71
709.621	24041.74
709.966	23912.93
710.31	23873.61
710.654	23740.96
710.998	23719.49
711.342	23782.99
711.687	23724.69
712.031	23594.97
712.375	23516.78
712.719	23599.72
713.063	23525.14
713.407	23584.8
713.75	23466.61
714.094	23414.19
714.438	23186.4
714.782	23291.93
715.125	23146.17
715.469	23291.7
715.812	23055.55
716.156	22935.33
716.499	23037.47
716.843	23008.77
717.186	22938.27
717.53	23011.03
717.873	22944.59
718.216	22966.97
718.559	22745.73
718.902	22632.06
719.246	22700.99
719.589	22521.78
719.932	22498.05
720.275	22541.67
720.617	22508.67
720.96	22412.86
721.303	22457.15
721.646	22419.64
721.989	22328.79
722.331	22381.22
722.674	22299.64
723.016	22306.42
723.359	22166.31
723.701	22276.36
724.044	22114.56
724.386	21936.03
724.729	22076.14
725.071	21879.09
725.413	21921.8
725.755	21869.14
726.097	21764.51
726.439	21817.62
726.782	21619.21
727.124	21869.59
727.465	21784.62
727.807	21656.72
728.149	21536.27
728.491	21603.84
728.833	21618.98
729.175	21494.24
729.516	21572.88
729.858	21445.88
730.199	21523.84
730.541	21381.47
730.882	21435.26
731.224	21428.48
731.565	21282.94
731.906	21249.05
732.248	21275.49
732.589	21195.94
732.93	21104.42
733.271	21197.3
733.612	21136.51
733.953	21079.56
734.294	21001.14
734.635	20956.17
734.976	21036.4
735.317	20969.51
735.658	20981.48
735.999	20902.61
736.339	20729.74
736.68	20851.54
737.021	20866.23
737.361	20689.74
737.702	20788.04
738.042	20609.06
738.383	20656.97
738.723	20593.02
739.063	20609.29
739.404	20558.22
739.744	20589.63
740.084	20523.64
740.424	20458.33
740.764	20435.28
741.104	20521.83
741.444	20419.46
741.784	20273.48
742.124	20308.28
742.464	20331.1
742.804	20258.56
743.143	20241.84
743.483	20295.62
743.823	20072.13
744.162	20146.25
744.502	20083.43
744.841	20020.6
745.181	20145.8
745.52	20040.72
745.86	20074.39
746.199	20103.31
746.538	19987.16
746.877	19983.54
747.216	19901.74
747.556	19824.9
747.895	19839.59
748.234	19714.17
748.573	19648.41
748.911	19806.6
749.25	19709.43
749.589	19482.76
749.928	19563.21
750.267	19516.44
750.605	19558.92
750.944	19556.89
751.283	19401.86
751.621	19452.93
751.96	19291.58
752.298	19393.5
752.636	19296.78
752.975	19069.67
753.313	19098.37
753.651	19146.28
753.989	19019.05
754.327	19032.83
