Data from breadboard_white_FLMS001491_00019.txt Node
Date: Wed Feb 08 10:47:21 GMT 2017
User: dcchb
Spectrometer: FLMS00149
Trigger mode: 0
Integration Time (sec): 2.000000E-2
Scans to average: 10
Electric dark correction enabled: true
Nonlinearity correction enabled: false
Boxcar width: 0
XAxis mode: Wavelengths
Number of Pixels in Spectrum: 2048
>>>>>Begin Spectral Data<<<<<
341.393	6.95
341.776	6.95
342.16	6.95
342.543	-52.94
342.927	-70.34
343.31	-66.5
343.693	-52.26
344.077	-61.07
344.46	-62.88
344.843	-44.58
345.226	-34.41
345.61	-41.41
345.993	-31.47
346.376	-21.3
346.759	20.28
347.142	17.8
347.525	28.87
347.908	44.69
348.291	87.85
348.674	95.99
349.057	120.39
349.44	123.78
349.823	118.58
350.206	154.06
350.588	218.47
350.971	227.51
351.354	256.66
351.737	273.83
352.119	279.48
352.502	268.64
352.884	295.53
353.267	298.24
353.65	311.8
354.032	316.09
354.414	309.09
354.797	313.61
355.179	328.3
355.562	350.22
355.944	338.47
356.326	365.13
356.709	363.32
357.091	363.1
357.473	380.27
357.855	375.3
358.238	361.97
358.62	365.81
359.002	372.14
359.384	367.39
359.766	357
360.148	370.33
360.53	384.57
360.912	371.23
361.294	361.06
361.676	364
362.057	358.58
362.439	374.4
362.821	355.64
363.203	368.3
363.584	363.78
363.966	356.54
364.348	382.76
364.729	356.32
365.111	363.78
365.493	350.89
365.874	350.44
366.256	326.04
366.637	372.14
367.019	359.71
367.4	347.96
367.781	342.53
368.163	358.13
368.544	343.44
368.925	351.57
369.306	355.87
369.688	362.65
370.069	344.12
370.45	365.13
370.831	373.04
371.212	375.3
371.593	382.98
371.974	357.67
372.355	361.97
372.736	367.84
373.117	377.11
373.498	383.66
373.879	351.8
374.26	373.72
374.641	366.26
375.021	366.04
375.402	356.77
375.783	395.64
376.163	396.09
376.544	385.24
376.925	381.4
377.305	385.47
377.686	385.92
378.066	395.19
378.447	411.91
378.827	402.87
379.208	416.66
379.588	410.78
379.968	396.54
380.349	404.9
380.729	416.88
381.109	420.5
381.489	428.86
381.87	411.23
382.25	433.6
382.63	422.31
383.01	442.64
383.39	415.07
383.77	462.08
384.15	443.77
384.53	450.33
384.91	450.55
385.29	432.7
385.67	457.56
386.049	450.78
386.429	484.22
386.809	466.15
387.189	485.58
387.568	490.55
387.948	482.42
388.328	506.6
388.707	479.93
389.087	489.65
389.466	507.05
389.846	502.08
390.225	510.89
390.605	519.25
390.984	519.03
391.363	539.36
391.743	517.9
392.122	537.78
392.501	565.13
392.881	569.42
393.26	554.28
393.639	587.27
394.018	575.75
394.397	568.74
394.776	583.43
395.155	593.37
395.534	613.71
395.913	635.41
396.292	618.23
396.671	631.57
397.05	646.48
397.429	657.1
397.808	648.06
398.186	643.09
398.565	679.7
398.944	658.91
399.323	713.82
399.701	694.16
400.08	710.43
400.458	686.71
400.837	718.12
401.215	728.06
401.594	763.99
401.972	775.52
402.351	797.21
402.729	784.56
403.107	785.69
403.486	833.37
403.864	805.12
404.242	801.28
404.62	846.02
404.999	843.99
405.377	893.71
405.755	895.29
406.133	915.85
406.511	909.07
406.889	958.11
407.267	948.17
407.645	972.8
408.023	997.88
408.401	1007.37
408.779	1043.53
409.156	1063.42
409.534	1074.72
409.912	1085.11
410.29	1126.24
410.667	1112.23
411.045	1156.3
411.422	1199.23
411.8	1213.47
412.178	1235.84
412.555	1239.01
412.933	1258.22
413.31	1279.46
413.687	1303.19
414.065	1349.51
414.442	1340.02
414.819	1354.48
415.197	1413.69
415.574	1427.93
415.951	1420.02
416.328	1486.46
416.705	1486.46
417.082	1509.28
417.46	1523.52
417.837	1560.13
418.214	1529.39
418.591	1609.84
418.967	1575.5
419.344	1632.22
419.721	1676.51
420.098	1662.27
420.475	1679.45
420.852	1716.96
421.228	1731.88
421.605	1776.85
421.982	1752.67
422.358	1773.91
422.735	1816.84
423.111	1882.61
423.488	1847.58
423.864	1873.57
424.241	1900.46
424.617	1938.88
424.994	1954.92
425.37	1971.19
425.746	1975.48
426.123	2013.9
426.499	2027.23
426.875	2082.6
427.251	2146.33
427.627	2156.95
428.003	2178.19
428.379	2212.31
428.756	2228.81
429.132	2298.41
429.507	2290.5
429.883	2343.16
430.259	2381.8
430.635	2390.39
431.011	2401.46
431.387	2450.73
431.763	2511.06
432.138	2500.89
432.514	2560.55
432.89	2612.76
433.265	2657.05
433.641	2651.85
434.016	2693.66
434.392	2749.02
434.767	2813.88
435.143	2818.4
435.518	2833.32
435.894	2861.34
436.269	2912.64
436.644	2990.15
437.02	2976.59
437.395	2984.27
437.77	3038.51
438.145	3137.49
438.52	3155.34
438.895	3188.56
439.271	3155.57
439.646	3254.32
440.021	3280.76
440.395	3259.07
440.77	3321.89
441.145	3339.97
441.52	3384.49
441.895	3410.93
442.27	3424.94
442.645	3412.51
443.019	3490.7
443.394	3508.1
443.769	3543.13
444.143	3547.42
444.518	3553.07
444.892	3603.01
445.267	3618.38
445.641	3671.03
446.016	3697.93
446.39	3729.56
446.764	3732.05
447.139	3748.55
447.513	3770.69
447.887	3831.26
448.262	3843.91
448.636	3871.93
449.01	3939.5
449.384	3940.63
449.758	3974.75
450.132	3996.22
450.506	4088.88
450.88	4119.16
451.254	4062.44
451.628	4134.52
452.002	4257.91
452.376	4270.34
452.75	4298.81
453.123	4348.53
453.497	4392.14
453.871	4450.45
454.244	4540.39
454.618	4562.08
454.992	4638.47
455.365	4633.49
455.739	4753.26
456.112	4826.71
456.486	4833.71
456.859	4871.68
457.232	4993.94
457.606	4943.09
457.979	5088.4
458.352	5157.1
458.725	5228.28
459.099	5234.83
459.472	5390.76
459.845	5427.15
460.218	5476.86
460.591	5517.99
460.964	5550.31
461.337	5656.52
461.71	5801.15
462.083	5880.69
462.456	5883.86
462.829	5861.03
463.201	5997.98
463.574	6060.8
463.947	6126.34
464.32	6307.8
464.692	6293.11
465.065	6408.36
465.438	6480.68
465.81	6565.19
466.183	6615.14
466.555	6783.49
466.928	6846.32
467.3	6800.67
467.672	6952.53
468.045	7063.26
468.417	7141.68
468.789	7226.65
469.161	7326.08
469.534	7424.16
469.906	7615.34
470.278	7635.9
470.65	7786.41
471.022	7934.42
471.394	8084.93
471.766	8077.25
472.138	8269.1
472.51	8436.56
472.882	8509.55
473.253	8641.07
473.625	8768.3
473.997	8940.27
474.369	9006.49
474.74	9115.18
475.112	9350.21
475.484	9452.12
475.855	9611.89
476.227	9661.16
476.598	9963.3
476.97	10063.18
477.341	10273.35
477.713	10459.78
478.084	10559.67
478.455	10833.33
478.827	10884.86
479.198	11218.63
479.569	11255.92
479.94	11528.91
480.311	11713.76
480.682	11937.71
481.053	12208.66
481.424	12383.8
481.795	12572.72
482.166	12713.73
482.537	12884.35
482.908	13206.15
483.279	13275.53
483.65	13576.08
484.021	13856.3
484.391	13956.64
484.762	14037.09
485.133	14304.88
485.503	14422.84
485.874	14802.94
486.244	14938.99
486.615	15217.17
486.985	15352.08
487.356	15671.85
487.726	15782.58
488.097	16185.73
488.467	16159.74
488.837	16528.1
489.207	16674.31
489.578	16992.27
489.948	17213.95
490.318	17501.63
490.688	17583.44
491.058	17844.67
491.428	18028.85
491.798	18128.96
492.168	18517.65
492.538	18618.66
492.908	18873.57
493.278	19129.61
493.648	19114.24
494.017	19422.03
494.387	19565.53
494.757	19666.09
495.126	20047.33
495.496	20006.42
495.866	20144.05
496.235	20482.79
496.605	20597.59
496.974	20706.52
497.344	20903.35
497.713	21061.54
498.082	21189.22
498.452	21478.02
498.821	21570.9
499.19	21685.93
499.559	21892.48
499.928	22052.7
500.298	22176.99
500.667	22408.85
501.036	22455.17
501.405	22680.03
501.774	22681.16
502.143	22910.3
502.512	22962.73
502.88	23301.48
503.249	23324.3
503.618	23461.7
503.987	23669.6
504.356	23851.75
504.724	23950.05
505.093	24059.2
505.462	24221.45
505.83	24393.2
506.199	24555.68
506.567	24881.32
506.936	24901.44
507.304	25157.7
507.672	25225.49
508.041	25460.97
508.409	25734.18
508.777	25799.27
509.145	26008.07
509.514	26086.94
509.882	26240.38
510.25	26520.38
510.618	26693.25
510.986	26743.42
511.354	27052.34
511.722	27250.3
512.09	27501.37
512.458	27549.95
512.826	27703.85
513.193	27932.32
513.561	28011.86
513.929	28262.93
514.297	28574.79
514.664	28683.94
515.032	28998.28
515.4	29150.36
515.767	29297.03
516.135	29391.71
516.502	29254.09
516.869	30023.79
517.237	30015.65
517.604	29880.06
517.972	30376.55
518.339	30619.93
518.706	30564.34
519.073	30872.8
519.44	31026.92
519.808	31436.63
520.175	31487.48
520.542	31791.2
520.909	32173.33
521.276	32021.02
521.643	32575.81
522.009	32744.39
522.376	32870.27
522.743	33125.85
523.11	33488.33
523.477	33778.26
523.843	34015.09
524.21	34331.92
524.577	34632.93
524.943	34706.83
525.31	34891.91
525.676	35318.79
526.043	35495.73
526.409	35630.19
526.776	36019.34
527.142	36102.05
527.508	36386.56
527.874	36497.06
528.241	36731.18
528.607	36954
528.973	37245.52
529.339	37406.64
529.705	37774.32
530.071	38009.11
530.437	38179.28
530.803	38311.25
531.169	38590.12
531.535	38638.48
531.901	38749.89
532.267	38872.82
532.632	39112.14
532.998	39338.8
533.364	39525.23
533.73	39703.08
534.095	40075.5
534.461	40212.45
534.826	40385.77
535.192	40502.16
535.557	40794.13
535.923	40764.97
536.288	40950.73
536.653	41191.85
537.019	41045.19
537.384	41312.08
537.749	41497.16
538.114	41615.35
538.479	41739.19
538.845	41976.69
539.21	41952.06
539.575	41985.73
539.94	42154.54
540.305	42572.16
540.67	42468.43
541.034	42579.61
541.399	42868.65
541.764	43011.02
542.129	43041.52
542.494	43206.72
542.858	43152.48
543.223	43400.84
543.587	43709.08
543.952	43681.51
544.316	43821.39
544.681	43894.83
545.045	44185.45
545.41	44274.71
545.774	44340.7
546.138	44348.38
546.503	44582.27
546.867	44475.16
547.231	44843.06
547.595	45053
547.959	45145.2
548.324	45305.42
548.688	45302.26
549.052	45385.19
549.416	45671.96
549.779	45692.08
550.143	45877.61
550.507	45997.83
550.871	46066.08
551.235	46090.93
551.599	46387.2
551.962	46437.37
552.326	46686.85
552.689	46870.12
553.053	46672.61
553.417	46841.2
553.78	47364.8
554.143	47179.49
554.507	47527.06
554.87	47536.55
555.234	48016.08
555.597	47884.56
555.96	47902.64
556.323	48047.95
556.686	48244.78
557.05	48558.21
557.413	48756.63
557.776	48678.66
558.139	48981.93
558.502	49042.72
558.865	49171.76
559.228	49334.24
559.59	49519.32
559.953	49562.26
560.316	49837.5
560.679	49902.13
561.041	50188.23
561.404	50371.73
561.767	50461.67
562.129	50397.04
562.492	50749.57
562.854	50767.42
563.217	50848.78
563.579	51079.28
563.941	51254.64
564.304	51263.91
564.666	51552.49
565.028	51631.35
565.39	51688.53
565.753	51921.74
566.115	51931.01
566.477	52163.09
566.839	52178.46
567.201	52334.61
567.563	52470.65
567.925	52640.37
568.287	52683.98
568.648	52759.23
569.01	52948.61
569.372	53187.7
569.734	52990.64
570.095	53231.54
570.457	53399.67
570.819	53446.45
571.18	53478.99
571.542	53628.14
571.903	53636.95
572.265	53821.58
572.626	53809.15
572.987	53926.89
573.349	53990.16
573.71	54147.67
574.071	54195.13
574.432	54224.96
574.794	54483.03
575.155	54405.74
575.516	54294.79
575.877	54558.06
576.238	54558.51
576.599	54653.2
576.96	54689.13
577.32	54699.3
577.681	54768.22
578.042	54861.33
578.403	54816.13
578.763	54906.3
579.124	54962.79
579.485	55039.17
579.845	55071.26
580.206	55042.11
580.566	55065.39
580.927	55123.69
581.287	55215.67
581.648	55150.58
582.008	55228.1
582.368	55089.34
582.728	55227.42
583.089	55202.56
583.449	55296.79
583.809	55186.29
584.169	55333.63
584.529	55249.56
584.889	55425.38
585.249	55241.65
585.609	55191.94
585.969	55395.1
586.329	55240.75
586.688	55333.86
587.048	55236.23
587.408	55180.64
587.768	55289.34
588.127	55204.14
588.487	55219.73
588.846	55389.67
589.206	55242.78
589.565	55223.58
589.925	55367.08
590.284	55285.04
590.643	55333.63
591.003	55408.88
591.362	55405.04
591.721	55368.88
592.08	55369.34
592.44	55416.57
592.799	55395.55
593.158	55377.24
593.517	55386.28
593.876	55411.37
594.235	55313.74
594.593	55373.4
594.952	55428.32
595.311	55349.9
595.67	55468.54
596.029	55542.89
596.387	55576.56
596.746	55559.16
597.104	55483
597.463	55484.81
597.822	55608.88
598.18	55566.17
598.538	55483
598.897	55698.14
599.255	55473.97
599.613	55834.41
599.972	55681.42
600.33	55660.63
600.688	55626.05
601.046	55638.93
601.404	55802.32
601.762	55690.23
602.12	55762.77
602.478	55869.89
602.836	55837.8
603.194	55703.79
603.552	55804.8
603.91	55810.68
604.268	55954.4
604.625	55789.44
604.983	55856.78
605.341	55803.22
605.698	55959.15
606.056	56012.93
606.413	55861.53
606.771	56139.26
607.128	56080.73
607.485	56044.35
607.843	56043.67
608.2	56145.36
608.557	56181.07
608.914	56138.13
609.272	56216.54
609.629	56299.03
609.986	56346.48
610.343	56302.42
610.7	56402.3
611.057	56378.8
611.414	56280.5
611.771	56431
612.127	56445.69
612.484	56427.84
612.841	56441.4
613.198	56373.38
613.554	56416.31
613.911	56602.97
614.267	56625.8
614.624	56569.98
614.98	56577.89
615.337	56737.21
615.693	56618.34
616.05	56611.79
616.406	56819.01
616.762	56721.16
617.118	56684.78
617.475	56777.66
617.831	56784.89
618.187	56795.29
618.543	56752.58
618.899	56869.63
619.255	56832.57
619.611	56910.76
619.967	56879.35
620.323	56917.77
620.678	56864.89
621.034	56866.7
621.39	56847.49
621.746	56795.96
622.101	57101.04
622.457	56834.61
622.812	56979.46
623.168	57046.35
623.523	56998.67
623.879	57022.17
624.234	56848.17
624.589	57002.96
624.945	57032.79
625.3	56984.43
625.655	56942.63
626.01	57008.39
626.365	56975.85
626.72	56974.94
627.075	56947.82
627.43	56974.26
627.785	56806.81
628.14	56924.32
628.495	56871.44
628.85	56864.89
629.205	56714.61
629.559	56888.62
629.914	56735.85
630.269	56797.32
630.623	56656.53
630.978	56657.44
631.332	56755.06
631.687	56799.58
632.041	56608.85
632.396	56654.95
632.75	56536.54
633.104	56532.92
633.459	56469.65
633.813	56391.68
634.167	56489.76
634.521	56414.96
634.875	56464.9
635.229	56428.52
635.583	56297.22
635.937	56301.74
636.291	56216.09
636.645	56277.11
636.999	56124.12
637.352	56238.92
637.706	56085.47
638.06	56177
638.413	56094.06
638.767	55983.78
639.121	55995.53
639.474	55977.91
639.828	55845.48
640.181	56007.74
640.534	55893.16
640.888	55831.7
641.241	55745.82
641.594	55769.55
641.947	55814.3
642.301	55740.85
642.654	55728.2
643.007	55732.49
643.36	55667.86
643.713	55580.4
644.066	55700.17
644.419	55530.46
644.771	55412.72
645.124	55147.19
645.477	55019.97
645.83	54793.53
646.182	54811.84
646.535	54602.8
646.888	54650.94
647.24	54415.69
647.593	54617.26
647.945	54444.16
648.298	54382.47
648.65	54331.4
649.002	54260.89
649.355	54416.82
649.707	54355.8
650.059	54447.78
650.411	54799.18
650.763	54812.06
651.115	55057.7
651.467	55004.15
651.819	54966.86
652.171	54875.79
652.523	54805.28
652.875	54763.48
653.227	54698.84
653.578	54890.25
653.93	54705.4
654.282	54580.66
654.633	54616.13
654.985	54655
655.337	54716.24
655.688	54696.13
656.039	54758.05
656.391	54432.64
656.742	54511.28
657.094	54490.26
657.445	54622.69
657.796	54471.96
658.147	54365.52
658.498	54346.76
658.849	54530.26
659.2	54409.59
659.551	54342.24
659.902	54442.58
660.253	54363.26
660.604	54371.85
660.955	54260.89
661.306	54307.22
661.656	54163.72
662.007	54278.06
662.358	54211.17
662.708	54225.64
663.059	54176.6
663.409	53998.07
663.76	54199.65
664.11	54134.79
664.461	54067.67
664.811	54071.06
665.161	54151.06
665.511	53947.45
665.862	53979.99
666.212	54091.85
666.562	54078.52
666.912	53980.22
667.262	53981.8
667.612	53921.69
667.962	54074.23
668.312	53923.72
668.662	54055.02
669.011	53941.58
669.361	53930.05
669.711	53837.17
670.06	53868.58
670.41	53820
670.76	53728.47
671.109	53854.57
671.459	53839.66
671.808	53730.73
672.157	53802.82
672.507	53544.98
672.856	53555.15
673.205	53598.08
673.554	53676.95
673.904	53451.65
674.253	53627.91
674.602	53451.87
674.951	53078.1
675.3	52928.72
675.649	53403.29
675.998	53448.26
676.346	53375.26
676.695	53526.9
677.044	53240.13
677.393	53243.29
677.741	53412.1
678.09	53265.21
678.438	53236.28
678.787	53243.29
679.135	53228.6
679.484	53030.41
679.832	53127.81
680.181	52913.81
680.529	52974.6
680.877	52913.35
681.225	52901.15
681.573	53076.51
681.922	52864.99
682.27	52799.46
682.618	52732.79
682.966	52596.98
683.314	52700.25
683.661	52598.33
684.009	52451.45
684.357	52505.91
684.705	52255.07
685.053	52399.47
685.4	52351.11
685.748	52105.01
686.095	52219.36
686.443	52035.41
686.79	51945.24
687.138	52048.52
687.485	51963.55
687.832	51908.41
688.18	51860.05
688.527	51699.15
688.874	51675.42
689.221	51582.99
689.568	51558.36
689.915	51357.24
690.262	51440.62
690.609	51254.19
690.956	51132.84
691.303	51157.69
691.65	50855.56
691.997	50973.52
692.344	50748.67
692.69	50653.07
693.037	50699.4
693.383	50466.87
693.73	50496.92
694.077	50238.85
694.423	50348.68
694.769	50194.33
695.116	50008.57
695.462	50093.77
695.808	49816.49
696.155	50019.87
696.501	49792.76
696.847	49747.79
697.193	49413.56
697.539	49512.77
697.885	49330.62
698.231	49143.06
698.577	49277.97
698.923	49098.77
699.269	48952.33
699.614	48747.36
699.96	48775.16
700.306	48755.27
700.651	48485.22
700.997	48491.55
701.342	48332.91
701.688	48313.7
702.033	48092.92
702.379	48039.58
702.724	47944.22
703.069	48056.53
703.415	47609.54
703.76	47680.95
704.105	47482.54
704.45	47483.44
704.795	47275.31
705.14	47176.78
705.485	47055.88
705.83	46925.49
706.175	46922.78
706.52	46782.44
706.865	46656.34
707.209	46517.59
707.554	46350.82
707.899	46483.24
708.243	46314.66
708.588	46252.51
708.932	46018.85
709.277	46083.48
709.621	45992.41
709.966	45760.55
710.31	45791.06
710.654	45346.77
710.998	45585.86
711.342	45532.98
711.687	45284.18
712.031	45259.32
712.375	45086.44
712.719	45102.71
713.063	44961.47
713.407	45100.23
713.75	44882.38
714.094	44824.08
714.438	44690.97
714.782	44569.85
715.125	44424.54
715.469	44588.6
715.812	44258.67
716.156	43966.47
716.499	44107.48
716.843	44190.19
717.186	43849.41
717.53	44086.69
717.873	43979.8
718.216	43807.38
718.559	43693.48
718.902	43414.4
719.246	43503.66
719.589	43324.68
719.932	43253.04
720.275	43137.57
720.617	43060.05
720.96	43094.18
721.303	43191.8
721.646	43014.86
721.989	42895.76
722.331	42904.8
722.674	42775.32
723.016	42609.22
723.359	42623.23
723.701	42610.57
724.044	42394.54
724.386	42095.79
724.729	42430.47
725.071	42044.49
725.413	42195.67
725.755	42150.7
726.097	42082
726.439	41755.23
726.782	41782.35
727.124	41872.29
727.465	41652.63
727.807	41728.11
728.149	41496.03
728.491	41359.08
728.833	41389.14
729.175	41120.22
729.516	41232.31
729.858	41102.14
730.199	41201.12
730.541	41149.6
730.882	40963.84
731.224	40995.25
731.565	40685.43
731.906	40701.25
732.248	40828.47
732.589	40612.43
732.93	40398.43
733.271	40485.66
733.612	40464.87
733.953	40410.41
734.294	40157.98
734.635	40163.41
734.976	40106.46
735.317	40056.29
735.658	40054.71
735.999	39899.23
736.339	39917.54
736.68	39905.11
737.021	39724.32
737.361	39629.64
737.702	39729.97
738.042	39613.37
738.383	39640.48
738.723	39591.9
739.063	39366.14
739.404	39449.75
739.744	39142.87
740.084	39277.78
740.424	39208.4
740.764	39140.84
741.104	39243.43
741.444	38907.17
741.784	38866.27
742.124	38887.96
742.464	38846.15
742.804	38848.64
743.143	38588.99
743.483	38753.05
743.823	38515.99
744.162	38501.53
744.502	38608.19
744.841	38395.32
745.181	38322.78
745.52	38150.58
745.86	38207.75
746.199	38130.24
746.538	38033.75
746.877	38047.3
747.216	37936.35
747.556	37845.95
747.895	37893.18
748.234	37758.72
748.573	37765.73
748.911	37521.44
749.25	37487.55
749.589	37425.17
749.928	37503.14
750.267	37452.52
750.605	37197.84
750.944	37153.77
751.283	36970.72
751.621	36975.92
751.96	36792.87
752.298	36835.59
752.636	36787
752.975	36655.48
