Data from breadboard_black_back_FLMS001491_00067.txt Node
Date: Wed Feb 08 10:50:44 GMT 2017
User: dcchb
Spectrometer: FLMS00149
Trigger mode: 0
Integration Time (sec): 2.000000E-2
Scans to average: 10
Electric dark correction enabled: true
Nonlinearity correction enabled: false
Boxcar width: 0
XAxis mode: Wavelengths
Number of Pixels in Spectrum: 2048
>>>>>Begin Spectral Data<<<<<
341.393	-6.77
341.776	-6.77
342.16	-6.77
342.543	-55.35
342.927	-83.6
343.31	-54.22
343.693	-65.75
344.077	-59.87
344.46	-56.93
344.843	-43.83
345.226	-24.62
345.61	-36.82
345.993	-19.42
346.376	-4.28
346.759	-4.73
347.142	4.99
347.525	53.35
347.908	53.57
348.291	69.62
348.674	87.7
349.057	101.25
349.44	98.32
349.823	117.53
350.206	158.2
350.588	192.78
350.971	199.33
351.354	219.9
351.737	231.87
352.119	233.45
352.502	270.74
352.884	276.39
353.267	274.81
353.65	266.45
354.032	296.05
354.414	315.71
354.797	303.96
355.179	316.16
355.562	327.46
355.944	318.2
356.326	319.33
356.709	346.45
357.091	344.19
357.473	352.55
357.855	336.28
358.238	361.81
358.62	357.29
359.002	338.31
359.384	334.69
359.766	355.71
360.148	347.58
360.53	358.42
360.912	331.76
361.294	368.37
361.676	332.66
362.057	339.89
362.439	342.15
362.821	336.28
363.203	349.61
363.584	329.95
363.966	356.39
364.348	337.63
364.729	329.27
365.111	348.71
365.493	339.89
365.874	336.73
366.256	334.47
366.637	331.53
367.019	316.84
367.4	326.33
367.781	346.45
368.163	335.37
368.544	338.08
368.925	334.92
369.306	335.15
369.688	337.86
370.069	324.75
370.45	337.41
370.831	328.37
371.212	340.57
371.593	339.44
371.974	333.79
372.355	342.15
372.736	339.44
373.117	351.64
373.498	339.21
373.879	339.67
374.26	354.81
374.641	328.59
375.021	351.19
375.402	337.86
375.783	335.15
376.163	383.05
376.544	351.42
376.925	339.21
377.305	360.23
377.686	358.87
378.066	365.65
378.447	356.16
378.827	372.21
379.208	346.9
379.588	381.7
379.968	381.02
380.349	371.3
380.729	365.65
381.109	376.28
381.489	389.16
381.87	388.25
382.25	401.36
382.63	393.9
383.01	388.7
383.39	404.07
383.77	394.13
384.15	405.43
384.53	396.39
384.91	417.86
385.29	433.22
385.67	417.63
386.049	421.7
386.429	413.11
386.809	411.08
387.189	440.23
387.568	427.57
387.948	423.96
388.328	430.74
388.707	441.36
389.087	426.67
389.466	438.87
389.846	439.78
390.225	440.45
390.605	457.4
390.984	468.7
391.363	455.37
391.743	459.44
392.122	454.24
392.501	495.14
392.881	466.22
393.26	493.11
393.639	469.61
394.018	505.09
394.397	503.05
394.776	493.56
395.155	480.91
395.534	499.66
395.913	513.67
396.292	514.35
396.671	494.69
397.05	508.02
397.429	509.15
397.808	519.55
398.186	517.97
398.565	520.68
398.944	538.53
399.323	545.31
399.701	545.76
400.08	548.7
400.458	562.49
400.837	579.66
401.215	571.07
401.594	560.68
401.972	571.75
402.351	547.57
402.729	535.82
403.107	587.8
403.486	564.97
403.864	585.76
404.242	608.81
404.62	587.34
404.999	606.33
405.377	601.13
405.755	624.63
406.133	608.13
406.511	623.95
406.889	624.18
407.267	643.39
407.645	645.87
408.023	647.23
408.401	658.08
408.779	656.95
409.156	666.44
409.534	687.45
409.912	708.02
410.29	710.5
410.667	706.66
411.045	703.95
411.422	715.02
411.8	734.91
412.178	757.51
412.555	763.84
412.933	754.34
413.31	767.9
413.687	768.58
414.065	806.32
414.442	809.26
414.819	812.2
415.197	781.24
415.574	807
415.951	813.55
416.328	850.84
416.705	836.15
417.082	827.11
417.46	863.72
417.837	838.64
418.214	854.45
418.591	843.38
418.967	896.26
419.344	881.12
419.721	913.21
420.098	884.06
420.475	913.44
420.852	945.75
421.228	916.37
421.605	909.59
421.982	940.1
422.358	937.62
422.735	963.6
423.111	938.75
423.488	963.6
423.864	967.9
424.241	991.4
424.617	1009.03
424.994	986.2
425.37	1008.12
425.746	1028.69
426.123	1050.83
426.499	1049.93
426.875	1066.43
427.251	1072.53
427.627	1108.46
428.003	1103.26
428.379	1113.43
428.756	1156.59
429.132	1140.55
429.507	1141.68
429.883	1167.44
430.259	1205.41
430.635	1183.94
431.011	1195.91
431.387	1230.49
431.763	1244.73
432.138	1277.27
432.514	1270.94
432.89	1293.09
433.265	1313.43
433.641	1326.76
434.016	1358.17
434.392	1356.14
434.767	1357.27
435.143	1390.71
435.518	1380.54
435.894	1360.88
436.269	1431.84
436.644	1435.91
437.02	1460.77
437.395	1453.54
437.77	1475.23
438.145	1481.33
438.52	1489.24
438.895	1498.73
439.271	1521.1
439.646	1551.61
440.021	1554.78
440.395	1545.51
440.77	1574.21
441.145	1556.81
441.52	1599.29
441.895	1584.61
442.27	1625.96
442.645	1654.66
443.019	1631.16
443.394	1641.33
443.769	1650.37
444.143	1658.05
444.518	1710.03
444.892	1703.47
445.267	1723.13
445.641	1743.02
446.016	1733.98
446.39	1747.31
446.764	1729.46
447.139	1752.96
447.513	1762.45
447.887	1805.84
448.262	1817.14
448.636	1817.14
449.01	1816.69
449.384	1867.99
449.758	1870.47
450.132	1896.69
450.506	1906.18
450.88	1903.24
451.254	1917.03
451.628	1958.15
452.002	1967.87
452.376	1996.35
452.75	2011.49
453.123	2029.34
453.497	2058.94
453.871	2062.11
454.244	2090.81
454.618	2117.92
454.992	2162.9
455.365	2175.1
455.739	2207.87
456.112	2257.36
456.486	2266.85
456.859	2319.73
457.232	2321.08
457.606	2280.63
457.979	2352.27
458.352	2360.86
458.725	2400.85
459.099	2418.93
459.472	2476.11
459.845	2501.87
460.218	2538.93
460.591	2551.36
460.964	2535.31
461.337	2641.53
461.71	2664.8
462.083	2648.31
462.456	2704.8
462.829	2706.38
463.201	2755.42
463.574	2773.73
463.947	2810.56
464.32	2876.1
464.692	2930.33
465.065	2933.27
465.438	2970.11
465.81	2995.19
466.183	3055.08
466.555	3133.72
466.928	3097.56
467.3	3092.36
467.672	3155.86
468.045	3234.28
468.417	3265.46
468.789	3307.05
469.161	3310.44
469.534	3346.14
469.906	3424.33
470.278	3449.64
470.65	3547.27
471.022	3597.89
471.394	3675.62
471.766	3715.17
472.138	3760.37
472.51	3780.03
472.882	3852.12
473.253	3872.45
473.625	3958.1
473.997	4052.79
474.369	4042.85
474.74	4128.95
475.112	4192.9
475.484	4257.08
475.855	4392.44
476.227	4393.12
476.598	4518.54
476.97	4473.57
477.341	4601.02
477.713	4723.96
478.084	4720.79
478.455	4866.1
478.827	4854.35
479.198	5055.47
479.569	5031.97
479.94	5178.18
480.311	5231.06
480.682	5332.08
481.053	5479.42
481.424	5543.15
481.795	5538.17
482.166	5672.86
482.537	5738.39
482.908	5870.37
483.279	5900.2
483.65	6007.31
484.021	6129.34
484.391	6200.3
484.762	6294.54
485.133	6376.8
485.503	6435.78
485.874	6567.98
486.244	6669.44
486.615	6727.52
486.985	6792.6
487.356	6946.72
487.726	6997.12
488.097	7141.07
488.467	7132.48
488.837	7385.81
489.207	7386.03
489.578	7518.91
489.948	7541.74
490.318	7699.92
490.688	7732.92
491.058	7894.72
491.428	7989.63
491.798	8061.5
492.168	8199.35
492.538	8242.28
492.908	8351.88
493.278	8466.68
493.648	8440.24
494.017	8598.43
494.387	8689.5
494.757	8731.99
495.126	8859.22
495.496	8851.76
495.866	8938.54
496.235	9109.15
496.605	9147.57
496.974	9145.31
497.344	9315.7
497.713	9303.05
498.082	9387.11
498.452	9501.69
498.821	9552.31
499.19	9639.31
499.559	9660.55
499.928	9786.2
500.298	9811.51
500.667	9975.57
501.036	9894.44
501.405	10063.03
501.774	10072.74
502.143	10176.02
502.512	10278.84
502.88	10288.56
503.249	10283.81
503.618	10444.71
503.987	10468.21
504.356	10668.43
504.724	10711.6
505.093	10701.2
505.462	10749.79
505.83	10828.88
506.199	10841.99
506.567	11011.25
506.936	11037.46
507.304	11153.85
507.672	11242.66
508.041	11352.48
508.409	11427.28
508.777	11462.54
509.145	11655.3
509.514	11539.6
509.882	11730.55
510.25	11746.82
510.618	11921.96
510.986	11952.69
511.354	12038.12
511.722	12190.2
512.09	12232.01
512.458	12226.36
512.826	12378.45
513.193	12492.79
513.561	12563.53
513.929	12625.22
514.297	12693.01
514.664	12761.71
515.032	12943.85
515.4	13053
515.767	13079.67
516.135	13138.43
516.502	13151.98
516.869	13347.91
517.237	13464.29
517.604	13357.4
517.972	13485.08
518.339	13697.28
518.706	13761.69
519.073	13854.11
519.44	13939.08
519.808	14142.92
520.175	14116.48
520.542	14298.4
520.909	14421.33
521.276	14431.95
521.643	14585.17
522.009	14669.68
522.376	14760.08
522.743	14852.05
523.11	14977.02
523.477	15198.71
523.843	15230.8
524.21	15425.6
524.577	15612.03
524.943	15579.27
525.31	15669.43
525.676	15826.04
526.043	15938.13
526.409	16042.98
526.776	16181.28
527.142	16231
527.508	16436.42
527.874	16504.44
528.241	16653.14
528.607	16685.45
528.973	16908.27
529.339	16941.26
529.705	17073.01
530.071	17190.52
530.437	17328.15
530.803	17384.87
531.169	17555.94
531.535	17463.06
531.901	17517.07
532.267	17733.79
532.632	17744.18
532.998	17817.62
533.364	17951.18
533.73	18032.53
534.095	18212.64
534.461	18291.96
534.826	18348.68
535.192	18388.01
535.557	18478.62
535.923	18566.53
536.288	18696.7
536.653	18787.99
537.019	18689.24
537.384	18856.92
537.749	19008.78
538.114	19018.27
538.479	19027.99
538.845	19069.12
539.21	19152.5
539.575	19305.27
539.94	19336.91
540.305	19436.34
540.67	19393.63
541.034	19474.53
541.399	19531.93
541.764	19579.39
542.129	19707.74
542.494	19797.69
542.858	19931.24
543.223	20058.92
543.587	20011.92
543.952	20057.11
544.316	20163.78
544.681	20171.24
545.045	20290.1
545.41	20295.98
545.774	20421.17
546.138	20537.1
546.503	20465.01
546.867	20495.75
547.231	20731.45
547.595	20812.57
547.959	20901.16
548.324	20888.28
548.688	20954.04
549.052	21079.23
549.416	21030.42
549.779	21082.62
550.143	21240.81
550.507	21373.69
550.871	21452.56
551.235	21429.73
551.599	21550.86
551.962	21549.73
552.326	21856.39
552.689	21900
553.053	21799.21
553.417	21891.87
553.78	22154.69
554.143	22107
554.507	22161.47
554.87	22258.64
555.234	22490.5
555.597	22487.33
555.96	22479.2
556.323	22601.68
556.686	22700.21
557.05	22851.16
557.413	22847.77
557.776	22883.93
558.139	23036.7
558.502	23252.28
558.865	23170.48
559.228	23391.72
559.59	23501.09
559.953	23569.79
560.316	23742.89
560.679	23807.3
561.041	23958.48
561.404	24057.69
561.767	24134.07
562.129	24099.95
562.492	24412.93
562.854	24385.59
563.217	24464.46
563.579	24501.74
563.941	24623.77
564.304	24757.56
564.666	24963.65
565.028	24887.27
565.39	24956.65
565.753	25259.91
566.115	25287.94
566.477	25426.92
566.839	25495.16
567.201	25668.49
567.563	25641.83
567.925	25892.67
568.287	25902.84
568.648	25902.61
569.01	26055.15
569.372	26251.08
569.734	26174.47
570.095	26431.18
570.457	26448.81
570.819	26399.32
571.18	26539.88
571.542	26741.91
571.903	26822.13
572.265	26895.58
572.626	26965.41
572.987	27031.85
573.349	27164.5
573.71	27227.32
574.071	27209.24
574.432	27407.66
574.794	27611.04
575.155	27474.77
575.516	27550.48
575.877	27648.1
576.238	27665.73
576.599	27807.87
576.96	27717.25
577.32	27825.27
577.681	27933.29
578.042	27998.6
578.403	28035.44
578.763	28037.69
579.124	28054.87
579.485	28020.07
579.845	28254.19
580.206	28169.44
580.566	28275.88
580.927	28293.28
581.287	28358.82
581.648	28306.61
582.008	28429.1
582.368	28399.95
582.728	28352.04
583.089	28465.25
583.449	28347.52
583.809	28385.48
584.169	28411.92
584.529	28405.14
584.889	28558.59
585.249	28479.49
585.609	28559.26
585.969	28693.5
586.329	28412.6
586.688	28468.19
587.048	28397.91
587.408	28469.1
587.768	28430.68
588.127	28454.86
588.487	28392.71
588.846	28634.29
589.206	28569.43
589.565	28471.81
589.925	28661.86
590.284	28450.11
590.643	28602.65
591.003	28773.72
591.362	28792.25
591.721	28755.19
592.08	28551.35
592.44	28734.63
592.799	28676.1
593.158	28766.72
593.517	28750.22
593.876	28790.22
594.235	28663.89
594.593	28707.06
594.952	28777.34
595.311	28734.85
595.67	28839.71
596.029	29053.49
596.387	28976.2
596.746	28945.69
597.104	28841.74
597.463	28861.4
597.822	29005.58
598.18	29031.34
598.538	28905.92
598.897	29032.02
599.255	28864.57
599.613	29295.06
599.972	29085.13
600.33	29126.93
600.688	29107.27
601.046	29152.69
601.404	29238.12
601.762	29174.39
602.12	29350.2
602.478	29239.92
602.836	29337.1
603.194	29258.68
603.552	29317.66
603.91	29251
604.268	29377.09
604.625	29321.28
604.983	29395.85
605.341	29312.01
605.698	29471.33
606.056	29576.64
606.413	29436.53
606.771	29604.66
607.128	29616.64
607.485	29465.23
607.843	29549.97
608.2	29778.67
608.557	29739.8
608.914	29646.24
609.272	29890.08
609.629	29913.35
609.986	29921.71
610.343	29961.94
610.7	30086.68
611.057	30100.01
611.414	29975.95
611.771	29979.79
612.127	30085.78
612.484	30122.84
612.841	30265.88
613.198	30087.58
613.554	30112.89
613.911	30324.87
614.267	30291.2
614.624	30297.75
614.98	30240.57
615.337	30380.23
615.693	30335.26
616.05	30335.49
616.406	30630.62
616.762	30368.71
617.118	30407.35
617.475	30470.4
617.831	30679.43
618.187	30630.85
618.543	30642.82
618.899	30674.46
619.255	30703.16
619.611	30724.63
619.967	30679.89
620.323	30814.8
620.678	30709.94
621.034	30618.19
621.39	30695.48
621.746	30523.05
622.101	30905.42
622.457	30775.02
622.812	30786.55
623.168	30889.37
623.523	30875.81
623.879	30812.09
624.234	30724.4
624.589	30704.97
624.945	30832.88
625.3	30893.67
625.655	30808.7
626.01	30789.71
626.365	30793.78
626.72	30785.42
627.075	30856.38
627.43	30817.51
627.785	30724.4
628.14	30818.86
628.495	30630.17
628.85	30715.14
629.205	30619.55
629.559	30777.51
629.914	30674.91
630.269	30735.7
630.623	30672.88
630.978	30598.08
631.332	30762.82
631.687	30627.91
632.041	30629.04
632.396	30657.97
632.75	30499.78
633.104	30575.48
633.459	30439.89
633.813	30439.44
634.167	30367.35
634.521	30340.46
634.875	30456.61
635.229	30241.48
635.583	30225.43
635.937	30252.55
636.291	30199.45
636.645	30192.21
636.999	30004.87
637.352	30118.32
637.706	30019.79
638.06	30178.88
638.413	30101.37
638.767	30107.47
639.121	30038.77
639.474	29757.42
639.828	30005.1
640.181	29766.24
640.534	29837.42
640.888	29742.51
641.241	29515.17
641.594	29676.52
641.947	29736.18
642.301	29606.24
642.654	29678.56
643.007	29593.36
643.36	29590.65
643.713	29589.29
644.066	29617.54
644.419	29415.29
644.771	29129.87
645.124	29095.75
645.477	28933.04
645.83	28793.61
646.182	28556.55
646.535	28392.71
646.888	28551.81
647.24	28345.26
647.593	28371.7
647.945	28354.3
648.298	28281.08
648.65	28110.69
649.002	28049.45
649.355	28278.37
649.707	28281.53
650.059	28410.57
650.411	28663.22
650.763	28787.28
651.115	28925.81
651.467	28845.36
651.819	28950.21
652.171	28703.21
652.523	28677.68
652.875	28759.03
653.227	28486.72
653.578	28861.4
653.93	28757.45
654.282	28522.2
654.633	28482.2
654.985	28547.06
655.337	28599.49
655.688	28594.74
656.039	28647.62
656.391	28447.63
656.742	28512.26
657.094	28517.46
657.445	28561.75
657.796	28469.1
658.147	28392.49
658.498	28365.6
658.849	28454.18
659.2	28289.21
659.551	28322.43
659.902	28291.25
660.253	28278.37
660.604	28324.47
660.955	28218.71
661.306	28248.31
661.656	28259.61
662.007	28116.79
662.358	28136.9
662.708	28125.83
663.059	28136
663.409	28009
663.76	28191.82
664.11	28210.12
664.461	28204.47
664.811	28114.3
665.161	28233.4
665.511	28028.2
665.862	28017.81
666.212	28230.91
666.562	28159.5
666.912	27968.09
667.262	27889.9
667.612	27982.56
667.962	28189.78
668.312	27963.12
668.662	28114.08
669.011	28025.94
669.361	27983.01
669.711	27945.49
670.06	27859.62
670.41	27980.52
670.76	27833.41
671.109	27866.17
671.459	27872.05
671.808	27769.45
672.157	27865.5
672.507	27695.11
672.856	27614.2
673.205	27743.69
673.554	27796.8
673.904	27626.41
674.253	27806.74
674.602	27651.49
674.951	27318.62
675.3	27091.73
675.649	27535.11
675.998	27528.1
676.346	27463.02
676.695	27475.45
677.044	27362.68
677.393	27521.78
677.741	27577.37
678.09	27399.97
678.438	27220.77
678.787	27457.37
679.135	27458.05
679.484	27167.21
679.832	27255.79
680.181	27157.72
680.529	27235.91
680.877	27152.75
681.225	27126.76
681.573	27238.39
681.922	27123.37
682.27	27019.42
682.618	26993.43
682.966	26893.09
683.314	26932.19
683.661	26955.24
684.009	26810.16
684.357	26758.86
684.705	26728.58
685.053	26704.62
685.4	26562.93
685.748	26499.66
686.095	26478.19
686.443	26360.9
686.79	26376.72
687.138	26318.42
687.485	26397.29
687.832	26200
688.18	26277.97
688.527	26058.76
688.874	26162.04
689.221	25940.57
689.568	26023.96
689.915	25837.98
690.262	25888.82
690.609	25979.9
690.956	25807.47
691.303	25740.81
691.65	25599.79
691.997	25594.82
692.344	25400.02
692.69	25416.75
693.037	25373.81
693.383	25239.12
693.73	25333.81
694.077	25069.41
694.423	25105.12
694.769	25071.45
695.116	24994.16
695.462	24959.58
695.808	24823.32
696.155	24915.74
696.501	24740.83
696.847	24722.53
697.193	24530.22
697.539	24605.24
697.885	24498.35
698.231	24486.15
698.577	24402.54
698.923	24325.25
699.269	24320.5
699.614	24213.61
699.96	24184.01
700.306	24082.32
700.651	23953.51
700.997	23953.51
701.342	23894.98
701.688	23845.71
702.033	23746.73
702.379	23672.16
702.724	23574.54
703.069	23666.06
703.415	23373.18
703.76	23399.62
704.105	23388.1
704.45	23345.16
704.795	23252.51
705.14	23196.01
705.485	23097.94
705.83	23102.23
706.175	23063.36
706.52	22979.07
706.865	22949.02
707.209	22922.58
707.554	22718.96
707.899	22922.58
708.243	22779.98
708.588	22753.99
708.932	22547.22
709.277	22595.58
709.621	22594.67
709.966	22424.51
710.31	22490.04
710.654	22340.22
710.998	22336.15
711.342	22280.78
711.687	22223.38
712.031	22154.23
712.375	22057.74
712.719	22112.65
713.063	22114.91
713.407	22070.85
713.75	21895.03
714.094	21956.72
714.438	21878.53
714.782	21887.8
715.125	21688.94
715.469	21803.73
715.812	21641.93
716.156	21544.76
716.499	21621.14
716.843	21587.47
717.186	21403.29
717.53	21553.8
717.873	21589.05
718.216	21476.29
718.559	21339.57
718.902	21267.93
719.246	21254.14
719.589	21183.19
719.932	21135.28
720.275	21145.45
720.617	21087.6
720.96	21145.9
721.303	21039.91
721.646	21082.62
721.989	20854.16
722.331	21069.97
722.674	20930.54
723.016	20850.54
723.359	20883.76
723.701	20841.27
724.044	20683.99
724.386	20628.62
724.729	20623.88
725.071	20672.69
725.413	20561.28
725.755	20562.19
726.097	20498.68
726.439	20440.61
726.782	20401.29
727.124	20458.46
727.465	20413.94
727.807	20259.82
728.149	20340.27
728.491	20217.79
728.833	20277.45
729.175	20194.51
729.516	20149.54
729.858	20248.52
730.199	20199.26
730.541	20203.1
730.882	20100.05
731.224	20083.1
731.565	19965.59
731.906	19991.35
732.248	20022.76
732.589	19858.7
732.93	19825.71
733.271	19820.51
733.612	19979.83
733.953	19815.31
734.294	19777.35
734.635	19754.75
734.976	19776.44
735.317	19613.74
735.658	19711.13
735.999	19662.1
736.339	19670.68
736.68	19625.71
737.021	19650.8
737.361	19470.46
737.702	19550.69
738.042	19424.59
738.383	19419.62
738.723	19533.29
739.063	19369
739.404	19373.97
739.744	19257.81
740.084	19253.29
740.424	19252.39
740.764	19213.52
741.104	19393.63
741.444	19098.95
741.784	19095.11
742.124	19026.63
742.464	19149.12
742.804	19073.64
743.143	19075.22
743.483	18941.66
743.823	18886.98
744.162	18952.06
744.502	18953.41
744.841	18764.94
745.181	18910.03
745.52	18839.29
745.86	18880.42
746.199	18781.89
746.538	18828.22
746.877	18734.21
747.216	18720.88
747.556	18628.9
747.895	18572.86
748.234	18501
748.573	18560.43
748.911	18452.41
749.25	18410.15
749.589	18357.72
749.928	18389.36
750.267	18460.09
750.605	18352.53
750.944	18234.79
751.283	18200.89
751.621	18255.81
751.96	18115.02
752.298	18152.08
752.636	18063.04
752.975	17977.85
753.313	17962.93
753.651	17966.1
753.989	17809.72
754.327	17798.42
754.666	17738.98
755.004	17752.09
