Data from breadboard_black_back_FLMS001491_00049.txt Node
Date: Wed Feb 08 10:50:27 GMT 2017
User: dcchb
Spectrometer: FLMS00149
Trigger mode: 0
Integration Time (sec): 2.000000E-2
Scans to average: 10
Electric dark correction enabled: true
Nonlinearity correction enabled: false
Boxcar width: 0
XAxis mode: Wavelengths
Number of Pixels in Spectrum: 2048
>>>>>Begin Spectral Data<<<<<
341.393	-8.94
341.776	-8.94
342.16	-8.94
342.543	-79.67
342.927	-54.81
343.31	-68.15
343.693	-65.89
344.077	-83.74
344.46	-52.56
344.843	-54.36
345.226	-42.84
345.61	-27.25
345.993	-23.86
346.376	-2.61
346.759	1.91
347.142	36.71
347.525	57.27
347.908	55.46
348.291	71.74
348.674	90.49
349.057	107.67
349.44	136.37
349.823	137.5
350.206	163.48
350.588	201.9
350.971	226.99
351.354	246.65
351.737	222.47
352.119	261.33
352.502	286.87
352.884	268.11
353.267	300.2
353.65	310.6
354.032	318.06
354.414	304.27
354.797	308.11
355.179	317.38
355.562	332.07
355.944	330.49
356.326	326.87
356.709	338.62
357.091	330.49
357.473	343.14
357.855	320.77
358.238	355.12
358.62	352.63
359.002	355.57
359.384	370.94
359.766	361.45
360.148	342.24
360.53	359.19
360.912	336.59
361.294	328
361.676	343.37
362.057	356.25
362.439	337.27
362.821	337.49
363.203	319.64
363.584	343.14
363.966	358.51
364.348	357.6
364.729	334.33
365.111	328.23
365.493	329.36
365.874	341.11
366.256	354.44
366.637	364.38
367.019	326.64
367.4	351.5
367.781	351.5
368.163	334.1
368.544	342.69
368.925	346.98
369.306	342.01
369.688	334.55
370.069	357.38
370.45	322.35
370.831	344.95
371.212	333.42
371.593	340.2
371.974	338.4
372.355	325.51
372.736	346.98
373.117	342.24
373.498	339.3
373.879	352.18
374.26	342.01
374.641	330.26
375.021	353.54
375.402	375.46
375.783	368.9
376.163	380.2
376.544	382.46
376.925	374.33
377.305	376.81
377.686	377.94
378.066	365.96
378.447	382.69
378.827	395.12
379.208	375.46
379.588	382.24
379.968	391.95
380.349	387.89
380.729	416.36
381.109	395.79
381.489	427.66
381.87	407.77
382.25	410.94
382.63	399.18
383.01	391.73
383.39	420.65
383.77	412.97
384.15	423.14
384.53	419.75
384.91	421.33
385.29	431.5
385.67	430.37
386.049	443.25
386.429	435.79
386.809	431.95
387.189	448.22
387.568	434.66
387.948	436.47
388.328	444.15
388.707	449.8
389.087	453.87
389.466	438.96
389.846	450.48
390.225	464.95
390.605	481.89
390.984	473.08
391.363	483.7
391.743	463.82
392.122	486.41
392.501	499.52
392.881	503.36
393.26	484.15
393.639	498.16
394.018	506.75
394.397	501.78
394.776	487.32
395.155	514.89
395.534	522.35
395.913	511.72
396.292	497.49
396.671	530.03
397.05	528.9
397.429	539.29
397.808	534.77
398.186	542.91
398.565	547.43
398.944	548.11
399.323	539.97
399.701	568.67
400.08	568.45
400.458	576.81
400.837	567.54
401.215	576.35
401.594	569.8
401.972	591.95
402.351	584.04
402.729	586.07
403.107	593.76
403.486	603.25
403.864	628.78
404.242	610.03
404.62	629.23
404.999	616.81
405.377	638.95
405.755	662.23
406.133	659.06
406.511	662.91
406.889	663.81
407.267	668.1
407.645	673.08
408.023	690.02
408.401	686.86
408.779	680.76
409.156	689.35
409.534	699.29
409.912	711.94
410.29	726.63
410.667	750.14
411.045	737.48
411.422	760.98
411.8	737.25
412.178	773.41
412.555	761.43
412.933	801.89
413.31	816.35
413.687	802.56
414.065	815.22
414.442	798.72
414.819	833.3
415.197	842.56
415.574	847.31
415.951	860.19
416.328	851.83
416.705	854.77
417.082	879.85
417.46	877.82
417.837	890.92
418.214	903.8
418.591	912.62
418.967	923.46
419.344	931.15
419.721	965.27
420.098	948.32
420.475	906.29
420.852	941.32
421.228	963.46
421.605	963.92
421.982	998.26
422.358	971.37
422.735	1012.28
423.111	997.81
423.488	1008.89
423.864	1019.73
424.241	1008.89
424.617	1051.82
424.994	1032.84
425.37	1071.26
425.746	1063.12
426.123	1089.56
426.499	1074.19
426.875	1097.25
427.251	1117.58
427.627	1130.01
428.003	1150.35
428.379	1155.55
428.756	1162.33
429.132	1191.71
429.507	1193.74
429.883	1241.2
430.259	1229.67
430.635	1267.86
431.011	1283
431.387	1304.7
431.763	1306.96
432.138	1300.4
432.514	1323
432.89	1336.33
433.265	1348.09
433.641	1362.1
434.016	1385.15
434.392	1374.07
434.767	1446.39
435.143	1420.63
435.518	1443.45
435.894	1497.01
436.269	1479.83
436.644	1514.86
437.02	1512.38
437.395	1512.83
437.77	1536.78
438.145	1570.68
438.52	1565.93
438.895	1591.7
439.271	1599.15
439.646	1592.6
440.021	1644.8
440.395	1642.09
440.77	1605.93
441.145	1675.76
441.52	1697.23
441.895	1691.81
442.27	1705.14
442.645	1732.48
443.019	1743.78
443.394	1730.22
443.769	1753.27
444.143	1730.45
444.518	1757.57
444.892	1753.5
445.267	1809.99
445.641	1834.85
446.016	1829.2
446.39	1803.22
446.764	1833.27
447.139	1846.83
447.513	1866.49
447.887	1901.74
448.262	1900.16
448.636	1901.74
449.01	1925.47
449.384	1915.98
449.758	1944.68
450.132	1982.19
450.506	2029.2
450.88	1992.14
451.254	2007.05
451.628	2069.65
452.002	2088.41
452.376	2048.41
452.75	2107.61
453.123	2123.88
453.497	2160.72
453.871	2200.49
454.244	2199.82
454.618	2214.5
454.992	2253.15
455.365	2268.74
455.739	2293.6
456.112	2325.01
456.486	2345.57
456.859	2406.59
457.232	2412.69
457.606	2412.46
457.979	2473.93
458.352	2481.84
458.725	2545.57
459.099	2567.49
459.472	2613.14
459.845	2616.98
460.218	2623.08
460.591	2691.1
460.964	2685.45
461.337	2744.89
461.71	2797.77
462.083	2833.92
462.456	2821.49
462.829	2874.83
463.201	2898.1
463.574	2923.41
463.947	2992.34
464.32	3042.5
464.692	3034.37
465.065	3076.4
465.438	3115.72
465.81	3197.98
466.183	3189.85
466.555	3244.99
466.928	3272.33
467.3	3247.7
467.672	3329.28
468.045	3431.65
468.417	3424.87
468.789	3471.19
469.161	3505.09
469.534	3576.95
469.906	3641.81
470.278	3688.14
470.65	3711.64
471.022	3753.67
471.394	3852.43
471.766	3862.6
472.138	3917.51
472.51	4015.36
472.882	4056.49
473.253	4105.08
473.625	4163.38
473.997	4242.93
474.369	4242.93
474.74	4322.02
475.112	4456.03
475.484	4486.53
475.855	4562.69
476.227	4605.18
476.598	4747.77
476.97	4760.43
477.341	4851.5
477.713	4952.29
478.084	4952.74
478.455	5088.1
478.827	5153.18
479.198	5276.34
479.569	5278.15
479.94	5471.37
480.311	5525.38
480.682	5638.37
481.053	5816.67
481.424	5767.4
481.795	5869.32
482.166	6000.39
482.537	6056.21
482.908	6186.38
483.279	6220.05
483.65	6359.48
484.021	6520.15
484.391	6547.05
484.762	6616.65
485.133	6678.79
485.503	6840.82
485.874	6946.81
486.244	6966.24
486.615	7123.08
486.985	7170.08
487.356	7314.93
487.726	7364.43
488.097	7560.35
488.467	7634.93
488.837	7748.82
489.207	7856.84
489.578	7955.14
489.948	8035.37
490.318	8159.88
490.688	8222.93
491.058	8280.56
491.428	8409.14
491.798	8499.08
492.168	8677.84
492.538	8697.27
492.908	8815.46
493.278	8899.53
493.648	8933.88
494.017	9038.96
494.387	9143.59
494.757	9268.1
495.126	9344.71
495.496	9361.66
495.866	9474.43
496.235	9571.37
496.605	9675.1
496.974	9693.86
497.344	9769.56
497.713	9890.01
498.082	9939.05
498.452	10031.47
498.821	10103.34
499.19	10187.85
499.559	10345.14
499.928	10275.76
500.298	10381.07
500.667	10543.1
501.036	10488.64
501.405	10647.95
501.774	10662.87
502.143	10765.01
502.512	10844.33
502.88	10908.74
503.249	10918.23
503.618	11013.59
503.987	11054.27
504.356	11166.81
504.724	11222.4
505.093	11267.6
505.462	11411.78
505.83	11414.04
506.199	11594.37
506.567	11687.48
506.936	11634.37
507.304	11861.48
507.672	11823.29
508.041	11981.25
508.409	12105.54
508.777	12155.94
509.145	12252.21
509.514	12296.27
509.882	12387.8
510.25	12433.67
510.618	12578.75
510.986	12582.59
511.354	12707.79
511.722	12833.21
512.09	12924.28
512.458	13021
512.826	13091.51
513.193	13151.17
513.561	13335.12
513.929	13303.93
514.297	13445.85
514.664	13624.83
515.032	13682.45
515.4	13762.67
515.767	13841.09
516.135	13946.85
516.502	13958.38
516.869	14165.83
517.237	14222.1
517.604	14210.57
517.972	14342.55
518.339	14437.69
518.706	14546.84
519.073	14635.87
519.44	14746.38
519.808	14945.02
520.175	14837.45
520.542	15105.01
520.909	15262.97
521.276	15271.79
521.643	15370.77
522.009	15425.46
522.376	15636.98
522.743	15715.62
523.11	15846.01
523.477	16107.02
523.843	16107.25
524.21	16337.97
524.577	16459.1
524.943	16551.98
525.31	16694.12
525.676	16820.67
526.043	16914.23
526.409	17047.11
526.776	17245.07
527.142	17306.08
527.508	17346.31
527.874	17509.02
528.241	17660.88
528.607	17664.72
528.973	17888.89
529.339	17879.63
529.705	18058.61
530.071	18152.39
530.437	18298.6
530.803	18473.51
531.169	18552.38
531.535	18506.05
531.901	18612.94
532.267	18642.77
532.632	18831.47
532.998	18869.43
533.364	19085.92
533.73	19144.68
534.095	19330.21
534.461	19287.05
534.826	19400.94
535.192	19544.67
535.557	19605.69
535.923	19678.9
536.288	19791.89
536.653	19835.96
537.019	19868.95
537.384	19883.64
537.749	20090.42
538.114	20209.51
538.479	20177.42
538.845	20358.21
539.21	20303.97
539.575	20391.2
539.94	20515.72
540.305	20611.31
540.67	20516.85
541.034	20690.18
541.399	20854.24
541.764	20835.03
542.129	20913.45
542.494	20957.51
542.858	21058.3
543.223	21125.42
543.587	21227.34
543.952	21271.63
544.316	21435.24
544.681	21389.82
545.045	21436.37
545.41	21590.27
545.774	21703.71
546.138	21624.84
546.503	21739.41
546.867	21816.93
547.231	22073.42
547.595	21991.61
547.959	22141.44
548.324	22142.57
548.688	22263.69
549.052	22434.09
549.416	22423.92
549.779	22463.91
550.143	22520.86
550.507	22718.6
550.871	22726.96
551.235	22687.64
551.599	22969.66
551.962	22963.34
552.326	23089.66
552.689	23175.99
553.053	23127.63
553.417	23299.6
553.78	23571.46
554.143	23458.69
554.507	23591.57
554.87	23654.62
555.234	23848.96
555.597	23762.41
555.96	23918.79
556.323	24077.88
556.686	24011.9
557.05	24195.17
557.413	24305
557.776	24330.98
558.139	24487.82
558.502	24542.5
558.865	24793.8
559.228	24887.81
559.59	24917.86
559.953	25053.23
560.316	25236.5
560.679	25241.02
561.041	25378.41
561.404	25535.25
561.767	25698.63
562.129	25634.23
562.492	25834.67
562.854	25885.75
563.217	25938.4
563.579	26047.55
563.941	26251.16
564.304	26443.7
564.666	26506.75
565.028	26559.4
565.39	26671.04
565.753	26783.35
566.115	26915.55
566.477	27056.56
566.839	27272.83
567.201	27333.84
567.563	27326.39
567.925	27572.03
568.287	27494.97
568.648	27562.54
569.01	27804.57
569.372	27900.61
569.734	27945.58
570.095	28139.7
570.457	28233.93
570.819	28205.23
571.18	28271.22
571.542	28471.89
571.903	28384.44
572.265	28590.31
572.626	28749.85
572.987	28737.65
573.349	28748.04
573.71	28898.1
574.071	28927.47
574.432	29044.98
574.794	29303.51
575.155	29122.05
575.516	29177.86
575.877	29303.96
576.238	29340.34
576.599	29486.78
576.96	29446.56
577.32	29534.24
577.681	29693.33
578.042	29776.04
578.403	29717.28
578.763	29678.41
579.124	29666.44
579.485	29917.96
579.845	30028.24
580.206	29999.54
580.566	29896.94
580.927	30071.62
581.287	30135.58
581.648	30056.48
582.008	30156.37
582.368	30134.22
582.728	30196.14
583.089	30134.9
583.449	30217.38
583.809	30162.7
584.169	30252.18
584.529	30242.02
584.889	30382.12
585.249	30254.44
585.609	30154.56
585.969	30358.4
586.329	30197.95
586.688	30396.36
587.048	30358.62
587.408	30249.47
587.768	30286.08
588.127	30316.36
588.487	30236.59
588.846	30284.27
589.206	30291.05
589.565	30374.67
589.925	30601.33
590.284	30392.29
590.643	30447.89
591.003	30561.56
591.362	30550.48
591.721	30432.07
592.08	30553.87
592.44	30627.09
592.799	30620.76
593.158	30614.66
593.517	30562.46
593.876	30634.77
594.235	30518.39
594.593	30553.19
594.952	30678.61
595.311	30556.81
595.67	30720.87
596.029	30761.32
596.387	30834.54
596.746	30878.16
597.104	30781.44
597.463	30753.64
597.822	30945.73
598.18	30897.59
598.538	30857.82
598.897	30932.39
599.255	30738.95
599.613	31176
599.972	30941.88
600.33	31036.57
600.688	30901.89
601.046	30997.7
601.404	31190.47
601.762	31053.97
602.12	31171.03
602.478	31310.46
602.836	31239.73
603.194	31166.96
603.552	31186.4
603.91	31030.92
604.268	31216.45
604.625	31199.5
604.983	31216.91
605.341	31185.04
605.698	31386.84
606.056	31558.37
606.413	31504.81
606.771	31525.15
607.128	31578.25
607.485	31469.78
607.843	31474.3
608.2	31674.75
608.557	31851.01
608.914	31658.48
609.272	31692.37
609.629	31938.69
609.986	31997.9
610.343	31814.4
610.7	32109.31
611.057	31890.11
611.414	32020.5
611.771	31900.5
612.127	32166.48
612.484	32089.42
612.841	32297.55
613.198	32084.68
613.554	32086.03
613.911	32256.88
614.267	32184.11
614.624	32275.18
614.98	32236.77
615.337	32447.61
615.693	32384.33
616.05	32361.28
616.406	32575.51
616.762	32490.09
617.118	32477.21
617.475	32499.36
617.831	32527.38
618.187	32709.07
618.543	32655.96
618.899	32694.38
619.255	32738.9
619.611	32763.76
619.967	32784.77
620.323	32858.44
620.678	32688.96
621.034	32730.31
621.39	32715.17
621.746	32695.06
622.101	33108.15
622.457	32770.31
622.812	32832.23
623.168	32836.07
623.523	32899.57
623.879	32871.55
624.234	32694.15
624.589	32865
624.945	32923.98
625.3	32986.35
625.655	32923.98
626.01	32940.93
626.365	32923.53
626.72	32914.04
627.075	32816.19
627.43	32877.88
627.785	32701.84
628.14	32873.81
628.495	32802.4
628.85	32791.1
629.205	32799.46
629.559	32969.18
629.914	32714.49
630.269	32756.53
630.623	32792.91
630.978	32681.5
631.332	32708.62
631.687	32754.72
632.041	32677.88
632.396	32604.44
632.75	32539.58
633.104	32621.16
633.459	32363.99
633.813	32509.53
634.167	32423.43
634.521	32347.95
634.875	32298.23
635.229	32438.34
635.583	32263.21
635.937	32316.99
636.291	32324.45
636.645	32195.86
636.999	32129.88
637.352	32069.09
637.706	32082.87
638.06	32163.09
638.413	32084.9
638.767	32008.07
639.121	32000.39
639.474	31856.89
639.828	31799.26
640.181	31932.37
640.534	31775.76
640.888	31881.75
641.241	31634.3
641.594	31680.17
641.947	31753.84
642.301	31641.3
642.654	31773.73
643.007	31622.54
643.36	31682.43
643.713	31544.58
644.066	31670
644.419	31306.17
644.771	31273.63
645.124	31025.95
645.477	30936.01
645.83	30837.71
646.182	30677.48
646.535	30397.49
646.888	30484.04
647.24	30246.54
647.593	30422.58
647.945	30284.05
648.298	30184.62
648.65	30194.11
649.002	30039.99
649.355	30259.19
649.707	30245.86
650.059	30265.97
650.411	30727.2
650.763	30802
651.115	30998.83
651.467	30801.77
651.819	30816.69
652.171	30769.46
652.523	30800.64
652.875	30743.92
653.227	30592.06
653.578	30884.26
653.93	30727.65
654.282	30625.28
654.633	30500.54
654.985	30515.91
655.337	30640.65
655.688	30461.67
656.039	30632.29
656.391	30390.26
656.742	30342.13
657.094	30409.47
657.445	30534.89
657.796	30507.55
658.147	30402.46
658.498	30284.05
658.849	30477.94
659.2	30333.09
659.551	30230.72
659.902	30325.63
660.253	30293.54
660.604	30350.26
660.955	30258.29
661.306	30403.59
661.656	30192.53
662.007	30195.46
662.358	30203.82
662.708	30141.23
663.059	30151.4
663.409	29994.56
663.76	30213.09
664.11	30174.45
664.461	30134.9
664.811	30156.37
665.161	30101.68
665.511	30155.46
665.862	30079.76
666.212	30123.83
666.562	30105.97
666.912	30051.29
667.262	30012.64
667.612	29990.04
667.962	30041.34
668.312	29918.41
668.662	30089.03
669.011	29999.31
669.361	29970.16
669.711	29929.03
670.06	29811.07
670.41	29898.52
670.76	29774.23
671.109	29962.47
671.459	29836.38
671.808	29895.58
672.157	29893.55
672.507	29575.82
672.856	29625.76
673.205	29724.06
673.554	29729.94
673.904	29635.25
674.253	29881.8
674.602	29637.51
674.951	29323.85
675.3	29069.62
675.649	29529.94
675.998	29484.07
676.346	29528.14
676.695	29563.84
677.044	29449.27
677.393	29425.09
677.741	29464.18
678.09	29375.6
678.438	29366.56
678.787	29373.11
679.135	29370.17
679.484	29183.06
679.832	29238.65
680.181	29173.12
680.529	29237.52
680.877	29178.31
681.225	29111.88
681.573	29264.64
681.922	29054.02
682.27	28951.65
682.618	29016.06
682.966	28890.41
683.314	28929.28
683.661	28896.06
684.009	28746.46
684.357	28602.06
684.705	28649.97
685.053	28735.84
685.4	28594.6
685.748	28364.78
686.095	28390.31
686.443	28283.65
686.79	28209.3
687.138	28287.94
687.485	28362.29
687.832	28249.53
688.18	28088.85
688.527	27970.89
688.874	28008.85
689.221	27953.49
689.568	27929.08
689.915	27743.1
690.262	27903.32
690.609	27817.9
690.956	27609.77
691.303	27584.46
691.65	27500.39
691.997	27505.14
692.344	27234.64
692.69	27270.79
693.037	27343.56
693.383	27089.78
693.73	27269.89
694.077	27062.66
694.423	26968.66
694.769	26820.64
695.116	26922.55
695.462	26829
695.808	26659.28
696.155	26878.26
696.501	26580.64
696.847	26559.4
697.193	26413.42
697.539	26468.33
697.885	26289.8
698.231	26288.45
698.577	26135.23
698.923	26177.49
699.269	26065.4
699.614	25968.23
699.96	25895.24
700.306	25914.67
700.651	25778.86
700.997	25637.39
701.342	25620.89
701.688	25658.63
702.033	25508.81
702.379	25498.41
702.724	25430.62
703.069	25498.41
703.415	25188.36
703.76	25055.94
704.105	25157.4
704.45	25114.24
704.795	24977.97
705.14	24887.13
705.485	24814.81
705.83	24801.71
706.175	24769.84
706.52	24757.41
706.865	24625.89
707.209	24610.53
707.554	24469.96
707.899	24581.15
708.243	24387.93
708.588	24411.66
708.932	24241.04
709.277	24261.83
709.621	24205.11
709.966	24160.59
710.31	24062.29
710.654	23878.57
710.998	23924.67
711.342	23971.22
711.687	23875.18
712.031	23718.12
712.375	23543.89
712.719	23839.7
713.063	23607.16
713.407	23711.34
713.75	23636.09
714.094	23481.74
714.438	23441.97
714.782	23515.41
715.125	23359.71
715.469	23393.61
715.812	23192.26
716.156	23094.86
716.499	23175.08
716.843	23245.82
717.186	23044.24
717.53	23084.92
717.873	23147.51
718.216	22965.82
718.559	23007.18
718.902	22817.13
719.246	22916.11
719.589	22739.61
719.932	22696.45
720.275	22672.05
720.617	22730.8
720.96	22658.49
721.303	22667.07
721.646	22605.61
721.989	22492.84
722.331	22597.24
722.674	22517.7
723.016	22437.7
723.359	22350.92
723.701	22462.11
724.044	22256.24
724.386	22262.11
724.729	22259.63
725.071	22151.83
725.413	22196.58
725.755	22156.8
726.097	22087.88
726.439	22104.15
726.782	22051.27
727.124	22166.07
727.465	22028.22
727.807	21941.44
728.149	21848.11
728.491	21797.72
728.833	21855.57
729.175	21762.46
729.516	21731.05
729.858	21786.64
730.199	21628
730.541	21663.94
730.882	21593.88
731.224	21664.84
731.565	21457.16
731.906	21490.61
732.248	21547.33
732.589	21484.05
732.93	21301.46
733.271	21334.68
733.612	21383.04
733.953	21286.32
734.294	21225.76
734.635	21208.81
734.976	21233.21
735.317	21169.03
735.658	21135.81
735.999	21101.24
736.339	21088.58
736.68	21168.36
737.021	21026.44
737.361	20908.02
737.702	21027.79
738.042	20928.81
738.383	20903.96
738.723	20890.85
739.063	20750.29
739.404	20876.84
739.744	20771.76
740.084	20738.08
740.424	20694.24
740.764	20686.56
741.104	20758.88
741.444	20547.81
741.784	20451.76
742.124	20569.5
742.464	20490.41
742.804	20445.21
743.143	20508.49
743.483	20461.71
743.823	20320.69
744.162	20341.48
744.502	20353.91
744.841	20306.01
745.181	20343.29
745.52	20130.42
745.86	20237.98
746.199	20220.81
746.538	20265.55
746.877	20219.45
747.216	20173.13
747.556	20128.16
747.895	20087.48
748.234	19987.37
748.573	19990.31
748.911	19947.82
749.25	19957.09
749.589	19755.29
749.928	19758.9
750.267	19770.88
750.605	19713.25
750.944	19695.85
751.283	19685.46
751.621	19703.08
751.96	19524.56
752.298	19501.51
752.636	19456.99
752.975	19336.54
753.313	19209.54
753.651	19536.99
753.989	19321.4
754.327	19262.19
754.666	19149.88
