Data from breadboard_white_FLMS001491_00034.txt Node
Date: Wed Feb 08 10:47:38 GMT 2017
User: dcchb
Spectrometer: FLMS00149
Trigger mode: 0
Integration Time (sec): 2.000000E-2
Scans to average: 10
Electric dark correction enabled: true
Nonlinearity correction enabled: false
Boxcar width: 0
XAxis mode: Wavelengths
Number of Pixels in Spectrum: 2048
>>>>>Begin Spectral Data<<<<<
341.393	-10.01
341.776	-10.01
342.16	-10.01
342.543	-60.86
342.927	-66.51
343.31	-73.74
343.693	-61.09
344.077	-57.02
344.46	-54.31
344.843	-49.79
345.226	-42.56
345.61	-20.18
345.993	-26.51
346.376	8.29
346.759	14.17
347.142	22.75
347.525	50.32
347.908	55.97
348.291	42.19
348.674	86.03
349.057	105.46
349.44	128.51
349.823	131.9
350.206	170.09
350.588	210.32
350.971	224.1
351.354	225.23
351.737	251
352.119	248.51
352.502	266.36
352.884	266.36
353.267	302.97
353.65	284.44
354.032	298.23
354.414	322.18
354.797	319.02
355.179	334.16
355.562	319.69
355.944	324.67
356.326	352.91
356.709	340.03
357.091	337.77
357.473	335.74
357.855	331.9
358.238	358.79
358.62	340.03
359.002	344.1
359.384	330.99
359.766	332.35
360.148	316.98
360.53	356.76
360.912	345.91
361.294	337.77
361.676	342.97
362.057	350.43
362.439	344.33
362.821	320.82
363.203	323.08
363.584	335.74
363.966	342.07
364.348	336.19
364.729	333.03
365.111	343.65
365.493	327.38
365.874	320.15
366.256	339.13
366.637	315.85
367.019	319.92
367.4	320.15
367.781	328.06
368.163	313.82
368.544	316.53
368.925	323.76
369.306	308.4
369.688	328.28
370.069	326.7
370.45	321.5
370.831	319.02
371.212	326.93
371.593	351.11
371.974	341.39
372.355	315.18
372.736	345.01
373.117	348.62
373.498	328.06
373.879	329.86
374.26	330.32
374.641	326.93
375.021	341.16
375.402	356.98
375.783	322.41
376.163	340.94
376.544	358.34
376.925	345.46
377.305	334.38
377.686	343.65
378.066	361.28
378.447	348.39
378.827	365.34
379.208	353.82
379.588	356.08
379.968	354.72
380.349	372.8
380.729	366.25
381.109	351.56
381.489	393.82
381.87	357.43
382.25	383.65
382.63	365.57
383.01	379.58
383.39	389.75
383.77	367.15
384.15	388.39
384.53	394.04
384.91	384.33
385.29	393.82
385.67	387.72
386.049	404.89
386.429	397.89
386.809	403.31
387.189	371.22
387.568	412.57
387.948	404.21
388.328	421.16
388.707	420.48
389.087	416.64
389.466	429.97
389.846	434.27
390.225	426.58
390.605	431.33
390.984	436.08
391.363	429.52
391.743	442.86
392.122	444.21
392.501	469.52
392.881	475.4
393.26	460.71
393.639	466.13
394.018	473.36
394.397	497.54
394.776	504.1
395.155	497.54
395.534	508.84
395.913	520.14
396.292	499.13
396.671	524.66
397.05	514.27
397.429	509.75
397.808	522.85
398.186	510.65
398.565	540.25
398.944	536.19
399.323	561.5
399.701	558.56
400.08	583.42
400.458	556.07
400.837	591.55
401.215	591.78
401.594	596.52
401.972	606.02
402.351	633.59
402.729	618.22
403.107	659.57
403.486	650.31
403.864	660.48
404.242	672.91
404.62	681.49
404.999	690.31
405.377	687.14
405.755	709.97
406.133	730.98
406.511	730.98
406.889	727.14
407.267	753.81
407.645	768.27
408.023	777.76
408.401	786.8
408.779	809.63
409.156	827.7
409.534	825.67
409.912	840.59
410.29	861.15
410.667	890.75
411.045	876.97
411.422	925.55
411.8	949.28
412.178	972.56
412.555	960.36
412.933	989.96
413.31	1020.24
413.687	1044.87
414.065	1036.06
414.442	1039.68
414.819	1076.74
415.197	1061.37
415.574	1090.52
415.951	1100.92
416.328	1130.52
416.705	1161.71
417.082	1143.4
417.46	1180.92
417.837	1188.37
418.214	1244.64
418.591	1227.69
418.967	1238.54
419.344	1212.55
419.721	1265.88
420.098	1287.13
420.475	1316.5
420.852	1313.57
421.228	1350.18
421.605	1362.15
421.982	1366
422.358	1395.37
422.735	1372.32
423.111	1382.94
423.488	1432.43
423.864	1422.72
424.241	1469.27
424.617	1483.05
424.994	1500
425.37	1484.41
425.746	1486.9
426.123	1524.18
426.499	1545.43
426.875	1570.51
427.251	1588.81
427.627	1616.84
428.003	1650.06
428.379	1674.46
428.756	1670.62
429.132	1720.11
429.507	1736.83
429.883	1770.5
430.259	1755.59
430.635	1781.8
431.011	1828.58
431.387	1842.14
431.763	1891.63
432.138	1894.12
432.514	1907.9
432.89	1929.14
433.265	2010.05
433.641	2053.66
434.016	2041.01
434.392	2050.95
434.767	2082.81
435.143	2109.93
435.518	2110.83
435.894	2154.22
436.269	2170.04
436.644	2233.54
437.02	2209.36
437.395	2261.34
437.77	2292.98
438.145	2306.54
438.52	2345.18
438.895	2347.44
439.271	2374.56
439.646	2421.11
440.021	2453.42
440.395	2403.26
440.77	2457.72
441.145	2481.9
441.52	2502.01
441.895	2504.27
442.27	2558.51
442.645	2540.88
443.019	2615.45
443.394	2604.15
443.769	2626.3
444.143	2598.51
444.518	2650.03
444.892	2647.09
445.267	2708.78
445.641	2759.86
446.016	2727.99
446.39	2757.6
446.764	2804.38
447.139	2750.59
447.513	2817.03
447.887	2834.88
448.262	2840.08
448.636	2841.44
449.01	2885.5
449.384	2968.66
449.758	2918.72
450.132	2971.83
450.506	2973.41
450.88	3021.09
451.254	3049.11
451.628	3097.93
452.002	3119.62
452.376	3122.11
452.75	3163.69
453.123	3173.86
453.497	3263.35
453.871	3286.85
454.244	3320.75
454.618	3352.38
454.992	3402.78
455.365	3397.13
455.739	3499.5
456.112	3521.64
456.486	3555.32
456.859	3577.01
457.232	3675.09
457.606	3600.29
457.979	3695.88
458.352	3770.9
458.725	3811.81
459.099	3833.95
459.472	3911.46
459.845	3966.83
460.218	3995.08
460.591	4037.79
460.964	4114.17
461.337	4179.03
461.71	4225.81
462.083	4282.75
462.456	4237.33
462.829	4284.79
463.201	4383.99
463.574	4408.63
463.947	4462.64
464.32	4646.36
464.692	4610.2
465.065	4614.05
465.438	4718.45
465.81	4769.52
466.183	4819.92
466.555	4938.78
466.928	4929.29
467.3	4921.38
467.672	5016.52
468.045	5140.81
468.417	5168.61
468.789	5185.33
469.161	5308.04
469.534	5422.84
469.906	5531.31
470.278	5541.7
470.65	5583.74
471.022	5693.34
471.394	5830.51
471.766	5846.78
472.138	5936.04
472.51	6029.15
472.882	6172.65
473.253	6223.27
473.625	6276.83
473.997	6457.61
474.369	6533.54
474.74	6534.45
475.112	6651.51
475.484	6777.6
475.855	6924.27
476.227	6949.13
476.598	7144.37
476.97	7315.44
477.341	7430.92
477.713	7556.34
478.084	7538.26
478.455	7748.65
478.827	7829.1
479.198	8087.4
479.569	8083.11
479.94	8310.45
480.311	8355.64
480.682	8585.92
481.053	8695.97
481.424	8899.13
481.795	8994.27
482.166	9179.8
482.537	9209.18
482.908	9437.65
483.279	9523.52
483.65	9688.04
484.021	9877.18
484.391	10016.84
484.762	10100
485.133	10188.59
485.503	10382.71
485.874	10578.63
486.244	10630.84
486.615	10875.35
486.985	11020.66
487.356	11188.56
487.726	11294.77
488.097	11523.02
488.467	11545.39
488.837	11852.27
489.207	11938.37
489.578	12144.69
489.948	12265.37
490.318	12439.83
490.688	12510.56
491.058	12645.7
491.428	12866.03
491.798	13048.63
492.168	13181.5
492.538	13288.62
492.908	13543.08
493.278	13622.4
493.648	13560.25
494.017	13854.71
494.387	13913.69
494.757	14018.32
495.126	14248.37
495.496	14257.41
495.866	14341.93
496.235	14526.1
496.605	14664.4
496.974	14789.6
497.344	14931.29
497.713	14986.88
498.082	15150.94
498.452	15373.08
498.821	15392.52
499.19	15463.48
499.559	15609.69
499.928	15787.54
500.298	15844.03
500.667	15971.26
501.036	15910.25
501.405	16224.14
501.774	16156.57
502.143	16328.99
502.512	16406.28
502.88	16647.18
503.249	16615.31
503.618	16819.37
503.987	16834.06
504.356	16997.9
504.724	17100.04
505.093	17136.2
505.462	17227.5
505.83	17375.29
506.199	17579.13
506.567	17782.06
506.936	17726.47
507.304	18033.35
507.672	18107.02
508.041	18181.37
508.409	18253.69
508.777	18487.35
509.145	18582.04
509.514	18599.89
509.882	18774.8
510.25	18830.17
510.618	19044.17
510.986	19090.95
511.354	19280.78
511.722	19489.36
512.09	19588.11
512.458	19595.8
512.826	19774.1
513.193	20062.23
513.561	19997.37
513.929	20255.89
514.297	20392.39
514.664	20573.17
515.032	20569.11
515.4	20810
515.767	20925.71
516.135	20995.08
516.502	20907.85
516.869	21438.01
517.237	21482.3
517.604	21374.51
517.972	21746.93
518.339	21812.46
518.706	22000.03
519.073	21994.83
519.44	22256.29
519.808	22517.53
520.175	22447.93
520.542	22864.19
520.909	22905.77
521.276	23143.05
521.643	23181.24
522.009	23416.04
522.376	23642.7
522.743	23729.7
523.11	24065.06
523.477	24149.58
523.843	24305.5
524.21	24582.33
524.577	24822.33
524.943	24954.75
525.31	25041.3
525.676	25221.41
526.043	25431.13
526.409	25602.42
526.776	25910.89
527.142	25870.89
527.508	26076.76
527.874	26138.23
528.241	26398.33
528.607	26603.75
528.973	26863.63
529.339	26774.14
529.705	27062.72
530.071	27193.11
530.437	27432.88
530.803	27574.35
531.169	27837.62
531.535	27681.46
531.901	27924.39
532.267	27983.83
532.632	28239.19
532.998	28338.62
533.364	28434.44
533.73	28521.44
534.095	28716.24
534.461	28846.63
534.826	29076.68
535.192	29160.52
535.557	29412.94
535.923	29435.31
536.288	29419.95
536.653	29659.94
537.019	29589.89
537.384	29817.9
537.749	29967.05
538.114	30035.52
538.479	30103.54
538.845	30271
539.21	30186.03
539.575	30469.41
539.94	30514.38
540.305	30687.48
540.67	30658.33
541.034	30787.37
541.399	30960.7
541.764	30987.14
542.129	31292.67
542.494	31135.16
542.858	31322.95
543.223	31456.05
543.587	31709.15
543.952	31582.38
544.316	31793.22
544.681	31826.89
545.045	31833.89
545.41	32128.35
545.774	32150.04
546.138	32307.55
546.503	32228.91
546.867	32291.51
547.231	32629.81
547.595	32653.99
547.959	32876.81
548.324	32854.66
548.688	32941.21
549.052	32953.41
549.416	33170.58
549.779	33278.15
550.143	33316.34
550.507	33654.41
550.871	33588.88
551.235	33740.51
551.599	33879.49
551.962	34008.3
552.326	34058.92
552.689	34262.98
553.053	34112.48
553.417	34390.89
553.78	34773.03
554.143	34619.81
554.507	34793.59
554.87	34976.86
555.234	35196.97
555.597	35089.18
555.96	35196.97
556.323	35391.99
556.686	35369.85
557.05	35810.06
557.413	35822.49
557.776	35968.7
558.139	36211.18
558.502	36196.04
558.865	36438.75
559.228	36744.73
559.59	36880.54
559.953	36826.31
560.316	37134.77
560.679	37255.45
561.041	37303.36
561.404	37522.56
561.767	37795.09
562.129	37622.44
562.492	38127.97
562.854	38095.42
563.217	38181.75
563.579	38299.26
563.941	38563.21
564.304	38642.53
564.666	38976.31
565.028	39048.85
565.39	39182.63
565.753	39333.36
566.115	39413.13
566.477	39745.33
566.839	39630.3
567.201	40035.49
567.563	40027.8
567.925	40344.18
568.287	40362.48
568.648	40374.91
569.01	40577.85
569.372	40864.17
569.734	40778.29
570.095	41102.8
570.457	41135.57
570.819	41260.31
571.18	41073.65
571.542	41441.33
571.903	41614.88
572.265	41726.29
572.626	41899.17
572.987	41917.47
573.349	41978.26
573.71	42194.75
574.071	42174.41
574.432	42500.73
574.794	42433.84
575.155	42594.74
575.516	42480.85
575.877	42687.17
576.238	42773.49
576.599	42969.42
576.96	42947.73
577.32	43032.24
577.681	43115.18
578.042	43281.96
578.403	43134.61
578.763	43152.24
579.124	43320.82
579.485	43453.25
579.845	43549.52
580.206	43401.95
580.566	43448.5
580.927	43521.04
581.287	43711.32
581.648	43572.79
582.008	43735.73
582.368	43693.47
582.728	43815.5
583.089	43672.23
583.449	43779.34
583.809	43754.26
584.169	43812.11
584.529	43718.33
584.889	44075.61
585.249	43790.42
585.609	43665.22
585.969	43973.46
586.329	43808.95
586.688	44010.3
587.048	43807.37
587.408	43814.14
587.768	43926.23
588.127	43823.41
588.487	43727.59
588.846	44141.37
589.206	43806.69
589.565	43775.28
589.925	44022.95
590.284	43907.48
590.643	44007.59
591.003	44082.84
591.362	44191.08
591.721	44009.17
592.08	44031.31
592.44	44213.68
592.799	44099.33
593.158	44102.5
593.517	44072.44
593.876	44129.62
594.235	44124.19
594.593	44191.76
594.952	44191.31
595.311	44099.56
595.67	44211.42
596.029	44257.3
596.387	44467.46
596.746	44355.6
597.104	44179.78
597.463	44268.14
597.822	44203.29
598.18	44231.76
598.538	44266.56
598.897	44533.45
599.255	44134.36
599.613	44608.93
599.972	44418.87
600.33	44617.74
600.688	44486.9
601.046	44543.84
601.404	44761.24
601.762	44492.09
602.12	44790.39
602.478	44794.91
602.836	44782.48
603.194	44592.2
603.552	44798.75
603.91	44533.22
604.268	44695.48
604.625	44672.43
604.983	44772.99
605.341	44747.45
605.698	44816.6
606.056	45013.21
606.413	44918.07
606.771	45076.71
607.128	45190.61
607.485	44900.9
607.843	45087.11
608.2	45236.25
608.557	45316.93
608.914	45096.14
609.272	45397.15
609.629	45463.59
609.986	45579.75
610.343	45414.78
610.7	45569.35
611.057	45562.57
611.414	45545.85
611.771	45638.5
612.127	45572.97
612.484	45618.16
612.841	45741.55
613.198	45660.42
613.554	45741.33
613.911	45923.24
614.267	45881.21
614.624	45766.41
614.98	45833.75
615.337	46161.2
615.693	45979.06
616.05	46039.17
616.406	46239.62
616.762	46113.75
617.118	46153.07
617.475	46121.2
617.831	46257.02
618.187	46355.09
618.543	46186.51
618.899	46462.21
619.255	46375.89
619.611	46473.51
619.967	46414.3
620.323	46506.5
620.678	46407.52
621.034	46346.28
621.39	46279.84
621.746	46265.61
622.101	46777.91
622.457	46431.25
622.812	46525.03
623.168	46470.12
623.523	46548.31
623.879	46641.87
624.234	46284.81
624.589	46541.3
624.945	46618.59
625.3	46592.38
625.655	46560.74
626.01	46499.72
626.365	46643.67
626.72	46390.8
627.075	46521.42
627.43	46415.66
627.785	46260.63
628.14	46513.73
628.495	46442.32
628.85	46362.55
629.205	46228.77
629.559	46454.98
629.914	46244.82
630.269	46322.55
630.623	46226.74
630.978	46064.03
631.332	46284.14
631.687	46203.46
632.041	46101.09
632.396	46175.89
632.75	45940.42
633.104	45988.32
633.459	45921.21
633.813	45935.22
634.167	45850.02
634.521	45755.34
634.875	45859.74
635.229	45688.22
635.583	45593.08
635.937	45509.47
636.291	45554.21
636.645	45520.99
636.999	45481.67
637.352	45605.28
637.706	45230.83
638.06	45345.63
638.413	45315.57
638.767	45358.96
639.121	45238.74
639.474	44953.78
639.828	44996.49
640.181	45096.14
640.534	45142.92
640.888	44896.38
641.241	44808.24
641.594	44761.69
641.947	44875.81
642.301	44747.45
642.654	44695.48
643.007	44667
643.36	44697.74
643.713	44521.02
644.066	44731.86
644.419	44445.77
644.771	44258.65
645.124	43905.44
645.477	43743.64
645.83	43545.68
646.182	43283.09
646.535	43172.58
646.888	43262.07
647.24	42972.81
647.593	43204.44
647.945	43160.83
648.298	42888.75
648.65	42728.3
649.002	42715.42
649.355	42922.19
649.707	42818.24
650.059	42920.83
650.411	43343.87
650.763	43424.55
651.115	43828.16
651.467	43599.91
651.819	43608.73
652.171	43508.39
652.523	43349.75
652.875	43372.35
653.227	43240.37
653.578	43548.61
653.93	43279.47
654.282	43190.66
654.633	43136.87
654.985	43103.43
655.337	43292.35
655.688	43136.65
656.039	43243.76
656.391	42993.6
656.742	43095.29
657.094	43060.72
657.445	43108.17
657.796	42947.95
658.147	42998.35
658.498	42853.94
658.849	42934.39
659.2	42876.09
659.551	42808.3
659.902	43000.38
660.253	42749.54
660.604	42898.01
660.955	42615.53
661.306	42821.18
661.656	42721.52
662.007	42611.01
662.358	42740.73
662.708	42707.51
663.059	42696.43
663.409	42371.24
663.76	42604.91
664.11	42611.01
664.461	42742.76
664.811	42626.83
665.161	42503.22
665.511	42420.73
665.862	42385.48
666.212	42472.94
666.562	42580.28
666.912	42509.55
667.262	42399.94
667.612	42404.92
667.962	42266.16
668.312	42259.61
668.662	42474.29
669.011	42363.11
669.361	42217.58
669.711	42333.51
670.06	42286.5
670.41	42192.94
670.76	42165.37
671.109	42294.41
671.459	42053.29
671.808	42074.08
672.157	42153.62
672.507	41872.27
672.856	41832.05
673.205	41825.72
673.554	41886.06
673.904	41799.73
674.253	41983.23
674.602	41841.54
674.951	41252.18
675.3	41128.57
675.649	41656.69
675.998	41510.25
676.346	41736.23
676.695	41757.02
677.044	41444.49
677.393	41628.21
677.741	41608.33
678.09	41482.23
678.438	41366.3
678.787	41533.75
679.135	41413.76
679.484	41139.41
679.832	41198.39
680.181	41061
680.529	41128.34
680.877	41055.12
681.225	41129.7
681.573	41259.41
681.922	40946.2
682.27	40788.01
682.618	40716.6
682.966	40695.13
683.314	40724.51
683.661	40569.94
684.009	40482.93
684.357	40304.63
684.705	40292.66
685.053	40329.49
685.4	40154.58
685.748	40114.13
686.095	40021.48
686.443	40032.55
686.79	39885.89
687.138	39930.4
687.485	39929.05
687.832	39835.72
688.18	39775.61
688.527	39611.32
688.874	39579.23
689.221	39519.12
689.568	39330.19
689.915	39315.28
690.262	39314.83
690.609	39183.53
690.956	39033.48
691.303	38882.52
691.65	38906.93
691.997	38731.34
692.344	38492.02
692.69	38517.79
693.037	38524.34
693.383	38237.34
693.73	38335.64
694.077	38090
694.423	38157.34
694.769	37955.09
695.116	37888.42
695.462	37648.43
695.808	37782.89
696.155	37774.98
696.501	37569.56
696.847	37401.88
697.193	37172.51
697.539	37390.36
697.885	36992.18
698.231	36912.86
698.577	36966.19
698.923	36911.5
699.269	36766.65
699.614	36507.9
699.96	36425.86
700.306	36446.2
700.651	36181.8
700.997	36225.42
701.342	36144.74
701.688	36017.74
702.033	35887.57
702.379	35918.76
702.724	35728.03
703.069	35939.1
703.415	35442.39
703.76	35494.36
704.105	35373.91
704.45	35389.96
704.795	35104.32
705.14	35022.74
705.485	34957.65
705.83	34830.2
706.175	34813.48
706.52	34807.15
706.865	34626.82
707.209	34668.17
707.554	34550.43
707.899	34618.45
708.243	34429.76
708.588	34341.63
708.932	34109.09
709.277	34143.89
709.621	33996.32
709.966	33934.18
710.31	33844.69
710.654	33591.14
710.998	33727.63
711.342	33639.95
711.687	33472.04
712.031	33496.68
712.375	33349.79
712.719	33304.59
713.063	33213.52
713.407	33378.49
713.75	33140.98
714.094	33111.15
714.438	32899.18
714.782	33006.07
715.125	32845.85
715.469	32811.72
715.812	32720.88
716.156	32445.86
716.499	32552.07
716.843	32569.47
717.186	32328.8
717.53	32620.31
717.873	32491.96
718.216	32332.19
718.559	32198.18
718.902	31994.34
719.246	32187.56
719.589	31904.4
719.932	31876.38
720.275	31840.9
720.617	31819.21
720.96	31757.29
721.303	31744.41
721.646	31743.28
721.989	31483.85
722.331	31628.48
722.674	31461.93
723.016	31627.57
723.359	31488.59
723.701	31342.61
724.044	31152.56
724.386	31046.57
724.729	31207.92
725.071	31121.6
725.413	31036.85
725.755	30956.4
726.097	30835.95
726.439	30687.71
726.782	30732.91
727.124	30855.39
727.465	30768.61
727.807	30562.97
728.149	30587.6
728.491	30489.52
728.833	30501.73
729.175	30249.3
729.516	30273.71
729.858	30372.46
730.199	30299.25
730.541	30159.36
730.882	30151.9
731.224	30238.91
731.565	29936.54
731.906	30021.96
732.248	29920.27
732.589	29859.03
732.93	29848.64
733.271	29828.75
733.612	29808.64
733.953	29830.56
734.294	29645.7
734.635	29486.39
734.976	29724.12
735.317	29377.01
735.658	29343.79
735.999	29501.98
736.339	29351.47
736.68	29418.36
737.021	29280.06
737.361	29108.09
737.702	29318.93
738.042	29152.84
738.383	28992.39
738.723	29097.47
739.063	28989.22
739.404	29010.69
739.744	28875.33
740.084	28907.19
740.424	28875.1
740.764	28732.28
741.104	28865.61
741.444	28640.31
741.784	28503.81
742.124	28657.93
742.464	28404.15
742.804	28546.98
743.143	28336.36
743.483	28382.46
743.823	28184.5
744.162	28105.63
744.502	28323.93
744.841	28113.09
745.181	28301.33
745.52	27989.25
745.86	28015.24
746.199	27922.13
746.538	27983.15
746.877	28039.42
747.216	27994.67
747.556	27834.23
747.895	27829.03
748.234	27695.47
748.573	27565.53
748.911	27530.96
749.25	27629.03
749.589	27408.47
749.928	27423.39
750.267	27418.87
750.605	27341.58
750.944	27234.24
751.283	27191.3
751.621	27224.07
751.96	27106.11
752.298	26997.86
752.636	26918.32
752.975	26933.46
