Data from breadboard_black_back_FLMS001491_00076.txt Node
Date: Wed Feb 08 10:50:53 GMT 2017
User: dcchb
Spectrometer: FLMS00149
Trigger mode: 0
Integration Time (sec): 2.000000E-2
Scans to average: 10
Electric dark correction enabled: true
Nonlinearity correction enabled: false
Boxcar width: 0
XAxis mode: Wavelengths
Number of Pixels in Spectrum: 2048
>>>>>Begin Spectral Data<<<<<
341.393	-9.79
341.776	-9.79
342.16	-9.79
342.543	-65.38
342.927	-64.93
343.31	-68.54
343.693	-82.33
344.077	-70.13
344.46	-65.38
344.843	-50.46
345.226	-33.29
345.61	-42.33
345.993	-12.73
346.376	3.32
346.759	14.17
347.142	33.15
347.525	36.31
347.908	66.82
348.291	84.67
348.674	75.18
349.057	111.56
349.44	158.12
349.823	138.23
350.206	175.97
350.588	209.87
350.971	215.29
351.354	220.26
351.737	220.49
352.119	239.02
352.502	281.96
352.884	288.51
353.267	278.34
353.65	280.6
354.032	311.11
354.414	319.02
354.797	315.63
355.179	317.44
355.562	327.15
355.944	332.8
356.326	342.97
356.709	324.21
357.091	347.26
357.473	344.55
357.855	359.24
358.238	361.5
358.62	355.17
359.002	337.1
359.384	349.75
359.766	332.35
360.148	338.9
360.53	347.49
360.912	356.53
361.294	344.33
361.676	349.52
362.057	350.88
362.439	342.29
362.821	346.81
363.203	342.52
363.584	355.4
363.966	343.2
364.348	328.73
364.729	333.48
365.111	328.51
365.493	336.87
365.874	362.41
366.256	337.55
366.637	334.84
367.019	333.93
367.4	343.2
367.781	339.13
368.163	324.89
368.544	354.5
368.925	335.51
369.306	333.03
369.688	339.58
370.069	349.75
370.45	342.97
370.831	340.71
371.212	340.94
371.593	342.07
371.974	348.17
372.355	338.68
372.736	365.57
373.117	351.56
373.498	361.05
373.879	351.33
374.26	342.29
374.641	361.73
375.021	346.59
375.402	367.6
375.783	361.5
376.163	375.96
376.544	354.5
376.925	376.19
377.305	373.93
377.686	358.11
378.066	373.03
378.447	376.42
378.827	379.81
379.208	392.69
379.588	370.54
379.968	384.33
380.349	385
380.729	393.37
381.109	398.79
381.489	367.38
381.87	401.27
382.25	400.82
382.63	414.38
383.01	394.95
383.39	427.04
383.77	424.1
384.15	413.48
384.53	404.66
384.91	409.64
385.29	436.53
385.67	429.75
386.049	421.39
386.429	423.65
386.809	425.68
387.189	445.79
387.568	437.88
387.948	426.81
388.328	444.89
388.707	436.3
389.087	447.83
389.466	449.41
389.846	474.27
390.225	466.81
390.605	470.88
390.984	467.04
391.363	486.47
391.743	473.82
392.122	485.34
392.501	476.08
392.881	478.56
393.26	489.63
393.639	512.23
394.018	498.9
394.397	489.18
394.776	497.54
395.155	509.97
395.534	516.3
395.913	516.07
396.292	532.34
396.671	529.86
397.05	531.89
397.429	557.2
397.808	554.27
398.186	535.73
398.565	541.61
398.944	570.31
399.323	561.95
399.701	572.12
400.08	579.8
400.458	575.73
400.837	557.43
401.215	577.54
401.594	560.37
401.972	572.8
402.351	596.3
402.729	569.18
403.107	608.27
403.486	608.73
403.864	602.63
404.242	600.82
404.62	642.17
404.999	603.98
405.377	620.7
405.755	616.64
406.133	644.66
406.511	646.69
406.889	658.9
407.267	658.44
407.645	680.82
408.023	698.22
408.401	709.29
408.779	686.01
409.156	690.98
409.534	709.29
409.912	710.65
410.29	725.11
410.667	755.16
411.045	732.11
411.422	775.5
411.8	760.59
412.178	767.14
412.555	775.95
412.933	765.78
413.31	816.41
413.687	799.23
414.065	796.74
414.442	816.86
414.819	822.05
415.197	843.75
415.574	835.16
415.951	832
416.328	855.73
416.705	863.64
417.082	882.62
417.46	874.26
417.837	882.84
418.214	886.69
418.591	924.65
418.967	907.93
419.344	921.94
419.721	960.81
420.098	926.68
420.475	936.85
420.852	943.41
421.228	959.45
421.605	987.7
421.982	969.4
422.358	994.25
422.735	993.58
423.111	997.87
423.488	1020.69
423.864	1018.66
424.241	1037.87
424.617	1038.55
424.994	1042.39
425.37	1058.21
425.746	1078.09
426.123	1092.33
426.499	1088.49
426.875	1113.57
427.251	1137.98
427.627	1146.79
428.003	1159.9
428.379	1168.26
428.756	1179.79
429.132	1205.32
429.507	1208.94
429.883	1206.68
430.259	1189.05
430.635	1267.01
431.011	1286
431.387	1269.73
431.763	1311.08
432.138	1328.71
432.514	1334.58
432.89	1343.62
433.265	1356.73
433.641	1372.32
434.016	1382.04
434.392	1416.39
434.767	1448.7
435.143	1438.08
435.518	1445.09
435.894	1479.89
436.269	1485.09
436.644	1503.84
437.02	1516.95
437.395	1534.35
437.77	1543.62
438.145	1547.91
438.52	1589.72
438.895	1581.81
439.271	1594.92
439.646	1634.24
440.021	1653.22
440.395	1654.58
440.77	1662.71
441.145	1663.84
441.52	1701.35
441.895	1688.02
442.27	1714.46
442.645	1684.63
443.019	1737.96
443.394	1750.62
443.769	1769.37
444.143	1755.14
444.518	1787.68
444.892	1766.44
445.267	1793.55
445.641	1849.15
446.016	1846.89
446.39	1842.59
446.764	1866.55
447.139	1852.54
447.513	1864.06
447.887	1858.41
448.262	1898.41
448.636	1884.85
449.01	1949.03
449.384	1974.11
449.758	1980.89
450.132	2024.06
450.506	1992.87
450.88	2028.12
451.254	2045.07
451.628	2054.79
452.002	2064.96
452.376	2087.33
452.75	2085.52
453.123	2112.87
453.497	2148.8
453.871	2203.49
454.244	2231.51
454.618	2233.09
454.992	2257.5
455.365	2268.34
455.739	2332.52
456.112	2363.48
456.486	2387.66
456.859	2396.02
457.232	2434.67
457.606	2431.05
457.979	2473.54
458.352	2508.56
458.725	2544.04
459.099	2576.13
459.472	2629.46
459.845	2646.41
460.218	2670.59
460.591	2689.12
460.964	2717.82
461.337	2795.56
461.71	2798.73
462.083	2843.02
462.456	2862.23
462.829	2897.48
463.201	2904.71
463.574	2949.91
463.947	2998.49
464.32	3099.06
464.692	3086.63
465.065	3103.12
465.438	3175.44
465.81	3184.25
466.183	3206.62
466.555	3327.75
466.928	3298.6
467.3	3289.56
467.672	3354.87
468.045	3432.16
468.417	3476.22
468.789	3449.56
469.161	3534.07
469.534	3600.29
469.906	3665.37
470.278	3716.67
470.65	3726.84
471.022	3842.09
471.394	3887.74
471.766	3918.7
472.138	3929.77
472.51	4083.66
472.882	4106.04
473.253	4171.12
473.625	4241.85
473.997	4281.17
474.369	4325.47
474.74	4328.18
475.112	4435.29
475.484	4517.32
475.855	4593.93
476.227	4625.8
476.598	4762.52
476.97	4783.53
477.341	4896.07
477.713	4990.53
478.084	4967.48
478.455	5155.27
478.827	5182.84
479.198	5339.22
479.569	5345.33
479.94	5461.93
480.311	5591.42
480.682	5656.28
481.053	5769.27
481.424	5902.83
481.795	5999.09
482.166	6041.35
482.537	6138.53
482.908	6158.64
483.279	6322.7
483.65	6458.97
484.021	6556.37
484.391	6628.46
484.762	6641.11
485.133	6772.18
485.503	6786.87
485.874	6984.6
486.244	7076.13
486.615	7234.99
486.985	7244.48
487.356	7423.46
487.726	7457.81
488.097	7671.59
488.467	7695.32
488.837	7839.95
489.207	7944.35
489.578	8016.22
489.948	8067.97
490.318	8229.54
490.688	8273.61
491.058	8404.45
491.428	8504.56
491.798	8582.53
492.168	8764.67
492.538	8855.29
492.908	8905.68
493.278	9050.54
493.648	9012.57
494.017	9100.93
494.387	9236.3
494.757	9284.21
495.126	9452.11
495.496	9438.33
495.866	9555.61
496.235	9616.63
496.605	9711.31
496.974	9841.93
497.344	9907.01
497.713	9897.75
498.082	10062.04
498.452	10065.43
498.821	10249.15
499.19	10245.08
499.559	10424.97
499.928	10421.35
500.298	10450.95
500.667	10647.11
501.036	10560.33
501.405	10698.41
501.774	10743.83
502.143	10901.11
502.512	10919.64
502.88	11014.1
503.249	10968.45
503.618	11077.38
503.987	11226.3
504.356	11301.55
504.724	11273.98
505.093	11374.55
505.462	11452.74
505.83	11537.71
506.199	11647.31
506.567	11812.5
506.936	11834.19
507.304	11924.36
507.672	11951.71
508.041	12044.58
508.409	12151.02
508.777	12289.78
509.145	12385.59
509.514	12330
509.882	12512.37
510.25	12521.86
510.618	12622.87
510.986	12711.69
511.354	12944.9
511.722	12959.81
512.09	13041.39
512.458	13120.26
512.826	13192.12
513.193	13270.31
513.561	13302.63
513.929	13454.04
514.297	13520.03
514.664	13655.39
515.032	13734.03
515.4	13857.42
515.767	13985.32
516.135	14059.22
516.502	13900.13
516.869	14214.92
517.237	14309.61
517.604	14295.82
517.972	14529.72
518.339	14577.63
518.706	14591.41
519.073	14764.51
519.44	14887.45
519.808	15039.53
520.175	15065.3
520.542	15227.78
520.909	15296.02
521.276	15296.7
521.643	15585.06
522.009	15656.92
522.376	15776.24
522.743	15830.93
523.11	16051.03
523.477	16111.14
523.843	16300.29
524.21	16584.8
524.577	16668.87
524.943	16717.46
525.31	16776.21
525.676	16866.83
526.043	17062.08
526.409	17182.98
526.776	17284.22
527.142	17393.82
527.508	17453.48
527.874	17693.48
528.241	17720.14
528.607	17830.65
528.973	17992.22
529.339	17986.58
529.705	18245.78
530.071	18384.98
530.437	18422.27
530.803	18516.28
531.169	18674.47
531.535	18645.54
531.901	18742.94
532.267	18930.73
532.632	19011.63
532.998	19002.59
533.364	19186.77
533.73	19259.76
534.095	19366.65
534.461	19501.11
534.826	19485.52
535.192	19638.96
535.557	19791.05
535.923	19846.19
536.288	19895.68
536.653	20047.31
537.019	20021.32
537.384	20092.06
537.749	20253.41
538.114	20368.89
538.479	20292.5
538.845	20384.93
539.21	20497.47
539.575	20567.3
539.94	20577.02
540.305	20768.87
540.67	20749.89
541.034	20839.16
541.399	21047.51
541.764	20942.43
542.129	21083.67
542.494	21129.32
542.858	21278.47
543.223	21315.08
543.587	21385.13
543.952	21460.83
544.316	21547.16
544.681	21562.98
545.045	21640.49
545.41	21663.99
545.774	21829.64
546.138	21821.5
546.503	21964.55
546.867	21904.66
547.231	22237.08
547.595	22194.37
547.959	22249.97
548.324	22209.51
548.688	22346.69
549.052	22581.26
549.416	22554.36
549.779	22563.18
550.143	22654.47
550.507	22703.29
550.871	22815.15
551.235	22757.52
551.599	23115.03
551.962	23088.14
552.326	23154.57
552.689	23343.95
553.053	23217.85
553.417	23439.31
553.78	23661
554.143	23564.06
554.507	23671.85
554.87	23766.31
555.234	23957.72
555.597	23916.14
555.96	24065.51
556.323	24119.3
556.686	24142.8
557.05	24316.35
557.413	24498.95
557.776	24447.87
558.139	24668.43
558.502	24674.99
558.865	24754.08
559.228	24954.53
559.59	25047.18
559.953	25146.61
560.316	25493.5
560.679	25366.95
561.041	25677.67
561.404	25644.68
561.767	25815.3
562.129	25762.19
562.492	25990.21
562.854	26006.25
563.217	26020.71
563.579	26214.83
563.941	26446.92
564.304	26473.36
564.666	26556.97
565.028	26667.02
565.39	26790.41
565.753	26858.21
566.115	26982.5
566.477	27151.76
566.839	27213.23
567.201	27382.03
567.563	27441.92
567.925	27597.4
568.287	27639.88
568.648	27695.92
569.01	27896.82
569.372	27996.03
569.734	28082.58
570.095	28101.11
570.457	28237.83
570.819	28312.86
571.18	28311.28
571.542	28556.24
571.903	28442.8
572.265	28719.17
572.626	28733.41
572.987	28898.38
573.349	28921.65
573.71	28954.2
574.071	28987.42
574.432	29141.76
574.794	29331.59
575.155	29328.65
575.516	29309.22
575.877	29440.74
576.238	29556.67
576.599	29593.05
576.96	29631.24
577.32	29609.32
577.681	29775.42
578.042	29841.18
578.403	29831.24
578.763	29760.05
579.124	29884.57
579.485	30022.64
579.845	30024
580.206	30038.01
580.566	30120.49
580.927	30218.12
581.287	30228.97
581.648	30127.05
582.008	30247.95
582.368	30228.97
582.728	30372.24
583.089	30207.72
583.449	30304.22
583.809	30383.76
584.169	30279.36
584.529	30429.19
584.889	30512.57
585.249	30355.74
585.609	30386.02
585.969	30463.31
586.329	30284.1
586.688	30524.1
587.048	30451.33
587.408	30370.2
587.768	30468.05
588.127	30444.78
588.487	30372.46
588.846	30622.4
589.206	30379.24
589.565	30421.28
589.925	30585.57
590.284	30403.42
590.643	30544.21
591.003	30594.61
591.362	30692.91
591.721	30601.16
592.08	30616.53
592.44	30797.31
592.799	30710.76
593.158	30569.3
593.517	30658.11
593.876	30633.93
594.235	30562.29
594.593	30701.95
594.952	30776.07
595.311	30712.79
595.67	30699.91
596.029	30895.39
596.387	31072.78
596.746	31093.35
597.104	30815.62
597.463	30832.34
597.822	31006.12
598.18	30854.26
598.538	30975.61
598.897	31038.89
599.255	30848.84
599.613	31241.37
599.972	31016.51
600.33	31179.9
600.688	30969.06
601.046	31172.9
601.404	31223.74
601.762	31065.1
602.12	31397.07
602.478	31321.37
602.836	31350.97
603.194	31179.45
603.552	31254.25
603.91	31181.71
604.268	31408.82
604.625	31294.93
604.983	31551.19
605.341	31259.9
605.698	31587.57
606.056	31587.8
606.413	31452.89
606.771	31630.28
607.128	31617.86
607.485	31598.42
607.843	31621.7
608.2	31814.69
608.557	31842.26
608.914	31687.46
609.272	31951.86
609.629	31940.33
609.986	31975.36
610.343	31950.5
610.7	32148.24
611.057	32055.58
611.414	32055.13
611.771	31957.06
612.127	32245.41
612.484	32177.84
612.841	32195.24
613.198	31997.28
613.554	32190.72
613.911	32331.51
614.267	32336.03
614.624	32343.49
614.98	32377.38
615.337	32577.38
615.693	32421.45
616.05	32465.52
616.406	32588
616.762	32589.81
617.118	32591.16
617.475	32458.51
617.831	32641.56
618.187	32710.71
618.543	32597.72
618.899	32879.52
619.255	32892.17
619.611	32754.1
619.967	32855.79
620.323	32972.62
620.678	32830.03
621.034	32832.74
621.39	32780.54
621.746	32697.37
622.101	33137.59
622.457	32735.11
622.812	32879.97
623.168	33002.23
623.523	33019.63
623.879	32952.51
624.234	32791.38
624.589	33028.67
624.945	32956.58
625.3	33077.03
625.655	32959.06
626.01	32914.77
626.365	33063.24
626.72	32917.93
627.075	32943.7
627.43	32889.23
627.785	32920.19
628.14	32900.53
628.495	32909.12
628.85	32963.81
629.205	32781.21
629.559	32860.99
629.914	32740.31
630.269	32800.42
630.623	32774.43
630.978	32710.93
631.332	32992.51
631.687	32846.98
632.041	32662.57
632.396	32702.12
632.75	32523.14
633.104	32685.4
633.459	32641.56
633.813	32551.39
634.167	32519.3
634.521	32419.19
634.875	32515.01
635.229	32371.28
635.583	32393.43
635.937	32316.37
636.291	32312.98
636.645	32296.48
636.999	32068.01
637.352	32217.39
637.706	31957.51
638.06	32316.82
638.413	32305.52
638.767	32079.76
639.121	32179.65
639.474	31909.15
639.828	32002.48
640.181	31933.1
640.534	31864.85
640.888	31804.74
641.241	31531.53
641.594	31716.61
641.947	31844.52
642.301	31697.4
642.654	31720.68
643.007	31708.47
643.36	31647.23
643.713	31503.73
644.066	31710.51
644.419	31524.07
644.771	31280.01
645.124	31125.89
645.477	31160.01
645.83	30743.53
646.182	30772.68
646.535	30419.02
646.888	30429.86
647.24	30181.96
647.593	30506.02
647.945	30289.3
648.298	30234.84
648.65	30209.76
649.002	30155.07
649.355	30171.57
649.707	30141.28
650.059	30440.03
650.411	30740.59
650.763	30839.12
651.115	31015.39
651.467	31023.97
651.819	30866.91
652.171	30825.79
652.523	30727.93
652.875	30751.66
653.227	30544.21
653.578	30842.28
653.93	30606.58
654.282	30673.47
654.633	30554.38
654.985	30610.88
655.337	30561.84
655.688	30569.75
656.039	30742.4
656.391	30526.58
656.742	30538.11
657.094	30403.42
657.445	30551.44
657.796	30465.12
658.147	30509.64
658.498	30294.95
658.849	30486.13
659.2	30303.09
659.551	30381.05
659.902	30348.96
660.253	30310.32
660.604	30398.45
660.955	30139.93
661.306	30213.6
661.656	30287.27
662.007	30361.39
662.358	30180.6
662.708	30169.08
663.059	30183.77
663.409	30039.14
663.76	30254.28
664.11	30108.29
664.461	30180.15
664.811	30144
665.161	30161.62
665.511	30018.58
665.862	30014.28
666.212	30076.43
666.562	30081.4
666.912	30077.1
667.262	29925.92
667.612	30006.37
667.962	29880.05
668.312	29955.3
668.662	30061.06
669.011	29939.26
669.361	29950.1
669.711	29826.26
670.06	29920.27
670.41	29850.9
670.76	29937.9
671.109	29957.33
671.459	29800.73
671.808	29794.63
672.157	29818.13
672.507	29675.31
672.856	29724.57
673.205	29668.75
673.554	29794.17
673.904	29675.53
674.253	29885.47
674.602	29808.19
674.951	29123.91
675.3	29043.01
675.649	29600.73
675.998	29582.2
676.346	29640.05
676.695	29666.72
677.044	29404.35
677.393	29614.97
677.741	29591.69
678.09	29318.48
678.438	29414.07
678.787	29505.37
679.135	29414.52
679.484	29098.15
679.832	29371.13
680.181	29102.89
680.529	29224.25
680.877	29131.82
681.225	29019.51
681.573	29299.05
681.922	29036
682.27	28988.32
682.618	28981.77
682.966	28918.72
683.314	28857.25
683.661	28974.31
684.009	28738.83
684.357	28675.11
684.705	28657.71
685.053	28693.86
685.4	28598.73
685.748	28490.71
686.095	28400.09
686.443	28360.54
686.79	28239.19
687.138	28304.04
687.485	28372.29
687.832	28180.88
688.18	28172.07
688.527	28023.15
688.874	28073.32
689.221	27903.38
689.568	27927.1
689.915	27933.88
690.262	28024.28
690.609	27888.91
690.956	27712.87
691.303	27754.23
691.65	27569.6
691.997	27434.01
692.344	27326.22
692.69	27254.35
693.037	27248.25
693.383	27117.41
693.73	27226.11
694.077	27013.68
694.423	26952.44
694.769	26927.13
695.116	27025.43
695.462	26795.83
695.808	26715.84
696.155	26784.76
696.501	26624.54
696.847	26740.47
697.193	26377.09
697.539	26533.47
697.885	26260.03
698.231	26189.07
698.577	26265.68
698.923	26110.43
699.269	26023.2
699.614	25754.96
699.96	25854.84
700.306	25815.75
700.651	25727.84
700.997	25765.35
701.342	25653.49
701.688	25648.75
702.033	25495.08
702.379	25517.9
702.724	25398.81
703.069	25459.6
703.415	25246.27
703.76	25199.27
704.105	25175.99
704.45	25105.26
704.795	24987.07
705.14	24764.02
705.485	24920.18
705.83	24730.35
706.175	24787.53
706.52	24697.81
706.865	24756.11
707.209	24621.88
707.554	24528.55
707.899	24522
708.243	24441.55
708.588	24435.67
708.932	24233.19
709.277	24318.16
709.621	24195.23
709.966	24217.37
710.31	24150.93
710.654	23958.17
710.998	23977.38
711.342	23961.33
711.687	23881.79
712.031	23842.24
712.375	23725.86
712.719	23810.83
713.063	23718.63
713.407	23724.73
713.75	23561.57
714.094	23543.94
714.438	23464.85
714.782	23490.84
715.125	23405.87
715.469	23464.85
715.812	23244.29
716.156	23321.35
716.499	23244.74
716.843	23266.44
717.186	23043.62
717.53	23204.52
717.873	23101.47
718.216	23063.73
718.559	22940.12
718.902	22822.38
719.246	22850.18
719.589	22809.95
719.932	22771.53
720.275	22718.2
720.617	22669.16
720.96	22697.64
721.303	22684.08
721.646	22587.36
721.989	22516.63
722.331	22513.69
722.674	22437.76
723.016	22453.8
723.359	22479.79
723.701	22408.15
724.044	22268.04
724.386	22143.75
724.729	22255.62
725.071	22220.59
725.413	22192.11
725.755	22201.38
726.097	22146.47
726.439	22060.37
726.782	22004.32
727.124	22159.57
727.465	21944.21
727.807	21826.47
728.149	21875.51
728.491	21693.37
728.833	21797.77
729.175	21727.04
729.516	21675.74
729.858	21798
730.199	21581.96
730.541	21591
730.882	21572.02
731.224	21620.6
731.565	21565.69
731.906	21538.8
732.248	21538.35
732.589	21440.95
732.93	21405.69
733.271	21401.63
733.612	21431.46
733.953	21354.4
734.294	21243.44
734.635	21197.79
734.976	21229.43
735.317	21201.18
735.658	21121.63
735.999	21082.09
736.339	21080.05
736.68	21152.82
737.021	20993.95
737.361	20905.14
737.702	21200.5
738.042	20981.07
738.383	20903.56
738.723	20939.94
739.063	20943.33
739.404	20818.37
739.744	20795.09
740.084	20682.55
740.424	20765.03
740.764	20732.04
741.104	20657.69
741.444	20596
741.784	20559.16
742.124	20502.22
742.464	20662.44
742.804	20434.65
743.143	20419.73
743.483	20382.9
743.823	20332.28
744.162	20381.54
744.502	20347.64
744.841	20319.17
745.181	20343.8
745.52	20223.58
745.86	20280.98
746.199	20272.39
746.538	20204.14
746.877	20126.41
747.216	20120.08
747.556	20096.35
747.895	19989.69
748.234	20037.37
748.573	19925.51
748.911	19921.89
749.25	19961.44
749.589	19822.91
749.928	19881.67
750.267	19805.06
750.605	19729.58
750.944	19734.55
751.283	19667.21
751.621	19635.57
751.96	19560.77
752.298	19519.64
752.636	19488.68
752.975	19457.04
753.313	19360.32
753.651	19447.33
753.989	19266.99
754.327	19299.08
