Data from breadboard_black_back_FLMS001491_00043.txt Node
Date: Wed Feb 08 10:50:26 GMT 2017
User: dcchb
Spectrometer: FLMS00149
Trigger mode: 0
Integration Time (sec): 2.000000E-2
Scans to average: 10
Electric dark correction enabled: true
Nonlinearity correction enabled: false
Boxcar width: 0
XAxis mode: Wavelengths
Number of Pixels in Spectrum: 2048
>>>>>Begin Spectral Data<<<<<
341.393	-1.12
341.776	-1.12
342.16	-1.12
342.543	-57.61
342.927	-66.42
343.31	-65.29
343.693	-58.29
344.077	-70.27
344.46	-63.04
344.843	-63.94
345.226	-43.6
345.61	-34.34
345.993	-7.67
346.376	-23.71
346.759	13.35
347.142	27.36
347.525	59
347.908	73.91
348.291	72.55
348.674	76.4
349.057	107.58
349.44	92.89
349.823	125.43
350.206	170.18
350.588	204.08
350.971	204.53
351.354	230.29
351.737	221.7
352.119	263.51
352.502	258.54
352.884	273.23
353.267	308.25
353.65	301.25
354.032	278.42
354.414	312.77
354.797	314.36
355.179	317.75
355.562	301.02
355.944	335.15
356.326	360.46
356.709	346.45
357.091	360.23
357.473	343.06
357.855	362.72
358.238	360.68
358.62	360.23
359.002	348.71
359.384	341.47
359.766	361.81
360.148	356.39
360.53	342.15
360.912	334.47
361.294	354.13
361.676	348.71
362.057	354.36
362.439	343.06
362.821	336.5
363.203	345.54
363.584	336.95
363.966	351.42
364.348	341.93
364.729	330.85
365.111	353.45
365.493	353.45
365.874	334.92
366.256	320.23
366.637	320.23
367.019	352.32
367.4	330.17
367.781	343.51
368.163	352.55
368.544	338.76
368.925	348.93
369.306	345.32
369.688	360
370.069	348.48
370.45	334.24
370.831	343.51
371.212	359.55
371.593	348.03
371.974	371.98
372.355	354.13
372.736	352.32
373.117	362.04
373.498	347.58
373.879	345.32
374.26	353.23
374.641	345.32
375.021	352.1
375.402	362.49
375.783	396.61
376.163	385.09
376.544	377.41
376.925	380.8
377.305	378.99
377.686	384.86
378.066	366.33
378.447	375.82
378.827	363.39
379.208	376.05
379.588	383.28
379.968	380.57
380.349	396.16
380.729	393.45
381.109	367.91
381.489	392.09
381.87	409.95
382.25	392.32
382.63	400
383.01	396.61
383.39	397.52
383.77	425.31
384.15	425.77
384.53	417.86
384.91	401.59
385.29	412.88
385.67	419.89
386.049	440.23
386.429	407.01
386.809	451.3
387.189	439.32
387.568	436.61
387.948	449.72
388.328	451.3
388.707	435.26
389.087	444.3
389.466	461.24
389.846	469.83
390.225	456.05
390.605	470.74
390.984	465.99
391.363	469.61
391.743	485.43
392.122	485.2
392.501	464.63
392.881	513.67
393.26	470.51
393.639	501.7
394.018	502.6
394.397	522.03
394.776	526.78
395.155	508.48
395.534	496.95
395.913	536.05
396.292	527.01
396.671	526.55
397.05	539.89
397.429	538.98
397.808	520
398.186	546.89
398.565	563.84
398.944	555.25
399.323	542.82
399.701	556.16
400.08	552.32
400.458	573.56
400.837	580.11
401.215	575.37
401.594	576.72
401.972	585.54
402.351	609.26
402.729	596.83
403.107	599.77
403.486	614.46
403.864	607
404.242	610.62
404.62	620.79
404.999	632.77
405.377	623.73
405.755	659.43
406.133	635.93
406.511	660.79
406.889	679.09
407.267	650.62
407.645	673.22
408.023	697.17
408.401	694.69
408.779	700.33
409.156	705.76
409.534	709.83
409.912	728.36
410.29	710.28
410.667	743.72
411.045	744.4
411.422	758.86
411.8	759.77
412.178	771.07
412.555	778.98
412.933	776.26
413.31	775.81
413.687	816.94
414.065	809.48
414.442	805.64
414.819	826.89
415.197	856.49
415.574	844.74
415.951	855.58
416.328	841.35
416.705	845.64
417.082	881.12
417.46	910.05
417.837	887.22
418.214	887.9
418.591	912.31
418.967	903.72
419.344	914.79
419.721	938.75
420.098	922.93
420.475	929.48
420.852	930.16
421.228	974.9
421.605	965.41
421.982	1000.89
422.358	998.86
422.735	992.76
423.111	992.76
423.488	1020.78
423.864	1022.81
424.241	1063.94
424.617	1057.16
424.994	1055.58
425.37	1063.49
425.746	1039.31
426.123	1072.3
426.499	1085.86
426.875	1086.31
427.251	1134.9
427.627	1148.91
428.003	1140.78
428.379	1142.58
428.756	1188.68
429.132	1192.53
429.507	1220.1
429.883	1218.97
430.259	1238.4
430.635	1256.7
431.011	1235.24
431.387	1281.56
431.763	1300.32
432.138	1289.47
432.514	1328.79
432.89	1327.89
433.265	1353.65
433.641	1374.22
434.016	1398.85
434.392	1417.15
434.767	1448.56
435.143	1412.63
435.518	1463.93
435.894	1465.74
436.269	1482.91
436.644	1465.06
437.02	1511.16
437.395	1515.45
437.77	1552.06
438.145	1587.99
438.52	1572.85
438.895	1604.27
439.271	1619.63
439.646	1626.19
440.021	1632.97
440.395	1653.98
440.77	1632.06
441.145	1649.46
441.52	1696.01
441.895	1661.89
442.27	1723.13
442.645	1717.48
443.019	1722
443.394	1733.3
443.769	1768.56
444.143	1762.45
444.518	1798.38
444.892	1811.94
445.267	1797.03
445.641	1786.41
446.016	1830.02
446.39	1827.08
446.764	1856.91
447.139	1854.88
447.513	1869.57
447.887	1869.12
448.262	1891.04
448.636	1898.5
449.01	1953.64
449.384	1945.27
449.758	1955.44
450.132	1972.62
450.506	1986.63
450.88	1993.18
451.254	2011.49
451.628	2064.59
452.002	2105.04
452.376	2075.44
452.75	2113.63
453.123	2171.93
453.497	2163.57
453.871	2174.87
454.244	2212.61
454.618	2217.36
454.992	2252.84
455.365	2265.49
455.739	2299.39
456.112	2323.34
456.486	2359.95
456.859	2364.92
457.232	2435.88
457.606	2447.63
457.979	2435.43
458.352	2503.23
458.725	2554.98
459.099	2582.09
459.472	2644.69
459.845	2627.74
460.218	2650.34
460.591	2665.25
460.964	2707.29
461.337	2745.48
461.71	2815.99
462.083	2862.76
462.456	2825.93
462.829	2850.33
463.201	2912.03
463.574	2926.26
463.947	2969.88
464.32	3047.39
464.692	3083.1
465.065	3069.09
465.438	3144.11
465.81	3167.16
466.183	3221.4
466.555	3262.53
466.928	3284.9
467.3	3276.76
467.672	3369.19
468.045	3445.57
468.417	3436.08
468.789	3445.8
469.161	3528.73
469.534	3564.21
469.906	3654.61
470.278	3683.31
470.65	3715.4
471.022	3782.29
471.394	3849.18
471.766	3873.13
472.138	3952.45
472.51	4027.93
472.882	4086.91
473.253	4146.8
473.625	4192.67
473.997	4245.55
474.369	4258.21
474.74	4284.87
475.112	4413.46
475.484	4502.49
475.855	4563.74
476.227	4586.56
476.598	4728.93
476.97	4763.28
477.341	4864.74
477.713	4937.29
478.084	4954.23
478.455	5103.38
478.827	5135.7
479.198	5308.35
479.569	5313.55
479.94	5478.51
480.311	5527.1
480.682	5650.04
481.053	5730.26
481.424	5819.75
481.795	5903.14
482.166	5974.32
482.537	6044.15
482.908	6187.2
483.279	6264.71
483.65	6359.62
484.021	6500.86
484.391	6532.95
484.762	6650.01
485.133	6666.05
485.503	6805.71
485.874	6907.18
486.244	6980.17
486.615	7085.25
486.985	7236.21
487.356	7334.96
487.726	7433.72
488.097	7598.46
488.467	7539.02
488.837	7769.3
489.207	7856.76
489.578	7968.17
489.948	8057.88
490.318	8159.12
490.688	8173.81
491.058	8329.74
491.428	8419.68
491.798	8523.41
492.168	8655.38
492.538	8698.54
492.908	8837.75
493.278	8943.51
493.648	8992.77
494.017	9058.98
494.387	9129.94
494.757	9213.78
495.126	9320.22
495.496	9384.4
495.866	9421.91
496.235	9575.36
496.605	9616.48
496.974	9721.34
497.344	9819.87
497.713	9843.37
498.082	9916.59
498.452	10085.4
498.821	10116.58
499.19	10160.2
499.559	10262.34
499.928	10284.94
500.298	10411.94
500.667	10532.84
501.036	10477.93
501.405	10634.31
501.774	10672.05
502.143	10817.81
502.512	10764.93
502.88	10924.7
503.249	10940.52
503.618	11005.6
503.987	11078.59
504.356	11205.6
504.724	11233.62
505.093	11322.65
505.462	11312.03
505.83	11435.87
506.199	11561.07
506.567	11679.71
506.936	11680.61
507.304	11815.07
507.672	11896.2
508.041	11995.18
508.409	12054.16
508.777	12177.32
509.145	12263.87
509.514	12287.37
509.882	12307.26
510.25	12417.09
510.618	12596.97
510.986	12605.56
511.354	12754.48
511.722	12810.98
512.09	12893.69
512.458	12904.08
512.826	13120.57
513.193	13142.49
513.561	13254.81
513.929	13365.09
514.297	13444.18
514.664	13577.06
515.032	13649.37
515.4	13797.39
515.767	13909.93
516.135	13882.36
516.502	13883.26
516.869	14110.6
517.237	14216.14
517.604	14185.18
517.972	14379.3
518.339	14476.24
518.706	14519.18
519.073	14602.79
519.44	14787.42
519.808	14903.58
520.175	14862.9
520.542	15155.1
520.909	15298.82
521.276	15273.28
521.643	15452.04
522.009	15446.16
522.376	15583.79
522.743	15748.98
523.11	15947.39
523.477	16104.9
523.843	16206.59
524.21	16315.07
524.577	16425.57
524.943	16499.24
525.31	16651.33
525.676	16798.89
526.043	16932.45
526.409	17075.27
526.776	17217.41
527.142	17275.49
527.508	17368.6
527.874	17521.36
528.241	17509.16
528.607	17693.56
528.973	17773.56
529.339	17913.89
529.705	18160.67
530.071	18292.19
530.437	18302.58
530.803	18403.82
531.169	18531.28
531.535	18605.85
531.901	18690.14
532.267	18774.21
532.632	18855.11
532.998	18919.74
533.364	19036.58
533.73	19164.03
534.095	19198.15
534.461	19287.87
534.826	19449.22
535.192	19500.74
535.557	19665.71
535.923	19628.88
536.288	19730.79
536.653	19918.81
537.019	19823.9
537.384	19992.26
537.749	20023.89
538.114	20183.89
538.479	20199.93
538.845	20346.37
539.21	20303.89
539.575	20458.91
539.94	20343.43
540.305	20632.69
540.67	20663.88
541.034	20701.16
541.399	20898.45
541.764	20922.4
542.129	20960.59
542.494	21129.18
542.858	21085.34
543.223	21115.39
543.587	21191.1
543.952	21327.36
544.316	21391.32
544.681	21427.02
545.045	21504.53
545.41	21580.01
545.774	21676.28
546.138	21768.48
546.503	21795.15
546.867	21731.42
547.231	22069.49
547.595	22000.57
547.959	22119.21
548.324	22079.89
548.688	22257.51
549.052	22378.18
549.416	22363.95
549.779	22390.16
550.143	22537.05
550.507	22678.74
550.871	22720.77
551.235	22755.12
551.599	22970.94
551.962	22972.07
552.326	23067.43
552.689	23304.03
553.053	23062.68
553.417	23176.35
553.78	23437.14
554.143	23519.62
554.507	23582.9
554.87	23627.19
555.234	23925.49
555.597	23763.46
555.96	23853.17
556.323	24003.22
556.686	24012.49
557.05	24302.88
557.413	24266.49
557.776	24468.07
558.139	24562.08
558.502	24503.32
558.865	24704
559.228	24925.01
559.59	24920.04
559.953	24960.04
560.316	25194.61
560.679	25223.53
561.041	25424.88
561.404	25544.43
561.767	25690.64
562.129	25513.24
562.492	25954.13
562.854	25930.18
563.217	25865.77
563.579	26108.71
563.941	26236.39
564.304	26403.16
564.666	26470.96
565.028	26497.62
565.39	26703.04
565.753	26781.46
566.115	26848.12
566.477	27096.93
566.839	27258.73
567.201	27405.17
567.563	27317.94
567.925	27430.71
568.287	27459.63
568.648	27640.42
569.01	27706.4
569.372	27903.69
569.734	27843.8
570.095	28104.59
570.457	28196.79
570.819	28243.11
571.18	28278.37
571.542	28383.22
571.903	28544.35
572.265	28529.66
572.626	28600.84
572.987	28732.14
573.349	28766.26
573.71	29029.53
574.071	28969.65
574.432	29089.87
574.794	29226.14
575.155	29148.17
575.516	29195.86
575.877	29317.66
576.238	29389.52
576.599	29465.91
576.96	29434.95
577.32	29452.8
577.681	29610.31
578.042	29784.32
578.403	29672.91
578.763	29748.38
579.124	29774.15
579.485	29905.67
579.845	30011.88
580.206	29891.88
580.566	29985.21
580.927	29943.63
581.287	30273.57
581.648	30037.19
582.008	30136.62
582.368	30156.74
582.728	30086.68
583.089	30204.19
583.449	30252.33
583.809	30213.46
584.169	30228.6
584.529	30241.93
584.889	30386.11
585.249	30222.27
585.609	30203.51
585.969	30342.95
586.329	30222.72
586.688	30330.06
587.048	30366.22
587.408	30298.65
587.768	30406.67
588.127	30354.92
588.487	30306.79
588.846	30566.67
589.206	30271.31
589.565	30332.55
589.925	30424.75
590.284	30345.88
590.643	30505.43
591.003	30577.29
591.362	30641.92
591.721	30617.06
592.08	30502.04
592.44	30635.82
592.799	30622.26
593.158	30637.63
593.517	30560.79
593.876	30604.41
594.235	30595.14
594.593	30560.34
594.952	30784.29
595.311	30707.68
595.67	30635.14
596.029	30760.11
596.387	30836.94
596.746	30944.96
597.104	30780.9
597.463	30802.14
597.822	30931.4
598.18	30752.43
598.538	30751.75
598.897	31031.97
599.255	30752.88
599.613	31226.54
599.972	31022.48
600.33	31082.13
600.688	30860.22
601.046	31092.76
601.404	31157.39
601.762	31074.9
602.12	31306.08
602.478	31271.73
602.836	31313.77
603.194	31184.05
603.552	31205.52
603.91	31137.27
604.268	31372.52
604.625	31132.3
604.983	31355.35
605.341	31199.42
605.698	31444.84
606.056	31358.51
606.413	31359.64
606.771	31516.93
607.128	31637.37
607.485	31560.77
607.843	31448
608.2	31723.02
608.557	31749.24
608.914	31623.59
609.272	31794.88
609.629	31951.49
609.986	31978.16
610.343	31843.92
610.7	32089.57
611.057	31831.27
611.414	32007.31
611.771	31950.36
612.127	31990.36
612.484	32019.74
612.841	32266.28
613.198	32127.3
613.554	32140.19
613.911	32187.87
614.267	32278.04
614.624	32260.41
614.98	32372.72
615.337	32423.34
615.693	32449.78
616.05	32494.53
616.406	32655.2
616.762	32407.3
617.118	32455.43
617.475	32471.48
617.831	32521.19
618.187	32552.38
618.543	32529.78
618.899	32875.31
619.255	32696.56
619.611	32705.82
619.967	32737.01
620.323	32822.65
620.678	32794.41
621.034	32673.28
621.39	32696.1
621.746	32714.18
622.101	32981.75
622.457	32740.62
622.812	32780.85
623.168	32845.25
623.523	32855.87
623.879	33021.97
624.234	32649.78
624.589	32886.61
624.945	32944.23
625.3	32918.02
625.655	32876.21
626.01	32891.8
626.365	32857.68
626.72	32828.08
627.075	32887.51
627.43	32841.18
627.785	32831.02
628.14	32902.43
628.495	32896.55
628.85	32900.17
629.205	32679.61
629.559	32810.45
629.914	32723.67
630.269	32741.3
630.623	32686.61
630.978	32690.45
631.332	32781.3
631.687	32871.47
632.041	32584.02
632.396	32717.57
632.75	32445.94
633.104	32477.8
633.459	32459.95
633.813	32395.77
634.167	32327.3
634.521	32336.34
634.875	32389.67
635.229	32321.42
635.583	32165.04
635.937	32163.01
636.291	32214.76
636.645	32159.39
636.999	32148.55
637.352	32229.22
637.706	31976.57
638.06	32207.08
638.413	32036.91
638.767	32024.48
639.121	32011.83
639.474	31883.7
639.828	31864.94
640.181	31857.48
640.534	31829.23
640.888	31734.55
641.241	31630.59
641.594	31634.21
641.947	31752.63
642.301	31805.73
642.654	31756.47
643.007	31614.78
643.36	31580.88
643.713	31560.31
644.066	31683.47
644.419	31408
644.771	31331.85
645.124	30972.08
645.477	30883.72
645.83	30645.54
646.182	30503.62
646.535	30525.09
646.888	30463.17
647.24	30089.84
647.593	30541.81
647.945	30316.96
648.298	30333.23
648.65	30150.18
649.002	29991.32
649.355	30235.15
649.707	30233.57
650.059	30462.04
650.411	30855.25
650.763	30756.49
651.115	31072.19
651.467	30816.15
651.819	30884.4
652.171	30824.06
652.523	30686.21
652.875	30619.1
653.227	30488.48
653.578	30700.22
653.93	30674.46
654.282	30578.65
654.633	30520.79
654.985	30518.99
655.337	30544.97
655.688	30607.57
656.039	30532.09
656.391	30353.57
656.742	30407.8
657.094	30381.81
657.445	30514.92
657.796	30486.9
658.147	30352.89
658.498	30296.84
658.849	30330.74
659.2	30286.68
659.551	30394.92
659.902	30317.64
660.253	30383.4
660.604	30322.15
660.955	30142.5
661.306	30300.46
661.656	30217.07
662.007	30227.92
662.358	30165.32
662.708	30209.16
663.059	30187.69
663.409	29970.98
663.76	30185.66
664.11	30078.32
664.461	30204.64
664.811	30105.44
665.161	30123.29
665.511	30019.34
665.862	30007.13
666.212	30138.43
666.562	30157.41
666.912	29998.77
667.262	29994.03
667.612	30121.03
667.962	30050.07
668.312	29990.41
668.662	29964.88
669.011	29910.64
669.361	29940.92
669.711	29926.23
670.06	29842.62
670.41	29848.72
670.76	29749.06
671.109	29882.84
671.459	29740.02
671.808	29804.65
672.157	29909.06
672.507	29700.93
672.856	29627.71
673.205	29692.57
673.554	29825.67
673.904	29629.07
674.253	29781.38
674.602	29779.57
674.951	29234.05
675.3	29077.67
675.649	29659.35
675.998	29392.46
676.346	29587.48
676.695	29599.69
677.044	29448.28
677.393	29338.45
677.741	29469.97
678.09	29422.29
678.438	29318.79
678.787	29427.71
679.135	29315.4
679.484	29199.02
679.832	29298
680.181	29072.7
680.529	29118.8
680.877	29148.4
681.225	29130.32
681.573	29237.89
681.922	28934.39
682.27	28859.14
682.618	29094.62
682.966	28845.13
683.314	28885.36
683.661	28841.74
684.009	28592.48
684.357	28630.45
684.705	28640.17
685.053	28582.99
685.4	28547.29
685.748	28355.88
686.095	28462.09
686.443	28326.95
686.79	28271.81
687.138	28343.45
687.485	28219.61
687.832	28171.7
688.18	28130.35
688.527	28172.61
688.874	28097.35
689.221	27943.23
689.568	27913.86
689.915	27829.11
690.262	27691.72
690.609	27705.95
690.956	27677.7
691.303	27658.04
691.65	27358.62
691.997	27538.95
692.344	27312.06
692.69	27435.45
693.037	27360.42
693.383	27045.86
693.73	27199.75
694.077	27079.53
694.423	26976.71
694.769	26848.57
695.116	26823.26
695.462	26811.96
695.808	26692.65
696.155	26757.95
696.501	26584.63
696.847	26525.64
697.193	26297.18
697.539	26407
697.885	26226.67
698.231	26197.07
698.577	26277.52
698.923	26068.03
699.269	26051.31
699.614	25982.83
699.96	25880.01
700.306	25868.94
700.651	25789.39
700.997	25731.99
701.342	25612
701.688	25699.68
702.033	25605.44
702.379	25505.11
702.724	25429.18
703.069	25461.04
703.415	25169.75
703.76	25189.86
704.105	25162.52
704.45	25096.3
704.795	25068.28
705.14	24963.65
705.485	24859.47
705.83	24782.19
706.175	24764.11
706.52	24671.68
706.865	24639.37
707.209	24515.3
707.554	24616.54
707.899	24633.94
708.243	24359.37
708.588	24431.91
708.932	24303.56
709.277	24215.87
709.621	24211.13
709.966	24069.44
710.31	24122.32
710.654	23968.2
710.998	23948.54
711.342	23879.61
711.687	23826.28
712.031	23799.61
712.375	23646.17
712.719	23744.7
713.063	23791.7
713.407	23722.55
713.75	23539.28
714.094	23539.28
714.438	23345.16
714.782	23601.2
715.125	23425.61
715.469	23483.01
715.812	23267.42
716.156	23174.55
716.499	23289.57
716.843	23186.75
717.186	23125.73
717.53	23106.07
717.873	23064.94
718.216	23138.39
718.559	22987.88
718.902	22810.94
719.246	22960.09
719.589	22742.92
719.932	22742.02
720.275	22732.07
720.617	22646.65
720.96	22692.07
721.303	22661.57
721.646	22664.73
721.989	22531.17
722.331	22598.06
722.674	22488.91
723.016	22444.85
723.359	22421.57
723.701	22475.36
724.044	22241.01
724.386	22131.86
724.729	22244.18
725.071	22241.92
725.413	22189.26
725.755	22076.5
726.097	22057.29
726.439	21888.48
726.782	21959.66
727.124	22015.03
727.465	21975.93
727.807	21916.27
728.149	21854.58
728.491	21842.6
728.833	21852.77
729.175	21709.05
729.516	21770.06
729.858	21724.19
730.199	21691.87
730.541	21604.19
730.882	21671.31
731.224	21630.86
731.565	21472.67
731.906	21493.46
732.248	21533.01
732.589	21356.06
732.93	21302.28
733.271	21330.3
733.612	21293.47
733.953	21421.82
734.294	21308.83
734.635	21244.65
734.976	21209.85
735.317	21210.98
735.658	21117.88
735.999	21154.94
736.339	21034.94
736.68	21133.7
737.021	20987.48
737.361	20937.77
737.702	21057.31
738.042	20943.87
738.383	20947.03
738.723	20908.62
739.063	20765.8
739.404	20832.01
739.744	20800.82
740.084	20725.57
740.424	20661.39
740.764	20671.56
741.104	20780.94
741.444	20566.7
741.784	20522.41
742.124	20551.11
742.464	20565.58
742.804	20497.1
743.143	20505.24
743.483	20470.89
743.823	20329.88
744.162	20348.18
744.502	20356.99
744.841	20253.72
745.181	20293.04
745.52	20263.44
745.86	20280.16
746.199	20170.11
746.538	20146.15
746.877	20230.44
747.216	20250.78
747.556	20054.85
747.895	20001.75
748.234	19995.19
748.573	19999.04
748.911	19852.6
749.25	19869.55
749.589	19733.73
749.928	19806.5
750.267	19788.65
750.605	19811.92
750.944	19612.61
751.283	19572.61
751.621	19663.23
751.96	19507.52
752.298	19524.02
752.636	19536.9
752.975	19420.75
753.313	19328.32
753.651	19432.05
753.989	19242.9
754.327	19261.65
