Data from breadboard_white_FLMS001491_00062.txt Node
Date: Wed Feb 08 10:48:05 GMT 2017
User: dcchb
Spectrometer: FLMS00149
Trigger mode: 0
Integration Time (sec): 2.000000E-2
Scans to average: 10
Electric dark correction enabled: true
Nonlinearity correction enabled: false
Boxcar width: 0
XAxis mode: Wavelengths
Number of Pixels in Spectrum: 2048
>>>>>Begin Spectral Data<<<<<
341.393	-7.26
341.776	-7.26
342.16	-7.26
342.543	-70.99
342.927	-64.89
343.31	-64.66
343.693	-87.71
344.077	-69.18
344.46	-63.53
344.843	-59.24
345.226	-33.25
345.61	-13.14
345.993	-19.24
346.376	-9.07
346.759	16.24
347.142	35.23
347.525	34.77
347.908	52.4
348.291	71.61
348.674	84.04
349.057	124.71
349.44	131.49
349.823	147.31
350.206	172.17
350.588	218.27
350.971	225.05
351.354	223.24
351.737	261.66
352.119	258.95
352.502	265.05
352.884	283.58
353.267	305.05
353.65	295.33
354.032	310.7
354.414	331.04
354.797	323.35
355.179	333.52
355.562	333.3
355.944	330.81
356.326	350.7
356.709	363.58
357.091	361.54
357.473	364.71
357.855	354.54
358.238	363.35
358.62	390.47
359.002	352.96
359.384	355.67
359.766	354.76
360.148	337.14
360.53	363.8
360.912	358.61
361.294	368.55
361.676	340.3
362.057	359.28
362.439	333.52
362.821	339.62
363.203	375.1
363.584	353.63
363.966	358.38
364.348	353.18
364.729	354.76
365.111	346.18
365.493	337.59
365.874	344.82
366.256	352.05
366.637	333.52
367.019	352.5
367.4	344.14
367.781	357.48
368.163	345.27
368.544	343.01
368.925	343.01
369.306	331.04
369.688	360.87
370.069	329
370.45	343.24
370.831	332.39
371.212	348.66
371.593	347.08
371.974	361.32
372.355	341.88
372.736	362.22
373.117	348.21
373.498	342.56
373.879	348.66
374.26	350.25
374.641	351.15
375.021	342.56
375.402	371.04
375.783	368.55
376.163	358.38
376.544	379.17
376.925	377.14
377.305	378.27
377.686	377.14
378.066	385.27
378.447	376.46
378.827	348.44
379.208	373.3
379.588	389.34
379.968	382.11
380.349	396.8
380.729	390.92
381.109	385.27
381.489	391.83
381.87	389.79
382.25	394.54
382.63	412.84
383.01	399.06
383.39	410.58
383.77	425.72
384.15	413.29
384.53	413.07
384.91	426.63
385.29	424.37
385.67	427.08
386.049	438.6
386.429	417.59
386.809	441.54
387.189	454.88
387.568	458.49
387.948	459.39
388.328	450.36
388.707	456.46
389.087	453.07
389.466	463.69
389.846	451.49
390.225	472.5
390.605	475.67
390.984	464.37
391.363	483.8
391.743	481.09
392.122	484.7
392.501	497.81
392.881	519.05
393.26	523.35
393.639	524.48
394.018	508.43
394.397	505.5
394.776	523.35
395.155	538.26
395.534	543.69
395.913	525.83
396.292	541.2
396.671	545.95
397.05	576.45
397.429	583.46
397.808	591.37
398.186	590.69
398.565	578.94
398.944	603.12
399.323	607.64
399.701	601.09
400.08	591.59
400.458	614.19
400.837	622.33
401.215	640.86
401.594	642.89
401.972	648.54
402.351	643.8
402.729	688.09
403.107	712.95
403.486	704.59
403.864	718.82
404.242	718.37
404.62	724.25
404.999	735.32
405.377	744.36
405.755	754.53
406.133	762.21
406.511	767.18
406.889	791.82
407.267	847.41
407.645	828.65
408.023	838.82
408.401	861.19
408.779	850.34
409.156	890.34
409.534	875.88
409.912	892.83
410.29	936.9
410.667	944.81
411.045	983.45
411.422	984.13
411.8	982.32
412.178	1012.83
412.555	1057.12
412.933	1057.8
413.31	1054.18
413.687	1089.89
414.065	1081.98
414.442	1105.25
414.819	1140.51
415.197	1159.04
415.574	1182.54
415.951	1194.06
416.328	1194.06
416.705	1217.79
417.082	1266.38
417.46	1265.02
417.837	1275.64
418.214	1295.3
418.591	1301.63
418.967	1323.55
419.344	1305.47
419.721	1356.09
420.098	1317
420.475	1384.34
420.852	1390.44
421.228	1390.22
421.605	1442.87
421.982	1449.65
422.358	1461.85
422.735	1487.84
423.111	1503.21
423.488	1542.3
423.864	1522.19
424.241	1541.85
424.617	1581.17
424.994	1549.31
425.37	1617.1
425.746	1618.46
426.123	1641.96
426.499	1627.95
426.875	1678.12
427.251	1680.83
427.627	1716.31
428.003	1750.66
428.379	1789.08
428.756	1775.52
429.132	1828.17
429.507	1868.85
429.883	1893.48
430.259	1884.22
430.635	1906.59
431.011	1913.37
431.387	1989.3
431.763	2012.57
432.138	2042.86
432.514	2071.56
432.89	2060.93
433.265	2129.63
433.641	2144.32
434.016	2151.1
434.392	2196.07
434.767	2238.1
435.143	2253.92
435.518	2260.7
435.894	2306.13
436.269	2345.9
436.644	2371.66
437.02	2426.57
437.395	2403.75
437.77	2435.84
438.145	2482.17
438.52	2502.5
438.895	2488.72
439.271	2533.24
439.646	2582.28
440.021	2578.66
440.395	2615.27
440.77	2583.86
441.145	2650.3
441.52	2700.92
441.895	2682.39
442.27	2730.97
442.645	2731.2
443.019	2763.51
443.394	2735.95
443.769	2793.12
444.143	2806.9
444.518	2868.37
444.892	2832.21
445.267	2852.55
445.641	2877.64
446.016	2888.94
446.39	2935.04
446.764	2968.26
447.139	2951.31
447.513	3000.12
447.887	3022.49
448.262	3025.88
448.636	3052.77
449.01	3103.84
449.384	3098.42
449.758	3154.47
450.132	3187.68
450.506	3212.77
450.88	3218.42
451.254	3205.54
451.628	3295.25
452.002	3321.92
452.376	3387.45
452.75	3358.53
453.123	3407.57
453.497	3461.12
453.871	3501.57
454.244	3550.39
454.618	3554.45
454.992	3652.98
455.365	3629.25
455.739	3730.04
456.112	3739.99
456.486	3784.73
456.859	3825.63
457.232	3920.32
457.606	3875.35
457.979	3940.21
458.352	4045.74
458.725	4062.69
459.099	4103.14
459.472	4184.04
459.845	4226.53
460.218	4279.63
460.591	4293.87
460.964	4375.9
461.337	4476.92
461.71	4506.52
462.083	4622
462.456	4561.21
462.829	4598.95
463.201	4678.72
463.574	4688.89
463.947	4739.06
464.32	4904.48
464.692	4893.4
465.065	4964.14
465.438	5018.6
465.81	5118.71
466.183	5200.96
466.555	5297.69
466.928	5247.52
467.3	5299.49
467.672	5410.9
468.045	5532.26
468.417	5501.97
468.789	5555.98
469.161	5647.05
469.534	5781.74
469.906	5868.97
470.278	5936.31
470.65	5980.61
471.022	6100.38
471.394	6190.77
471.766	6242.29
472.138	6343.31
472.51	6489.97
472.882	6555.05
473.253	6685.45
473.625	6792.79
473.997	6871.88
474.369	6948.49
474.74	7005.21
475.112	7186.22
475.484	7305.54
475.855	7415.6
476.227	7461.47
476.598	7657.62
476.97	7784.17
477.341	7978.52
477.713	8021.91
478.084	8057.39
478.455	8298.06
478.827	8367.66
479.198	8632.97
479.569	8625.28
479.94	8923.58
480.311	8967.65
480.682	9146.85
481.053	9422.55
481.424	9547.29
481.795	9598.36
482.166	9790.9
482.537	9860.05
482.908	10086.94
483.279	10212.36
483.65	10363.99
484.021	10582.74
484.391	10675.4
484.762	10841.72
485.133	10922.85
485.503	11083.07
485.874	11295.49
486.244	11356.28
486.615	11661.59
486.985	11777.29
487.356	12022.93
487.726	12117.62
488.097	12309.25
488.467	12399.87
488.837	12676.25
489.207	12871.05
489.578	12953.98
489.948	13018.39
490.318	13348.77
490.688	13339.28
491.058	13551.71
491.428	13788.76
491.798	13814.3
492.168	14122.54
492.538	14193.72
492.908	14360.27
493.278	14568.85
493.648	14567.72
494.017	14786.93
494.387	14970.43
494.757	15100.14
495.126	15228.5
495.496	15307.59
495.866	15395.27
496.235	15633.01
496.605	15795.26
496.974	15829.16
497.344	15970.17
497.713	16046.1
498.082	16160.45
498.452	16418.52
498.821	16494.23
499.19	16505.75
499.559	16712.07
499.928	16865.97
500.298	16896.7
500.667	17150.26
501.036	17105.51
501.405	17338.5
501.774	17307.77
502.143	17502.79
502.512	17549.11
502.88	17730.58
503.249	17797.92
503.618	18003.57
503.987	18161.3
504.356	18281.52
504.724	18351.13
505.093	18384.57
505.462	18569.43
505.83	18728.52
506.199	18834.73
506.567	19070.66
506.936	19040.6
507.304	19169.19
507.672	19342.06
508.041	19554.49
508.409	19682.62
508.777	19836.51
509.145	20007.58
509.514	19963.51
509.882	20149.27
510.25	20256.16
510.618	20425.2
510.986	20451.64
511.354	20710.84
511.722	20929.36
512.09	21052.07
512.458	21043.94
512.826	21302.46
513.193	21436.7
513.561	21563.25
513.929	21703.81
514.297	21871.04
514.664	22074.87
515.032	22154.64
515.4	22336.56
515.767	22386.95
516.135	22620.39
516.502	22502.88
516.869	22883.44
517.237	23110.1
517.604	23154.39
517.972	23232.81
518.339	23571.78
518.706	23613.59
519.073	23786.46
519.44	23939.68
519.808	24155.04
520.175	24321.37
520.542	24522.26
520.909	24692.88
521.276	24643.39
521.643	24995.92
522.009	25228.23
522.376	25298.29
522.743	25390.49
523.11	25788.9
523.477	26015.56
523.843	26229.56
524.21	26402.22
524.577	26664.13
524.943	26783.67
525.31	26990.67
525.676	27169.2
526.043	27314.06
526.409	27617.55
526.776	27761.95
527.142	27935.06
527.508	28059.8
527.874	28318.32
528.241	28370.98
528.607	28519.9
528.973	28864.3
529.339	28822.94
529.705	29235.81
530.071	29387.9
530.437	29503.38
530.803	29672.41
531.169	29943.37
531.535	29884.84
531.901	30003.48
532.267	30250.02
532.632	30393.75
532.998	30559.17
533.364	30813.17
533.73	30772.72
534.095	31136.55
534.461	31053.62
534.826	31426.26
535.192	31537.67
535.557	31650.44
535.923	31698.12
536.288	31841.62
536.653	31934.95
537.019	31921.84
537.384	32239.12
537.749	32250.88
538.114	32376.75
538.479	32476.18
538.845	32541.04
539.21	32578.55
539.575	32793.69
539.94	32985.55
540.305	33155.94
540.67	32993
541.034	33313.22
541.399	33464.85
541.764	33397.74
542.129	33543.27
542.494	33590.05
542.858	33954.79
543.223	33848.8
543.587	34154.33
543.952	34132.18
544.316	34300.31
544.681	34217.6
545.045	34543.24
545.41	34727.42
545.774	34890.81
546.138	34908.21
546.503	35017.13
546.867	34978.04
547.231	35293.28
547.595	35305.48
547.959	35410.34
548.324	35492.15
548.688	35679.03
549.052	35780.27
549.416	35863.66
549.779	35900.72
550.143	35901.85
550.507	36305.91
550.871	36180.04
551.235	36385
551.599	36514.04
551.962	36798.33
552.326	36758.78
552.689	37097.75
553.053	36861.15
553.417	37002.39
553.78	37521.92
554.143	37311.76
554.507	37545.65
554.87	37731.86
555.234	38199.19
555.597	37980.89
555.96	38036.71
556.323	38331.62
556.686	38454.78
557.05	38631.95
557.413	38774.09
557.776	38830.36
558.139	39099.06
558.502	39229
558.865	39297.02
559.228	39558.25
559.59	39659.72
559.953	39783.78
560.316	40035.98
560.679	40029.88
561.041	40404.33
561.404	40593.71
561.767	40719.58
562.129	40827.82
562.492	41236.85
562.854	41136.74
563.217	41102.85
563.579	41464.19
563.941	41596.84
564.304	41818.99
564.666	41924.52
565.028	42237.96
565.39	42229.82
565.753	42449.03
566.115	42635.01
566.477	42766.98
566.839	42851.95
567.201	43093.08
567.563	43239.06
567.925	43482.22
568.287	43432.95
568.648	43557.24
569.01	43817.58
569.372	44033.62
569.734	43984.35
570.095	44309.32
570.457	44468.86
570.819	44540.27
571.18	44531.46
571.542	44770.32
571.903	44858.91
572.265	45050.31
572.626	45180.48
572.987	45133.93
573.349	45256.63
573.71	45405.56
574.071	45541.6
574.432	45696.17
574.794	45893.23
575.155	45862.49
575.516	45811.42
575.877	46054.13
576.238	46085.54
576.599	46283.95
576.96	46277.62
577.32	46317.4
577.681	46448.92
578.042	46556.04
578.403	46569.59
578.763	46695.24
579.124	46566.2
579.485	46739.53
579.845	46859.76
580.206	46921.22
580.566	46818.4
580.927	46944.5
581.287	47018.17
581.648	46890.49
582.008	47156.7
582.368	47013.2
582.728	47186.53
583.089	46969.13
583.449	47150.82
583.809	47085.29
584.169	47056.59
584.529	47040.77
584.889	47502.68
585.249	47087.55
585.609	47097.49
585.969	47308.11
586.329	47281.89
586.688	47256.58
587.048	47144.72
587.408	47069.47
587.768	47076.25
588.127	47126.64
588.487	47081.9
588.846	47358.05
589.206	47278.05
589.565	47242.35
589.925	47310.14
590.284	47304.49
590.643	47260.65
591.003	47236.24
591.362	47566.86
591.721	47340.65
592.08	47341.33
592.44	47443.47
592.799	47481.44
593.158	47390.59
593.517	47399.63
593.876	47409.57
594.235	47395.79
594.593	47401.66
594.952	47453.41
595.311	47320.76
595.67	47522.34
596.029	47638.95
596.387	47684.37
596.746	47594.43
597.104	47561.66
597.463	47524.15
597.822	47775.44
598.18	47613.86
598.538	47600.75
598.897	47819.51
599.255	47574.99
599.613	48081.42
599.972	47754.42
600.33	47985.15
600.688	47783.35
601.046	47939.05
601.404	48019.95
601.762	47934.53
602.12	48190.12
602.478	48049.1
602.836	48163.68
603.194	48040.29
603.552	48128.42
603.91	48026.51
604.268	48119.16
604.625	48143.11
604.983	48211.13
605.341	48025.6
605.698	48350.11
606.056	48331.13
606.413	48202.32
606.771	48429.66
607.128	48410.45
607.485	48278.7
607.843	48368.87
608.2	48648.86
608.557	48680.95
608.914	48549.43
609.272	48678.01
609.629	48833.26
609.986	48871.68
610.343	48627.17
610.7	48893.15
611.057	48911.45
611.414	48823.32
611.771	48849.08
612.127	49042.98
612.484	48984.67
612.841	49023.54
613.198	49037.78
613.554	49089.3
613.911	49168.62
614.267	49331.1
614.624	49331.1
614.98	49349.86
615.337	49431.89
615.693	49330.43
616.05	49355.28
616.406	49592.34
616.762	49475.06
617.118	49469.18
617.475	49412.91
617.831	49525.9
618.187	49508.5
618.543	49626.92
618.899	49700.81
619.255	49671.89
619.611	49616.07
619.967	49831.43
620.323	49826.46
620.678	49683.19
621.034	49684.77
621.39	49698.78
621.746	49526.35
622.101	49947.58
622.457	49722.51
622.812	49689.06
623.168	49777.65
623.523	49776.52
623.879	49967.92
624.234	49691.32
624.589	49900.13
624.945	49910.98
625.3	49869.39
625.655	49862.39
626.01	49840.02
626.365	49753.92
626.72	49806.57
627.075	49776.06
627.43	49691.77
627.785	49621.72
628.14	49755.5
628.495	49748.49
628.85	49652.68
629.205	49583.98
629.559	49782.17
629.914	49602.96
630.269	49586.24
630.623	49394.38
630.978	49387.6
631.332	49554.6
631.687	49613.13
632.041	49411.55
632.396	49412.23
632.75	49442.29
633.104	49388.96
633.459	49261.28
633.813	49368.17
634.167	49309.64
634.521	49220.6
634.875	49269.41
635.229	49129.75
635.583	48935.63
635.937	49013.6
636.291	48921.85
636.645	48994.16
636.999	48911.45
637.352	48975.18
637.706	48645.47
638.06	48898.12
638.413	48631.01
638.767	48760.05
639.121	48585.81
639.474	48342.2
639.828	48487.28
640.181	48496.32
640.534	48626.04
640.888	48362.09
641.241	48190.8
641.594	48348.98
641.947	48446.83
642.301	48101.76
642.654	48178.37
643.007	48241.87
643.36	48213.62
643.713	48092.27
644.066	48241.42
644.419	48065.37
644.771	47903.34
645.124	47361.89
645.477	47406.41
645.83	47190.37
646.182	46791.28
646.535	46784.5
646.888	46819.08
647.24	46539.76
647.593	46778.18
647.945	46621.57
648.298	46469.71
648.65	46393.78
649.002	46255.48
649.355	46476.04
649.707	46257.06
650.059	46546.09
650.411	47016.36
650.763	47180.88
651.115	47502.68
651.467	47249.58
651.819	47163.93
652.171	47092.07
652.523	47078.96
652.875	47051.84
653.227	46725.07
653.578	47058.85
653.93	47020.43
654.282	46783.37
654.633	46667.9
654.985	46745.18
655.337	46820.44
655.688	46682.13
656.039	46815.01
656.391	46448.69
656.742	46683.94
657.094	46572.76
657.445	46777.72
657.796	46693.89
658.147	46545.41
658.498	46491.86
658.849	46559.43
659.2	46458.86
659.551	46375.48
659.902	46549.48
660.253	46471.29
660.604	46558.3
660.955	46250.96
661.306	46440.11
661.656	46198.76
662.007	46457.96
662.358	46260
662.708	46381.13
663.059	46214.35
663.409	45976.84
663.76	46413.44
664.11	46220.9
664.461	46393.33
664.811	46072.88
665.161	46210.73
665.511	45988.82
665.862	46060.46
666.212	46031.08
666.562	46121.92
666.912	46080.79
667.262	45994.47
667.612	46067.46
667.962	46028.82
668.312	45860.23
668.662	45963.28
669.011	45916.96
669.361	45836.73
669.711	45935.49
670.06	45923.06
670.41	45736.85
670.76	45638.09
671.109	45837.64
671.459	45685.78
671.808	45795.6
672.157	45739.11
672.507	45538.44
672.856	45513.13
673.205	45574.37
673.554	45742.27
673.904	45498.66
674.253	45592.22
674.602	45548.15
674.951	44918.56
675.3	44709.53
675.649	45392.68
675.998	45300.48
676.346	45307.93
676.695	45425.9
677.044	45100.25
677.393	45263.64
677.741	45279.46
678.09	45154.04
678.438	45094.38
678.787	45144.1
679.135	44940.26
679.484	44637.22
679.832	44935.29
680.181	44689.42
680.529	44754.5
680.877	44776.87
681.225	44679.47
681.573	44987.72
681.922	44641.74
682.27	44375.08
682.618	44430.22
682.966	44218.92
683.314	44453.04
683.661	44340.95
684.009	44001.98
684.357	44070.9
684.705	43980.28
685.053	43865.49
685.4	43938.7
685.748	43700.52
686.095	43763.11
686.443	43591.82
686.79	43483.12
687.138	43678.15
687.485	43672.5
687.832	43352.5
688.18	43435.44
688.527	43131.72
688.874	43199.29
689.221	43004.94
689.568	42991.84
689.915	42932.4
690.262	42765.63
690.609	42766.98
690.956	42612.41
691.303	42437.5
691.65	42295.81
691.997	42294.23
692.344	42125.87
692.69	42092.42
693.037	42212.42
693.383	41784.64
693.73	42030.73
694.077	41679.55
694.423	41611.08
694.769	41545.09
695.116	41297.19
695.462	41400.01
695.808	41296.51
696.155	41305.78
696.501	40948.95
696.847	41123.64
697.193	40793.7
697.539	41051.32
697.885	40596.64
698.231	40451.56
698.577	40571.56
698.923	40313.04
699.269	40156.43
699.614	39971.35
699.96	40094.06
700.306	39986.26
700.651	39746.72
700.997	39638.25
701.342	39601.42
701.688	39575.43
702.033	39399.16
702.379	39380.41
702.724	39236
703.069	39335.89
703.415	38845.5
703.76	38856.8
704.105	38859.06
704.45	38742.23
704.795	38564.38
705.14	38455.23
705.485	38546.3
705.83	38290.94
706.175	38363.03
706.52	38041.68
706.865	38030.61
707.209	37998.97
707.554	37827
707.899	37976.15
708.243	37716.04
708.588	37678.3
708.932	37300.46
709.277	37477.4
709.621	37506.33
709.966	37164.64
710.31	37240.12
710.654	36844.2
710.998	36865.22
711.342	36896.63
711.687	36733.92
712.031	36626.13
712.375	36576.64
712.719	36745.9
713.063	36660.48
713.407	36700.93
713.75	36338
714.094	36309.75
714.438	36213.71
714.782	36251.9
715.125	36016.65
715.469	36116.31
715.812	35890.55
716.156	35678.58
716.499	35771.23
716.843	35911.8
717.186	35585.7
717.53	35747.96
717.873	35642.88
718.216	35571.92
718.559	35411.7
718.902	35213.51
719.246	35224.36
719.589	35327.4
719.932	35086.96
720.275	35033.4
720.617	35083.8
720.96	34995.21
721.303	34925.38
721.646	34861.43
721.989	34658.95
722.331	34846.74
722.674	34667.31
723.016	34726.06
723.359	34562.45
723.701	34628.67
724.044	34316.58
724.386	34059.64
724.729	34315.23
725.071	34231.61
725.413	34156.81
725.755	34083.82
726.097	33886.09
726.439	33623.49
726.782	33869.36
727.124	33790.04
727.465	33595.47
727.807	33584.85
728.149	33519.54
728.491	33457.17
728.833	33469.37
729.175	33534.46
729.516	33281.36
729.858	33367.23
730.199	33464.63
730.541	33317.74
730.882	33189.16
731.224	33281.58
731.565	33151.64
731.906	33065.09
732.248	33061.02
732.589	32880.01
732.93	32763.86
733.271	32915.72
733.612	32798.88
733.953	32720.47
734.294	32623.52
734.635	32516.86
734.976	32730.41
735.317	32393.02
735.658	32427.37
735.999	32427.59
736.339	32316.64
736.68	32334.94
737.021	32297.43
737.361	32040.71
737.702	32315.28
738.042	32045.91
738.383	31959.36
738.723	32157.32
739.063	31831.23
739.404	31842.52
739.744	31907.83
740.084	31662.87
740.424	31644.56
740.764	31712.81
741.104	31837.55
741.444	31675.52
741.784	31489.54
742.124	31602.3
742.464	31524.57
742.804	31555.3
743.143	31420.16
743.483	31384.01
743.823	31152.6
744.162	31141.53
744.502	31129.1
744.841	31020.85
745.181	31158.7
745.52	30920.51
745.86	30956.9
746.199	30925.03
746.538	30881.42
746.877	30916
747.216	30783.34
747.556	30779.05
747.895	30666.74
748.234	30628.54
748.573	30492.05
748.911	30504.25
749.25	30348.55
749.589	30225.39
749.928	30384.71
750.267	30336.12
750.605	30100.42
750.944	30099.52
751.283	29887.1
751.621	29997.6
751.96	29781.34
752.298	29876.47
752.636	29869.92
752.975	29666.76
753.313	29696.14
