Data from breadboard_white_FLMS001491_00097.txt Node
Date: Wed Feb 08 10:48:33 GMT 2017
User: dcchb
Spectrometer: FLMS00149
Trigger mode: 0
Integration Time (sec): 2.000000E-2
Scans to average: 10
Electric dark correction enabled: true
Nonlinearity correction enabled: false
Boxcar width: 0
XAxis mode: Wavelengths
Number of Pixels in Spectrum: 2048
>>>>>Begin Spectral Data<<<<<
341.393	-7.58
341.776	-7.58
342.16	-7.58
342.543	-54.36
342.927	-68.37
343.31	-68.6
343.693	-77.19
344.077	-73.8
344.46	-55.72
344.843	-43.97
345.226	-33.8
345.61	-34.93
345.993	-18.66
346.376	3.71
346.759	16.6
347.142	29.7
347.525	45.3
347.908	63.15
348.291	59.08
348.674	75.13
349.057	113.99
349.44	132.3
349.823	147.67
350.206	156.93
350.588	197.61
350.971	217.95
351.354	242.35
351.737	254.33
352.119	259.08
352.502	269.24
352.884	296.59
353.267	294.33
353.65	308.34
354.032	294.55
354.414	327.1
354.797	331.16
355.179	327.1
355.562	332.07
355.944	333.42
356.326	342.91
356.709	370.94
357.091	342.01
357.473	354.89
357.855	339.75
358.238	346.3
358.62	340.2
359.002	337.27
359.384	352.63
359.766	350.6
360.148	334.1
360.53	369.58
360.912	367.55
361.294	348.56
361.676	356.02
362.057	348.11
362.439	346.76
362.821	346.76
363.203	322.35
363.584	331.16
363.966	361.45
364.348	354.21
364.729	330.71
365.111	331.16
365.493	329.81
365.874	356.7
366.256	312.18
366.637	322.8
367.019	353.54
367.4	352.63
367.781	319.86
368.163	315.8
368.544	338.85
368.925	340.43
369.306	338.62
369.688	330.26
370.069	332.52
370.45	348.79
370.831	331.16
371.212	350.37
371.593	314.89
371.974	352.18
372.355	330.49
372.736	349.02
373.117	333.42
373.498	349.24
373.879	325.74
374.26	347.21
374.641	354.67
375.021	356.25
375.402	350.15
375.783	361.22
376.163	345.4
376.544	349.92
376.925	367.09
377.305	369.35
377.686	362.58
378.066	343.82
378.447	362.58
378.827	382.91
379.208	383.14
379.588	365.74
379.968	374.55
380.349	347.21
380.729	368.68
381.109	395.57
381.489	389.69
381.87	378.39
382.25	397.83
382.63	394.21
383.01	370.03
383.39	407.32
383.77	389.69
384.15	434.89
384.53	421.56
384.91	407.32
385.29	420.65
385.67	399.41
386.049	394.89
386.429	390.15
386.809	412.52
387.189	417.49
387.568	446.87
387.948	433.31
388.328	441.67
388.707	423.59
389.087	432.18
389.466	442.57
389.846	437.38
390.225	458.84
390.605	474.44
390.984	453.65
391.363	459.3
391.743	473.98
392.122	489.35
392.501	485.06
392.881	474.21
393.26	479.86
393.639	480.54
394.018	501.1
394.397	510.82
394.776	526.19
395.155	524.6
395.534	541.33
395.913	522.57
396.292	525.96
396.671	557.82
397.05	540.65
397.429	558.28
397.808	538.62
398.186	545.17
398.565	544.04
398.944	588.56
399.323	578.84
399.701	583.36
400.08	596.92
400.458	600.08
400.837	605.96
401.215	612.51
401.594	620.42
401.972	619.07
402.351	650.48
402.729	642.34
403.107	664.71
403.486	655.67
403.864	690.25
404.242	685.96
404.62	699.97
404.999	717.37
405.377	708.1
405.755	705.62
406.133	759.4
406.511	760.98
406.889	783.36
407.267	775.67
407.645	798.72
408.023	793.98
408.401	809.57
408.779	861.32
409.156	869.45
409.534	859.29
409.912	858.61
410.29	896.57
410.667	917.81
411.045	904.93
411.422	954.42
411.8	944.71
412.178	984.25
412.555	998.26
412.933	1036.68
413.31	1032.61
413.687	1067.87
414.065	1048.66
414.442	1084.59
414.819	1082.78
415.197	1121.2
415.574	1140.18
415.951	1172.05
416.328	1170.24
416.705	1178.6
417.082	1190.12
417.46	1204.81
417.837	1228.32
418.214	1254.98
418.591	1254.53
418.967	1280.52
419.344	1275.55
419.721	1320.97
420.098	1312.61
420.475	1300.86
420.852	1348.09
421.228	1346.5
421.605	1394.64
421.982	1409.1
422.358	1447.29
422.735	1454.3
423.111	1436.67
423.488	1475.77
423.864	1478.25
424.241	1528.19
424.617	1530
424.994	1527.97
425.37	1571.81
425.746	1590.11
426.123	1574.52
426.499	1619.94
426.875	1608.87
427.251	1637.12
427.627	1704.91
428.003	1706.04
428.379	1739.94
428.756	1751.69
429.132	1781.07
429.507	1781.07
429.883	1847.73
430.259	1875.53
430.635	1879.15
431.011	1894.96
431.387	1922.99
431.763	1965.92
432.138	2007.5
432.514	2002.31
432.89	2042.76
433.265	2078.46
433.641	2094.06
434.016	2134.51
434.392	2137.67
434.767	2207.05
435.143	2197.1
435.518	2253.15
435.894	2276.88
436.269	2297.21
436.644	2324.11
437.02	2322.3
437.395	2338.34
437.77	2407.95
438.145	2413.14
438.52	2463.99
438.895	2472.58
439.271	2483.2
439.646	2497.43
440.021	2553.03
440.395	2550.77
440.77	2564.1
441.145	2578.79
441.52	2665.57
441.895	2634.38
442.27	2670.99
442.645	2657.43
443.019	2710.76
443.394	2728.61
443.769	2774.72
444.143	2734.49
444.518	2821.72
444.892	2803.87
445.267	2837.09
445.641	2883.41
446.016	2852.45
446.39	2887.48
446.764	2888.84
447.139	2907.82
447.513	2955.28
447.887	2973.81
448.262	3011.77
448.636	3000.7
449.01	3049.96
449.384	3057.87
449.758	3110.3
450.132	3162.95
450.506	3135.16
450.88	3162.73
451.254	3209.73
451.628	3249.73
452.002	3291.76
452.376	3299
452.75	3376.06
453.123	3354.59
453.497	3458.76
453.871	3408.37
454.244	3556.16
454.618	3541.7
454.992	3630.06
455.365	3630.29
455.739	3705.09
456.112	3723.16
456.486	3800.45
456.859	3821.02
457.232	3907.34
457.606	3878.64
457.979	3958.41
458.352	3988.47
458.725	4063.04
459.099	4069.82
459.472	4143.72
459.845	4239.99
460.218	4221.91
460.591	4353.43
460.964	4367.89
461.337	4402.47
461.71	4459.19
462.083	4557.27
462.456	4538.96
462.829	4565.85
463.201	4722.23
463.574	4665.06
463.947	4767.43
464.32	4870.25
464.692	4911.61
465.065	4953.19
465.438	5024.6
465.81	5080.42
466.183	5155.44
466.555	5271.82
466.928	5279.28
467.3	5247.87
467.672	5401.99
468.045	5528.54
468.417	5573.29
468.789	5595.21
469.161	5661.19
469.534	5768.53
469.906	5879.04
470.278	5914.75
470.65	6018.7
471.022	6131.24
471.394	6242.87
471.766	6331.01
472.138	6339.14
472.51	6479.48
472.882	6653.48
473.253	6697.1
473.625	6758.34
473.997	6943.65
474.369	6981.16
474.74	7006.24
475.112	7249.4
475.484	7305.22
475.855	7419.34
476.227	7539.34
476.598	7761.93
476.97	7857.07
477.341	7924.41
477.713	8127.12
478.084	8154.69
478.455	8419.09
478.827	8421.12
479.198	8683.94
479.569	8686.65
479.94	8996.7
480.311	9034.21
480.682	9229.69
481.053	9419.96
481.424	9617.7
481.795	9676.45
482.166	9809.78
482.537	9970.01
482.908	10228.08
483.279	10336.55
483.65	10499.03
484.021	10746.26
484.391	10779.02
484.762	10934.5
485.133	10989.64
485.503	11276.86
485.874	11466.69
486.244	11502.62
486.615	11809.96
486.985	11885.89
487.356	12098.99
487.726	12257.63
488.097	12583.27
488.467	12567.68
488.837	12814.23
489.207	13084.5
489.578	13078.4
489.948	13302.35
490.318	13418.5
490.688	13561.78
491.058	13784.14
491.428	14061.2
491.798	14142.1
492.168	14355.88
492.538	14361.08
492.908	14694.85
493.278	14727.4
493.648	14779.82
494.017	15146.82
494.387	15250.55
494.757	15324.44
495.126	15427.04
495.496	15561.72
495.866	15649.86
496.235	15817.76
496.605	16030.64
496.974	16203.06
497.344	16231.76
497.713	16318.54
498.082	16602.37
498.452	16712.2
498.821	16797.4
499.19	16848.7
499.559	17113.55
499.928	17180.44
500.298	17323.71
500.667	17449.13
501.036	17385.63
501.405	17637.38
501.774	17698.62
502.143	17901.78
502.512	17924.6
502.88	18211.82
503.249	18107.87
503.618	18334.98
503.987	18407.98
504.356	18584.47
504.724	18643.22
505.093	18795.31
505.462	18920.05
505.83	18985.14
506.199	19192.36
506.567	19423.09
506.936	19460.83
507.304	19717.77
507.672	19806.81
508.041	19926.81
508.409	19975.84
508.777	20249.06
509.145	20378.09
509.514	20431.43
509.882	20600.46
510.25	20691.76
510.618	20797.29
510.986	20885.88
511.354	21158.64
511.722	21237.28
512.09	21555.01
512.458	21561.57
512.826	21722.69
513.193	21868.22
513.561	21993.19
513.929	22151.38
514.297	22340.3
514.664	22510.92
515.032	22679.28
515.4	22871.81
515.767	22943.45
516.135	23055.99
516.502	23073.62
516.869	23499.14
517.237	23485.13
517.604	23517.45
517.972	23867.04
518.339	24114.95
518.706	24101.61
519.073	24273.36
519.44	24457.99
519.808	24716.74
520.175	24724.42
520.542	25112.66
520.909	25301.81
521.276	25233.11
521.643	25568.01
522.009	25691.63
522.376	25994.44
522.743	26080.32
523.11	26387.88
523.477	26548.33
523.843	26804.14
524.21	27140.18
524.577	27283
524.943	27398.7
525.31	27566.83
525.676	27772.25
526.043	27939.48
526.409	28172.47
526.776	28522.74
527.142	28504.43
527.508	28710.53
527.874	28971.77
528.241	29113.68
528.607	29228.71
528.973	29605.2
529.339	29585.76
529.705	29897.62
530.071	30120.44
530.437	30303.03
530.803	30472.07
531.169	30673.19
531.535	30632.51
531.901	30863.92
532.267	30907.76
532.632	31185.27
532.998	31361.08
533.364	31442.66
533.73	31610.12
534.095	31926.94
534.461	31849.43
534.826	32152.93
535.192	32262.08
535.557	32473.82
535.923	32420.04
536.288	32625
536.653	32730.54
537.019	32818.67
537.384	33074.48
537.749	33060.25
538.114	33285.33
538.479	33355.38
538.845	33507.24
539.21	33411.42
539.575	33662.72
539.94	33617.97
540.305	33967.34
540.67	33914.91
541.034	34218.63
541.399	34330.04
541.764	34421.11
542.129	34502.92
542.494	34545.86
542.858	34807.09
543.223	34782.01
543.587	35018.39
543.952	35001.44
544.316	35111.72
544.681	35098.61
545.045	35331.83
545.41	35455.89
545.774	35650.69
546.138	35621.76
546.503	35758.25
546.867	35819.5
547.231	36239.82
547.595	36220.39
547.959	36280.5
548.324	36379.03
548.688	36579.25
549.052	36628.06
549.416	36619.7
549.779	36774.5
550.143	36927.72
550.507	37168.39
550.871	37238.22
551.235	37269.63
551.599	37662.84
551.962	37473.24
552.326	37856.28
552.689	38019.89
553.053	37894.92
553.417	37957.07
553.78	38422.14
554.143	38379.2
554.507	38605.86
554.87	38752.98
555.234	39083.37
555.597	38838.4
555.96	39166.3
556.323	39270.7
556.686	39435.22
557.05	39540.08
557.413	39665.04
557.776	39766.96
558.139	39966.28
558.502	40085.15
558.865	40171.47
559.228	40582.53
559.59	40617.56
559.953	40795.64
560.316	41128.28
560.679	41032.47
561.041	41318.56
561.404	41577.99
561.767	41832.9
562.129	41723.75
562.492	42099.33
562.854	42136.62
563.217	42110.4
563.579	42345.65
563.941	42617.28
564.304	42833.77
564.666	43011.85
565.028	43081.23
565.39	43278.96
565.753	43366.42
566.115	43564.38
566.477	43906.74
566.839	43924.59
567.201	44161.65
567.563	44122.1
567.925	44389.67
568.287	44390.8
568.648	44520.28
569.01	44777.9
569.372	44984
569.734	44961.4
570.095	45198.46
570.457	45240.94
570.819	45525
571.18	45531.56
571.542	45655.17
571.903	45764.77
572.265	45969.51
572.626	46025.78
572.987	46154.37
573.349	46263.52
573.71	46347.35
574.071	46548.71
574.432	46700.11
574.794	46959.54
575.155	46811.98
575.516	46712.99
575.877	46936.94
576.238	47086.09
576.599	47104.17
576.96	47139.42
577.32	47240.44
577.681	47438.17
578.042	47340.32
578.403	47366.09
578.763	47451.73
579.124	47490.15
579.485	47703.25
579.845	47739.86
580.206	47555.68
580.566	47713.42
580.927	47757.71
581.287	47779.18
581.648	47710.03
582.008	47875.45
582.368	47908.67
582.728	47929.23
583.089	47827.54
583.449	47861.44
583.809	47917.26
584.169	48070.25
584.529	47765.17
584.889	48216.91
585.249	48020.08
585.609	47904.15
585.969	48124.94
586.329	47954.77
586.688	48066.41
587.048	47988.44
587.408	47964.71
587.768	48006.07
588.127	48030.25
588.487	48017.37
588.846	48256.01
589.206	48083.81
589.565	48133.97
589.925	48251.49
590.284	48042.23
590.643	48121.09
591.003	48316.34
591.362	48312.5
591.721	48231.6
592.08	48259.85
592.44	48432.5
592.799	48404.93
593.158	48261.65
593.517	48276.8
593.876	48416.9
594.235	48198.15
594.593	48371.48
594.952	48386.85
595.311	48274.31
595.67	48423.23
596.029	48528.54
596.387	48603.11
596.746	48589.78
597.104	48507.75
597.463	48535.09
597.822	48775.09
598.18	48565.38
598.538	48463.01
598.897	48640.63
599.255	48320.41
599.613	48940.28
599.972	48674.3
600.33	48656.45
600.688	48555.66
601.046	48809.44
601.404	48913.16
601.762	48761.75
602.12	49032.03
602.478	49072.71
602.836	49090.33
603.194	48887.85
603.552	48985.48
603.91	48923.56
604.268	49186.15
604.625	49022.99
604.983	49072.93
605.341	48930.34
605.698	49184.12
606.056	49162.2
606.413	49219.14
606.771	49259.37
607.128	49420.49
607.485	49137.11
607.843	49251.23
608.2	49422.98
608.557	49381.63
608.914	49330.55
609.272	49485.13
609.629	49642.86
609.986	49616.42
610.343	49543.88
610.7	49768.51
611.057	49662.3
611.414	49726.47
611.771	49789.3
612.127	49889.18
612.484	49896.87
612.841	50097.76
613.198	49827.72
613.554	49981.16
613.911	50133.02
614.267	49994.04
614.624	50032.68
614.98	50091.44
615.337	50252.79
615.693	50154.03
616.05	50222.51
616.406	50353.35
616.762	50264.09
617.118	50263.64
617.475	50353.8
617.831	50435.38
618.187	50448.26
618.543	50426.57
618.899	50665.89
619.255	50581.59
619.611	50483.97
619.967	50636.28
620.323	50764.19
620.678	50558.77
621.034	50563.52
621.39	50440.81
621.746	50468.6
622.101	50879.89
622.457	50450.52
622.812	50606
623.168	50653.68
623.523	50655.04
623.879	50752.89
624.234	50551.99
624.589	50644.64
624.945	50619.11
625.3	50771.42
625.655	50676.96
626.01	50604.87
626.365	50611.88
626.72	50628.6
627.075	50640.35
627.43	50607.81
627.785	50479.68
628.14	50612.33
628.495	50517.64
628.85	50616.4
629.205	50414.14
629.559	50660.46
629.914	50420.24
630.269	50469.73
630.623	50365.55
630.978	50363.52
631.332	50548.83
631.687	50515.15
632.041	50406.68
632.396	50375.05
632.75	50231.77
633.104	50300.25
633.459	50034.94
633.813	50195.84
634.167	50075.84
634.521	50013.93
634.875	50112.23
635.229	50056.41
635.583	49933.7
635.937	49856.19
636.291	49815.29
636.645	49826.13
636.999	49764.67
637.352	49838.11
637.706	49674.95
638.06	49806.47
638.413	49691.9
638.767	49561.28
639.121	49701.16
639.474	49447.16
639.828	49361.06
640.181	49444.22
640.534	49444.45
640.888	49249.43
641.241	49105.7
641.594	49186.6
641.947	49378.69
642.301	49164
642.654	49133.04
643.007	49188.18
643.36	49181.63
643.713	48971.92
644.066	49099.82
644.419	48916.55
644.771	48787.06
645.124	48429.11
645.477	48418.26
645.83	48132.17
646.182	47870.03
646.535	47650.82
646.888	47694.44
647.24	47566.76
647.593	47753.65
647.945	47592.52
648.298	47404.28
648.65	47394.78
649.002	47300.78
649.355	47429.81
649.707	47254.68
650.059	47475.69
650.411	48062.56
650.763	48085.61
651.115	48358.38
651.467	48162
651.819	48139.4
652.171	47998.38
652.523	48043.81
652.875	47899.18
653.227	47703.7
653.578	48079.06
653.93	47947.09
654.282	47810.14
654.633	47738.5
654.985	47693.53
655.337	47708.67
655.688	47799.97
656.039	47917.93
656.391	47545.74
656.742	47721.33
657.094	47551.39
657.445	47708.9
657.796	47574.67
658.147	47504.16
658.498	47473.65
658.849	47554.78
659.2	47543.03
659.551	47358.63
659.902	47556.81
660.253	47434.78
660.604	47434.33
660.955	47191.85
661.306	47364.05
661.656	47320.66
662.007	47263.49
662.358	47434.33
662.708	47301.68
663.059	47170.38
663.409	46924.74
663.76	47347.55
664.11	47182.14
664.461	47289.02
664.811	47331.06
665.161	47166.09
665.511	47074.57
665.862	47092.65
666.212	47183.49
666.562	47100.1
666.912	47011.52
667.262	47075.02
667.612	47069.14
667.962	47017.62
668.312	46961.12
668.662	47192.08
669.011	47107.11
669.361	47018.98
669.711	47087.67
670.06	46951.63
670.41	46946.44
670.76	46852.43
671.109	47014.46
671.459	46848.13
671.808	46781.47
672.157	46795.03
672.507	46491.98
672.856	46625.77
673.205	46612.21
673.554	46661.47
673.904	46529.95
674.253	46734.69
674.602	46676.84
674.951	46043.41
675.3	45801.83
675.649	46450.4
675.998	46325.43
676.346	46397.3
676.695	46420.35
677.044	46205.66
677.393	46239.56
677.741	46393.23
678.09	46181.94
678.438	46048.61
678.787	46193.91
679.135	45945.11
679.484	45913.24
679.832	46117.3
680.181	45646.13
680.529	45959.12
680.877	45833.47
681.225	45686.36
681.573	45899.68
681.922	45619.01
682.27	45540.37
682.618	45522.97
682.966	45392.58
683.314	45383.99
683.661	45365.46
684.009	45191.23
684.357	45205.69
684.705	45130.89
685.053	45114.62
685.4	45096.09
685.748	44766.38
686.095	44680.51
686.443	44591.24
686.79	44606.16
687.138	44577.91
687.485	44658.81
687.832	44507.86
688.18	44441.87
688.527	44393.28
688.874	44302.89
689.221	44130.92
689.568	44051.37
689.915	43838.72
690.262	43900.41
690.609	43727.08
690.956	43728.44
691.303	43628.33
691.65	43458.84
691.997	43471.5
692.344	43125.97
692.69	43057.95
693.037	43058.85
693.383	42745.19
693.73	42878.07
694.077	42548.81
694.423	42641.24
694.769	42580.45
695.116	42445.08
695.462	42383.17
695.808	42293.45
696.155	42393.56
696.501	42003.06
696.847	42084.19
697.193	41687.59
697.539	41842.84
697.885	41571.21
698.231	41541.15
698.577	41474.04
698.923	41340.25
699.269	41199.92
699.614	41105.91
699.96	40998.79
700.306	40955.63
700.651	40795.18
700.997	40701.85
701.342	40650.1
701.688	40600.16
702.033	40409.21
702.379	40470
702.724	40362.88
703.069	40425.93
703.415	39839.73
703.76	40043.57
704.105	39870.91
704.45	39719.51
704.795	39634.08
705.14	39369.91
705.485	39330.36
705.83	39219.63
706.175	39382.79
706.52	39111.16
706.865	39110.71
707.209	38970.83
707.554	38837.5
707.899	39001.11
708.243	38724.05
708.588	38596.82
708.932	38369.03
709.277	38501.69
709.621	38448.35
709.966	38279.77
710.31	38127.68
710.654	37910.29
710.998	37924.07
711.342	37968.82
711.687	37753.46
712.031	37700.12
712.375	37466.91
712.719	37561.15
713.063	37513.91
713.407	37542.39
713.75	37283.64
714.094	37411.77
714.438	37096.3
714.782	37237.99
715.125	37080.25
715.469	36870.09
715.812	36869.41
716.156	36781.96
716.499	36762.97
716.843	36806.59
717.186	36399.59
717.53	36557.33
717.873	36661.28
718.216	36499.03
718.559	36421.51
718.902	36139.26
719.246	36213.16
719.589	36153.72
719.932	36059.72
720.275	36007.29
720.617	35899.04
720.96	35877.35
721.303	35892.26
721.646	35871.92
721.989	35501.31
722.331	35632.83
722.674	35588.32
723.016	35462.67
723.359	35403.91
723.701	35602.1
724.044	35206.18
724.386	35078.27
724.729	35179.96
725.071	35059.29
725.413	35163.02
725.755	34931.38
726.097	34743.14
726.439	34628.11
726.782	34651.84
727.124	34845.74
727.465	34768.22
727.807	34632.41
728.149	34592.64
728.491	34368.46
728.833	34467.44
729.175	34399.42
729.516	34233.55
729.858	34221.35
730.199	34253.21
730.541	34161.46
730.882	34134.34
731.224	34056.15
731.565	33966.21
731.906	33939.55
732.248	34045.98
732.589	33885.08
732.93	33596.96
733.271	33803.28
733.612	33605.99
733.953	33692.77
734.294	33472.21
734.635	33545.66
734.976	33414.59
735.317	33424.08
735.658	33340.01
735.999	33346.57
736.339	33307.92
736.68	33188.38
737.021	33134.14
737.361	33047.37
737.702	33116.97
738.042	32979.12
738.383	32881.04
738.723	32902.96
739.063	32798.11
739.404	32972.57
739.744	32749.07
740.084	32552.46
740.424	32679.24
740.764	32658.45
741.104	32596.3
741.444	32412.13
741.784	32293.94
742.124	32354.95
742.464	32323.77
742.804	32229.31
743.143	32221.4
743.483	32082.42
743.823	32036.09
744.162	31940.95
744.502	31956.09
744.841	31854.18
745.181	32013.95
745.52	31796.55
745.86	31851.69
746.199	31804.01
746.538	31764.24
746.877	31737.12
747.216	31736.21
747.556	31583.45
747.895	31544.81
748.234	31349.78
748.573	31294.87
748.911	31297.13
749.25	31245.38
749.589	31050.81
749.928	31300.97
750.267	31186.85
750.605	30952.96
750.944	30992.96
751.283	30831.83
751.621	30944.37
751.96	30733.75
752.298	30665.51
752.636	30615.79
752.975	30421.67
753.313	30422.8
