Data from breadboard_white_FLMS001491_00090.txt Node
Date: Wed Feb 08 10:48:24 GMT 2017
User: dcchb
Spectrometer: FLMS00149
Trigger mode: 0
Integration Time (sec): 2.000000E-2
Scans to average: 10
Electric dark correction enabled: true
Nonlinearity correction enabled: false
Boxcar width: 0
XAxis mode: Wavelengths
Number of Pixels in Spectrum: 2048
>>>>>Begin Spectral Data<<<<<
341.393	-18.84
341.776	-18.84
342.16	-18.84
342.543	-64.72
342.927	-75.79
343.31	-67.65
343.693	-60.65
344.077	-52.29
344.46	-52.29
344.843	-56.13
345.226	-43.7
345.61	-24.94
345.993	-32.4
346.376	-13.19
346.759	12.8
347.142	8.73
347.525	42.17
347.908	49.18
348.291	74.94
348.674	94.15
349.057	121.27
349.44	116.3
349.823	128.95
350.206	156.75
350.588	209.4
350.971	209.63
351.354	225.22
351.737	254.82
352.119	268.61
352.502	272.22
352.884	267.7
353.267	300.7
353.65	301.6
354.032	301.83
354.414	317.65
354.797	331.21
355.179	329.85
355.562	350.87
355.944	320.36
356.326	326.69
356.709	332.56
357.091	363.52
357.473	356.97
357.855	354.26
358.238	356.74
358.62	354.26
359.002	355.39
359.384	341.15
359.766	342.51
360.148	360.58
360.53	341.6
360.912	349.06
361.294	352
361.676	342.28
362.057	367.14
362.439	368.72
362.821	345.22
363.203	342.96
363.584	351.32
363.966	355.16
364.348	352.22
364.729	353.58
365.111	361.04
365.493	336.18
365.874	344.54
366.256	338.21
366.637	345.89
367.019	335.05
367.4	337.99
367.781	347.02
368.163	352.67
368.544	339.34
368.925	345.44
369.306	363.75
369.688	344.09
370.069	337.08
370.45	335.5
370.831	346.8
371.212	334.82
371.593	346.57
371.974	332.56
372.355	349.51
372.736	366.46
373.117	346.35
373.498	349.06
373.879	354.26
374.26	346.8
374.641	342.05
375.021	348.83
375.402	361.26
375.783	379.11
376.163	387.25
376.544	364.88
376.925	369.4
377.305	366.91
377.686	374.14
378.066	389.06
378.447	361.49
378.827	394.93
379.208	373.92
379.588	379.34
379.968	376.85
380.349	394.93
380.729	375.95
381.109	397.87
381.489	382.73
381.87	382.05
382.25	398.77
382.63	392.45
383.01	409.4
383.39	420.02
383.77	408.27
384.15	429.96
384.53	416.85
384.91	417.31
385.29	434.25
385.67	420.47
386.049	431.54
386.429	454.14
386.809	422.28
387.189	447.14
387.568	449.17
387.948	421.15
388.328	462.05
388.707	465.44
389.087	461.37
389.466	460.47
389.846	465.21
390.225	471.32
390.605	502.27
390.984	503.86
391.363	492.11
391.743	502.73
392.122	532.56
392.501	516.06
392.881	517.64
393.26	519
393.639	545.44
394.018	516.29
394.397	538.21
394.776	545.21
395.155	551.54
395.534	559
395.913	573.69
396.292	566.23
396.671	580.01
397.05	608.03
397.429	599.45
397.808	584.76
398.186	595.61
398.565	626.57
398.944	609.16
399.323	650.29
399.701	630.63
400.08	653.23
400.458	637.64
400.837	647.81
401.215	660.01
401.594	673.57
401.972	679.9
402.351	678.99
402.729	715.83
403.107	715.38
403.486	719.22
403.864	744.53
404.242	726.45
404.62	771.42
404.999	775.94
405.377	781.14
405.755	797.18
406.133	793.57
406.511	827.01
406.889	839.89
407.267	830.4
407.645	867.01
408.023	864.75
408.401	907.91
408.779	905.88
409.156	946.56
409.534	947.46
409.912	968.03
410.29	980
410.667	1005.31
411.045	1024.97
411.422	1028.59
411.8	1064.07
412.178	1069.72
412.555	1081.92
412.933	1112.2
413.31	1139.32
413.687	1128.7
414.065	1183.39
414.442	1198.3
414.819	1213.89
415.197	1211.18
415.574	1249.15
415.951	1300.67
416.328	1298.19
416.705	1275.81
417.082	1287.34
417.46	1289.15
417.837	1357.17
418.214	1391.52
418.591	1384.06
418.967	1390.84
419.344	1406.21
419.721	1411.4
420.098	1441.91
420.475	1498.86
420.852	1498.86
421.228	1507.67
421.605	1524.17
421.982	1523.49
422.358	1536.15
422.735	1592.64
423.111	1593.55
423.488	1615.24
423.864	1609.82
424.241	1655.24
424.617	1687.1
424.994	1710.38
425.37	1703.83
425.746	1736.14
426.123	1742.92
426.499	1762.13
426.875	1779.98
427.251	1827.21
427.627	1871.5
428.003	1852.97
428.379	1910.6
428.756	1933.65
429.132	1923.03
429.507	1967.32
429.883	2000.09
430.259	2036.02
430.635	2071.05
431.011	2115.11
431.387	2143.36
431.763	2166.86
432.138	2164.15
432.514	2202.34
432.89	2253.64
433.265	2308.56
433.641	2297.71
434.016	2336.13
434.392	2397.37
434.767	2407.31
435.143	2416.8
435.518	2431.49
435.894	2498.61
436.269	2529.57
436.644	2544.93
437.02	2530.92
437.395	2610.69
437.77	2624.03
438.145	2662.67
438.52	2671.26
438.895	2749.22
439.271	2694.99
439.646	2786.28
440.021	2829.45
440.395	2809.33
440.77	2812.5
441.145	2848.43
441.52	2915.09
441.895	2874.19
442.27	2916.45
442.645	2937.24
443.019	2995.09
443.394	3000.97
443.769	3044.35
444.143	3004.81
444.518	3056.11
444.892	3057.69
445.267	3118.48
445.641	3136.1
446.016	3168.42
446.39	3224.69
446.764	3231.24
447.139	3209.55
447.513	3253.16
447.887	3275.76
448.262	3282.54
448.636	3292.26
449.01	3374.52
449.384	3379.04
449.758	3409.77
450.132	3463.78
450.506	3473.72
450.88	3546.26
451.254	3509.43
451.628	3582.87
452.002	3573.83
452.376	3649.99
452.75	3660.61
453.123	3679.37
453.497	3779.7
453.871	3755.07
454.244	3870.32
454.618	3903.32
454.992	3936.53
455.365	3946.25
455.739	4007.27
456.112	4106.93
456.486	4081.16
456.859	4193.7
457.232	4244.32
457.606	4261.95
457.979	4316.86
458.352	4371.33
458.725	4435.05
459.099	4535.16
459.472	4580.81
459.845	4616.29
460.218	4603.86
460.591	4705.55
460.964	4734.03
461.337	4808.83
461.71	4896.74
462.083	4997.07
462.456	4994.59
462.829	5017.64
463.201	5131.98
463.574	5122.72
463.947	5258.76
464.32	5341.92
464.692	5357.51
465.065	5417.63
465.438	5489.71
465.81	5570.16
466.183	5562.71
466.555	5768.58
466.928	5798.41
467.3	5818.29
467.672	5895.35
468.045	6071.85
468.417	6084.95
468.789	6100.32
469.161	6230.71
469.534	6293.99
469.906	6444.27
470.278	6523.36
470.65	6570.82
471.022	6691.26
471.394	6871.6
471.766	6911.37
472.138	6961.54
472.51	7150.46
472.882	7233.62
473.253	7292.38
473.625	7419.16
473.997	7553.61
474.369	7612.6
474.74	7707.96
475.112	7830.44
475.484	7992.47
475.855	8106.37
476.227	8230.43
476.598	8455.06
476.97	8471.56
477.341	8744.54
477.713	8842.17
478.084	8890.3
478.455	9082.61
478.827	9271.99
479.198	9519.21
479.569	9512.43
479.94	9832.88
480.311	9891.86
480.682	10086.66
481.053	10337.95
481.424	10526.42
481.795	10583.59
482.166	10775.45
482.537	10948.78
482.908	11134.76
483.279	11249.34
483.65	11481.2
484.021	11716.67
484.391	11780.17
484.762	11908.3
485.133	12088.41
485.503	12245.47
485.874	12563.2
486.244	12653.59
486.615	12881.61
486.985	13057.88
487.356	13253.35
487.726	13294.71
488.097	13660.35
488.467	13727.46
488.837	14032.54
489.207	14226.89
489.578	14363.61
489.948	14505.3
490.318	14698.96
490.688	14677.95
491.058	14992.97
491.428	15247.88
491.798	15364.26
492.168	15646.06
492.538	15804.7
492.908	15889.44
493.278	16182.09
493.648	16137.8
494.017	16418.69
494.387	16512.93
494.757	16698.23
495.126	16932.35
495.496	16928.96
495.866	17056.42
496.235	17261.16
496.605	17436.97
496.974	17593.58
497.344	17762.61
497.713	17831.31
498.082	17992.89
498.452	18231.3
498.821	18350.17
499.19	18275.37
499.559	18601.01
499.928	18648.01
500.298	18731.85
500.667	18921.68
501.036	18956.48
501.405	19158.06
501.774	19203.25
502.143	19462.68
502.512	19558.95
502.88	19805.27
503.249	19866.51
503.618	19909.45
503.987	20064.02
504.356	20105.15
504.724	20224.24
505.093	20478.47
505.462	20424.69
505.83	20784
506.199	20790.78
506.567	21127.27
506.936	21148.06
507.304	21421.95
507.672	21464.44
508.041	21637.54
508.409	21823.75
508.777	21998.88
509.145	22126.34
509.514	22094.93
509.882	22411.76
510.25	22471.41
510.618	22649.49
510.986	22748.47
511.354	23022.59
511.722	23192.98
512.09	23401.33
512.458	23380.32
512.826	23631.38
513.193	23783.92
513.561	23857.59
513.929	24051.26
514.297	24269.79
514.664	24421.42
515.032	24546.61
515.4	24755.87
515.767	24952.71
516.135	25108.63
516.502	24942.31
516.869	25407.16
517.237	25626.36
517.604	25568.73
517.972	25927.37
518.339	26142.96
518.706	26204.65
519.073	26261.15
519.44	26645.09
519.808	26926.66
520.175	26934.35
520.542	27268.8
520.909	27349.93
521.276	27463.15
521.643	27860.2
522.009	27989.01
522.376	28153.07
522.743	28400.07
523.11	28581.99
523.477	28867.86
523.843	29090.22
524.21	29414.74
524.577	29596.88
524.943	29708.96
525.31	29978.79
525.676	30248.39
526.043	30393.47
526.409	30404.77
526.776	30942.6
527.142	31053.56
527.508	31191.64
527.874	31485.64
528.241	31695.81
528.607	31732.19
528.973	32048.34
529.339	31954.56
529.705	32367.88
530.071	32526.29
530.437	32831.59
530.803	33047.18
531.169	33212.83
531.535	33189.55
531.901	33319.04
532.267	33550.22
532.632	33788.63
532.998	33950.43
533.364	34076.53
533.73	34111.56
534.095	34508.39
534.461	34542.74
534.826	34777.53
535.192	34994.25
535.557	35174.36
535.923	35118.99
536.288	35285.09
536.653	35424.75
537.019	35417.06
537.384	35626.55
537.749	35825.41
538.114	35999.87
538.479	36001.23
538.845	36222.01
539.21	36305.18
539.575	36462.46
539.94	36451.84
540.305	36818.83
540.67	36854.09
541.034	36918.49
541.399	37025.83
541.764	37317.35
542.129	37377.01
542.494	37446.16
542.858	37532.94
543.223	37632.6
543.587	37817.68
543.952	37755.76
544.316	38046.37
544.681	38090.89
545.045	38334.27
545.41	38509.64
545.774	38660.59
546.138	38750.99
546.503	38746.24
546.867	38629.41
547.231	39080.47
547.595	39173.57
547.959	39319.56
548.324	39334.93
548.688	39508.03
549.052	39617.86
549.416	39694.46
549.779	39971.52
550.143	39921.58
550.507	40378.29
550.871	40380.1
551.235	40277.73
551.599	40569.02
551.962	40748
552.326	40893.3
552.689	41151.38
553.053	40983.02
553.417	41144.37
553.78	41710.46
554.143	41536.22
554.507	41744.35
554.87	41804.69
555.234	42241.74
555.597	42104.12
555.96	42345.69
556.323	42538.68
556.686	42619.13
557.05	42912.46
557.413	43054.15
557.776	43074.94
558.139	43324.2
558.502	43439
558.865	43636.51
559.228	43873.79
559.59	43946.1
559.953	44081.69
560.316	44528.69
560.679	44391.52
561.041	44800.32
561.404	44917.15
561.767	45153.76
562.129	45042.12
562.492	45520.07
562.854	45509.68
563.217	45632.84
563.579	45745.83
563.941	46042.32
564.304	46110.57
564.666	46375.19
565.028	46548.07
565.39	46649.99
565.753	46912.13
566.115	47048.4
566.477	47212.23
566.839	47294.04
567.201	47645.44
567.563	47503.07
567.925	47780.58
568.287	47889.05
568.648	47904.19
569.01	48274.58
569.372	48406.33
569.734	48195.71
570.095	48633.89
570.457	48723.83
570.819	48772.87
571.18	48886.09
571.542	49099.19
571.903	49090.6
572.265	49224.61
572.626	49369.01
572.987	49465.96
573.349	49544.83
573.71	49735.33
574.071	49690.13
574.432	49881.77
574.794	50079.73
575.155	50122.21
575.516	50099.39
575.877	50327.18
576.238	50212.61
576.599	50301.87
576.96	50441.75
577.32	50418.02
577.681	50599.04
578.042	50655.08
578.403	50587.06
578.763	50596.78
579.124	50717
579.485	50837
579.845	51050.1
580.206	50961.06
580.566	50901.4
580.927	50887.62
581.287	51066.6
581.648	50971.23
582.008	51142.75
582.368	51036.77
582.728	51131.9
583.089	51051.91
583.449	51064.34
583.809	51077.44
584.169	51184.78
584.529	51119.7
584.889	51414.61
585.249	51127.61
585.609	51086.93
585.969	51283.31
586.329	51254.39
586.688	51211
587.048	51234.5
587.408	51182.07
587.768	51181.62
588.127	51191.56
588.487	51140.72
588.846	51395.17
589.206	51198.57
589.565	51243.77
589.925	51393.37
590.284	51260.71
590.643	51330.09
591.003	51448.28
591.362	51497.54
591.721	51388.39
592.08	51446.02
592.44	51552.91
592.799	51505.68
593.158	51462.52
593.517	51518.56
593.876	51606.24
594.235	51382.97
594.593	51416.87
594.952	51551.33
595.311	51477.66
595.67	51529.18
596.029	51737.54
596.387	51649.63
596.746	51747.26
597.104	51666.81
597.463	51614.6
597.822	51712.23
598.18	51613.47
598.538	51591.55
598.897	51785.22
599.255	51595.17
599.613	52029.06
599.972	51768.27
600.33	51971.88
600.688	51731.89
601.046	51884.2
601.404	51990.64
601.762	51967.36
602.12	52059.79
602.478	52098.66
602.836	52058.21
603.194	52002.16
603.552	52069.05
603.91	51954.48
604.268	52021.6
604.625	52079
604.983	52181.59
605.341	52079.45
605.698	52179.33
606.056	52361.7
606.413	52177.3
606.771	52331.19
607.128	52375.94
607.485	52347.69
607.843	52325.77
608.2	52489.83
608.557	52481.25
608.914	52425.2
609.272	52564.41
609.629	52659.55
609.986	52809.83
610.343	52609.38
610.7	52861.58
611.057	52830.16
611.414	52798.08
611.771	52827.45
612.127	52789.71
612.484	52839.88
612.841	52927.79
613.198	52794.69
613.554	52913.1
613.911	53061.57
614.267	52998.3
614.624	52996.71
614.98	53115.35
615.337	53281.45
615.693	53076.71
616.05	53113.77
616.406	53302.47
616.762	53196.48
617.118	53144.05
617.475	53160.1
617.831	53325.74
618.187	53346.76
618.543	53357.83
618.899	53478.06
619.255	53390.6
619.611	53443.48
619.967	53457.94
620.323	53621.1
620.678	53454.55
621.034	53381.34
621.39	53459.98
621.746	53307.21
622.101	53655.91
622.457	53477.61
622.812	53466.31
623.168	53583.14
623.523	53571.61
623.879	53715.57
624.234	53460.2
624.589	53610.48
624.945	53589.69
625.3	53651.16
625.655	53569.35
626.01	53559.18
626.365	53626.53
626.72	53586.98
627.075	53522.8
627.43	53502.24
627.785	53447.1
628.14	53459.53
628.495	53464.72
628.85	53479.64
629.205	53410.49
629.559	53560.77
629.914	53353.99
630.269	53331.62
630.623	53330.72
630.978	53219.08
631.332	53381.79
631.687	53475.57
632.041	53262.47
632.396	53308.57
632.75	53181.34
633.104	53343.15
633.459	53164.85
633.813	53140.21
634.167	53015.02
634.521	53089.82
634.875	53146.09
635.229	53015.24
635.583	52810.28
635.937	52942.93
636.291	52870.16
636.645	52896.83
636.999	52845.08
637.352	52958.52
637.706	52721.01
638.06	52764.63
638.413	52779.32
638.767	52662.03
639.121	52697.51
639.474	52470.85
639.828	52558.76
640.181	52512.66
640.534	52476.95
640.888	52389.5
641.241	52213.46
641.594	52353.11
641.947	52363.06
642.301	52314.7
642.654	52226.11
643.007	52328.48
643.36	52160.8
643.713	52148.6
644.066	52304.75
644.419	52119.67
644.771	51888.72
645.124	51593.13
645.477	51550.88
645.83	51347.94
646.182	51128.51
646.535	51004.68
646.888	51115.41
647.24	50954.06
647.593	51098.23
647.945	51086.26
648.298	50812.14
648.65	50801.74
649.002	50644.69
649.355	50820.5
649.707	50710.45
650.059	50886.94
650.411	51270.66
650.763	51300.71
651.115	51602.17
651.467	51468.84
651.819	51445.34
652.171	51297.32
652.523	51340.26
652.875	51359.47
653.227	51126.25
653.578	51298
653.93	51185.69
654.282	51042.19
654.633	51036.77
654.985	51067.73
655.337	50990.44
655.688	51004.68
656.039	51168.06
656.391	50848.97
656.742	51015.3
657.094	51044.9
657.445	51032.02
657.796	50941.17
658.147	50939.82
658.498	50873.83
658.849	50861.85
659.2	50851.01
659.551	50827.73
659.902	50890.33
660.253	50817.11
660.604	50895.98
660.955	50665.7
661.306	50808.07
661.656	50734.4
662.007	50617.57
662.358	50760.39
662.708	50706.15
663.059	50566.27
663.409	50430.91
663.76	50571.01
664.11	50543.9
664.461	50662.09
664.811	50592.03
665.161	50586.38
665.511	50474.29
665.862	50576.21
666.212	50528.08
666.562	50579.38
666.912	50467.29
667.262	50514.97
667.612	50448.98
667.962	50417.8
668.312	50342.32
668.662	50540.28
669.011	50423.67
669.361	50413.96
669.711	50356.56
670.06	50288.76
670.41	50334.41
670.76	50167.18
671.109	50422.77
671.459	50308.42
671.808	50234.07
672.157	50288.76
672.507	50028.43
672.856	50119.5
673.205	50148.65
673.554	50187.75
673.904	50004.25
674.253	50199.27
674.602	50113.63
674.951	49626.41
675.3	49400.2
675.649	49885.16
675.998	49810.81
676.346	49864.59
676.695	50057.58
677.044	49717.03
677.393	49746.86
677.741	49816.01
678.09	49600.19
678.438	49530.14
678.787	49685.84
679.135	49709.79
679.484	49363.82
679.832	49491.5
680.181	49405.62
680.529	49412.85
680.877	49402.68
681.225	49331.5
681.573	49552.28
681.922	49352.52
682.27	49207.89
682.618	49192.97
682.966	49057.83
683.314	49138.51
683.661	48954.79
684.009	48878.63
684.357	48751.18
684.705	48720.89
685.053	48697.39
685.4	48646.32
685.748	48427.57
686.095	48381.92
686.443	48279.1
686.79	48313.67
687.138	48326.1
687.485	48123.17
687.832	48182.38
688.18	48182.6
688.527	47865.78
688.874	47864.19
689.221	47911.88
689.568	47730.86
689.915	47607.25
690.262	47759.34
690.609	47558.66
690.956	47412
691.303	47428.05
691.65	47137.21
691.997	47253.14
692.344	46886.37
692.69	46821.06
693.037	46881.62
693.383	46677.78
693.73	46800.27
694.077	46469.65
694.423	46452.25
694.769	46314.18
695.116	46274.63
695.462	46170.9
695.808	46074.64
696.155	46081.87
696.501	45734.08
696.847	45779.73
697.193	45502.45
697.539	45576.12
697.885	45373.64
698.231	45226.97
698.577	45139.29
698.923	45267.65
699.269	45046.87
699.614	44785.18
699.96	44701.11
700.306	44658.18
700.651	44445.98
700.997	44389.26
701.342	44403.49
701.688	44202.59
702.033	44088.93
702.379	44138.42
702.724	44031.3
703.069	44131.18
703.415	43524.87
703.76	43699.11
704.105	43540.01
704.45	43447.36
704.795	43307.48
705.14	43214.15
705.485	43070.42
705.83	43030.2
706.175	42935.74
706.52	42868.84
706.865	42749.07
707.209	42651.9
707.554	42585.91
707.899	42586.59
708.243	42441.29
708.588	42432.47
708.932	42151.58
709.277	42065.25
709.621	42111.8
709.966	41935.08
710.31	41885.14
710.654	41568.09
710.998	41572.16
711.342	41519.95
711.687	41524.93
712.031	41171.71
712.375	41123.81
712.719	41237.02
713.063	41132.62
713.407	41170.81
713.75	41025.5
714.094	40967.65
714.438	40732.63
714.782	40854.66
715.125	40560.43
715.469	40504.61
715.812	40422.13
716.156	40315.69
716.499	40328.35
716.843	40349.36
717.186	40011.07
717.53	40249.48
717.873	40104.17
718.216	40081.35
718.559	39827.79
718.902	39677.74
719.246	39691.08
719.589	39472.55
719.932	39544.19
720.275	39410.18
720.617	39508.48
720.96	39336.06
721.303	39220.8
721.646	39374.02
721.989	39004.54
722.331	39062.16
722.674	39024.2
723.016	38952.56
723.359	38856.07
723.701	38846.8
724.044	38629.18
724.386	38472.8
724.729	38655.85
725.071	38544.89
725.413	38447.27
725.755	38454.95
726.097	38383.31
726.439	38124.11
726.782	38079.82
727.124	38268.97
727.465	38083.89
727.807	38020.61
728.149	37882.76
728.491	37786.04
728.833	37876.21
729.175	37666.72
729.516	37669.43
729.858	37662.43
730.199	37545.37
730.541	37524.58
730.882	37488.42
731.224	37488.2
731.565	37262.21
731.906	37224.47
732.248	37342.66
732.589	37133.4
732.93	37014.99
733.271	36963.46
733.612	36925.05
733.953	36938.83
734.294	36917.14
734.635	36828.1
734.976	36866.97
735.317	36751.72
735.658	36642.57
735.999	36658.61
736.339	36525.06
736.68	36436.7
737.021	36370.26
737.361	36184.95
737.702	36468.11
738.042	36368.68
738.383	36270.83
738.723	36210.04
739.063	36079.87
739.404	36180.43
739.744	36005.52
740.084	35860.44
740.424	35832.19
740.764	35921.46
741.104	35835.58
741.444	35721.01
741.784	35459.32
742.124	35557.85
742.464	35531.86
742.804	35485.76
743.143	35440.34
743.483	35342.04
743.823	35180.91
744.162	35177.3
744.502	35211.87
744.841	35024.53
745.181	35230.18
745.52	34940.92
745.86	35026.56
746.199	34902.73
746.538	34811.43
746.877	34966.45
747.216	34897.98
747.556	34785.44
747.895	34693.69
748.234	34591.32
748.573	34519.46
748.911	34491.89
749.25	34459.57
749.589	34195.17
749.928	34282.86
750.267	34251.67
750.605	34129.41
750.944	33967.61
751.283	33862.98
751.621	33990.66
751.96	33788.63
752.298	33769.65
752.636	33637.67
752.975	33557
