Data from breadboard_black_back_FLMS001491_00030.txt Node
Date: Wed Feb 08 10:50:11 GMT 2017
User: dcchb
Spectrometer: FLMS00149
Trigger mode: 0
Integration Time (sec): 2.000000E-2
Scans to average: 10
Electric dark correction enabled: true
Nonlinearity correction enabled: false
Boxcar width: 0
XAxis mode: Wavelengths
Number of Pixels in Spectrum: 2048
>>>>>Begin Spectral Data<<<<<
341.393	-15.37
341.776	-15.37
342.16	-15.37
342.543	-57.63
342.927	-52.43
343.31	-79.09
343.693	-64.63
344.077	-69.83
344.46	-47.68
344.843	-58.53
345.226	-57.63
345.61	-7.68
345.993	-11.98
346.376	-13.33
346.759	-8.59
347.142	17.17
347.525	42.03
347.908	67.34
348.291	75.48
348.674	90.62
349.057	126.32
349.44	123.61
349.823	146.66
350.206	167.91
350.588	188.47
350.971	209.26
351.354	229.37
351.737	246.55
352.119	251.74
352.502	249.94
352.884	276.6
353.267	297.39
353.65	301.69
354.032	276.6
354.414	319.77
354.797	317.05
355.179	331.52
355.562	311.86
355.944	316.83
356.326	353.66
356.709	340.56
357.091	333.1
357.473	343.95
357.855	370.61
358.238	340.1
358.62	344.62
359.002	355.7
359.384	344.4
359.766	337.84
360.148	344.4
360.53	356.83
360.912	363.38
361.294	339.88
361.676	342.36
362.057	345.75
362.439	351.86
362.821	343.04
363.203	332.42
363.584	342.14
363.966	342.59
364.348	328.13
364.729	364.06
365.111	346.66
365.493	341.01
365.874	342.14
366.256	338.07
366.637	330.39
367.019	335.36
367.4	323.83
367.781	348.01
368.163	364.06
368.544	332.42
368.925	349.82
369.306	349.37
369.688	358.63
370.069	332.42
370.45	344.17
370.831	342.59
371.212	324.96
371.593	342.59
371.974	355.24
372.355	378.52
372.736	361.12
373.117	350.27
373.498	373.55
373.879	351.18
374.26	349.82
374.641	353.66
375.021	337.62
375.402	365.41
375.783	377.84
376.163	378.52
376.544	357.05
376.925	388.92
377.305	383.49
377.686	385.98
378.066	379.43
378.447	388.69
378.827	398.18
379.208	379.65
379.588	385.53
379.968	393.21
380.349	406.99
380.729	392.76
381.109	398.86
381.489	398.41
381.87	415.13
382.25	391.18
382.63	412.42
383.01	416.94
383.39	413.77
383.77	404.06
384.15	422.59
384.53	432.53
384.91	433.43
385.29	422.59
385.67	429.59
386.049	427.33
386.429	439.99
386.809	441.12
387.189	447.22
387.568	423.49
387.948	437.28
388.328	448.58
388.707	460.1
389.087	453.1
389.466	455.58
389.846	468.91
390.225	474.56
390.605	463.94
390.984	463.94
391.363	484.28
391.743	475.69
392.122	497.16
392.501	492.19
392.881	479.99
393.26	509.59
393.639	504.62
394.018	516.6
394.397	498.97
394.776	513.88
395.155	523.38
395.534	510.5
395.913	529.7
396.292	533.32
396.671	516.37
397.05	541.68
397.429	542.58
397.808	542.81
398.186	531.06
398.565	552.75
398.944	575.8
399.323	565.63
399.701	553.21
400.08	565.18
400.458	583.04
400.837	571.28
401.215	595.69
401.594	588.46
401.972	613.77
402.351	590.49
402.729	609.7
403.107	598.85
403.486	617.61
403.864	619.64
404.242	621.68
404.62	637.95
404.999	627.55
405.377	634.11
405.755	661.23
406.133	649.02
406.511	678.4
406.889	663.49
407.267	687.67
407.645	677.04
408.023	683.6
408.401	671.17
408.779	686.54
409.156	713.88
409.534	705.07
409.912	730.6
410.29	734.22
410.667	764.27
411.045	739.64
411.422	742.81
411.8	785.29
412.178	794.78
412.555	782.8
412.933	800.2
413.31	812.63
413.687	816.7
414.065	828.9
414.442	838.85
414.819	835.01
415.197	846.31
415.574	860.99
415.951	825.97
416.328	866.87
416.705	890.82
417.082	884.27
417.46	901.9
417.837	926.3
418.214	902.12
418.591	931.73
418.967	922.69
419.344	930.82
419.721	935.34
420.098	934.21
420.475	961.1
420.852	975.34
421.228	969.69
421.605	982.12
421.982	982.8
422.358	1003.36
422.735	1024.38
423.111	1020.99
423.488	1073.42
423.864	1057.37
424.241	1071.84
424.617	1057.15
424.994	1062.34
425.37	1067.32
425.746	1098.28
426.123	1084.27
426.499	1117.71
426.875	1117.48
427.251	1151.38
427.627	1163.36
428.003	1170.82
428.379	1198.16
428.756	1212.85
429.132	1221.21
429.507	1230.7
429.883	1236.58
430.259	1233.41
430.635	1276.8
431.011	1279.06
431.387	1328.33
431.763	1324.03
432.138	1326.74
432.514	1355.44
432.89	1355.67
433.265	1352.51
433.641	1392.73
434.016	1424.82
434.392	1430.92
434.767	1452.62
435.143	1467.08
435.518	1479.74
435.894	1495.33
436.269	1503.92
436.644	1519.51
437.02	1558.38
437.395	1566.96
437.77	1556.34
438.145	1570.13
438.52	1627.75
438.895	1621.43
439.271	1644.48
439.646	1665.27
440.021	1694.42
440.395	1684.93
440.77	1671.59
441.145	1691.48
441.52	1722.67
441.895	1741.42
442.27	1750.69
442.645	1739.62
443.019	1780.74
443.394	1754.08
443.769	1800.86
444.143	1787.98
444.518	1835.43
444.892	1845.6
445.267	1828.65
445.641	1816.45
446.016	1910.91
446.39	1855.09
446.764	1901.42
447.139	1870.01
447.513	1911.36
447.887	1928.76
448.262	1940.74
448.636	1928.54
449.01	1988.87
449.384	1991.36
449.758	1974.19
450.132	2023
450.506	2014.64
450.88	2050.12
451.254	2030.46
451.628	2069.55
452.002	2092.6
452.376	2109.55
452.75	2125.37
453.123	2174.18
453.497	2181.86
453.871	2222.99
454.244	2243.56
454.618	2260.73
454.992	2278.13
455.365	2314.52
455.739	2345.25
456.112	2399.94
456.486	2390.9
456.859	2423.67
457.232	2514.51
457.606	2444.46
457.979	2506.83
458.352	2573.04
458.725	2570.78
459.099	2614.85
459.472	2678.35
459.845	2688.74
460.218	2689.42
460.591	2760.83
460.964	2751.57
461.337	2835.18
461.71	2847.61
462.083	2888.74
462.456	2921.96
462.829	2895.74
463.201	2946.14
463.574	2981.39
463.947	3036.53
464.32	3080.6
464.692	3096.64
465.065	3163.31
465.438	3202.18
465.81	3193.59
466.183	3267.03
466.555	3315.17
466.928	3398.78
467.3	3343.87
467.672	3375.96
468.045	3538.66
468.417	3506.12
468.789	3553.8
469.161	3542.73
469.534	3615.27
469.906	3718.09
470.278	3787.02
470.65	3759.68
471.022	3815.49
471.394	3910.18
471.766	3955.15
472.138	3989.5
472.51	4076.28
472.882	4142.94
473.253	4149.04
473.625	4198.08
473.997	4337.06
474.369	4334.8
474.74	4394.69
475.112	4512.65
475.484	4614.34
475.855	4626.77
476.227	4674.68
476.598	4810.04
476.97	4863.6
477.341	4935.24
477.713	5065.63
478.084	5048.45
478.455	5202.58
478.827	5201.22
479.198	5459.74
479.569	5425.85
479.94	5608.44
480.311	5585.62
480.682	5708.78
481.053	5867.87
481.424	5944.02
481.795	6010.24
482.166	6093.85
482.537	6138.37
482.908	6302.89
483.279	6327.52
483.65	6468.53
484.021	6604.57
484.391	6697.23
484.762	6758.47
485.133	6769.77
485.503	6914.62
485.874	6995.52
486.244	7086.59
486.615	7263.09
486.985	7307.6
487.356	7456.3
487.726	7548.5
488.097	7710.76
488.467	7740.81
488.837	7863.52
489.207	8020.35
489.578	8106.68
489.948	8157.3
490.318	8233.68
490.688	8317.75
491.058	8454.02
491.428	8589.83
491.798	8653.78
492.168	8811.07
492.538	8805.87
492.908	9002.7
493.278	9066.88
493.648	9063.49
494.017	9226.88
494.387	9369.92
494.757	9420.54
495.126	9549.58
495.496	9504.16
495.866	9623.25
496.235	9734.66
496.605	9762
496.974	9860.76
497.344	9921.32
497.713	10025.5
498.082	10109.34
498.452	10300.52
498.821	10325.38
499.19	10236.57
499.559	10418.48
499.928	10514.98
500.298	10557.69
500.667	10642.66
501.036	10657.57
501.405	10808.98
501.774	10729.44
502.143	10859.6
502.512	11028.41
502.88	11042.65
503.249	11138.46
503.618	11172.81
503.987	11282.42
504.356	11346.14
504.724	11370.1
505.093	11505.23
505.462	11530.32
505.83	11628.39
506.199	11688.05
506.567	11890.99
506.936	11912.46
507.304	12015.5
507.672	12018.44
508.041	12125.78
508.409	12238.32
508.777	12379.56
509.145	12440.8
509.514	12456.4
509.882	12582.95
510.25	12586.56
510.618	12785.2
510.986	12750.63
511.354	12968.92
511.722	12994.91
512.09	13174.79
512.458	13175.25
512.826	13150.84
513.193	13353.55
513.561	13403.49
513.929	13464.5
514.297	13631.28
514.664	13722.35
515.032	13849.13
515.4	13958.5
515.767	14031.95
516.135	14105.17
516.502	14087.09
516.869	14321.66
517.237	14451.82
517.604	14433.07
517.972	14647.98
518.339	14716.9
518.706	14716
519.073	14866.73
519.44	14918.25
519.808	15132.94
520.175	15088.42
520.542	15337
520.909	15493.6
521.276	15488.86
521.643	15659.48
522.009	15809.53
522.376	15886.14
522.743	16038
523.11	16106.92
523.477	16271.89
523.843	16383.98
524.21	16558.21
524.577	16690.18
524.943	16715.27
525.31	16793.91
525.676	17052.66
526.043	17136.95
526.409	17196.38
526.776	17443.38
527.142	17427.56
527.508	17608.12
527.874	17810.15
528.241	17849.93
528.607	17946.65
528.973	18071.62
529.339	18133.53
529.705	18362
530.071	18551.6
530.437	18562.9
530.803	18624.6
531.169	18739.62
531.535	18755.67
531.901	18926.51
532.267	18976.22
532.632	19015.09
532.998	19205.14
533.364	19331.47
533.73	19360.17
534.095	19433.39
534.461	19536.21
534.826	19666.38
535.192	19681.52
535.557	19945.01
535.923	19914.5
536.288	19977.78
536.653	20038.12
537.019	20061.85
537.384	20149.98
537.749	20378.45
538.114	20296.19
538.479	20440.82
538.845	20481.04
539.21	20531.21
539.575	20642.62
539.94	20698.44
540.305	20831.54
540.67	20864.76
541.034	20934.59
541.399	21066.34
541.764	21145.21
542.129	21163.51
542.494	21141.82
542.858	21353.11
543.223	21335.71
543.587	21518.53
543.952	21532.32
544.316	21655.93
544.681	21507.46
545.045	21827
545.41	21911.51
545.774	21917.39
546.138	21978.63
546.503	22121
546.867	22096.82
547.231	22237.83
547.595	22377.26
547.959	22441.22
548.324	22345.63
548.688	22362.35
549.052	22547.2
549.416	22590.59
549.779	22618.16
550.143	22709.01
550.507	22943.8
550.871	22926.18
551.235	22923.92
551.599	23197.58
551.962	23127.98
552.326	23358.03
552.689	23435.77
553.053	23370.46
553.417	23321.87
553.78	23779.49
554.143	23652.71
554.507	23730.9
554.87	23937.22
555.234	24091.57
555.597	24007.73
555.96	24184.45
556.323	24288.63
556.686	24299.25
557.05	24516.87
557.413	24578.56
557.776	24602.97
558.139	24731.78
558.502	24821.49
558.865	24986.01
559.228	25169.96
559.59	25136.51
559.953	25164.08
560.316	25421.7
560.679	25525.43
561.041	25663.05
561.404	25810.17
561.767	25880.45
562.129	25837.96
562.492	26233.66
562.854	26135.13
563.217	26161.8
563.579	26283.15
563.941	26574.89
564.304	26531.96
564.666	26712.29
565.028	26863.93
565.39	26870.71
565.753	27086.52
566.115	27146.86
566.477	27245.84
566.839	27258.94
567.201	27466.4
567.563	27575.09
567.925	27674.07
568.287	27660.06
568.648	27838.36
569.01	28012.6
569.372	28075.19
569.734	28060.28
570.095	28317.22
570.457	28438.8
570.819	28423.21
571.18	28367.16
571.542	28627.95
571.903	28766.02
572.265	28697.32
572.626	28996.75
572.987	28908.17
573.349	29063.19
573.71	29076.07
574.071	29230.64
574.432	29284.88
574.794	29585.66
575.155	29593.57
575.516	29362.39
575.877	29497.53
576.238	29666.11
576.599	29719.9
576.96	29837.18
577.32	29789.95
577.681	29863.85
578.042	29965.54
578.403	29968.93
578.763	29877.86
579.124	29994.24
579.485	30216.15
579.845	30231.07
580.206	30280.79
580.566	30101.13
580.927	30213.44
581.287	30424.96
581.648	30267.68
582.008	30450.27
582.368	30232.43
582.728	30405.53
583.089	30361.91
583.449	30269.94
583.809	30517.84
584.169	30372.53
584.529	30506.09
584.889	30735.46
585.249	30553.55
585.609	30400.56
585.969	30536.82
586.329	30594.68
586.688	30573.89
587.048	30453.44
587.408	30522.36
587.768	30672.64
588.127	30591.06
588.487	30403.27
588.846	30726.2
589.206	30616.37
589.565	30467
589.925	30766.42
590.284	30546.32
590.643	30747.44
591.003	30843.03
591.362	30772.75
591.721	30632.87
592.08	30740.89
592.44	30870.6
592.799	30834.44
593.158	30829.92
593.517	30829.47
593.876	30812.3
594.235	30775.46
594.593	30886.42
594.952	30965.06
595.311	30756.93
595.67	30874.67
596.029	31057.71
596.387	31005.74
596.746	31080.76
597.104	30957.15
597.463	31054.32
597.822	30992.41
598.18	30942.69
598.538	30916.7
598.897	31153.98
599.255	30850.94
599.613	31423.35
599.972	31080.09
600.33	31234.43
600.688	31250.03
601.046	31144.27
601.404	31302.45
601.762	31244.6
602.12	31487.99
602.478	31344.03
602.836	31438.5
603.194	31214.32
603.552	31375.67
603.91	31268.1
604.268	31398.04
604.625	31321.44
604.983	31595.55
605.341	31303.58
605.698	31505.16
606.056	31619.73
606.413	31474.43
606.771	31641.65
607.128	31628.32
607.485	31604.82
607.843	31638.04
608.2	31788.99
608.557	31947.63
608.914	31767.53
609.272	32010.91
609.629	32062.21
609.986	32203.9
610.343	31953.74
610.7	32317.57
611.057	32170
611.414	32087.97
611.771	32071.25
612.127	32219.27
612.484	32278.25
612.841	32316.89
613.198	32140.85
613.554	32195.31
613.911	32455.19
614.267	32464.91
614.624	32433.27
614.98	32454.51
615.337	32522.08
615.693	32596.43
616.05	32526.15
616.406	32737.67
616.762	32562.76
617.118	32627.16
617.475	32711.46
617.831	32746.71
618.187	32802.75
618.543	32756.88
618.899	32887.95
619.255	32829.65
619.611	32756.43
619.967	32930.89
620.323	32988.29
620.678	32886.37
621.034	32802.3
621.39	32819.93
621.746	32729.31
622.101	33062.41
622.457	32940.15
622.812	32973.6
623.168	32960.94
623.523	33117.55
623.879	33177.43
624.234	33020.83
624.589	33047.27
624.945	33134.95
625.3	33067.38
625.655	33033.03
626.01	32999.36
626.365	33052.24
626.72	32905.35
627.075	32937.89
627.43	32992.35
627.785	32896.54
628.14	32922.3
628.495	32981.28
628.85	32884.11
629.205	32763.43
629.559	33000.26
629.914	32852.02
630.269	32840.49
630.623	32686.15
630.978	32758.01
631.332	32847.5
631.687	32850.44
632.041	32710.1
632.396	32655.41
632.75	32602.31
633.104	32685.47
633.459	32489.54
633.813	32572.48
634.167	32457
634.521	32560.5
634.875	32487.96
635.229	32456.1
635.583	32353.95
635.937	32314.18
636.291	32308.75
636.645	32306.04
636.999	32186.72
637.352	32248.42
637.706	32115.54
638.06	32298.36
638.413	32138.14
638.767	31956
639.121	32036.22
639.474	31896.11
639.828	32009.78
640.181	32000.29
640.534	31982.66
640.888	31859.05
641.241	31611.6
641.594	31779.28
641.947	31800.29
642.301	31737.24
642.654	31789.67
643.007	31676.68
643.36	31666.74
643.713	31514.2
644.066	31806.85
644.419	31551.03
644.771	31347.65
645.124	31104.27
645.477	31093.42
645.83	30711.28
646.182	30731.17
646.535	30549.48
646.888	30548.12
647.24	30368.47
647.593	30588.8
647.945	30561.46
648.298	30272.65
648.65	30218.41
649.002	30194.23
649.355	30360.56
649.707	30150.85
650.059	30388.58
650.411	30776.37
650.763	30685.29
651.115	30814.33
651.467	30946.98
651.819	30948.11
652.171	30863.6
652.523	30825.4
652.875	30716.93
653.227	30686.2
653.578	30828.79
653.93	30787.44
654.282	30584.96
654.633	30513.32
654.985	30584.05
655.337	30638.97
655.688	30642.81
656.039	30663.37
656.391	30446.66
656.742	30451.63
657.094	30408.24
657.445	30499.09
657.796	30539.08
658.147	30318.98
658.498	30431.29
658.849	30410.27
659.2	30345.42
659.551	30341.35
659.902	30496.15
660.253	30380.9
660.604	30383.38
660.955	30211.18
661.306	30391.07
661.656	30216.38
662.007	30257.06
662.358	30048.7
662.708	30127.34
663.059	30190.84
663.409	30073.33
663.76	30241.92
664.11	30186.32
664.461	30242.14
664.811	30178.19
665.161	30236.27
665.511	30067.46
665.862	30176.83
666.212	30166.21
666.562	30298.64
666.912	30212.54
667.262	30071.75
667.612	29963.28
667.962	30110.85
668.312	30004.86
668.662	30141.13
669.011	30005.54
669.361	29921.93
669.711	29968.03
670.06	30023.62
670.41	29970.96
670.76	29713.57
671.109	30012.32
671.459	29982.04
671.808	29791.99
672.157	29856.39
672.507	29597.19
672.856	29699.56
673.205	29710.41
673.554	29810.52
673.904	29600.8
674.253	29908.82
674.602	29721.48
674.951	29368.49
675.3	29222.06
675.649	29563.74
675.998	29523.52
676.346	29642.61
676.695	29625.66
677.044	29466.34
677.393	29432.67
677.741	29520.35
678.09	29404.42
678.438	29413.24
678.787	29343.18
679.135	29352
679.484	29186.58
679.832	29350.87
680.181	29054.6
680.529	29217.31
680.877	29202.17
681.225	29086.92
681.573	29229.51
681.922	28972.12
682.27	28921.5
682.618	29076.98
682.966	28886.92
683.314	29000.59
683.661	28827.94
684.009	28661.39
684.357	28629.08
684.705	28628.85
685.053	28665.46
685.4	28571.68
685.748	28445.58
686.095	28456.43
686.443	28459.14
686.79	28168.52
687.138	28320.61
687.485	28234.96
687.832	28236.77
688.18	28238.13
688.527	28057.79
688.874	28091.01
689.221	27961.52
689.568	27900.96
689.915	27903.22
690.262	27752.49
690.609	27791.81
690.956	27760.85
691.303	27666.84
691.65	27487.86
691.997	27434.98
692.344	27275.67
692.69	27276.34
693.037	27322.9
693.383	27090.81
693.73	27239.51
694.077	26992.06
694.423	27053.07
694.769	26960.2
695.116	26913.42
695.462	26889.91
695.808	26725.62
696.155	26856.47
696.501	26547.55
696.847	26596.59
697.193	26381
697.539	26622.12
697.885	26341.45
698.231	26270.04
698.577	26228.69
698.923	26143.49
699.269	26128.58
699.614	25883.84
699.96	25901.69
700.306	25809.26
700.651	25696.73
700.997	25747.35
701.342	25758.87
701.688	25612.66
702.033	25544.64
702.379	25523.17
702.724	25400.69
703.069	25445.88
703.415	25044.54
703.76	25246.57
704.105	25155.04
704.45	25126.57
704.795	25026.46
705.14	24889.06
705.485	24747.37
705.83	24742.85
706.175	24852.23
706.52	24635.51
706.865	24649.52
707.209	24571.78
707.554	24579.47
707.899	24466.25
708.243	24387.83
708.588	24425.57
708.932	24158.91
709.277	24318.68
709.621	24253.83
709.966	24181.06
710.31	24110.33
710.654	23920.73
710.998	24066.94
711.342	24044.34
711.687	23944.68
712.031	23813.61
712.375	23759.15
712.719	23639.6
713.063	23722.99
713.407	23795.98
713.75	23531.13
714.094	23528.42
714.438	23478.7
714.782	23438.03
715.125	23345.15
715.469	23431.7
715.812	23262.89
716.156	23137.02
716.499	23176.11
716.843	23233.06
717.186	23066.29
717.53	23163.01
717.873	23186.51
718.216	22971.37
718.559	22937.7
718.902	22847.99
719.246	22795.56
719.589	22763.24
719.932	22695.67
720.275	22732.28
720.617	22726.63
720.96	22631.72
721.303	22611.61
721.646	22687.31
721.989	22378.85
722.331	22477.83
722.674	22487.54
723.016	22466.98
723.359	22458.62
723.701	22370.03
724.044	22241.68
724.386	22184.5
724.729	22250.26
725.071	22207.1
725.413	22150.6
725.755	22131.62
726.097	22030.61
726.439	22007.33
726.782	21909.71
727.124	21968.01
727.465	21992.87
727.807	21951.74
728.149	21760.11
728.491	21790.16
728.833	21751.97
729.175	21643.95
729.516	21682.59
729.858	21599.21
730.199	21760.11
730.541	21685.53
730.882	21569.15
731.224	21557.63
731.565	21380.23
731.906	21501.81
732.248	21443.28
732.589	21436.72
732.93	21261.14
733.271	21247.8
733.612	21365.31
733.953	21306.33
734.294	21172.1
734.635	21100.01
734.976	21245.32
735.317	21057.75
735.658	21097.52
735.999	21112.67
736.339	21020.24
736.68	21046.9
737.021	20934.82
737.361	20870.64
737.702	20977.3
738.042	20857.3
738.383	20941.37
738.723	20922.61
739.063	20777.76
739.404	20837.64
739.744	20777.53
740.084	20665.45
740.424	20758.78
740.764	20708.16
741.104	20648.72
741.444	20613.92
741.784	20563.98
742.124	20563.3
742.464	20434.04
742.804	20421.84
743.143	20524.21
743.483	20408.5
743.823	20265
744.162	20270.88
744.502	20385
744.841	20251.44
745.181	20285.34
745.52	20212.35
745.86	20125.12
746.199	20187.27
746.538	20159.24
746.877	20120.15
747.216	20201.73
747.556	20051
747.895	19984.11
748.234	19917.67
748.573	19842.87
748.911	19864.34
749.25	19888.06
749.589	19780.5
749.928	19836.54
750.267	19773.04
750.605	19739.59
750.944	19723.78
751.283	19651.69
751.621	19639.26
751.96	19475.42
752.298	19447.4
752.636	19530.56
752.975	19300.06
753.313	19308.42
753.651	19410.79
753.989	19250.12
754.327	19215.09
754.666	19109.78
