Data from breadboard_black_back_FLMS001491_00064.txt Node
Date: Wed Feb 08 10:50:43 GMT 2017
User: dcchb
Spectrometer: FLMS00149
Trigger mode: 0
Integration Time (sec): 2.000000E-2
Scans to average: 10
Electric dark correction enabled: true
Nonlinearity correction enabled: false
Boxcar width: 0
XAxis mode: Wavelengths
Number of Pixels in Spectrum: 2048
>>>>>Begin Spectral Data<<<<<
341.393	1.2
341.776	1.2
342.16	1.2
342.543	-51.68
342.927	-65.46
343.31	-83.09
343.693	-91.68
344.077	-62.07
344.46	-57.33
344.843	-58.91
345.226	-36.99
345.61	-19.59
345.993	-0.61
346.376	8.66
346.759	16.57
347.142	7.98
347.525	34.65
347.908	53.85
348.291	77.13
348.674	104.25
349.057	107.19
349.44	105.38
349.823	148.99
350.206	187.18
350.588	182.66
350.971	197.13
351.354	208.65
351.737	246.62
352.119	247.07
352.502	253.85
352.884	251.36
353.267	279.16
353.65	283.23
354.032	310.8
354.414	321.87
354.797	325.49
355.179	326.39
355.562	328.65
355.944	336.56
356.326	337.01
356.709	327.29
357.091	332.72
357.473	344.47
357.855	332.49
358.238	345.82
358.62	344.47
359.002	350.8
359.384	345.6
359.766	335.2
360.148	338.82
360.53	353.28
360.912	330.91
361.294	335.66
361.676	333.62
362.057	343.56
362.439	347.41
362.821	345.6
363.203	346.95
363.584	341.98
363.966	319.16
364.348	329.33
364.729	333.85
365.111	330.01
365.493	312.15
365.874	329.33
366.256	331.14
366.637	313.28
367.019	345.82
367.4	351.93
367.781	328.42
368.163	352.38
368.544	316.22
368.925	312.83
369.306	332.49
369.688	336.78
370.069	345.6
370.45	319.61
370.831	329.55
371.212	336.11
371.593	323.45
371.974	368.87
372.355	340.17
372.736	328.2
373.117	360.74
373.498	355.32
373.879	339.95
374.26	331.36
374.641	342.89
375.021	323.9
375.402	327.97
375.783	335.88
376.163	367.29
376.544	351.93
376.925	378.37
377.305	353.73
377.686	371.59
378.066	369.1
378.447	335.2
378.827	368.2
379.208	372.04
379.588	381.98
379.968	379.5
380.349	368.87
380.729	372.94
381.109	396.67
381.489	375.2
381.87	402.09
382.25	381.98
382.63	400.06
383.01	397.12
383.39	379.5
383.77	385.82
384.15	392.15
384.53	413.62
384.91	402.77
385.29	404.58
385.67	437.57
386.049	425.6
386.429	425.6
386.809	436.22
387.189	428.76
387.568	426.5
387.948	432.83
388.328	445.26
388.707	427.63
389.087	427.63
389.466	436.22
389.846	466.95
390.225	448.19
390.605	470.34
390.984	465.14
391.363	471.47
391.743	471.24
392.122	464.92
392.501	467.85
392.881	481.64
393.26	492.04
393.639	497.01
394.018	480.96
394.397	503.79
394.776	499.72
395.155	507.18
395.534	502.66
395.913	509.89
396.292	519.6
396.671	530
397.05	534.97
397.429	507.85
397.808	515.76
398.186	509.89
398.565	536.33
398.944	525.03
399.323	534.29
399.701	534.97
400.08	540.62
400.458	538.14
400.837	541.53
401.215	534.75
401.594	571.36
401.972	575.2
402.351	577.91
402.729	579.49
403.107	581.75
403.486	573.61
403.864	588.76
404.242	600.05
404.62	611.81
404.999	611.35
405.377	619.94
405.755	612.94
406.133	628.98
406.511	624.01
406.889	649.09
407.267	648.42
407.645	648.19
408.023	652.26
408.401	649.32
408.779	656.55
409.156	695.87
409.534	676.21
409.912	684.57
410.29	698.58
410.667	681.41
411.045	708.75
411.422	743.78
411.8	713.95
412.178	739.71
412.555	735.64
412.933	748.75
413.31	772.03
413.687	772.48
414.065	758.24
414.442	800.5
414.819	781.07
415.197	782.87
415.574	789.2
415.951	850.44
416.328	850.22
416.705	831.24
417.082	861.29
417.46	834.62
417.837	861.74
418.214	845.7
418.591	858.35
418.967	871.69
419.344	892.48
419.721	878.24
420.098	907.17
420.475	875.75
420.852	909.43
421.228	926.6
421.605	939.48
421.982	950.78
422.358	941.97
422.735	935.19
423.111	963.21
423.488	993.26
423.864	975.41
424.241	987.84
424.617	1012.93
424.994	1007.05
425.37	1042.76
425.746	1013.6
426.123	1014.96
426.499	1057.44
426.875	1082.75
427.251	1095.64
427.627	1113.94
428.003	1098.8
428.379	1122.53
428.756	1135.41
429.132	1145.35
429.507	1163.43
429.883	1172.92
430.259	1182.19
430.635	1191
431.011	1195.29
431.387	1232.81
431.763	1226.93
432.138	1236.65
432.514	1259.02
432.89	1248.17
433.265	1299.02
433.641	1343.54
434.016	1331.79
434.392	1340.37
434.767	1372.46
435.143	1354.16
435.518	1391.45
435.894	1400.26
436.269	1448.39
436.644	1435.74
437.02	1426.7
437.395	1431.45
437.77	1470.99
438.145	1497.43
438.52	1504.44
438.895	1501.05
439.271	1518
439.646	1551.67
440.021	1586.24
440.395	1579.01
440.77	1583.31
441.145	1600.03
441.52	1621.27
441.895	1610.42
442.27	1625.79
442.645	1634.15
443.019	1651.55
443.394	1665.79
443.769	1668.28
444.143	1678.44
444.518	1687.94
444.892	1684.09
445.267	1702.4
445.641	1753.92
446.016	1710.76
446.39	1741.27
446.764	1756.18
447.139	1764.77
447.513	1778.33
447.887	1776.52
448.262	1819.01
448.636	1799.8
449.01	1830.98
449.384	1866.46
449.758	1843.86
450.132	1893.35
450.506	1863.07
450.88	1914.82
451.254	1918.21
451.628	1932.45
452.002	1960.02
452.376	2025.1
452.75	1999.11
453.123	2022.16
453.497	2075.5
453.871	2089.51
454.244	2099.9
454.618	2139.22
454.992	2138.77
455.365	2162.5
455.739	2215.61
456.112	2268.94
456.486	2245.89
456.859	2240.24
457.232	2280.46
457.606	2307.35
457.979	2347.81
458.352	2381.02
458.725	2414.24
459.099	2452.44
459.472	2456.5
459.845	2501.02
460.218	2495.82
460.591	2537.63
460.964	2571.98
461.337	2602.71
461.71	2665.54
462.083	2724.52
462.456	2679.77
462.829	2724.07
463.201	2797.74
463.574	2768.59
463.947	2817.17
464.32	2886.32
464.692	2890.16
465.065	2926.32
465.438	2993.21
465.81	3049.48
466.183	3028.69
466.555	3130.61
466.928	3137.39
467.3	3130.16
467.672	3185.52
468.045	3241.12
468.417	3240.21
468.789	3285.18
469.161	3333.77
469.534	3394.11
469.906	3410.6
470.278	3493.09
470.65	3498.06
471.022	3598.39
471.394	3644.27
471.766	3649.47
472.138	3758.62
472.51	3815.11
472.882	3864.38
473.253	3934.66
473.625	3969.46
473.997	4065.27
474.369	4058.49
474.74	4145.95
475.112	4171.03
475.484	4227.53
475.855	4348.2
476.227	4429.56
476.598	4481.53
476.97	4506.39
477.341	4677.01
477.713	4688.53
478.084	4696.22
478.455	4831.81
478.827	4918.36
479.198	5026.15
479.569	5033.84
479.94	5199.48
480.311	5239.03
480.682	5316.99
481.053	5456.42
481.424	5553.14
481.795	5561.28
482.166	5672.46
482.537	5778
482.908	5904.77
483.279	5925.34
483.65	6028.84
484.021	6155.16
484.391	6192.45
484.762	6263.41
485.133	6341.6
485.503	6400.58
485.874	6568.94
486.244	6649.39
486.615	6747.24
486.985	6854.81
487.356	6913.79
487.726	7004.18
488.097	7167.34
488.467	7219.77
488.837	7374.57
489.207	7420.67
489.578	7514.9
489.948	7579.31
490.318	7719.19
490.688	7793.09
491.058	7888.22
491.428	7968.45
491.798	8059.07
492.168	8163.47
492.538	8285.05
492.908	8341.55
493.278	8412.73
493.648	8516.68
494.017	8620.41
494.387	8670.13
494.757	8720.29
495.126	8884.13
495.496	8902.44
495.866	8927.97
496.235	9019.72
496.605	9158.7
496.974	9144.01
497.344	9280.5
497.713	9329.09
498.082	9454.29
498.452	9539.03
498.821	9561.18
499.19	9590.1
499.559	9720.72
499.928	9775.86
500.298	9854.73
500.667	9913.26
501.036	9900.38
501.405	10024.44
501.774	10101.73
502.143	10193.7
502.512	10174.94
502.88	10321.38
503.249	10338.1
503.618	10461.26
503.987	10552.34
504.356	10586.46
504.724	10668.26
505.093	10676.85
505.462	10744.65
505.83	10834.14
506.199	10961.36
506.567	11040.68
506.936	11072.1
507.304	11200.45
507.672	11251.75
508.041	11282.49
508.409	11430.96
508.777	11496.72
509.145	11576.49
509.514	11567.9
509.882	11719.08
510.25	11726.77
510.618	11912.07
510.986	11910.72
511.354	12049.7
511.722	12180.77
512.09	12251.95
512.458	12219.18
512.826	12416.02
513.193	12400.42
513.561	12455.79
513.929	12593.19
514.297	12744.37
514.664	12846.74
515.032	12877.7
515.4	13098.48
515.767	13074.53
516.135	13184.58
516.502	13056.45
516.869	13269.78
517.237	13475.2
517.604	13388.65
517.972	13573.5
518.339	13656.89
518.706	13609.88
519.073	13750.67
519.44	13855.75
519.808	14063.2
520.175	14059.36
520.542	14214.84
520.909	14375.06
521.276	14444.66
521.643	14549.97
522.009	14652.34
522.376	14757.2
522.743	14782.05
523.11	15076.06
523.477	15143.85
523.843	15258.88
524.21	15512.43
524.577	15549.04
524.943	15613.67
525.31	15621.35
525.676	15818.86
526.043	15902.48
526.409	16007.33
526.776	16278.74
527.142	16340.43
527.508	16425.85
527.874	16416.36
528.241	16677.15
528.607	16719.86
528.973	16845.73
529.339	16887.54
529.705	17036.23
530.071	17276.68
530.437	17258.6
530.803	17356.68
531.169	17518.03
531.535	17507.18
531.901	17613.62
532.267	17664.92
532.632	17817.68
532.998	17832.82
533.364	17867.17
533.73	18066.04
534.095	18226.03
534.461	18238.24
534.826	18365.01
535.192	18418.12
535.557	18607.49
535.923	18536.31
536.288	18706.02
536.653	18721.61
537.019	18698.79
537.384	18732.91
537.749	18884.55
538.114	18942.62
538.479	19037.31
538.845	19149.4
539.21	19183.3
539.575	19239.34
539.94	19298.77
540.305	19470.75
540.67	19462.61
541.034	19486.11
541.399	19642.27
541.764	19706.45
542.129	19769.04
542.494	19820.57
542.858	19909.38
543.223	19954.8
543.587	20089.03
543.952	20098.98
544.316	20155.47
544.681	20137.62
545.045	20252.42
545.41	20393.88
545.774	20413.77
546.138	20442.24
546.503	20623.94
546.867	20534.67
547.231	20706.64
547.595	20828.45
547.959	20853.99
548.324	20905.74
548.688	20940.54
549.052	20971.5
549.416	21039.29
549.779	21195.67
550.143	21204.03
550.507	21303.69
550.871	21414.65
551.235	21383.46
551.599	21565.15
551.962	21681.53
552.326	21665.49
552.689	21904.35
553.053	21667.52
553.417	21876.33
553.78	22124.69
554.143	22183.44
554.507	22261.18
554.87	22254.63
555.234	22503.43
555.597	22411.01
555.96	22489.65
556.323	22660.04
556.686	22624.11
557.05	22854.16
557.413	22869.75
557.776	22919.92
558.139	23112.01
558.502	23002.86
558.865	23233.13
559.228	23394.26
559.59	23587.92
559.953	23636.29
560.316	23737.3
560.679	23789.5
561.041	23901.82
561.404	23929.16
561.767	24065.65
562.129	24076.05
562.492	24372.09
562.854	24443.5
563.217	24438.3
563.579	24594.9
563.941	24653.43
564.304	24785.18
564.666	24950.6
565.028	24962.8
565.39	25167.32
565.753	25244.83
566.115	25316.69
566.477	25473.98
566.839	25557.36
567.201	25606.4
567.563	25665.16
567.925	25885.49
568.287	25858.37
568.648	25956.9
569.01	26119.84
569.372	26334.52
569.734	26116.45
570.095	26372.48
570.457	26498.36
570.819	26550.33
571.18	26626.94
571.542	26742.87
571.903	26841.17
572.265	26921.62
572.626	26919.59
572.987	26909.87
573.349	27087.95
573.71	27218.34
574.071	27330.88
574.432	27309.86
574.794	27505.56
575.155	27365.23
575.516	27512.12
575.877	27612
576.238	27617.2
576.599	27728.38
576.96	27674.6
577.32	27841.37
577.681	27905.78
578.042	27980.35
578.403	27891.99
578.763	28038.66
579.124	28040.92
579.485	28191.87
579.845	28224.19
580.206	28240.23
580.566	28189.16
580.927	28222.61
581.287	28374.92
581.648	28275.94
582.008	28298.31
582.368	28371.3
582.728	28347.12
583.089	28334.24
583.449	28380.12
583.809	28381.47
584.169	28443.84
584.529	28402.26
584.889	28656.27
585.249	28533.11
585.609	28407.69
585.969	28599.77
586.329	28534.01
586.688	28508.25
587.048	28539.89
587.408	28430.28
587.768	28430.74
588.127	28578.3
588.487	28381.7
588.846	28685.19
589.206	28486.55
589.565	28509.15
589.925	28700.56
590.284	28625.31
590.643	28605.65
591.003	28687.9
591.362	28746.21
591.721	28562.48
592.08	28585.76
592.44	28740.56
592.799	28786.66
593.158	28664.85
593.517	28671.86
593.876	28736.94
594.235	28728.35
594.593	28683.38
594.952	28764.74
595.311	28785.53
595.67	28819.43
596.029	28982.81
596.387	28985.75
596.746	28977.39
597.104	28877.5
597.463	28849.03
597.822	29016.26
598.18	28871.63
598.538	28895.81
598.897	29134.22
599.255	28821.69
599.613	29303.48
599.972	29146.87
600.33	29171.51
600.688	28982.81
601.046	29086.76
601.404	29228.68
601.762	29228.23
602.12	29406.53
602.478	29394.78
602.836	29376.7
603.194	29245.18
603.552	29376.47
603.91	29204.95
604.268	29320.43
604.625	29395.68
604.983	29540.08
605.341	29337.83
605.698	29447.43
606.056	29514.77
606.413	29570.59
606.771	29558.62
607.128	29530.37
607.485	29555.45
607.843	29589.8
608.2	29738.95
608.557	29746.41
608.914	29691.49
609.272	30001.77
609.629	29951.83
609.986	30002.67
610.343	29791.15
610.7	30125.15
611.057	29943.24
611.414	29949.79
611.771	29978.49
612.127	30099.39
612.484	30046.96
612.841	30161.76
613.198	30133.29
613.554	30021.2
613.911	30265.49
614.267	30264.13
614.624	30144.81
614.98	30447.86
615.337	30578.48
615.693	30377.12
616.05	30316.79
616.406	30521.53
616.762	30433.17
617.118	30385.94
617.475	30429.33
617.831	30610.11
618.187	30572.83
618.543	30595.65
618.899	30651.69
619.255	30745.48
619.611	30642.65
619.967	30706.83
620.323	30820.5
620.678	30667.96
621.034	30624.35
621.39	30565.14
621.746	30662.99
622.101	31006.49
622.457	30716.78
622.812	30844.68
623.168	30856.43
623.523	30729.66
623.879	30963.32
624.234	30676.33
624.589	30877.9
624.945	30899.6
625.3	30780.73
625.655	30774.18
626.01	30777.79
626.365	30850.78
626.72	30827.73
627.075	30680.85
627.43	30874.29
627.785	30645.14
628.14	30790.22
628.495	30745.48
628.85	30749.32
629.205	30579.61
629.559	30837.68
629.914	30707.29
630.269	30633.62
630.623	30648.76
630.978	30653.73
631.332	30750.22
631.687	30650.79
632.041	30601.98
632.396	30547.52
632.75	30695.31
633.104	30541.64
633.459	30440.17
633.813	30355.66
634.167	30331.02
634.521	30335.77
634.875	30452.38
635.229	30206.73
635.583	30110.92
635.937	30290.35
636.291	30210.35
636.645	30228.65
636.999	30152.05
637.352	30121.76
637.706	29950.92
638.06	30134.19
638.413	30080.64
638.767	29962.9
639.121	30053.52
639.474	29827.31
639.828	29784.82
640.181	29920.41
640.534	29872.51
640.888	29689.91
641.241	29472.97
641.594	29635.22
641.947	29763.81
642.301	29606.07
642.654	29583.93
643.007	29601.55
643.36	29550.71
643.713	29440.88
644.066	29634.09
644.419	29439.97
644.771	29298.74
645.124	29041.57
645.477	29006.99
645.83	28736.26
646.182	28652.88
646.535	28567.68
646.888	28522.94
647.24	28414.46
647.593	28498.76
647.945	28371.53
648.298	28189.16
648.65	28142.61
649.002	28166.11
649.355	28302.6
649.707	28377.86
650.059	28328.59
650.411	28603.84
650.763	28788.92
651.115	28931.06
651.467	28871.4
651.819	28826.88
652.171	28739.2
652.523	28721.8
652.875	28727
653.227	28694.46
653.578	28729.48
653.93	28688.13
654.282	28667.79
654.633	28566.55
654.985	28410.4
655.337	28547.34
655.688	28604.06
656.039	28713.21
656.391	28380.34
656.742	28385.09
657.094	28418.31
657.445	28653.55
657.796	28492.2
658.147	28502.6
658.498	28297.41
658.849	28429.61
659.2	28265.09
659.551	28267.35
659.902	28372.43
660.253	28430.06
660.604	28377.18
660.955	28186.9
661.306	28163.85
661.656	28248.37
662.007	28189.16
662.358	28196.17
662.708	28169.5
663.059	28175.37
663.409	27970.41
663.76	28247.92
664.11	28242.27
664.461	28216.05
664.811	28316.84
665.161	28125.21
665.511	28034.14
665.862	28062.38
666.212	28194.58
666.562	28101.7
666.912	28153.68
667.262	28073.23
667.612	28134.25
667.962	28189.61
668.312	27870.07
668.662	28056.06
669.011	28047.69
669.361	27967.24
669.711	28020.58
670.06	27959.79
670.41	27956.17
670.76	27727.48
671.109	27849.06
671.459	27846.8
671.808	27875.5
672.157	27863.07
672.507	27708.04
672.856	27724.09
673.205	27711.21
673.554	27735.39
673.904	27572.45
674.253	27835.04
674.602	27770.64
674.951	27376.3
675.3	27197.1
675.649	27468.5
675.998	27522.28
676.346	27567.71
676.695	27616.97
677.044	27406.36
677.393	27605.9
677.741	27543.08
678.09	27450.42
678.438	27393.02
678.787	27333.14
679.135	27384.66
679.484	27092.92
679.832	27241.39
680.181	27183.08
680.529	27250.43
680.877	27120.71
681.225	27090.21
681.573	27297.66
681.922	27071.45
682.27	26995.97
682.618	27063.31
682.966	26961.85
683.314	27005.69
683.661	26934.96
684.009	26766.82
684.357	26771.12
684.705	26648.64
685.053	26689.31
685.4	26565.93
685.748	26491.8
686.095	26553.5
686.443	26358.93
686.79	26283
687.138	26456.78
687.485	26207.29
687.832	26287.29
688.18	26325.48
688.527	26057.69
688.874	26055.2
689.221	26022.66
689.568	26054.53
689.915	25916.9
690.262	25893.4
690.609	25875.32
690.956	25787.19
691.303	25807.3
691.65	25633.07
691.997	25635.1
692.344	25438.72
692.69	25391.72
693.037	25438.5
693.383	25251.38
693.73	25342
694.077	25121.22
694.423	25093.65
694.769	25048.9
695.116	24999.87
695.462	24920.32
695.808	24914.9
696.155	24959.87
696.501	24737.73
696.847	24695.47
697.193	24544.51
697.539	24618.63
697.885	24441.46
698.231	24452.99
698.577	24481.69
698.923	24275.36
699.269	24238.08
699.614	24143.84
699.96	24113.56
700.306	24097.06
700.651	24069.04
700.997	23883.06
701.342	23837.64
701.688	23802.83
702.033	23750.86
702.379	23620.47
702.724	23686.45
703.069	23653.01
703.415	23389.96
703.76	23498.44
704.105	23448.49
704.45	23292.34
704.795	23252.34
705.14	23148.61
705.485	23238.33
705.83	23149.97
706.175	23150.2
706.52	23043.76
706.865	22996.3
707.209	22899.13
707.554	22925.57
707.899	22854.16
708.243	22733.26
708.588	22691.45
708.932	22521.51
709.277	22545.01
709.621	22548.86
709.966	22416.88
710.31	22476.99
710.654	22289.88
710.998	22301.86
711.342	22354.29
711.687	22208.98
712.031	22101.64
712.375	22142.09
712.719	22101.41
713.063	22072.48
713.407	22131.69
713.75	21992.49
714.094	21955.43
714.438	21813.28
714.782	21863.68
715.125	21643.57
715.469	21855.99
715.812	21589.11
716.156	21601.76
716.499	21419.17
716.843	21467.75
717.186	21516.12
717.53	21565.83
717.873	21497.13
718.216	21403.8
718.559	21386.4
718.902	21239.96
719.246	21309.79
719.589	21217.14
719.932	21081.32
720.275	21076.58
720.617	21103.02
720.96	21145.73
721.303	21021.44
721.646	20915.23
721.989	20898.28
722.331	21020.99
722.674	20852.86
723.016	20907.32
723.359	20820.54
723.701	20876.58
724.044	20730.6
724.386	20594.11
724.729	20696.7
725.071	20596.82
725.413	20656.7
725.755	20573.77
726.097	20457.84
726.439	20453.32
726.782	20438.86
727.124	20504.62
727.465	20319.54
727.807	20412.64
728.149	20243.38
728.491	20164.29
728.833	20357.5
729.175	20301.23
729.516	20257.39
729.858	20154.12
730.199	20250.84
730.541	20157.73
730.882	20190.05
731.224	20144.85
731.565	19997.74
731.906	19970.62
732.248	19989.6
732.589	19893.78
732.93	19881.81
733.271	19937.17
733.612	19793.22
733.953	19906.89
734.294	19664.86
734.635	19738.53
734.976	19729.72
735.317	19653.34
735.658	19613.57
735.999	19568.6
736.339	19627.58
736.68	19598.2
737.021	19484.3
737.361	19418.77
737.702	19502.16
738.042	19486.34
738.383	19352.1
738.723	19548.71
739.063	19386.68
739.404	19404.98
739.744	19354.82
740.084	19297.64
740.424	19264.87
740.764	19219.45
741.104	19303.74
741.444	19147.36
741.784	19216.97
742.124	19139
742.464	19021.49
742.804	19012.68
743.143	19060.13
743.483	18995.96
743.823	18914.83
744.162	18906.69
744.502	18887.48
744.841	18860.59
745.181	18870.31
745.52	18807.03
745.86	18792.12
746.199	18833.47
746.538	18746.92
746.877	18674.83
747.216	18729.07
747.556	18695.62
747.895	18561.84
748.234	18590.09
748.573	18470.32
748.911	18508.06
749.25	18525.46
749.589	18448.63
749.928	18423.77
750.267	18404.11
750.605	18275.52
750.944	18297.22
751.283	18155.75
751.621	18167.95
751.96	18178.58
752.298	18025.81
752.636	18114.17
752.975	18056.54
753.313	17924.8
753.651	18021.07
753.989	17840.51
754.327	17928.41
754.666	17830.11
755.004	17839.83
