Data from breadboard_black_back_FLMS001491_00098.txt Node
Date: Wed Feb 08 10:51:12 GMT 2017
User: dcchb
Spectrometer: FLMS00149
Trigger mode: 0
Integration Time (sec): 2.000000E-2
Scans to average: 10
Electric dark correction enabled: true
Nonlinearity correction enabled: false
Boxcar width: 0
XAxis mode: Wavelengths
Number of Pixels in Spectrum: 2048
>>>>>Begin Spectral Data<<<<<
341.393	-7.6
341.776	-7.6
342.16	-7.6
342.543	-73.59
342.927	-79.91
343.31	-52.34
343.693	-72.68
344.077	-53.25
344.46	-93.02
344.843	-51.21
345.226	-53.25
345.61	-22.97
345.993	-17.77
346.376	15
346.759	11.38
347.142	15.68
347.525	46.19
347.908	58.39
348.291	64.94
348.674	90.25
349.057	114.66
349.44	123.25
349.823	147.88
350.206	161.66
350.588	208.44
350.971	227.2
351.354	217.25
351.737	254.32
352.119	257.03
352.502	240.3
352.884	273.3
353.267	283.02
353.65	276.91
354.032	276.91
354.414	297.7
354.797	285.95
355.179	308.55
355.562	313.07
355.944	350.13
356.326	341.54
356.709	343.8
357.091	326.86
357.473	357.14
357.855	327.08
358.238	334.09
358.62	313.97
359.002	340.41
359.384	364.82
359.766	339.28
360.148	363.47
360.53	338.38
360.912	356.46
361.294	355.56
361.676	337.25
362.057	332.05
362.439	339.74
362.821	320.53
363.203	351.94
363.584	362.34
363.966	323.01
364.348	348.78
364.729	345.16
365.111	352.84
365.493	347.19
365.874	317.36
366.256	320.75
366.637	320.3
367.019	340.87
367.4	321.88
367.781	340.64
368.163	343.8
368.544	337.03
368.925	327.76
369.306	331.6
369.688	336.35
370.069	329.12
370.45	344.71
370.831	347.42
371.212	349.23
371.593	329.34
371.974	349.68
372.355	358.04
372.736	330.7
373.117	328.89
373.498	337.93
373.879	338.61
374.26	336.8
374.641	342.45
375.021	342.22
375.402	358.27
375.783	352.62
376.163	341.54
376.544	362.11
376.925	377.02
377.305	356.69
377.686	374.09
378.066	367.53
378.447	360.53
378.827	366.4
379.208	374.76
379.588	379.28
379.968	384.48
380.349	354.2
380.729	361.66
381.109	372.28
381.489	383.13
381.87	376.57
382.25	377.93
382.63	396.46
383.01	351.49
383.39	392.62
383.77	400.98
384.15	393.75
384.53	406.4
384.91	403.24
385.29	407.08
385.67	417.25
386.049	427.64
386.429	404.37
386.809	410.02
387.189	403.92
387.568	424.71
387.948	412.73
388.328	450.92
388.707	441.66
389.087	404.82
389.466	421.54
389.846	437.36
390.225	446.85
390.605	456.57
390.984	440.75
391.363	452.05
391.743	451.15
392.122	454.08
392.501	454.76
392.881	461.09
393.26	467.19
393.639	487.76
394.018	478.04
394.397	469
394.776	495.21
395.155	457.25
395.534	492.28
395.913	493.86
396.292	501.99
396.671	504.25
397.05	489.11
397.429	472.39
397.808	496.57
398.186	496.79
398.565	509.22
398.944	502.67
399.323	513.52
399.701	505.83
400.08	529.56
400.458	531.14
400.837	548.09
401.215	540.41
401.594	543.12
401.972	525.49
402.351	561.43
402.729	548.09
403.107	536.57
403.486	560.75
403.864	574.98
404.242	567.98
404.62	591.03
404.999	587.64
405.377	579.5
405.755	576.79
406.133	578.37
406.511	605.04
406.889	632.84
407.267	609.33
407.645	622.67
408.023	619.73
408.401	637.36
408.779	651.14
409.156	657.69
409.534	660.18
409.912	668.09
410.29	672.84
410.667	671.71
411.045	683.68
411.422	664.47
411.8	705.6
412.178	699.73
412.555	695.21
412.933	709.9
413.31	718.03
413.687	712.38
414.065	752.61
414.442	732.72
414.819	745.38
415.197	767.75
415.574	749.44
415.951	778.6
416.328	793.96
416.705	785.37
417.082	804.36
417.46	813.85
417.837	800.97
418.214	819.5
418.591	824.92
418.967	827.63
419.344	830.35
419.721	832.61
420.098	827.86
420.475	820.4
420.852	855.43
421.228	902.21
421.605	909.89
421.982	879.84
422.358	890.46
422.735	908.54
423.111	904.24
423.488	922.55
423.864	926.84
424.241	932.94
424.617	959.38
424.994	934.3
425.37	965.71
425.746	972.49
426.123	969.55
426.499	967.29
426.875	981.3
427.251	1003.67
427.627	1070.11
428.003	1040.74
428.379	1053.62
428.756	1055.65
429.132	1059.04
429.507	1078.02
429.883	1111.24
430.259	1104.46
430.635	1107.17
431.011	1153.73
431.387	1147.4
431.763	1159.15
432.138	1199.15
432.514	1182.43
432.89	1208.19
433.265	1207.74
433.641	1240.73
434.016	1208.87
434.392	1268.98
434.767	1282.31
435.143	1285.47
435.518	1296.32
435.894	1321.63
436.269	1340.61
436.644	1328.86
437.02	1346.72
437.395	1347.85
437.77	1392.36
438.145	1407.28
438.52	1393.95
438.895	1425.58
439.271	1411.8
439.646	1458.35
440.021	1445.7
440.395	1456.77
440.77	1445.47
441.145	1478.01
441.52	1532.93
441.895	1509.88
442.27	1505.58
442.645	1485.7
443.019	1546.48
443.394	1563.43
443.769	1557.56
444.143	1560.04
444.518	1592.13
444.892	1583.55
445.267	1631.68
445.641	1635.07
446.016	1644.34
446.39	1638.23
446.764	1673.94
447.139	1652.47
447.513	1675.75
447.887	1677.33
448.262	1686.37
448.636	1706.71
449.01	1702.19
449.384	1731.11
449.758	1744.22
450.132	1789.87
450.506	1769.3
450.88	1779.02
451.254	1804.11
451.628	1844.33
452.002	1847.49
452.376	1863.76
452.75	1848.17
453.123	1880.71
453.497	1915.51
453.871	1932.01
454.244	1972.46
454.618	1976.08
454.992	2041.84
455.365	2005.68
455.739	2056.75
456.112	2108.5
456.486	2077.09
456.859	2125.23
457.232	2147.6
457.606	2137.66
457.979	2167.94
458.352	2237.54
458.725	2249.07
459.099	2296.3
459.472	2317.76
459.845	2342.85
460.218	2357.08
460.591	2379.01
460.964	2378.78
461.337	2432.11
461.71	2492.22
462.083	2544.2
462.456	2510.53
462.829	2541.71
463.201	2575.61
463.574	2604.31
463.947	2602.5
464.32	2689.73
464.692	2707.58
465.065	2708.71
465.438	2797.3
465.81	2780.35
466.183	2837.07
466.555	2906.45
466.928	2937.41
467.3	2936.28
467.672	2956.84
468.045	3038.65
468.417	3070.74
468.789	3082.04
469.161	3112.77
469.534	3149.15
469.906	3200
470.278	3237.29
470.65	3256.5
471.022	3351.86
471.394	3423.72
471.766	3402.48
472.138	3519.99
472.51	3564.74
472.882	3561.57
473.253	3618.29
473.625	3661.23
473.997	3771.96
474.369	3793.21
474.74	3843.15
475.112	3894.67
475.484	3969.7
475.855	4038.4
476.227	4076.14
476.598	4171.27
476.97	4207.66
477.341	4265.51
477.713	4376.01
478.084	4389.8
478.455	4518.84
478.827	4527.42
479.198	4767.19
479.569	4700.07
479.94	4828.66
480.311	4925.83
480.682	4928.99
481.053	5094.87
481.424	5091.93
481.795	5216.67
482.166	5276.78
482.537	5339.38
482.908	5438.59
483.279	5513.61
483.65	5591.35
484.021	5691.01
484.391	5776.2
484.762	5836.54
485.133	5890.55
485.503	6022.75
485.874	6106.36
486.244	6223.88
486.615	6271.11
486.985	6392.01
487.356	6452.57
487.726	6519.01
488.097	6697.31
488.467	6715.61
488.837	6783.64
489.207	6924.87
489.578	6997.41
489.948	7083.74
490.318	7129.39
490.688	7174.13
491.058	7336.62
491.428	7389.95
491.798	7532.54
492.168	7635.59
492.538	7671.97
492.908	7757.17
493.278	7852.08
493.648	7904.51
494.017	7996.48
494.387	8051.85
494.757	8115.13
495.126	8218.85
495.496	8306.98
495.866	8373.2
496.235	8429.24
496.605	8536.58
496.974	8591.05
497.344	8629.46
497.713	8750.14
498.082	8759.4
498.452	8883.92
498.821	8903.58
499.19	9043.01
499.559	9106.29
499.928	9147.19
500.298	9249.11
500.667	9301.31
501.036	9294.53
501.405	9423.79
501.774	9435.77
502.143	9589.44
502.512	9626.27
502.88	9623.56
503.249	9693.62
503.618	9738.59
503.987	9842.31
504.356	9951.01
504.724	10036.66
505.093	10002.31
505.462	10111.23
505.83	10096.54
506.199	10238.01
506.567	10431.67
506.936	10386.25
507.304	10478.91
507.672	10556.87
508.041	10608.85
508.409	10694.27
508.777	10742.85
509.145	10856.07
509.514	10828.73
509.882	10936.75
510.25	11028.95
510.618	11154.82
510.986	11206.12
511.354	11360.24
511.722	11379.22
512.09	11515.94
512.458	11479.1
512.826	11657.63
513.193	11670.96
513.561	11767.46
513.929	11776.05
514.297	11976.27
514.664	12077.73
515.032	12098.07
515.4	12223.27
515.767	12279.31
516.135	12364.51
516.502	12347.78
516.869	12567.44
517.237	12655.8
517.604	12670.94
517.972	12754.78
518.339	12888.33
518.706	12920.42
519.073	12954.09
519.44	13079.29
519.808	13160.42
520.175	13158.61
520.542	13434.53
520.909	13486.51
521.276	13537.13
521.643	13622.55
522.009	13786.16
522.376	13871.81
522.743	14090.56
523.11	14146.15
523.477	14290.78
523.843	14420.72
524.21	14494.62
524.577	14649.64
524.943	14610.32
525.31	14811.9
525.676	14925.57
526.043	15033.81
526.409	15050.54
526.776	15356.74
527.142	15264.09
527.508	15430.19
527.874	15560.58
528.241	15642.61
528.607	15731.42
528.973	15919.21
529.339	15857.29
529.705	16141.36
530.071	16219.09
530.437	16345.42
530.803	16368.02
531.169	16438.97
531.535	16469.03
531.901	16514
532.267	16673.77
532.632	16746.99
532.998	16889.13
533.364	16949.92
533.73	17089.8
534.095	17133.87
534.461	17200.76
534.826	17233.76
535.192	17398.95
535.557	17499.06
535.923	17487.76
536.288	17482.11
536.653	17753.74
537.019	17703.12
537.384	17779.28
537.749	17877.35
538.114	17993.74
538.479	18062.66
538.845	18137.01
539.21	18129.78
539.575	18172.26
539.94	18314.41
540.305	18428.53
540.67	18322.09
541.034	18591.46
541.399	18595.98
541.764	18609.31
542.129	18647.28
542.494	18645.7
542.858	18807.73
543.223	18845.24
543.587	18963.43
543.952	18906.03
544.316	19054.27
544.681	19094.72
545.045	19205.91
545.41	19266.47
545.774	19336.53
546.138	19304.21
546.503	19462.85
546.867	19448.16
547.231	19792.78
547.595	19785.78
547.959	19797.53
548.324	19800.92
548.688	19839.56
549.052	19959.56
549.416	19978.32
549.779	19948.49
550.143	20174.92
550.507	20205.43
550.871	20262.83
551.235	20355.03
551.599	20512.77
551.962	20503.5
552.326	20600.22
552.689	20789.59
553.053	20659.88
553.417	20786.88
553.78	21060.55
554.143	20990.27
554.507	21041.34
554.87	21183.93
555.234	21333.99
555.597	21340.54
555.96	21438.84
556.323	21515.68
556.686	21539.18
557.05	21626.63
557.413	21887.42
557.776	21861.88
558.139	21993.18
558.502	21960.64
558.865	22179.39
559.228	22253.06
559.59	22348.2
559.953	22411.25
560.316	22730.33
560.679	22590.68
561.041	22844
561.404	22853.95
561.767	22963.55
562.129	22939.82
562.492	23294.61
562.854	23152.7
563.217	23282.64
563.579	23399.92
563.941	23559.92
564.304	23613.25
564.666	23848.95
565.028	23819.12
565.39	23992.22
565.753	24006.01
566.115	24052.56
566.477	24326.45
566.839	24411.19
567.201	24434.02
567.563	24526.45
567.925	24679.89
568.287	24655.48
568.648	24730.73
569.01	24963.04
569.372	25124.4
569.734	24943.84
570.095	25109.26
570.457	25337.05
570.819	25330.49
571.18	25452.07
571.542	25577.49
571.903	25562.58
572.265	25643.7
572.626	25782.46
572.987	25833.08
573.349	25903.58
573.71	25884.6
574.071	26132.28
574.432	26161.66
574.794	26334.31
575.155	26320.97
575.516	26259.28
575.877	26401.65
576.238	26449.33
576.599	26573.62
576.96	26603.23
577.32	26714.86
577.681	26762.32
578.042	26776.33
578.403	26764.13
578.763	26862.2
579.124	26805.71
579.485	26968.19
579.845	27110.78
580.206	26965.48
580.566	26964.35
580.927	27003.67
581.287	27103.78
581.648	27115.08
582.008	27218.13
582.368	27157.56
582.728	27158.01
583.089	27220.16
583.449	27189.65
583.809	27201.4
584.169	27447.27
584.529	27314.62
584.889	27483.43
585.249	27377.9
585.609	27256.77
585.969	27484.33
586.329	27339.7
586.688	27373.6
587.048	27345.13
587.408	27400.49
587.768	27285.02
588.127	27356.65
588.487	27289.76
588.846	27537.67
589.206	27396.65
589.565	27376.99
589.925	27500.83
590.284	27538.57
590.643	27581.05
591.003	27588.06
591.362	27659.7
591.721	27644.78
592.08	27560.04
592.44	27681.62
592.799	27589.19
593.158	27522.07
593.517	27590.09
593.876	27563.88
594.235	27658.57
594.593	27606.14
594.952	27706.7
595.311	27630.09
595.67	27855.85
596.029	27806.36
596.387	27874.38
596.746	27874.83
597.104	27926.58
597.463	27820.6
597.822	28002.06
598.18	27750.54
598.538	27826.7
598.897	28026.24
599.255	27702.63
599.613	28185.78
599.972	27952.12
600.33	28064.43
600.688	27960.25
601.046	28164.54
601.404	28271.43
601.762	28217.87
602.12	28305.1
602.478	28238.89
602.836	28280.7
603.194	28127.48
603.552	28313.92
603.91	28185.56
604.268	28364.08
604.625	28302.39
604.983	28355.27
605.341	28276.63
605.698	28405.67
606.056	28497.87
606.413	28386.68
606.771	28641.14
607.128	28595.27
607.485	28521.37
607.843	28544.19
608.2	28896.05
608.557	28783.73
608.914	28695.15
609.272	28819.44
609.629	28837.52
609.986	29109.6
610.343	28825.32
610.7	28998.42
611.057	28931.53
611.414	28932.43
611.771	28868.03
612.127	29057.4
612.484	29053.33
612.841	29224.63
613.198	29145.08
613.554	29145.08
613.911	29314.12
614.267	29303.72
614.624	29243.84
614.98	29342.14
615.337	29466.2
615.693	29326.77
616.05	29266.66
616.406	29499.42
616.762	29436.82
617.118	29443.83
617.475	29487.45
617.831	29615.35
618.187	29582.36
618.543	29563.83
618.899	29812.41
619.255	29709.81
619.611	29787.78
619.967	29740.32
620.323	29686.54
620.678	29698.51
621.034	29638.85
621.39	29657.84
621.746	29751.84
622.101	29953.87
622.457	29701.45
622.812	29897.83
623.168	29955.91
623.523	29865.51
623.879	29889.69
624.234	29736.25
624.589	29859.64
624.945	29887.89
625.3	29916.13
625.655	29760.88
626.01	29850.6
626.365	29869.81
626.72	29880.2
627.075	29802.92
627.43	29984.38
627.785	29823.03
628.14	29844.27
628.495	29866.42
628.85	29759.3
629.205	29755.69
629.559	29909.13
629.914	29816.93
630.269	29846.53
630.623	29837.72
630.978	29683.82
631.332	29791.62
631.687	29764.5
632.041	29710.26
632.396	29640.21
632.75	29614.9
633.104	29633.88
633.459	29546.88
633.813	29470.95
634.167	29564.05
634.521	29510.5
634.875	29626.88
635.229	29405.41
635.583	29270.28
635.937	29445.19
636.291	29375.81
636.645	29341.01
636.999	29199.54
637.352	29374.23
637.706	29150.5
638.06	29331.97
638.413	29275.02
638.767	29084.07
639.121	29052.88
639.474	29066.21
639.828	29023.05
640.181	29217.17
640.534	29025.08
640.888	28950.96
641.241	28806.56
641.594	28806.11
641.947	28889.72
642.301	28846.33
642.654	28809.5
643.007	28862.83
643.36	28731.53
643.713	28745.77
644.066	28832.32
644.419	28654.7
644.771	28428.72
645.124	28298.55
645.477	28197.31
645.83	28090.42
646.182	27843.42
646.535	27803.42
646.888	27919.35
647.24	27612.24
647.593	27771.78
647.945	27673.03
648.298	27544.9
648.65	27557.33
649.002	27465.13
649.355	27710.09
649.707	27516.65
650.059	27692.24
650.411	28082.51
650.763	28023.75
651.115	28290.19
651.467	28133.81
651.819	28113.24
652.171	28212
652.523	28032.79
652.875	27964.77
653.227	27925.45
653.578	28134.49
653.93	28016.75
654.282	28011.1
654.633	27829.86
654.985	27843.87
655.337	27848.62
655.688	27970.65
656.039	27996.41
656.391	27700.6
656.742	27844.1
657.094	27690.66
657.445	27738.34
657.796	27801.84
658.147	27730.66
658.498	27673.71
658.849	27703.09
659.2	27682.52
659.551	27650.21
659.902	27787.6
660.253	27703.31
660.604	27625.12
660.955	27702.63
661.306	27802.07
661.656	27583.31
662.007	27551.9
662.358	27577.44
662.708	27499.02
663.059	27582.18
663.409	27313.72
663.76	27590.77
664.11	27607.04
664.461	27515.97
664.811	27598.46
665.161	27486.37
665.511	27431.68
665.862	27575.4
666.212	27628.51
666.562	27555.97
666.912	27421.28
667.262	27376.77
667.612	27415.64
667.962	27466.26
668.312	27530.66
668.662	27558.46
669.011	27442.98
669.361	27388.29
669.711	27406.37
670.06	27338.8
670.41	27284.79
670.76	27332.02
671.109	27345.35
671.459	27322.98
671.808	27336.99
672.157	27359.37
672.507	27212.25
672.856	27203.21
673.205	27224.68
673.554	27229.88
673.904	27270.78
674.253	27388.07
674.602	27108.3
674.951	26856.1
675.3	26699.5
675.649	27026.27
675.998	27025.81
676.346	27112.82
676.695	27144.23
677.044	26945.14
677.393	26929.55
677.741	26952.14
678.09	26874.18
678.438	26822.88
678.787	26879.38
679.135	26843.22
679.484	26778.36
679.832	26797.8
680.181	26680.29
680.529	26703.34
680.877	26760.74
681.225	26639.61
681.573	26783.11
681.922	26615.43
682.27	26603.45
682.618	26511.93
682.966	26520.07
683.314	26570.69
683.661	26498.37
684.009	26481.2
684.357	26242.33
684.705	26328.88
685.053	26265.16
685.4	26277.13
685.748	26179.06
686.095	26143.35
686.443	25987.88
686.79	25886.86
687.138	25975.9
687.485	25841.21
687.832	25826.3
688.18	26008.67
688.527	25773.64
688.874	25778.62
689.221	25611.16
689.568	25594.44
689.915	25536.36
690.262	25549.47
690.609	25497.95
690.956	25504.05
691.303	25359.64
691.65	25151.74
691.997	25268.57
692.344	25004.4
692.69	25174.34
693.037	25023.83
693.383	24914.68
693.73	24982.48
694.077	24790.17
694.423	24749.72
694.769	24771.41
695.116	24514.69
695.462	24473.79
695.808	24505.66
696.155	24659.32
696.501	24355.6
696.847	24461.81
697.193	24276.06
697.539	24226.57
697.885	24057.76
698.231	24097.08
698.577	24073.12
698.923	24065.21
699.269	23928.72
699.614	23741.61
699.96	23733.02
700.306	23774.6
700.651	23654.6
700.997	23505.91
701.342	23560.6
701.688	23465.46
702.033	23511.56
702.379	23445.57
702.724	23407.83
703.069	23416.42
703.415	23168.06
703.76	23126.48
704.105	23142.08
704.45	23167.16
704.795	22925.81
705.14	22900.73
705.485	22830.9
705.83	22832.25
706.175	22750.67
706.52	22629.09
706.865	22563.11
707.209	22485.82
707.554	22544.35
707.899	22566.5
708.243	22336.22
708.588	22411.25
708.932	22339.84
709.277	22282.89
709.621	22359.72
709.966	22165.83
710.31	22141.88
710.654	22040.18
710.998	22073.4
711.342	22091.71
711.687	21930.13
712.031	21836.57
712.375	21813.97
712.719	21867.31
713.063	21825.73
713.407	21805.84
713.75	21724.94
714.094	21686.75
714.438	21584.6
714.782	21666.18
715.125	21466.19
715.469	21473.42
715.812	21324.95
716.156	21185.06
716.499	21347.77
716.843	21395.45
717.186	21293.76
717.53	21319.52
717.873	21296.47
718.216	21170.83
718.559	21067.55
718.902	21032.98
719.246	21038.63
719.589	21053.32
719.932	20832.08
720.275	20978.29
720.617	21009.48
720.96	20970.61
721.303	20805.64
721.646	20810.39
721.989	20652.65
722.331	20693.1
722.674	20659.2
723.016	20592.31
723.359	20632.08
723.701	20649.71
724.044	20480.22
724.386	20322.49
724.729	20385.54
725.071	20467.34
725.413	20364.97
725.755	20404.29
726.097	20229.16
726.439	20214.02
726.782	20205.66
727.124	20304.18
727.465	20207.46
727.807	20243.17
728.149	20070.29
728.491	20061.03
728.833	20131.31
729.175	19964.76
729.516	19975.15
729.858	20056.73
730.199	20042.04
730.541	19944.87
730.882	19888.6
731.224	19910.3
731.565	19734.93
731.906	19835.72
732.248	19914.14
732.589	19715.27
732.93	19766.57
733.271	19764.99
733.612	19730.41
733.953	19742.62
734.294	19632.11
734.635	19520.25
734.976	19581.49
735.317	19478.67
735.658	19614.48
735.999	19511.66
736.339	19449.06
736.68	19581.94
737.021	19405.9
737.361	19437.54
737.702	19321.38
738.042	19273.02
738.383	19290.65
738.723	19256.08
739.063	19255.17
739.404	19217.88
739.744	19062.63
740.084	19072.58
740.424	19190.31
740.764	19053.37
741.104	19161.61
741.444	19049.3
741.784	18977.89
742.124	18981.51
742.464	18914.39
742.804	18951
743.143	18870.55
743.483	18885.46
743.823	18787.84
744.162	18864
744.502	18784
744.841	18748.52
745.181	18785.58
745.52	18788.52
745.86	18619.93
746.199	18613.38
746.538	18535.64
746.877	18679.14
747.216	18583.32
747.556	18606.38
747.895	18495.64
748.234	18520.28
748.573	18412.48
748.911	18293.62
749.25	18369.55
749.589	18334.52
749.928	18360.73
750.267	18405.02
750.605	18195.31
750.944	18202.32
751.283	18160.29
751.621	18235.54
751.96	18090
752.298	18146.73
752.636	18018.14
752.975	17979.05
753.313	17830.58
753.651	17964.13
753.989	17840.07
754.327	17804.14
754.666	17851.37
755.004	17702.67
