Data from breadboard_black_back_FLMS001491_00084.txt Node
Date: Wed Feb 08 10:51:02 GMT 2017
User: dcchb
Spectrometer: FLMS00149
Trigger mode: 0
Integration Time (sec): 2.000000E-2
Scans to average: 10
Electric dark correction enabled: true
Nonlinearity correction enabled: false
Boxcar width: 0
XAxis mode: Wavelengths
Number of Pixels in Spectrum: 2048
>>>>>Begin Spectral Data<<<<<
341.393	13.53
341.776	13.53
342.16	13.53
342.543	-54.26
342.927	-68.5
343.31	-48.16
343.693	-79.35
344.077	-56.3
344.46	-45.9
344.843	-42.29
345.226	-52.91
345.61	-38.45
345.993	-22.17
346.376	-3.19
346.759	-14.27
347.142	36.35
347.525	52.17
347.908	52.85
348.291	54.89
348.674	96.92
349.057	109.8
349.44	130.14
349.823	126.07
350.206	159.97
350.588	176.46
350.971	197.48
351.354	225.05
351.737	235.9
352.119	250.13
352.502	264.82
352.884	297.82
353.267	286.97
353.65	279.96
354.032	305.73
354.414	313.86
354.797	309.57
355.179	336.01
355.562	331.94
355.944	330.58
356.326	312.05
356.709	352.5
357.091	337.14
357.473	324.48
357.855	338.72
358.238	326.97
358.62	363.8
359.002	365.39
359.384	334.88
359.766	352.05
360.148	337.36
360.53	351.83
360.912	348.89
361.294	343.01
361.676	350.92
362.057	354.54
362.439	351.83
362.821	346.86
363.203	339.17
363.584	333.07
363.966	355.67
364.348	333.75
364.729	344.82
365.111	344.14
365.493	347.76
365.874	332.39
366.256	359.96
366.637	323.35
367.019	337.59
367.4	361.09
367.781	354.99
368.163	328.55
368.544	346.18
368.925	343.24
369.306	349.34
369.688	335.1
370.069	310.02
370.45	345.05
370.831	325.61
371.212	354.76
371.593	322.22
371.974	345.05
372.355	355.89
372.736	348.89
373.117	368.32
373.498	340.08
373.879	352.96
374.26	334.65
374.641	367.87
375.021	343.47
375.402	348.66
375.783	351.83
376.163	372.39
376.544	369.23
376.925	371.94
377.305	373.3
377.686	347.53
378.066	373.97
378.447	350.47
378.827	382.11
379.208	355.67
379.588	381.43
379.968	392.05
380.349	366.06
380.729	376.23
381.109	392.73
381.489	394.31
381.87	400.87
382.25	419.4
382.63	384.82
383.01	382.11
383.39	421.2
383.77	408.55
384.15	402.9
384.53	409.9
384.91	413.29
385.29	422.33
385.67	433.41
386.049	420.3
386.429	437.7
386.809	429.11
387.189	423.24
387.568	437.7
387.948	453.52
388.328	450.58
388.707	432.95
389.087	453.97
389.466	449.45
389.846	468.89
390.225	449.45
390.605	471.82
390.984	463.24
391.363	468.43
391.743	460.52
392.122	476.57
392.501	481.77
392.881	493.52
393.26	493.74
393.639	513.86
394.018	495.33
394.397	503.24
394.776	484.03
395.155	518.15
395.534	529.9
395.913	512.5
396.292	528.77
396.671	537.58
397.05	547.98
397.429	525.16
397.808	529.9
398.186	536.23
398.565	549.11
398.944	548.88
399.323	538.04
399.701	545.95
400.08	558.15
400.458	554.76
400.837	578.71
401.215	569.45
401.594	580.75
401.972	571.26
402.351	606.51
402.729	599.28
403.107	616.45
403.486	594.98
403.864	616
404.242	609.67
404.62	641.08
404.999	611.03
405.377	625.72
405.755	644.93
406.133	645.83
406.511	633.63
406.889	679.28
407.267	665.72
407.645	690.12
408.023	679.73
408.401	660.52
408.779	696
409.156	713.85
409.534	705.94
409.912	728.31
410.29	718.37
410.667	732.16
411.045	756.11
411.422	751.59
411.8	757.24
412.178	772.38
412.555	794.53
412.933	776.45
413.31	801.76
413.687	804.24
414.065	825.49
414.442	802.66
414.819	842.66
415.197	846.96
415.574	838.82
415.951	864.58
416.328	880.85
416.705	853.96
417.082	878.59
417.46	899.16
417.837	863.45
418.214	903.68
418.591	921.98
418.967	896.22
419.344	932.15
419.721	952.94
420.098	931.25
420.475	945.94
420.852	987.97
421.228	978.7
421.605	980.74
421.982	982.32
422.358	1005.37
422.735	1010.11
423.111	1032.26
423.488	1009.44
423.864	1028.19
424.241	1045.59
424.617	1044.92
424.994	1060.06
425.37	1059.83
425.746	1096.21
426.123	1078.81
426.499	1091.24
426.875	1104.35
427.251	1117.91
427.627	1161.52
428.003	1172.6
428.379	1151.35
428.756	1188.42
429.132	1182.99
429.507	1197.68
429.883	1213.5
430.259	1244.01
430.635	1230.22
431.011	1251.92
431.387	1300.5
431.763	1276.32
432.138	1326.49
432.514	1350.67
432.89	1338.02
433.265	1401.29
433.641	1383.66
434.016	1428.41
434.392	1434.74
434.767	1428.86
435.143	1414.62
435.518	1480.38
435.894	1485.81
436.269	1484.23
436.644	1523.55
437.02	1523.32
437.395	1526.71
437.77	1548.18
438.145	1579.82
438.52	1601.29
438.895	1605.81
439.271	1621.17
439.646	1641.96
440.021	1641.06
440.395	1634.73
440.77	1666.37
441.145	1681.51
441.52	1700.94
441.895	1693.49
442.27	1716.08
442.645	1718.8
443.019	1759.02
443.394	1771.45
443.769	1751.79
444.143	1773.48
444.518	1795.63
444.892	1756.99
445.267	1788.85
445.641	1817.33
446.016	1823.88
446.39	1831.34
446.764	1870.66
447.139	1875.85
447.513	1890.32
447.887	1889.64
448.262	1890.54
448.636	1889.19
449.01	1939.36
449.384	1956.76
449.758	1959.47
450.132	1981.39
450.506	2018.68
450.88	2021.39
451.254	2014.38
451.628	2053.93
452.002	2079.01
452.376	2092.12
452.75	2128.96
453.123	2100.03
453.497	2185.68
453.871	2197.43
454.244	2238.56
454.618	2232.23
454.992	2262.06
455.365	2259.8
455.739	2336.41
456.112	2352.45
456.486	2383.41
456.859	2401.94
457.232	2449.62
457.606	2455.27
457.979	2486.01
458.352	2529.62
458.725	2545.44
459.099	2577.08
459.472	2625.44
459.845	2654.37
460.218	2678.55
460.591	2699.56
460.964	2695.04
461.337	2737.75
461.71	2847.81
462.083	2841.25
462.456	2865.66
462.829	2878.09
463.201	2974.81
463.574	2953.11
463.947	2985.43
464.32	3053
464.692	3076.73
465.065	3129.83
465.438	3148.36
465.81	3186.33
466.183	3190.4
466.555	3297.96
466.928	3322.6
467.3	3350.17
467.672	3381.58
468.045	3458.86
468.417	3430.62
468.789	3505.42
469.161	3525.75
469.534	3580.44
469.906	3689.82
470.278	3688.24
470.65	3720.55
471.022	3825.41
471.394	3861.79
471.766	3904.28
472.138	3934.11
472.51	4035.57
472.882	4117.15
473.253	4121.67
473.625	4196.47
473.997	4270.37
474.369	4295.45
474.74	4410.25
475.112	4454.32
475.484	4556.46
475.855	4600.53
476.227	4619.29
476.598	4777.7
476.97	4828.77
477.341	4925.94
477.713	5000.29
478.084	5017.69
478.455	5153.06
478.827	5184.47
479.198	5344.01
479.569	5355.76
479.94	5484.35
480.311	5539.04
480.682	5666.94
481.053	5821.74
481.424	5886.37
481.795	5925.69
482.166	6008.85
482.537	6048.85
482.908	6218.11
483.279	6248.4
483.65	6375.62
484.021	6557.09
484.391	6596.86
484.762	6665.33
485.133	6737.87
485.503	6787.36
485.874	6983.06
486.244	7015.83
486.615	7200.01
486.985	7255.15
487.356	7365.2
487.726	7451.3
488.097	7618.98
488.467	7588.7
488.837	7722.93
489.207	7918.63
489.578	7992.3
489.948	8056.03
490.318	8176.48
490.688	8197.95
491.058	8343.26
491.428	8440.43
491.798	8521.78
492.168	8701.66
492.538	8755
492.908	8877.93
493.278	8995.89
493.648	8964.03
494.017	9068.66
494.387	9188.88
494.757	9310.01
495.126	9362.89
495.496	9421.64
495.866	9412.15
496.235	9533.28
496.605	9642.88
496.974	9716.33
497.344	9827.96
497.713	9941.41
498.082	10018.69
498.452	10091.23
498.821	10167.39
499.19	10202.42
499.559	10342.3
499.928	10399.02
500.298	10403.77
500.667	10563.76
501.036	10525.8
501.405	10644.66
501.774	10693.7
502.143	10721.95
502.512	10848.95
502.88	10974.37
503.249	10905.45
503.618	10996.29
503.987	11112
504.356	11180.69
504.724	11288.49
505.093	11361.03
505.462	11352.44
505.83	11437.64
506.199	11568.03
506.567	11724.18
506.936	11700.46
507.304	11875.14
507.672	11850.73
508.041	12001.69
508.409	12126.43
508.777	12182.7
509.145	12289.59
509.514	12283.49
509.882	12471.73
510.25	12386.54
510.618	12604.84
510.986	12645.51
511.354	12813.65
511.722	12817.71
512.09	12939.52
512.458	12930.71
512.826	13112.17
513.193	13152.17
513.561	13218.61
513.929	13421.09
514.297	13454.99
514.664	13595.77
515.032	13657.69
515.4	13766.62
515.767	13779.95
516.135	13916.22
516.502	13821.53
516.869	14247.05
517.237	14274.4
517.604	14226.26
517.972	14324.79
518.339	14472.59
518.706	14571.34
519.073	14682.3
519.44	14726.82
519.808	14830.77
520.175	14874.83
520.542	15164.77
520.909	15196.18
521.276	15244.09
521.643	15433.69
522.009	15531.99
522.376	15665.1
522.743	15745.77
523.11	15891.31
523.477	16065.76
523.843	16175.14
524.21	16350.73
524.577	16592.3
524.943	16565.19
525.31	16676.37
525.676	16791.62
526.043	16954.1
526.409	16990.03
526.776	17161.33
527.142	17149.8
527.508	17297.37
527.874	17476.12
528.241	17661.43
528.607	17568.32
528.973	17914.3
529.339	17886.96
529.705	18034.75
530.071	18157.69
530.437	18242.88
530.803	18487.85
531.169	18533.72
531.535	18561.07
531.901	18662.98
532.267	18697.56
532.632	18814.39
532.998	18880.83
533.364	19004.44
533.73	19085.57
534.095	19276.53
534.461	19251.44
534.826	19325.57
535.192	19483.3
535.557	19589.97
535.923	19692.79
536.288	19664.54
536.653	19900.24
537.019	19827.02
537.384	19900.47
537.749	20137.3
538.114	20221.13
538.479	20151.98
538.845	20334.13
539.21	20328.48
539.575	20350.62
539.94	20422.71
540.305	20669.94
540.67	20587.68
541.034	20710.84
541.399	20753.78
541.764	20775.47
542.129	20885.52
542.494	20988.12
542.858	21033.09
543.223	21023.83
543.587	21330.48
543.952	21222.24
544.316	21305.17
544.681	21356.02
545.045	21373.42
545.41	21544.26
545.774	21541.78
546.138	21596.69
546.503	21576.13
546.867	21727.08
547.231	21944.03
547.595	21958.94
547.959	22084.36
548.324	22172.72
548.688	22229.22
549.052	22369.33
549.416	22311.48
549.779	22305.6
550.143	22481.87
550.507	22631.92
550.871	22682.77
551.235	22751.46
551.599	22852.48
551.962	22955.07
552.326	23043.66
552.689	23179.7
553.053	23039.14
553.417	23160.94
553.78	23360.71
554.143	23375.18
554.507	23567.49
554.87	23559.58
555.234	23781.72
555.597	23751.21
555.96	23825.56
556.323	23964.54
556.686	23959.57
557.05	24206.57
557.413	24146.68
557.776	24251.54
558.139	24426.45
558.502	24463.06
558.865	24589.38
559.228	24750.28
559.59	24821.01
559.953	24906.21
560.316	25215.35
560.679	25196.15
561.041	25249.48
561.404	25497.83
561.767	25595
562.129	25407.44
562.492	25823.25
562.854	25771.5
563.217	25878.39
563.579	26062.79
563.941	26062.34
564.304	26246.74
564.666	26472.04
565.028	26398.83
565.39	26616.22
565.753	26684.92
566.115	26887.63
566.477	26967.85
566.839	26977.12
567.201	27217.56
567.563	27084.91
567.925	27382.3
568.287	27388.63
568.648	27410.78
569.01	27701.16
569.372	27865
569.734	27707.94
570.095	27971.44
570.457	28198.55
570.819	28145.45
571.18	28028.61
571.542	28228.83
571.903	28399
572.265	28476.51
572.626	28544.53
572.987	28631.31
573.349	28613.68
573.71	28825.88
574.071	28835.6
574.432	28904.97
574.794	29096.83
575.155	29056.38
575.516	29108.81
575.877	29176.38
576.238	29261.35
576.599	29350.16
576.96	29292.53
577.32	29332.99
577.681	29543.83
578.042	29682.36
578.403	29536.37
578.763	29630.83
579.124	29648.23
579.485	29742.47
579.845	29929.58
580.206	29864.5
580.566	29779.3
580.927	29902.01
581.287	29999.41
581.648	29827.66
582.008	30094.55
582.368	30052.29
582.728	30147.2
583.089	30038.73
583.449	30039.41
583.809	29965.74
584.169	30077.6
584.529	30020.43
584.889	30345.39
585.249	30197.37
585.609	30134.55
585.969	30264.26
586.329	30262.23
586.688	30147.2
587.048	30226.75
587.408	30068.33
587.768	30149.24
588.127	30129.12
588.487	30132.74
588.846	30264.49
589.206	30092.97
589.565	30154.21
589.925	30257.71
590.284	30179.07
590.643	30458.83
591.003	30296.35
591.362	30512.39
591.721	30272.85
592.08	30338.16
592.44	30475.55
592.799	30444.37
593.158	30404.14
593.517	30446.4
593.876	30356.46
594.235	30452.73
594.593	30424.93
594.952	30520.3
595.311	30352.17
595.67	30509.68
596.029	30665.38
596.387	30706.73
596.746	30685.27
597.104	30558.26
597.463	30593.29
597.822	30719.62
598.18	30527.3
598.538	30650.47
598.897	30758.26
599.255	30593.74
599.613	31010.46
599.972	30768.2
600.33	30729.33
600.688	30709.9
601.046	30838.03
601.404	30979.27
601.762	30875.77
602.12	31019.95
602.478	31048.87
602.836	31174.52
603.194	30803.46
603.552	31094.52
603.91	30942.89
604.268	31100.4
604.625	30942.21
604.983	31129.1
605.341	30937.46
605.698	31108.31
606.056	31099.04
606.413	31222.43
606.771	31287.51
607.128	31301.75
607.485	31338.58
607.843	31319.37
608.2	31346.04
608.557	31489.77
608.914	31531.57
609.272	31605.47
609.629	31730.66
609.986	31702.87
610.343	31679.14
610.7	31929.53
611.057	31553.94
611.414	31648.86
611.771	31675.3
612.127	31899.25
612.484	31867.16
612.841	32002.29
613.198	31885.91
613.554	31854.73
613.911	32155.74
614.267	32080.26
614.624	32014.72
614.98	32071.22
615.337	32336.3
615.693	32117.32
616.05	32126.58
616.406	32363.64
616.762	32293.59
617.118	32250.88
617.475	32210.65
617.831	32319.57
618.187	32291.55
618.543	32343.53
618.899	32586.01
619.255	32409.06
619.611	32550.3
619.967	32628.72
620.323	32574.03
620.678	32472.11
621.034	32483.86
621.39	32450.87
621.746	32460.81
622.101	32685.21
622.457	32401.38
622.812	32556.4
623.168	32616.29
623.523	32627.36
623.879	32694.93
624.234	32479.34
624.589	32586.69
624.945	32678.43
625.3	32629.4
625.655	32662.84
626.01	32624.2
626.365	32688.38
626.72	32548.95
627.075	32443.86
627.43	32651.99
627.785	32540.81
628.14	32491.77
628.495	32529.29
628.85	32527.25
629.205	32300.37
629.559	32582.17
629.914	32437.31
630.269	32421.04
630.623	32297.65
630.978	32324.77
631.332	32451.55
631.687	32436.86
632.041	32262.17
632.396	32477.31
632.75	32196.87
633.104	32278.45
633.459	32093.37
633.813	32091.78
634.167	32007.94
634.521	32188.96
634.875	32090.88
635.229	31993.48
635.583	31913.71
635.937	31858.12
636.291	31804.56
636.645	31823.77
636.999	31915.29
637.352	31818.8
637.706	31721.17
638.06	31862.64
638.413	31842.07
638.767	31699.03
639.121	31739.93
639.474	31586.49
639.828	31480.95
640.181	31603.66
640.534	31462.2
640.888	31397.56
641.241	31324.57
641.594	31415.42
641.947	31494.06
642.301	31296.1
642.654	31359.15
643.007	31412.93
643.36	31189.21
643.713	31288.19
644.066	31222.65
644.419	31082.54
644.771	30834.64
645.124	30632.61
645.477	30593.07
645.83	30486.18
646.182	30207.31
646.535	30191.27
646.888	30065.4
647.24	29942.46
647.593	30097.49
647.945	30096.58
648.298	29960.31
648.65	29959.64
649.002	29706.99
649.355	29898.17
649.707	29854.33
650.059	29971.16
650.411	30438.72
650.763	30365.5
651.115	30746.51
651.467	30491.37
651.819	30518.49
652.171	30451.15
652.523	30393.07
652.875	30337.03
653.227	30296.12
653.578	30357.59
653.93	30345.39
654.282	30189.91
654.633	30154.66
654.985	30165.51
655.337	30029.24
655.688	30248.22
656.039	30304.94
656.391	30014.1
656.742	30093.64
657.094	30157.6
657.445	30161.89
657.796	30059.97
658.147	29966.19
658.498	29898.85
658.849	30027.43
659.2	30005.28
659.551	29956.92
659.902	30100.65
660.253	30013.87
660.604	29995.79
660.955	29745.18
661.306	30059.97
661.656	29822.24
662.007	29850.49
662.358	29792.18
662.708	29789.92
663.059	29829.47
663.409	29544.96
663.76	29769.36
664.11	29671.73
664.461	29854.55
664.811	29684.61
665.161	29756.93
665.511	29639.19
665.862	29674.9
666.212	29737.95
666.562	29803.93
666.912	29639.64
667.262	29570.95
667.612	29673.32
667.962	29697.72
668.312	29533.66
668.662	29777.04
669.011	29631.73
669.361	29574.79
669.711	29539.53
670.06	29480.55
670.41	29518.97
670.76	29565.07
671.109	29464.96
671.459	29487.33
671.808	29384.96
672.157	29478.97
672.507	29292.08
672.856	29432.64
673.205	29512.19
673.554	29460.67
673.904	29186.55
674.253	29434
674.602	29378.18
674.951	28943.17
675.3	28798.31
675.649	29271.29
675.998	29276.26
676.346	29176.83
676.695	29202.37
677.044	29017.51
677.393	28996.95
677.741	29047.57
678.09	29073.33
678.438	29067.46
678.787	29021.81
679.135	29047.34
679.484	28869.95
679.832	28963.28
680.181	28730.97
680.529	28776.39
680.877	28686.45
681.225	28743.62
681.573	28775.03
681.922	28615.26
682.27	28594.7
682.618	28667.47
682.966	28549.5
683.314	28533.68
683.661	28507.24
684.009	28340.24
684.357	28358.32
684.705	28344.31
685.053	28281.71
685.4	28199.23
685.748	28102.51
686.095	28114.03
686.443	27913.36
686.79	27801.5
687.138	27933.7
687.485	27870.2
687.832	27724.89
688.18	27846.92
688.527	27761.73
688.874	27598.34
689.221	27552.69
689.568	27517.67
689.915	27477.89
690.262	27588.4
690.609	27343.21
690.956	27248.07
691.303	27284.45
691.65	27259.37
691.997	27173.95
692.344	27009.21
692.69	26901.19
693.037	26984.57
693.383	26819.15
693.73	26845.37
694.077	26662.1
694.423	26545.26
694.769	26477.02
695.116	26470.91
695.462	26455.1
695.808	26387.53
696.155	26430.01
696.501	26209.9
696.847	26269.11
697.193	26056.69
697.539	26181.2
697.885	25946.41
698.231	25833.87
698.577	25849.46
698.923	25791.16
699.269	25668.22
699.614	25663.03
699.96	25508.45
700.306	25552.07
700.651	25546.42
700.997	25385.74
701.342	25389.81
701.688	25293.54
702.033	25229.59
702.379	25153.66
702.724	25080.89
703.069	25124.51
703.415	24899.2
703.76	24840.22
704.105	24852.88
704.45	24683.62
704.795	24714.8
705.14	24542.83
705.485	24628.93
705.83	24446.79
706.175	24506.9
706.52	24400.91
706.865	24363.85
707.209	24286.56
707.554	24180.8
707.899	24301.25
708.243	24070.75
708.588	24086.34
708.932	24023.75
709.277	23904.2
709.621	24001.83
709.966	23833.24
710.31	23857.2
710.654	23526.81
710.998	23790.08
711.342	23698.11
711.687	23643.64
712.031	23441.16
712.375	23556.19
712.719	23461.5
713.063	23426.7
713.407	23385.57
713.75	23260.6
714.094	23240.72
714.438	23220.83
714.782	23176.99
715.125	22939.03
715.469	23150.78
715.812	22991.68
716.156	22829.2
716.499	22883.89
716.843	22955.07
717.186	22815.64
717.53	22900.39
717.873	22898.8
718.216	22754.63
718.559	22629.21
718.902	22478.02
719.246	22571.36
719.589	22512.37
719.932	22410.23
720.275	22393.96
720.617	22397.57
720.96	22241.42
721.303	22390.57
721.646	22383.79
721.989	22296.56
722.331	22231.7
722.674	22076.45
723.016	22126.85
723.359	22095.66
723.701	22100.63
724.044	21962.56
724.386	21825.39
724.729	21949.23
725.071	21846.85
725.413	21851.83
725.755	21843.92
726.097	21739.06
726.439	21578.16
726.782	21684.6
727.124	21758.27
727.465	21640.53
727.807	21675.11
728.149	21510.82
728.491	21526.86
728.833	21509.24
729.175	21362.35
729.516	21391.5
729.858	21311.28
730.199	21438.05
730.541	21327.09
730.882	21205.74
731.224	21249.81
731.565	21168
731.906	21235.12
732.248	21150.6
732.589	21087.78
732.93	21120.55
733.271	21106.31
733.612	21024.28
733.953	21041.45
734.294	20896.37
734.635	20968.23
734.976	21048.46
735.317	20735.7
735.658	20873.77
735.999	20862.47
736.339	20782.7
736.68	20790.16
737.021	20653.67
737.361	20544.97
737.702	20665.87
738.042	20621.58
738.383	20651.41
738.723	20621.12
739.063	20545.42
739.404	20563.05
739.744	20511.75
740.084	20475.59
740.424	20428.14
740.764	20460.45
741.104	20525.31
741.444	20295.48
741.784	20240.12
742.124	20174.36
742.464	20161.02
742.804	20237.86
743.143	20215.03
743.483	20129.84
743.823	20109.73
744.162	20012.55
744.502	20142.72
744.841	20084.87
745.181	20008.94
745.52	20010.75
745.86	19891.2
746.199	19857.98
746.538	19830.18
746.877	19846.46
747.216	19826.34
747.556	19816.63
747.895	19714.48
748.234	19615.95
748.573	19682.62
748.911	19655.73
749.25	19554.49
749.589	19440.14
749.928	19531.89
750.267	19575.95
750.605	19348.16
750.944	19390.65
751.283	19272.91
751.621	19387.48
751.96	19226.36
752.298	19273.14
752.636	19282.63
752.975	19014.61
753.313	19048.74
753.651	19165.12
753.989	18923.99
754.327	18902.53
