Data from breadboard_black_back_FLMS001491_00044.txt Node
Date: Wed Feb 08 10:50:26 GMT 2017
User: dcchb
Spectrometer: FLMS00149
Trigger mode: 0
Integration Time (sec): 2.000000E-2
Scans to average: 10
Electric dark correction enabled: true
Nonlinearity correction enabled: false
Boxcar width: 0
XAxis mode: Wavelengths
Number of Pixels in Spectrum: 2048
>>>>>Begin Spectral Data<<<<<
341.393	-12.56
341.776	-12.56
342.16	-12.56
342.543	-50.75
342.927	-65.89
343.31	-65.21
343.693	-68.83
344.077	-47.36
344.46	-69.05
344.843	-51.2
345.226	-66.34
345.61	-41.48
345.993	-23.63
346.376	1.23
346.759	12.53
347.142	27.67
347.525	41.91
347.908	60.44
348.291	68.57
348.674	101.79
349.057	118.97
349.44	123.26
349.823	143.15
350.206	150.38
350.588	201.22
350.971	229.02
351.354	232.64
351.737	267.89
352.119	250.04
352.502	283.03
352.884	287.32
353.267	305.63
353.65	297.04
354.032	295.23
354.414	316.93
354.797	320.32
355.179	345.63
355.562	344.72
355.944	340.43
356.326	359.41
356.709	357.38
357.091	357.83
357.473	380.88
357.855	369.35
358.238	360.99
358.62	356.47
359.002	367.77
359.384	381.11
359.766	354.89
360.148	353.76
360.53	361.9
360.912	359.64
361.294	339.52
361.676	366.19
362.057	358.96
362.439	355.57
362.821	355.34
363.203	339.75
363.584	334.33
363.966	348.79
364.348	338.85
364.729	357.38
365.111	350.37
365.493	362.35
365.874	360.99
366.256	336.59
366.637	332.29
367.019	347.66
367.4	331.16
367.781	335.23
368.163	342.46
368.544	354.44
368.925	351.05
369.306	349.69
369.688	359.19
370.069	341.56
370.45	365.51
370.831	360.54
371.212	368
371.593	348.79
371.974	357.15
372.355	353.31
372.736	335.91
373.117	363.93
373.498	348.79
373.879	360.77
374.26	345.85
374.641	370.94
375.021	362.35
375.402	364.61
375.783	370.71
376.163	370.03
376.544	375.46
376.925	379.07
377.305	368.9
377.686	371.61
378.066	395.34
378.447	377.49
378.827	377.94
379.208	393.76
379.588	419.3
379.968	390.6
380.349	387.21
380.729	389.47
381.109	384.5
381.489	428.56
381.87	401.9
382.25	396.02
382.63	389.24
383.01	388.79
383.39	410.71
383.77	416.13
384.15	420.65
384.53	423.14
384.91	435.79
385.29	419.3
385.67	414.78
386.049	436.92
386.429	444.38
386.809	463.82
387.189	434.89
387.568	446.41
387.948	438.73
388.328	449.8
388.707	466.3
389.087	463.36
389.466	455.91
389.846	476.7
390.225	452.74
390.605	464.49
390.984	473.31
391.363	474.66
391.743	488.9
392.122	501.1
392.501	497.94
392.881	490.71
393.26	504.72
393.639	523.02
394.018	503.81
394.397	522.8
394.776	520.09
395.155	524.6
395.534	534.1
395.913	537.26
396.292	520.09
396.671	538.84
397.05	553.3
397.429	542.23
397.808	537.71
398.186	542.46
398.565	531.38
398.944	532.06
399.323	553.53
399.701	571.16
400.08	561.44
400.458	595.11
400.837	598.28
401.215	583.13
401.594	599.41
401.972	601.89
402.351	607.09
402.729	600.76
403.107	610.93
403.486	607.99
403.864	625.17
404.242	605.28
404.62	646.41
404.999	627.2
405.377	625.39
405.755	645.51
406.133	662
406.511	672.62
406.889	655.45
407.267	664.71
407.645	689.57
408.023	712.85
408.401	708.78
408.779	696.58
409.156	729.12
409.534	714.2
409.912	727.54
410.29	742.23
410.667	740.42
411.045	747.2
411.422	763.47
411.8	758.05
412.178	776.12
412.555	779.06
412.933	806.41
413.31	789
413.687	817.93
414.065	843.01
414.442	819.51
414.819	835.56
415.197	844.37
415.574	847.99
415.951	848.21
416.328	847.99
416.705	858.16
417.082	867.19
417.46	878.72
417.837	901.32
418.214	902.9
418.591	905.39
418.967	901.77
419.344	923.24
419.721	926.18
420.098	930.7
420.475	962.79
420.852	964.82
421.228	981.32
421.605	963.92
421.982	970.92
422.358	1013.86
422.735	1008.66
423.111	1002.56
423.488	1028.77
423.864	1036.46
424.241	1023.35
424.617	1048.21
424.994	1070.13
425.37	1041.88
425.746	1094.31
426.123	1102.22
426.499	1126.4
426.875	1119.17
427.251	1132.27
427.627	1149.9
428.003	1159.39
428.379	1177.02
428.756	1175.89
429.132	1193.06
429.507	1218.6
429.883	1226.51
430.259	1271.7
430.635	1278.26
431.011	1264.7
431.387	1311.25
431.763	1321.65
432.138	1335.43
432.514	1325.71
432.89	1334.3
433.265	1386.5
433.641	1407.97
434.016	1394.41
434.392	1442.77
434.767	1425.6
435.143	1437.35
435.518	1451.13
435.894	1475.31
436.269	1483.9
436.644	1488.87
437.02	1501.3
437.395	1546.05
437.77	1553.5
438.145	1571.13
438.52	1562.54
438.895	1613.16
439.271	1585.37
439.646	1652.71
440.021	1652.94
440.395	1655.87
440.77	1648.42
441.145	1667.85
441.52	1688.19
441.895	1693.61
442.27	1741.97
442.645	1723.22
443.019	1744.69
443.394	1755.08
443.769	1764.35
444.143	1786.27
444.518	1793.5
444.892	1801.86
445.267	1790.56
445.641	1824.46
446.016	1823.78
446.39	1840.28
446.764	1882.76
447.139	1854.97
447.513	1892.25
447.887	1904.46
448.262	1881.18
448.636	1898.81
449.01	1950.56
449.384	1968.41
449.758	1993.94
450.132	1988.3
450.506	1973.83
450.88	2012.02
451.254	2054.73
451.628	2042.98
452.002	2062.42
452.376	2103.55
452.75	2128.86
453.123	2153.71
453.497	2170.21
453.871	2176.99
454.244	2211.34
454.618	2222.87
454.992	2270.32
455.365	2271.23
455.739	2327.27
456.112	2356.65
456.486	2332.24
456.859	2393.93
457.232	2422.63
457.606	2445.68
457.979	2461.28
458.352	2492.91
458.725	2569.97
459.099	2557.32
459.472	2599.8
459.845	2622.4
460.218	2661.05
460.591	2677.54
460.964	2673.47
461.337	2770.2
461.71	2793.92
462.083	2832.34
462.456	2856.75
462.829	2854.94
463.201	2957.99
463.574	2943.07
463.947	2957.31
464.32	3045.44
464.692	3072.11
465.065	3129.28
465.438	3122.73
465.81	3168.38
466.183	3166.12
466.555	3260.8
466.928	3289.5
467.3	3283.85
467.672	3346.23
468.045	3415.15
468.417	3445.66
468.789	3468.03
469.161	3510.52
469.534	3568.14
469.906	3655.82
470.278	3662.15
470.65	3733.11
471.022	3770.4
471.394	3828.7
471.766	3868.92
472.138	3927.45
472.51	4029.6
472.882	4080.67
473.253	4134
473.625	4206.09
473.997	4252.64
474.369	4284.96
474.74	4399.76
475.112	4439.3
475.484	4539.41
475.855	4575.35
476.227	4591.62
476.598	4714.1
476.97	4809.24
477.341	4898.95
477.713	4927.43
478.084	4985.05
478.455	5101.66
478.827	5097.37
479.198	5369.22
479.569	5286.06
479.94	5468.2
480.311	5541.87
480.682	5641.31
481.053	5788.65
481.424	5850.34
481.795	5938.7
482.166	6005.59
482.537	6034.29
482.908	6229.31
483.279	6298.69
483.65	6383.21
484.021	6522.19
484.391	6573.94
484.762	6667.27
485.133	6724.67
485.503	6810.77
485.874	6915.17
486.244	6952.23
486.615	7188.84
486.985	7227.93
487.356	7307.48
487.726	7424.08
488.097	7559.9
488.467	7627.02
488.837	7769.84
489.207	7810.51
489.578	7957.63
489.948	8016.16
490.318	8139.09
490.688	8199.21
491.058	8386.77
491.428	8367.56
491.798	8497.95
492.168	8753.32
492.538	8671.06
492.908	8793.77
493.278	8908.34
493.648	8973.42
494.017	9031.05
494.387	9172.06
494.757	9293.64
495.126	9392.85
495.496	9395.11
495.866	9445.5
496.235	9548.55
496.605	9657.25
496.974	9693.4
497.344	9845.04
497.713	9921.87
498.082	9968.65
498.452	10100.62
498.821	10129.32
499.19	10241.19
499.559	10278.02
499.928	10335.65
500.298	10477.11
500.667	10541.06
501.036	10427.62
501.405	10672.36
501.774	10659.71
502.143	10754.17
502.512	10865.58
502.88	10926.59
503.249	10969.53
503.618	10992.13
503.987	11027.61
504.356	11243.42
504.724	11239.13
505.093	11294.49
505.462	11332.68
505.83	11487.93
506.199	11522.51
506.567	11647.48
506.936	11698.32
507.304	11873.68
507.672	11905.55
508.041	11981.03
508.409	12068.48
508.777	12144.86
509.145	12272.54
509.514	12289.95
509.882	12414.46
510.25	12486.32
510.618	12545.53
510.986	12612.87
511.354	12726.77
511.722	12816.03
512.09	12981.23
512.458	12968.8
512.826	13056.7
513.193	13154.78
513.561	13246.08
513.929	13381.22
514.297	13521.33
514.664	13533.53
515.032	13630.7
515.4	13801.77
515.767	13849.23
516.135	13964.7
516.502	13903.91
516.869	14144.59
517.237	14270.91
517.604	14172.38
517.972	14425.71
518.339	14549.77
518.706	14498.93
519.073	14598.13
519.44	14800.16
519.808	14926.94
520.175	14870.22
520.542	15147.05
520.909	15212.13
521.276	15241.73
521.643	15516.3
522.009	15487.15
522.376	15595.17
522.743	15737.09
523.11	15930.08
523.477	16061.82
523.843	16144.53
524.21	16395.15
524.577	16464.3
524.943	16588.36
525.31	16599.21
525.676	16778.41
526.043	16911.74
526.409	16995.81
526.776	17179.53
527.142	17217.5
527.508	17408.91
527.874	17522.35
528.241	17562.57
528.607	17784.26
528.973	17950.36
529.339	17828.78
529.705	18058.38
530.071	18200.52
530.437	18292.5
530.803	18421.54
531.169	18569.55
531.535	18515.09
531.901	18652.04
532.267	18786.95
532.632	18865.37
532.998	18929.32
533.364	19004.57
533.73	19121.86
534.095	19230.1
534.461	19353.49
534.826	19463.77
535.192	19488.17
535.557	19658.79
535.923	19617.44
536.288	19778.79
536.653	19909.86
537.019	19876.64
537.384	20052
537.749	20137.65
538.114	20141.26
538.479	20252.22
538.845	20312.11
539.21	20275.05
539.575	20379.9
539.94	20495.38
540.305	20593.91
540.67	20594.81
541.034	20731.53
541.399	20926.78
541.764	20890.62
542.129	20943.5
542.494	21030.05
542.858	21151.86
543.223	21015.14
543.587	21254.91
543.952	21185.98
544.316	21407.9
544.681	21390.5
545.045	21573.09
545.41	21566.31
545.774	21755.01
546.138	21650.38
546.503	21794.78
546.867	21760.88
547.231	22086.75
547.595	22075.68
547.959	22074.77
548.324	22139.86
548.688	22240.19
549.052	22355.44
549.416	22377.14
549.779	22490.58
550.143	22514.76
550.507	22646.96
550.871	22766.05
551.235	22712.04
551.599	22877.92
551.962	23013.96
552.326	22957.24
552.689	23272.71
553.053	23210.11
553.417	23278.36
553.78	23512.02
554.143	23405.59
554.507	23593.83
554.87	23654.62
555.234	23911.11
555.597	23808.96
555.96	23966.25
556.323	24082.4
556.686	24095.74
557.05	24328.5
557.413	24319.46
557.776	24393.58
558.139	24535.27
558.502	24538.66
558.865	24587.7
559.228	24820.92
559.59	24985.2
559.953	24970.52
560.316	25204.18
560.679	25266.1
561.041	25431.29
561.404	25558.97
561.767	25646.2
562.129	25581.57
562.492	25942.02
562.854	25974.78
563.217	25946.31
563.579	26072.63
563.941	26245.51
564.304	26366.41
564.666	26501.32
565.028	26518.05
565.39	26650.92
565.753	26809.34
566.115	26946.96
566.477	27041.65
566.839	27115.54
567.201	27275.31
567.563	27294.3
567.925	27554.18
568.287	27427.17
568.648	27573.84
569.01	27706.26
569.372	27832.59
569.734	27861.06
570.095	28022.19
570.457	28216.08
570.819	28293.59
571.18	28319.81
571.542	28510.99
571.903	28524.09
572.265	28589.86
572.626	28648.16
572.987	28623.98
573.349	28767.93
573.71	28955.95
574.071	29026.68
574.432	29084.31
574.794	29240.23
575.155	29233
575.516	29132.89
575.877	29299.44
576.238	29457.86
576.599	29595.93
576.96	29571.52
577.32	29569.94
577.681	29617.63
578.042	29833.44
578.403	29774.01
578.763	29655.36
579.124	29842.25
579.485	29947.11
579.845	29993.43
580.206	29996.82
580.566	29991.4
580.927	29955.92
581.287	30209.02
581.648	30091.96
582.008	30202.69
582.368	30107.33
582.728	30256.93
583.089	30235.91
583.449	30176.71
583.809	30181.9
584.169	30226.87
584.529	30229.59
584.889	30405.63
585.249	30228
585.609	30216.25
585.969	30392.75
586.329	30279.75
586.688	30480.43
587.048	30284.27
587.408	30343.26
587.768	30419.19
588.127	30328.34
588.487	30311.62
588.846	30496.47
589.206	30236.37
589.565	30354.78
589.925	30445.85
590.284	30407.43
590.643	30510.94
591.003	30530.6
591.362	30643.59
591.721	30580.09
592.08	30577.83
592.44	30560.65
592.799	30510.94
593.158	30450.6
593.517	30475.91
593.876	30751.61
594.235	30615.11
594.593	30689.69
594.952	30550.26
595.311	30634.1
595.67	30635.9
596.029	30937.82
596.387	30851.72
596.746	30853.07
597.104	30726.75
597.463	30765.17
597.822	30920.87
598.18	30841.55
598.538	30735.34
598.897	31044.03
599.255	30715.9
599.613	31114.76
599.972	31061.2
600.33	31025.05
600.688	30972.39
601.046	31154.76
601.404	31164.7
601.762	31138.04
602.12	31218.71
602.478	31149.11
602.836	31317.47
603.194	31131.94
603.552	31138.26
603.91	31169.22
604.268	31209.45
604.625	31231.14
604.983	31324.47
605.341	31330.12
605.698	31458.25
606.056	31451.48
606.413	31312.27
606.771	31522.21
607.128	31620.96
607.485	31446.28
607.843	31557.69
608.2	31728.53
608.557	31836.55
608.914	31656.22
609.272	31900.73
609.629	31830
609.986	31932.14
610.343	31815.08
610.7	32035.87
611.057	32100.5
611.414	31924.68
611.771	32053.95
612.127	31948.86
612.484	32032.02
612.841	32262.08
613.198	32143.43
613.554	32076.32
613.911	32264.56
614.267	32338.91
614.624	32171.23
614.98	32359.93
615.337	32525.57
615.693	32444.22
616.05	32454.39
616.406	32604.21
616.762	32478.79
617.118	32371.68
617.475	32521.5
617.831	32506.59
618.187	32624.1
618.543	32712.23
618.899	32800.82
619.255	32757.88
619.611	32721.95
619.967	32891.21
620.323	32777.77
620.678	32766.02
621.034	32641.27
621.39	32683.53
621.746	32659.35
622.101	32973.92
622.457	32791.1
622.812	32887.37
623.168	32926.24
623.523	32853.92
623.879	32932.11
624.234	32641.5
624.589	32805.79
624.945	32847.6
625.3	32980.93
625.655	33048.95
626.01	32934.6
626.365	32890.53
626.72	32932.57
627.075	32848.95
627.43	32880.36
627.785	32783.42
628.14	32880.14
628.495	32923.75
628.85	32728.28
629.205	32634.95
629.559	32877.43
629.914	32735.51
630.269	32790.2
630.623	32674.72
630.978	32629.07
631.332	32756.75
631.687	32744.55
632.041	32644.66
632.396	32689.18
632.75	32508.62
633.104	32576.42
633.459	32416.42
633.813	32536.42
634.167	32457.1
634.521	32374.16
634.875	32407.16
635.229	32389.08
635.583	32239.7
635.937	32271.79
636.291	32302.98
636.645	32190.44
636.999	32180.72
637.352	32224.11
637.706	32124.45
638.06	32222.3
638.413	32078.13
638.767	31921.75
639.121	32096.43
639.474	31818.7
639.828	31938.02
640.181	31990.44
640.534	31871.35
640.888	31702.77
641.241	31710.23
641.594	31623
641.947	31755.65
642.301	31608.53
642.654	31683.33
643.007	31588.19
643.36	31592.26
643.713	31466.62
644.066	31691.69
644.419	31506.62
644.771	31256.45
645.124	30960.87
645.477	30907.31
645.83	30651.04
646.182	30595.45
646.535	30501.22
646.888	30486.75
647.24	30228.46
647.593	30450.37
647.945	30395.91
648.298	30269.81
648.65	30126.09
649.002	30069.36
649.355	30351.62
649.707	30336.02
650.059	30375.8
650.411	30697.37
650.763	30701.89
651.115	30990.47
651.467	30900.3
651.819	30888.33
652.171	30842
652.523	30722.45
652.875	30671.83
653.227	30557.94
653.578	30800.87
653.93	30749.35
654.282	30472.29
654.633	30507.09
654.985	30487.88
655.337	30564.04
655.688	30482.01
656.039	30640.42
656.391	30286.53
656.742	30418.51
657.094	30458.96
657.445	30498.51
657.796	30460.31
658.147	30441.33
658.498	30319.98
658.849	30357.72
659.2	30435.46
659.551	30317.72
659.902	30407.21
660.253	30336.25
660.604	30372.63
660.955	30264.39
661.306	30330.83
661.656	30243.6
662.007	30213.77
662.358	30135.35
662.708	30173.54
663.059	30230.26
663.409	29970.61
663.76	30152.3
664.11	30184.62
664.461	30114.79
664.811	30096.71
665.161	30071.17
665.511	30074.11
665.862	30040.89
666.212	30087.9
666.562	30163.37
666.912	30022.36
667.262	29960.44
667.612	29983.27
667.962	29993.21
668.312	30006.32
668.662	30178.74
669.011	29978.97
669.361	29881.12
669.711	29950.5
670.06	30018.97
670.41	29854.68
670.76	29747.34
671.109	29859.43
671.459	29757.96
671.808	29788.24
672.157	29861.91
672.507	29651.3
672.856	29607.91
673.205	29787.34
673.554	29810.61
673.904	29672.09
674.253	29841.35
674.602	29750.28
674.951	29307.8
675.3	29134.02
675.649	29627.57
675.998	29482.04
676.346	29590.96
676.695	29635.7
677.044	29395.48
677.393	29378.76
677.741	29410.17
678.09	29364.52
678.438	29439.55
678.787	29282.94
679.135	29253.12
679.484	29149.39
679.832	29249.27
680.181	29149.61
680.529	29080.92
680.877	29152.78
681.225	29018.32
681.573	29315.03
681.922	29002.05
682.27	28923.41
682.618	28961.15
682.966	28802.96
683.314	28997.08
683.661	28724.09
684.009	28663.3
684.357	28692.23
684.705	28611.1
685.053	28655.84
685.4	28531.33
685.748	28468.28
686.095	28431.22
686.443	28287.94
686.79	28249.53
687.138	28431.44
687.485	28305.12
687.832	28161.17
688.18	28103.99
688.527	28160.49
688.874	27997.33
689.221	27970.44
689.568	27824.23
689.915	27820.38
690.262	27812.7
690.609	27838.69
690.956	27605.25
691.303	27673.27
691.65	27511.69
691.997	27413.84
692.344	27330.91
692.69	27320.28
693.037	27236.44
693.383	27017.69
693.73	27064.7
694.077	27023.8
694.423	27010.46
694.769	26905.83
695.116	26842.33
695.462	26940.63
695.808	26823.12
696.155	26779.06
696.501	26522.57
696.847	26604.82
697.193	26338.39
697.539	26482.79
697.885	26266.53
698.231	26216.36
698.577	26254.78
698.923	26162.8
699.269	26029.92
699.614	25878.51
699.96	25823.37
700.306	25875.8
700.651	25676.49
700.997	25666.32
701.342	25699.99
701.688	25544.06
702.033	25382.48
702.379	25514.68
702.724	25475.36
703.069	25419.32
703.415	25134.35
703.76	25232.88
704.105	25131.19
704.45	25099.1
704.795	25006
705.14	25004.19
705.485	24855.72
705.83	24818.88
706.175	24828.6
706.52	24785.66
706.865	24626.57
707.209	24666.34
707.554	24556.74
707.899	24562.62
708.243	24495.27
708.588	24365.79
708.932	24255.73
709.277	24243.53
709.621	24253.02
709.966	24060.48
710.31	24160.37
710.654	23870.88
710.998	23887.61
711.342	23936.42
711.687	23901.62
712.031	23814.16
712.375	23720.15
712.719	23716.99
713.063	23711.34
713.407	23789.76
713.75	23629.99
714.094	23572.36
714.438	23464.11
714.782	23516.77
715.125	23298.24
715.469	23349.77
715.812	23229.54
716.156	23154.97
716.499	23098.7
716.843	23359.03
717.186	23099.38
717.53	23197.68
717.873	23260.96
718.216	23076.78
718.559	22985.03
718.902	22845.83
719.246	22935.99
719.589	22699.84
719.932	22752.72
720.275	22742.78
720.617	22738.26
720.96	22712.27
721.303	22719.28
721.646	22643.35
721.989	22424.14
722.331	22566.06
722.674	22411.49
723.016	22454.2
723.359	22477.02
723.701	22456.46
724.044	22335.56
724.386	22231.15
724.729	22266.63
725.071	22254.88
725.413	22236.35
725.755	22214.2
726.097	22115.9
726.439	21969.92
726.782	22015.57
727.124	22054.66
727.465	22012.63
727.807	22011.05
728.149	21765.85
728.491	21823.03
728.833	21934.89
729.175	21811.05
729.516	21752.97
729.858	21718.85
730.199	21734.22
730.541	21671.17
730.882	21599.53
731.224	21586.65
731.565	21482.25
731.906	21463.04
732.248	21484.28
732.589	21493.55
732.93	21354.34
733.271	21388.01
733.612	21397.73
733.953	21279.77
734.294	21135.14
734.635	21226.89
734.976	21280.67
735.317	21199.54
735.658	21225.76
735.999	21153.21
736.339	21101.69
736.68	21065.31
737.021	20904.86
737.361	20934.69
737.702	21006.55
738.042	20964.97
738.383	20935.14
738.723	20946.21
739.063	20869.15
739.404	20865.99
739.744	20759.55
740.084	20650.86
740.424	20695.83
740.764	20663.51
741.104	20621.03
741.444	20596.62
741.784	20511.88
742.124	20537.86
742.464	20568.6
742.804	20569.73
743.143	20525.43
743.483	20440.69
743.823	20438.66
744.162	20376.06
744.502	20270.98
744.841	20288.15
745.181	20358.89
745.52	20239.57
745.86	20242.28
746.199	20202.28
746.538	20226.46
746.877	20190.75
747.216	20131.55
747.556	20029.4
747.895	20032.34
748.234	19929.29
748.573	19924.09
748.911	19895.85
749.25	19991.66
749.589	19795.74
749.928	19816.08
750.267	19791.22
750.605	19730.88
750.944	19718
751.283	19609.98
751.621	19694.72
751.96	19460.6
752.298	19548.96
752.636	19494.73
752.975	19425.35
753.313	19307.84
753.651	19485.91
753.989	19174.74
754.327	19304
754.666	19217.9
