Data from breadboard_white_FLMS001491_00071.txt Node
Date: Wed Feb 08 10:48:14 GMT 2017
User: dcchb
Spectrometer: FLMS00149
Trigger mode: 0
Integration Time (sec): 2.000000E-2
Scans to average: 10
Electric dark correction enabled: true
Nonlinearity correction enabled: false
Boxcar width: 0
XAxis mode: Wavelengths
Number of Pixels in Spectrum: 2048
>>>>>Begin Spectral Data<<<<<
341.393	-13.22
341.776	-13.22
342.16	-13.22
342.543	-39.89
342.927	-60.9
343.31	-75.82
343.693	-57.29
344.077	-79.21
344.46	-65.87
344.843	-61.81
345.226	-42.37
345.61	-21.58
345.993	-21.36
346.376	5.31
346.759	5.76
347.142	20
347.525	39.21
347.908	60
348.291	72.88
348.674	97.74
349.057	124.4
349.44	123.5
349.823	133.22
350.206	144.06
350.588	189.26
350.971	217.96
351.354	234.46
351.737	250.95
352.119	247.56
352.502	258.86
352.884	291.18
353.267	314.68
353.65	293.66
354.032	285.3
354.414	305.42
354.797	325.75
355.179	329.37
355.562	328.92
355.944	357.62
356.326	315.58
356.709	342.25
357.091	351.97
357.473	363.27
357.855	350.39
358.238	334.79
358.62	356.94
359.002	352.42
359.384	333.89
359.766	337.73
360.148	336.6
360.53	350.16
360.912	338.64
361.294	369.82
361.676	356.04
362.057	331.4
362.439	339.54
362.821	323.49
363.203	334.12
363.584	354.23
363.966	346.77
364.348	331.18
364.729	336.6
365.111	345.64
365.493	337.51
365.874	343.83
366.256	328.69
366.637	310.16
367.019	322.82
367.4	326.21
367.781	341.35
368.163	314.46
368.544	349.93
368.925	336.38
369.306	352.19
369.688	326.21
370.069	332.31
370.45	325.08
370.831	344.06
371.212	353.1
371.593	313.78
371.974	320.78
372.355	336.6
372.736	334.79
373.117	344.06
373.498	328.47
373.879	329.14
374.26	350.84
374.641	326.66
375.021	347
375.402	370.05
375.783	362.36
376.163	363.95
376.544	359.2
376.925	370.95
377.305	355.81
377.686	358.3
378.066	352.87
378.447	350.84
378.827	380.22
379.208	382.7
379.588	373.89
379.968	372.53
380.349	379.09
380.729	370.95
381.109	378.63
381.489	397.62
381.87	378.41
382.25	389.93
382.63	392.42
383.01	374.79
383.39	382.7
383.77	396.26
384.15	387.9
384.53	395.36
384.91	409.59
385.29	391.52
385.67	427.22
386.049	395.13
386.429	449.37
386.809	427.67
387.189	427.9
387.568	413.21
387.948	428.12
388.328	442.59
388.707	435.81
389.087	447.78
389.466	431.51
389.846	450.27
390.225	442.36
390.605	455.69
390.984	457.28
391.363	476.03
391.743	471.06
392.122	492.98
392.501	505.41
392.881	489.14
393.26	488.91
393.639	517.61
394.018	505.64
394.397	515.81
394.776	528.01
395.155	515.35
395.534	512.87
395.913	531.62
396.292	547.9
396.671	551.74
397.05	575.47
397.429	556.71
397.808	561.23
398.186	561.91
398.565	573.66
398.944	593.32
399.323	597.39
399.701	596.93
400.08	628.35
400.458	611.62
400.837	602.58
401.215	630.15
401.594	635.12
401.972	664.95
402.351	679.64
402.729	664.73
403.107	708.79
403.486	704.95
403.864	715.8
404.242	730.94
404.62	717.38
404.999	733.65
405.377	737.72
405.755	788.57
406.133	771.17
406.511	784.73
406.889	789.02
407.267	815.91
407.645	804.39
408.023	848.23
408.401	856.36
408.779	862.69
409.156	887.1
409.534	903.14
409.912	913.54
410.29	941.11
410.667	944.04
411.045	960.31
411.422	982.69
411.8	981.78
412.178	1044.15
412.555	1068.11
412.933	1043.48
413.31	1065.62
413.687	1084.38
414.065	1118.95
414.442	1130.03
414.819	1144.94
415.197	1177.94
415.574	1182.45
415.951	1193.08
416.328	1198.27
416.705	1231.95
417.082	1243.92
417.46	1256.58
417.837	1284.82
418.214	1314.65
418.591	1309.23
418.967	1334.54
419.344	1337.7
419.721	1386.74
420.098	1349.91
420.475	1423.58
420.852	1437.36
421.228	1460.64
421.605	1448.44
421.982	1481.2
422.358	1490.7
422.735	1515.78
423.111	1507.42
423.488	1552.84
423.864	1552.61
424.241	1599.84
424.617	1587.87
424.994	1619.28
425.37	1619.28
425.746	1638.49
426.123	1674.19
426.499	1675.78
426.875	1706.51
427.251	1717.13
427.627	1760.07
428.003	1816.79
428.379	1796.68
428.756	1829.67
429.132	1864.47
429.507	1910.57
429.883	1896.56
430.259	1967.52
430.635	1970
431.011	1975.65
431.387	2047.06
431.763	2087.97
432.138	2070.79
432.514	2110.57
432.89	2130.45
433.265	2184.24
433.641	2221.98
434.016	2266.72
434.392	2257.45
434.767	2264.91
435.143	2350.11
435.518	2350.33
435.894	2390.33
436.269	2415.87
436.644	2441.18
437.02	2473.27
437.395	2469.88
437.77	2521.63
438.145	2522.98
438.52	2588.97
438.895	2578.8
439.271	2612.93
439.646	2698.8
440.021	2678.01
440.395	2705.8
440.77	2711.68
441.145	2741.74
441.52	2812.24
441.895	2751
442.27	2781.73
442.645	2834.84
443.019	2880.04
443.394	2867.16
443.769	2905.57
444.143	2917.32
444.518	2951.67
444.892	3004.78
445.267	2955.29
445.641	2998.68
446.016	3043.65
446.39	3050.88
446.764	3113.93
447.139	3071.9
447.513	3130.88
447.887	3121.84
448.262	3169.52
448.636	3210.65
449.01	3215.17
449.384	3281.38
449.758	3318.67
450.132	3330.19
450.506	3342.17
450.88	3390.31
451.254	3398.22
451.628	3440.93
452.002	3456.07
452.376	3508.04
452.75	3506.01
453.123	3543.3
453.497	3576.52
453.871	3639.79
454.244	3690.41
454.618	3755.27
454.992	3781.26
455.365	3833.01
455.739	3922.72
456.112	3943.29
456.486	4022.61
456.859	4027.8
457.232	4138.08
457.606	4119.1
457.979	4192.09
458.352	4270.96
458.725	4294.92
459.099	4322.49
459.472	4439.09
459.845	4491.52
460.218	4493.33
460.591	4573.1
460.964	4573.55
461.337	4675.24
461.71	4752.3
462.083	4814.45
462.456	4849.93
462.829	4837.27
463.201	4917.05
463.574	4977.84
463.947	5039.3
464.32	5192.07
464.692	5216.92
465.065	5245.85
465.438	5383.93
465.81	5408.56
466.183	5406.3
466.555	5606.75
466.928	5613.52
467.3	5619.17
467.672	5737.36
468.045	5862.11
468.417	5907.75
468.789	5971.26
469.161	5973.97
469.534	6119.95
469.906	6275.43
470.278	6300.51
470.65	6402.43
471.022	6527.85
471.394	6684.68
471.766	6717.22
472.138	6775.53
472.51	6945.69
472.882	7013.26
473.253	7122.19
473.625	7165.35
473.997	7442.63
474.369	7444.89
474.74	7534.38
475.112	7677.88
475.484	7812.79
475.855	7935.72
476.227	8027.47
476.598	8257.3
476.97	8329.16
477.341	8493.67
477.713	8640.11
478.084	8684.63
478.455	8944.28
478.827	8983.38
479.198	9288.68
479.569	9325.97
479.94	9540.43
480.311	9693.87
480.682	9859.06
481.053	10110.13
481.424	10213.18
481.795	10411.59
482.166	10520.97
482.537	10697.23
482.908	10908.98
483.279	10957.79
483.65	11190.78
484.021	11442.98
484.391	11504.67
484.762	11680.03
485.133	11816.98
485.503	11982.4
485.874	12225.33
486.244	12349.84
486.615	12644.3
486.985	12761.13
487.356	12980.79
487.726	13078.41
488.097	13390.72
488.467	13366.77
488.837	13727.89
489.207	13825.06
489.578	14056.24
489.948	14214.2
490.318	14416.46
490.688	14477.92
491.058	14644.02
491.428	14903
491.798	15046.05
492.168	15424.57
492.538	15388.63
492.908	15590.89
493.278	15754.05
493.648	15781.39
494.017	16087.6
494.387	16250.08
494.757	16353.36
495.126	16549.96
495.496	16561.94
495.866	16791.31
496.235	16948.37
496.605	17172.99
496.974	17193.79
497.344	17468.58
497.713	17576.83
498.082	17644.39
498.452	17831.28
498.821	17963.03
499.19	18001
499.559	18242.57
499.928	18399.18
500.298	18411.83
500.667	18666.06
501.036	18648.89
501.405	18870.13
501.774	18881.42
502.143	19214.07
502.512	19219.72
502.88	19468.75
503.249	19336.1
503.618	19625.36
503.987	19575.19
504.356	19851.57
504.724	19950.32
505.093	19950.55
505.462	20174.5
505.83	20358.22
506.199	20518.44
506.567	20810.64
506.936	20769.96
507.304	20984.87
507.672	21208.14
508.041	21365.88
508.409	21524.97
508.777	21613.1
509.145	21832.08
509.514	21770.39
509.882	21928.35
510.25	22129.93
510.618	22469.8
510.986	22438.17
511.354	22616.92
511.722	22817.37
512.09	23034.76
512.458	23026.17
512.826	23309.78
513.193	23405.37
513.561	23502.09
513.929	23797.23
514.297	23857.34
514.664	24132.59
515.032	24227.72
515.4	24393.14
515.767	24569.64
516.135	24740.48
516.502	24640.37
516.869	25103.63
517.237	25179.34
517.604	25211.2
517.972	25445.55
518.339	25707.91
518.706	25773.67
519.073	25970.96
519.44	26224.28
519.808	26429.25
520.175	26479.42
520.542	26890.48
520.909	27009.8
521.276	26972.06
521.643	27329.56
522.009	27517.81
522.376	27826.73
522.743	27942.43
523.11	28253.61
523.477	28514.84
523.843	28733.82
524.21	29041.38
524.577	29122.06
524.943	29225.79
525.31	29493.12
525.676	29783.28
526.043	29920.46
526.409	30155.03
526.776	30458.3
527.142	30453.32
527.508	30724.05
527.874	30961.33
528.241	31151.38
528.607	31176.69
528.973	31557.93
529.339	31620.98
529.705	31872.04
530.071	32180.51
530.437	32238.36
530.803	32420.05
531.169	32710.21
531.535	32571.23
531.901	32830.89
532.267	33057.77
532.632	33198.11
532.998	33391.55
533.364	33543.86
533.73	33767.81
534.095	33999.22
534.461	34019.78
534.826	34263.84
535.192	34390.62
535.557	34699.31
535.923	34582.71
536.288	34883.49
536.653	35043.03
537.019	34831.29
537.384	35179.3
537.749	35460.65
538.114	35503.59
538.479	35460.88
538.845	35798.72
539.21	35632.62
539.575	35865.61
539.94	35946.74
540.305	36214.75
540.67	36261.76
541.034	36423.79
541.399	36587.85
541.764	36591.02
542.129	36672.37
542.494	36830.33
542.858	36986.94
543.223	37092.47
543.587	37387.38
543.952	37183.54
544.316	37509.86
544.681	37402.29
545.045	37741.04
545.41	37882.73
545.774	37967.48
546.138	38064.87
546.503	38090.86
546.867	38092.22
547.231	38511.87
547.595	38628.48
547.959	38623.96
548.324	38695.14
548.688	38836.83
549.052	39027.11
549.416	39081.35
549.779	39199.76
550.143	39299.42
550.507	39463.71
550.871	39799.74
551.235	39636.81
551.599	39978.95
551.962	40044.26
552.326	40141.66
552.689	40413.97
553.053	40329.67
553.417	40364.7
553.78	40783.9
554.143	40840.85
554.507	41010.33
554.87	41056.21
555.234	41556.08
555.597	41248.97
555.96	41486.25
556.323	41625.46
556.686	41734.16
557.05	42080.36
557.413	42172.79
557.776	42261.15
558.139	42432.22
558.502	42513.8
558.865	42773
559.228	42952.88
559.59	43064.74
559.953	43161.01
560.316	43554.22
560.679	43546.31
561.041	43803.48
561.404	44045.28
561.767	44139.29
562.129	44188.78
562.492	44735.89
562.854	44566.4
563.217	44693.85
563.579	44800.74
563.941	45045.48
564.304	45143.11
564.666	45506.49
565.028	45560.72
565.39	45680.72
565.753	46016.08
566.115	46083.65
566.477	46309.18
566.839	46260.82
567.201	46537.65
567.563	46600.02
567.925	46915.26
568.287	46876.39
568.648	46979.89
569.01	47203.62
569.372	47436.83
569.734	47236.39
570.095	47615.81
570.457	47774.22
570.819	47700.1
571.18	47828.69
571.542	48141.45
571.903	48153.88
572.265	48323.81
572.626	48435.68
572.987	48392.51
573.349	48498.05
573.71	48597.93
574.071	48767.19
574.432	48906.62
574.794	49109.56
575.155	49161.08
575.516	49001.08
575.877	49290.57
576.238	49373.96
576.599	49489.21
576.96	49549.09
577.32	49479.49
577.681	49577.34
578.042	49683.33
578.403	49791.12
578.763	49756.09
579.124	49754.74
579.485	49962.87
579.845	50097.78
580.206	50011.23
580.566	49921.06
580.927	50032.7
581.287	50159.47
581.648	49954.05
582.008	50252.35
582.368	50189.53
582.728	50201.73
583.089	50080.83
583.449	50144.33
583.809	50301.84
584.169	50361.27
584.529	50148.85
584.889	50378.45
585.249	50157.66
585.609	50071.56
585.969	50396.08
586.329	50144.11
586.688	50442.4
587.048	50225.23
587.408	50255.97
587.768	50185.01
588.127	50221.84
588.487	50149.08
588.846	50389.75
589.206	50219.36
589.565	50261.84
589.925	50468.84
590.284	50289.64
590.643	50425.45
591.003	50487.6
591.362	50495.51
591.721	50433.82
592.08	50409.86
592.44	50521.27
592.799	50479.01
593.158	50460.93
593.517	50453.93
593.876	50504.1
594.235	50387.04
594.593	50516.07
594.952	50646.46
595.311	50530.08
595.67	50677.88
596.029	50801.26
596.387	50718.55
596.746	50920.81
597.104	50651.66
597.463	50644.43
597.822	50829.51
598.18	50614.6
598.538	50599.46
598.897	50850.98
599.255	50558.56
599.613	51091.42
599.972	50745.9
600.33	50908.15
600.688	50730.98
601.046	50908.15
601.404	51187.02
601.762	50970.3
602.12	51077.41
602.478	51005.55
602.836	51086.23
603.194	51010.52
603.552	51061.37
603.91	51007.36
604.268	51171.2
604.625	51064.76
604.983	51151.76
605.341	51011.65
605.698	51241.7
606.056	51338.42
606.413	51241.93
606.771	51376.16
607.128	51500.23
607.485	51326
607.843	51372.1
608.2	51532.09
608.557	51640.56
608.914	51470.4
609.272	51502.94
609.629	51614.8
609.986	51775.7
610.343	51599.89
610.7	51790.62
611.057	51736.61
611.414	51732.76
611.771	51668.13
612.127	51903.61
612.484	51797.4
612.841	51960.55
613.198	51863.61
613.554	51899.99
613.911	52080.55
614.267	52176.59
614.624	52095.24
614.98	52136.14
615.337	52217.5
615.693	52171.4
616.05	52100.66
616.406	52349.47
616.762	52177.5
617.118	52238.06
617.475	52284.39
617.831	52300.88
618.187	52387.21
618.543	52328.68
618.899	52504.72
619.255	52411.84
619.611	52433.99
619.967	52538.17
620.323	52516.25
620.678	52481.44
621.034	52376.36
621.39	52452.52
621.746	52453.2
622.101	52746.52
622.457	52443.93
622.812	52532.97
623.168	52617.26
623.523	52654.77
623.879	52689.12
624.234	52468.34
624.589	52556.25
624.945	52643.7
625.3	52572.29
625.655	52611.61
626.01	52506.75
626.365	52672.63
626.72	52453.88
627.075	52530.94
627.43	52570.48
627.785	52461.56
628.14	52487.32
628.495	52484.16
628.85	52473.31
629.205	52301.11
629.559	52508.34
629.914	52354.89
630.269	52457.94
630.623	52347.89
630.978	52247.78
631.332	52424.27
631.687	52399.87
632.041	52322.13
632.396	52275.35
632.75	52111.06
633.104	52225.18
633.459	52133.21
633.813	52097.73
634.167	52077.84
634.521	51984.73
634.875	52069.03
635.229	51925.53
635.583	51884.4
635.937	51876.94
636.291	51789.94
636.645	51802.14
636.999	51669.26
637.352	51819.54
637.706	51556.27
638.06	51739.32
638.413	51679.66
638.767	51638.08
639.121	51649.6
639.474	51332.55
639.828	51491.41
640.181	51411.87
640.534	51388.14
640.888	51339.55
641.241	51211.2
641.594	51278.54
641.947	51320.35
642.301	51190.41
642.654	51173.68
643.007	51303.62
643.36	51064.98
643.713	50949.73
644.066	51115.61
644.419	50925.78
644.771	50833.35
645.124	50503.42
645.477	50484.66
645.83	50197.66
646.182	49959.7
646.535	49787.28
646.888	49776.21
647.24	49634.51
647.593	49783.44
647.945	49649.88
648.298	49507.51
648.65	49413.95
649.002	49333.51
649.355	49457.57
649.707	49498.25
650.059	49716.77
650.411	50190.88
650.763	50280.82
651.115	50477.2
651.467	50229.07
651.819	50302.07
652.171	50215.29
652.523	50093.03
652.875	49998.12
653.227	49936.88
653.578	50194.27
653.93	49984.79
654.282	49859.59
654.633	49764
654.985	49837.22
655.337	49854.4
655.688	49757.22
656.039	49995.63
656.391	49733.27
656.742	49780.95
657.094	49733.27
657.445	49821.85
657.796	49826.15
658.147	49722.87
658.498	49593.61
658.849	49656.89
659.2	49579.6
659.551	49587.06
659.902	49629.32
660.253	49504.35
660.604	49527.62
660.955	49333.51
661.306	49430.68
661.656	49375.76
662.007	49355.2
662.358	49298.7
662.708	49434.07
663.059	49276.33
663.409	49069.11
663.76	49372.15
664.11	49240.4
664.461	49273.62
664.811	49283.11
665.161	49258.03
665.511	49165.83
665.862	49350.23
666.212	49291.02
666.562	49298.48
666.912	49154.98
667.262	49089.67
667.612	48980.07
667.962	49072.5
668.312	49077.01
668.662	49334.18
669.011	49069.56
669.361	49096.22
669.711	49033.4
670.06	48965.15
670.41	49059.16
670.76	48915.66
671.109	48965.61
671.459	49023
671.808	48856.46
672.157	48935.1
672.507	48616.69
672.856	48767.19
673.205	48777.36
673.554	48975.32
673.904	48628.89
674.253	48852.39
674.602	48778.94
674.951	48217.83
675.3	48016.7
675.649	48599.29
675.998	48508.67
676.346	48578.04
676.695	48546.86
677.044	48324.94
677.393	48438.84
677.741	48443.13
678.09	48491.49
678.438	48224.61
678.787	48372.63
679.135	48297.6
679.484	48033.65
679.832	48239.97
680.181	48033.65
680.529	48079.07
680.877	47983.48
681.225	48006.31
681.573	48127.66
681.922	47845.18
682.27	47730.61
682.618	47753.66
682.966	47734.45
683.314	47793.88
683.661	47668.69
684.009	47399.09
684.357	47307.34
684.705	47203.62
685.053	47208.36
685.4	47257.85
685.748	46980.8
686.095	47031.64
686.443	46916.39
686.79	46670.98
687.138	46748.49
687.485	46786.45
687.832	46674.59
688.18	46725.44
688.527	46416.29
688.874	46470.53
689.221	46267.6
689.568	46222.63
689.915	46133.59
690.262	45967.94
690.609	45976.31
690.956	45852.92
691.303	45740.38
691.65	45655.41
691.997	45690.44
692.344	45389.65
692.69	45377.45
693.037	45353.72
693.383	45055.65
693.73	45181.3
694.077	45096.55
694.423	44974.52
694.769	44880.06
695.116	44600.75
695.462	44588.77
695.808	44581.54
696.155	44651.59
696.501	44191.27
696.847	44135.9
697.193	43963.48
697.539	44076.47
697.885	43750.83
698.231	43504.51
698.577	43654.11
698.923	43753.76
699.269	43468.35
699.614	43090.28
699.96	43077.85
700.306	43071.52
700.651	42932.77
700.997	42852.77
701.342	42728.03
701.688	42732.1
702.033	42481.93
702.379	42443.52
702.724	42459.11
703.069	42430.86
703.415	41958.11
703.76	42134.37
704.105	42013.7
704.45	41999.46
704.795	41732.58
705.14	41493.71
705.485	41444
705.83	41388.18
706.175	41380.49
706.52	41285.13
706.865	41186.37
707.209	41082.2
707.554	40815.99
707.899	41081.52
708.243	40765.37
708.588	40823.9
708.932	40529.67
709.277	40555.43
709.621	40501.87
709.966	40213.52
710.31	40256.23
710.654	40050.59
710.998	40067.31
711.342	39998.38
711.687	39846.75
712.031	39742.12
712.375	39506.87
712.719	39708.67
713.063	39540.32
713.407	39679.97
713.75	39272.98
714.094	39158.63
714.438	39084.51
714.782	39221.68
715.125	38982.59
715.469	39081.12
715.812	38908.02
716.156	38635.71
716.499	38785.53
716.843	38702.15
717.186	38461.7
717.53	38671.41
717.873	38579.44
718.216	38404.3
718.559	38348.26
718.902	38131.77
719.246	38311.42
719.589	38065.78
719.932	37969.96
720.275	37969.96
720.617	37756.63
720.96	37851.77
721.303	37833.69
721.646	37812.68
721.989	37536.08
722.331	37557.77
722.674	37471.9
723.016	37588.96
723.359	37277.78
723.701	37355.29
724.044	37175.18
724.386	36933.15
724.729	37056.77
725.071	36977.9
725.413	36879.82
725.755	36842.08
726.097	36653.61
726.439	36595.53
726.782	36561.19
727.124	36636.44
727.465	36544.69
727.807	36570.22
728.149	36487.74
728.491	36301.31
728.833	36500.62
729.175	36205.71
729.516	35993.97
729.858	36300.85
730.199	36347.18
730.541	36006.85
730.882	36047.3
731.224	36015.44
731.565	35735.44
731.906	35739.51
732.248	35904.48
732.589	35664.03
732.93	35593.3
733.271	35559.86
733.612	35663.58
733.953	35589.23
734.294	35307.89
734.635	35310.37
734.976	35496.81
735.317	35283.71
735.658	35207.77
735.999	35204.84
736.339	35091.62
736.68	35083.94
737.021	34906.31
737.361	34713.32
737.702	34938.4
738.042	34853.21
738.383	34834
738.723	34855.24
739.063	34644.4
739.404	34622.03
739.744	34473.56
740.084	34492.77
740.424	34469.49
740.764	34342.49
741.104	34386.1
741.444	34160.12
741.784	34096.17
742.124	34145.43
742.464	34096.62
742.804	33992.21
743.143	33978.43
743.483	34017.75
743.823	33817.53
744.162	33799.9
744.502	33892.78
744.841	33710.41
745.181	33792.22
745.52	33697.08
745.86	33694.59
746.199	33427.93
746.538	33484.43
746.877	33447.82
747.216	33338.67
747.556	33435.39
747.895	33415.51
748.234	33227.71
748.573	33106.59
748.911	32995.63
749.25	33016.19
749.589	32789.08
749.928	32851.9
750.267	32845.35
750.605	32767.39
750.944	32652.59
751.283	32541.4
751.621	32619.37
751.96	32247.63
752.298	32373.95
752.636	32481.52
752.975	32254.18
753.313	32038.14
