Data from breadboard_white_FLMS001491_00095.txt Node
Date: Wed Feb 08 10:48:33 GMT 2017
User: dcchb
Spectrometer: FLMS00149
Trigger mode: 0
Integration Time (sec): 2.000000E-2
Scans to average: 10
Electric dark correction enabled: true
Nonlinearity correction enabled: false
Boxcar width: 0
XAxis mode: Wavelengths
Number of Pixels in Spectrum: 2048
>>>>>Begin Spectral Data<<<<<
341.393	-0.78
341.776	-0.78
342.16	-0.78
342.543	-68.57
342.927	-81.45
343.31	-72.19
343.693	-67.89
344.077	-69.48
344.46	-68.57
344.843	-45.75
345.226	-37.84
345.61	-31.06
345.993	-27.89
346.376	-1
346.759	16.4
347.142	5.32
347.525	37.19
347.908	62.5
348.291	79.67
348.674	93.68
349.057	126.9
349.44	124.19
349.823	144.08
350.206	164.64
350.588	192.89
350.971	224.98
351.354	252.32
351.737	252.32
352.119	267.69
352.502	271.31
352.884	277.41
353.267	269.72
353.65	286.9
354.032	315.37
354.414	289.39
354.797	316.05
355.179	323.96
355.562	320.12
355.944	346.33
356.326	330.74
356.709	324.64
357.091	338.42
357.473	351.3
357.855	345.43
358.238	366.22
358.62	370.29
359.002	361.93
359.384	363.28
359.766	327.58
360.148	349.04
360.53	347.24
360.912	350.63
361.294	350.85
361.676	345.43
362.057	340.91
362.439	351.53
362.821	344.07
363.203	352.21
363.584	354.24
363.966	330.29
364.348	324.41
364.729	341.14
365.111	337.97
365.493	338.2
365.874	321.02
366.256	328.93
366.637	314.24
367.019	318.08
367.4	351.3
367.781	353.56
368.163	308.82
368.544	343.62
368.925	346.78
369.306	346.11
369.688	350.17
370.069	325.77
370.45	334.58
370.831	328.25
371.212	335.71
371.593	330.29
371.974	342.94
372.355	343.62
372.736	351.3
373.117	325.32
373.498	331.19
373.879	355.37
374.26	352.66
374.641	345.2
375.021	342.49
375.402	338.2
375.783	338.2
376.163	362.38
376.544	352.66
376.925	342.94
377.305	350.63
377.686	358.99
378.066	363.06
378.447	369.38
378.827	360.34
379.208	373
379.588	378.2
379.968	381.59
380.349	382.04
380.729	359.44
381.109	372.55
381.489	384.52
381.87	387.01
382.25	374.13
382.63	384.75
383.01	389.04
383.39	387.01
383.77	398.53
384.15	390.63
384.53	398.08
384.91	389.5
385.29	416.39
385.67	403.05
386.049	413.9
386.429	402.83
386.809	391.08
387.189	407.57
387.568	421.13
387.948	428.59
388.328	417.52
388.707	442.38
389.087	433.11
389.466	455.48
389.846	418.2
390.225	442.38
390.605	446.67
390.984	448.93
391.363	447.12
391.743	486.44
392.122	481.02
392.501	448.48
392.881	479.21
393.26	476.72
393.639	482.6
394.018	500.68
394.397	495.71
394.776	526.44
395.155	518.53
395.534	513.33
395.913	529.38
396.292	537.74
396.671	540.45
397.05	563.05
397.429	544.52
397.808	558.53
398.186	544.75
398.565	567.8
398.944	570.06
399.323	568.02
399.701	570.96
400.08	601.92
400.458	591.07
400.837	595.14
401.215	612.31
401.594	623.39
401.972	621.13
402.351	631.07
402.729	674.23
403.107	664.74
403.486	679.43
403.864	686.89
404.242	686.66
404.62	701.58
404.999	714.91
405.377	694.35
405.755	745.19
406.133	745.64
406.511	756.72
406.889	778.86
407.267	791.52
407.645	795.59
408.023	816.6
408.401	813.21
408.779	831.07
409.156	852.99
409.534	853.66
409.912	869.26
410.29	901.8
410.667	915.36
411.045	916.71
411.422	930.27
411.8	947.67
412.178	977.95
412.555	1014.34
412.933	986.54
413.31	1048.91
413.687	1044.85
414.065	1083.94
414.442	1057.05
414.819	1077.84
415.197	1099.31
415.574	1135.46
415.951	1142.47
416.328	1166.2
416.705	1177.72
417.082	1191.06
417.46	1230.83
417.837	1220.89
418.214	1246.65
418.591	1254.11
418.967	1282.81
419.344	1297.49
419.721	1305.18
420.098	1318.96
420.475	1340.66
420.852	1353.99
421.228	1373.42
421.605	1381.11
421.982	1377.72
422.358	1398.96
422.735	1463.37
423.111	1444.83
423.488	1476.47
423.864	1474.44
424.241	1518.05
424.617	1494.1
424.994	1538.17
425.37	1575.23
425.746	1553.76
426.123	1609.58
426.499	1591.72
426.875	1629.91
427.251	1631.04
427.627	1685.51
428.003	1705.17
428.379	1725.05
428.756	1699.52
429.132	1753.53
429.507	1780.87
429.883	1789.01
430.259	1847.31
430.635	1878.04
431.011	1920.3
431.387	1942.22
431.763	1958.04
432.138	1961.66
432.514	2044.14
432.89	2028.77
433.265	2046.85
433.641	2083.69
434.016	2114.2
434.392	2159.39
434.767	2211.59
435.143	2191.26
435.518	2214.31
435.894	2246.4
436.269	2296.56
436.644	2337.01
437.02	2354.19
437.395	2341.53
437.77	2405.49
438.145	2401.19
438.52	2441.64
438.895	2468.99
439.271	2457.46
439.646	2549.44
440.021	2568.87
440.395	2533.85
440.77	2547.86
441.145	2582.21
441.52	2653.16
441.895	2698.36
442.27	2678.7
442.645	2679.15
443.019	2716.21
443.394	2697.01
443.769	2759.38
444.143	2711.69
444.518	2816.1
444.892	2778.36
445.267	2832.14
445.641	2861.97
446.016	2847.06
446.39	2882.09
446.764	2891.35
447.139	2929.77
447.513	2955.98
447.887	2967.28
448.262	2958.02
448.636	3017.67
449.01	3049.99
449.384	3084.34
449.758	3120.27
450.132	3134.28
450.506	3183.32
450.88	3172.47
451.254	3219.48
451.628	3238.46
452.002	3280.49
452.376	3309.64
452.75	3359.13
453.123	3377.89
453.497	3428.29
453.871	3484.78
454.244	3564.55
454.618	3535.4
454.992	3566.81
455.365	3607.04
455.739	3722.06
456.112	3772.01
456.486	3770.88
456.859	3862.62
457.232	3839.8
457.606	3885.22
457.979	3960.93
458.352	3989.63
458.725	4052.68
459.099	4090.42
459.472	4166.35
459.845	4194.59
460.218	4228.49
460.591	4310.52
460.964	4303.97
461.337	4415.38
461.71	4486.79
462.083	4544.87
462.456	4579.67
462.829	4581.02
463.201	4689.27
463.574	4727.46
463.947	4760.45
464.32	4863.05
464.692	4867.8
465.065	4928.13
465.438	5032.99
465.81	5109.37
466.183	5191.86
466.555	5228.01
466.928	5295.81
467.3	5254.23
467.672	5366.99
468.045	5478.18
468.417	5561.11
468.789	5647.66
469.161	5706.87
469.534	5769.47
469.906	5930.14
470.278	5976.24
470.65	5986.41
471.022	6125.62
471.394	6174.88
471.766	6260.53
472.138	6383.01
472.51	6512.5
472.882	6611.48
473.253	6716.56
473.625	6747.29
473.997	6978.93
474.369	6960.85
474.74	7072.48
475.112	7215.76
475.484	7306.83
475.855	7441.29
476.227	7499.59
476.598	7704.11
476.97	7840.15
477.341	7981.61
477.713	8101.38
478.084	8199.46
478.455	8343.18
478.827	8443.97
479.198	8723.06
479.569	8705.43
479.94	9009.61
480.311	9031.3
480.682	9255.7
481.053	9399.2
481.424	9633.55
481.795	9642.36
482.166	9822.47
482.537	9995.34
482.908	10153.98
483.279	10276.69
483.65	10484.37
484.021	10683.01
484.391	10767.08
484.762	10948.31
485.133	11040.29
485.503	11254.52
485.874	11491.12
486.244	11490.67
486.615	11785.81
486.985	11976.08
487.356	12161.62
487.726	12256.98
488.097	12533.58
488.467	12526.13
488.837	12812.9
489.207	13010.63
489.578	13111.65
489.948	13263.96
490.318	13464.63
490.688	13592.99
491.058	13717.96
491.428	13928.57
491.798	14063.26
492.168	14354.55
492.538	14489.46
492.908	14585.05
493.278	14810.59
493.648	14779.85
494.017	15103.68
494.387	15206.05
494.757	15326.28
495.126	15467.52
495.496	15564.01
495.866	15733.05
496.235	15849.65
496.605	16020.5
496.974	16155.41
497.344	16188.63
497.713	16399.24
498.082	16565.79
498.452	16754.49
498.821	16760.59
499.19	16816.86
499.559	17019.79
499.928	17212.78
500.298	17265.21
500.667	17559.67
501.036	17496.16
501.405	17635.14
501.774	17709.49
502.143	17858.64
502.512	18015.7
502.88	18186.54
503.249	18163.04
503.618	18380.43
503.987	18422.47
504.356	18583.14
504.724	18624.95
505.093	18688.45
505.462	18945.84
505.83	19022.68
506.199	19149.23
506.567	19514.87
506.936	19378.6
507.304	19604.13
507.672	19810.45
508.041	19913.28
508.409	20012.03
508.777	20249.54
509.145	20284.57
509.514	20332.7
509.882	20673.93
510.25	20634.84
510.618	20901.95
510.986	20929.75
511.354	21196.86
511.722	21250.42
512.09	21555.94
512.458	21463.97
512.826	21782.38
513.193	21915.03
513.561	21971.07
513.929	22117.29
514.297	22417.16
514.664	22551.17
515.032	22677.95
515.4	22864.16
515.767	23037.94
516.135	23166.3
516.502	23011.5
516.869	23416.46
517.237	23575.1
517.604	23561.54
517.972	23714.08
518.339	24052.15
518.706	24090.79
519.073	24223.9
519.44	24508.86
519.808	24680.38
520.175	24814.84
520.542	25181.61
520.909	25268.84
521.276	25320.14
521.643	25639
522.009	25845.1
522.376	25914.7
522.743	26234.01
523.11	26375.03
523.477	26716.03
523.843	26812.76
524.21	27105.4
524.577	27165.74
524.943	27371.61
525.31	27570.48
525.676	27763.69
526.043	28015.66
526.409	28212.27
526.776	28398.25
527.142	28498.59
527.508	28710.33
527.874	29037.1
528.241	29230.09
528.607	29241.84
528.973	29628.95
529.339	29711.21
529.705	29988.27
530.071	30174.47
530.437	30303.06
530.803	30440.46
531.169	30567.91
531.535	30635.93
531.901	30818.3
532.267	30975.81
532.632	31253.32
532.998	31432.07
533.364	31475.23
533.73	31461.67
534.095	31865.73
534.461	31998.61
534.826	32200.18
535.192	32165.61
535.557	32539.61
535.923	32345.04
536.288	32580.06
536.653	32815.76
537.019	32817.8
537.384	33001.75
537.749	33189.31
538.114	33210.78
538.479	33250.78
538.845	33471.79
539.21	33571.67
539.575	33692.35
539.94	33749.97
540.305	33987.93
540.67	33998.1
541.034	34139.12
541.399	34316.29
541.764	34313.12
542.129	34531.2
542.494	34537.3
542.858	34611.87
543.223	34815.48
543.587	35064.74
543.952	35045.53
544.316	35227.45
544.681	35263.61
545.045	35272.19
545.41	35450.72
545.774	35643.48
546.138	35732.52
546.503	35777.94
546.867	35733.2
547.231	36057.94
547.595	36266.52
547.959	36389.68
548.324	36314.43
548.688	36452.05
549.052	36647.53
549.416	36731.36
549.779	36904.69
550.143	36941.53
550.507	37130.68
550.871	37182.65
551.235	37319.15
551.599	37626.48
551.962	37615.41
552.326	37798.91
552.689	38035.06
553.053	37894.72
553.417	37995.74
553.78	38442.51
554.143	38244.55
554.507	38614.03
554.87	38741.71
555.234	39043.85
555.597	38942.15
555.96	39047.69
556.323	39345.53
556.686	39206.78
557.05	39560.22
557.413	39819.65
557.776	39827.78
558.139	40031.62
558.502	40088.56
558.865	40207.21
559.228	40592.51
559.59	40609.45
559.953	40829.79
560.316	41121.31
560.679	41212.83
561.041	41418.02
561.404	41548.41
561.767	41825.92
562.129	41554.06
562.492	42083.77
562.854	42079.7
563.217	42293.7
563.579	42342.29
563.941	42585.45
564.304	42867.7
564.666	42956.74
565.028	43085.32
565.39	43235.83
565.753	43511.07
566.115	43580.68
566.477	43794.91
566.839	43825.42
567.201	44060.21
567.563	44061.79
567.925	44450.94
568.287	44437.15
568.648	44693.42
569.01	44745.17
569.372	45076.68
569.734	44938.15
570.095	45205.49
570.457	45432.15
570.819	45459.27
571.18	45380.63
571.542	45681.86
571.903	45824.68
572.265	46003.21
572.626	46035.07
572.987	46107.62
573.349	46205.01
573.71	46318.01
574.071	46456.98
574.432	46716.86
574.794	46834.15
575.155	46835.73
575.516	46739.69
575.877	46987.59
576.238	46962.28
576.599	47136.97
576.96	47121.37
577.32	47165.21
577.681	47306.45
578.042	47313.23
578.403	47349.84
578.763	47393.01
579.124	47427.58
579.485	47700.57
579.845	47734.01
580.206	47749.38
580.566	47566.33
580.927	47761.81
581.287	47898.98
581.648	47723.39
582.008	47913.22
582.368	47903.5
582.728	48047.45
583.089	47990.96
583.449	47788.25
583.809	47960.9
584.169	48077.28
584.529	47895.59
584.889	48267.56
585.249	47932.2
585.609	47938.53
585.969	48154.34
586.329	47987.11
586.688	48156.15
587.048	48101.69
587.408	47854.91
587.768	48027.79
588.127	47896.49
588.487	47808.36
588.846	48148.01
589.206	48044.74
589.565	48114.12
589.925	48253.55
590.284	48100.78
590.643	48176.71
591.003	48234.11
591.362	48442.92
591.721	48315.69
592.08	48385.52
592.44	48431.4
592.799	48458.51
593.158	48264.39
593.517	48262.13
593.876	48411.51
594.235	48317.05
594.593	48270.04
594.952	48505.07
595.311	48189.14
595.67	48354.79
596.029	48564.95
596.387	48589.81
596.746	48587.1
597.104	48571.28
597.463	48519.08
597.822	48776.7
598.18	48549.59
598.538	48471.62
598.897	48729.02
599.255	48365.64
599.613	49053.75
599.972	48705.51
600.33	48818.73
600.688	48594.78
601.046	48734.89
601.404	48983.7
601.762	48797.71
602.12	48974.21
602.478	49029.8
602.836	48947.31
603.194	48858.73
603.552	49022.57
603.91	48943.92
604.268	49120.19
604.625	48923.81
604.983	49120.87
605.341	48978.27
605.698	49204.26
606.056	49151.15
606.413	49236.57
606.771	49338.94
607.128	49325.16
607.485	49114.09
607.843	49199.96
608.2	49457.36
608.557	49545.94
608.914	49334.65
609.272	49597.69
609.629	49688.54
609.986	49732.6
610.343	49539.39
610.7	49750.91
611.057	49674.3
611.414	49664.58
611.771	49699.61
612.127	49845.14
612.484	49912.94
612.841	49963.11
613.198	49811.47
613.554	49857.8
613.911	50108.41
614.267	50171.46
614.624	50040.62
614.98	50078.13
615.337	50263.89
615.693	50141.63
616.05	50183.67
616.406	50397.9
616.762	50347.05
617.118	50181.41
617.475	50238.35
617.831	50441.74
618.187	50448.29
618.543	50454.62
618.899	50575.29
619.255	50519.25
619.611	50487.39
619.967	50597.89
620.323	50658.68
620.678	50554.05
621.034	50571
621.39	50579.36
621.746	50426.82
622.101	50906.81
622.457	50481.51
622.812	50651.68
623.168	50726.93
623.523	50632.02
623.879	50690.32
624.234	50621.17
624.589	50711.56
624.945	50719.02
625.3	50705.46
625.655	50624.33
626.01	50715.18
626.365	50684.9
626.72	50602.19
627.075	50630.43
627.43	50728.28
627.785	50549.53
628.14	50580.94
628.495	50744.1
628.85	50566.93
629.205	50536.2
629.559	50709.3
629.914	50361.06
630.269	50439.93
630.623	50352.25
630.978	50266.6
631.332	50565.35
631.687	50543.88
632.041	50427.05
632.396	50441.51
632.75	50260.05
633.104	50329.2
633.459	50164.91
633.813	50212.59
634.167	50180.95
634.521	50074.06
634.875	50086.49
635.229	50078.13
635.583	50040.39
635.937	49862.32
636.291	49893.73
636.645	49855.09
636.999	49700.29
637.352	49802.43
637.706	49634.98
638.06	49782.55
638.413	49716.11
638.767	49503.23
639.121	49581.65
639.474	49362.22
639.828	49501.88
640.181	49415.55
640.534	49406.96
640.888	49253.97
641.241	49163.35
641.594	49274.09
641.947	49366.29
642.301	49155.67
642.654	49058.5
643.007	49189.34
643.36	49076.8
643.713	48966.75
644.066	49176.46
644.419	48978.05
644.771	48767.21
645.124	48481.79
645.477	48427.1
645.83	48084.06
646.182	47835.93
646.535	47767.91
646.888	47680.68
647.24	47558.42
647.593	47771.3
647.945	47646.78
648.298	47465.77
648.65	47434.81
649.002	47380.35
649.355	47352.33
649.707	47376.06
650.059	47404.76
650.411	47883.39
650.763	48087
651.115	48402.92
651.467	48204.28
651.819	48166.54
652.171	47979.43
652.523	48113.21
652.875	47923.16
653.227	47838.19
653.578	48112.31
653.93	47970.17
654.282	47790.06
654.633	47657.18
654.985	47753.67
655.337	47703.73
655.688	47832.77
656.039	47847.68
656.391	47593
656.742	47720.45
657.094	47619.89
657.445	47685.88
657.796	47632.1
658.147	47463.51
658.498	47427.81
658.849	47398.65
659.2	47413.8
659.551	47368.6
659.902	47503.28
660.253	47546.9
660.604	47324.08
660.955	47279.34
661.306	47426.45
661.656	47307.13
662.007	47335.38
662.358	47370.41
662.708	47308.04
663.059	47261.03
663.409	46992.79
663.76	47332.89
664.11	47148.94
664.461	47097.65
664.811	47231.65
665.161	47070.53
665.511	47042.05
665.862	47115.5
666.212	47207.25
666.562	47131.09
666.912	47067.59
667.262	46946.92
667.612	47156.4
667.962	47075.5
668.312	46943.53
668.662	47105.78
669.011	47055.61
669.361	46864.43
669.711	47045.9
670.06	46963.19
670.41	46853.36
670.76	46717.54
671.109	46938.1
671.459	46862.85
671.808	46771.1
672.157	46690.2
672.507	46551.45
672.856	46588.73
673.205	46698.79
673.554	46793.25
673.904	46504.22
674.253	46794.6
674.602	46645.45
674.951	45905.59
675.3	45639.38
675.649	46336.99
675.998	46345.58
676.346	46385.12
676.695	46456.98
677.044	46198.46
677.393	46335.18
677.741	46284.11
678.09	46142.64
678.438	46064.45
678.787	46016.54
679.135	46234.17
679.484	45871.92
679.832	45999.82
680.181	45768.19
680.529	45918.02
680.877	45794.4
681.225	45726.61
681.573	45976.09
681.922	45751.92
682.27	45620.85
682.618	45520.74
682.966	45481.64
683.314	45539.27
683.661	45301.53
684.009	45141.77
684.357	45193.52
684.705	45169.56
685.053	45169.11
685.4	44937.7
685.748	44742
686.095	44795.56
686.443	44679.4
686.79	44458.62
687.138	44688.44
687.485	44681.21
687.832	44466.53
688.18	44549.69
688.527	44313.09
688.874	44291.62
689.221	44037.84
689.568	43991.96
689.915	43915.58
690.262	43921.68
690.609	43711.29
690.956	43659.54
691.303	43614.12
691.65	43476.72
691.997	43361.92
692.344	43242.15
692.69	43107.24
693.037	43102.04
693.383	42867.47
693.73	42931.43
694.077	42689.63
694.423	42566.01
694.769	42453.02
695.116	42386.13
695.462	42423.87
695.808	42385.23
696.155	42354.72
696.501	42002.41
696.847	42174.39
697.193	41778.01
697.539	41913.38
697.885	41653.04
698.231	41499.37
698.577	41525.81
698.923	41402.88
699.269	41217.8
699.614	40974.42
699.96	41050.57
700.306	41024.59
700.651	40914.98
700.997	40689
701.342	40638.38
701.688	40582.56
702.033	40482.45
702.379	40398.61
702.724	40421.21
703.069	40527.88
703.415	39931.51
703.76	39816.03
704.105	39964.73
704.45	39791.17
704.795	39608.35
705.14	39532.87
705.485	39416.04
705.83	39350.96
706.175	39346.44
706.52	39166.55
706.865	39006.79
707.209	39153.22
707.554	38948.26
707.899	38874.13
708.243	38894.02
708.588	38628.04
708.932	38394.6
709.277	38521.15
709.621	38367.25
709.966	38200.7
710.31	38263.3
710.654	37782.18
710.998	38026.25
711.342	37980.37
711.687	37735.41
712.031	37765.46
712.375	37590.1
712.719	37564.34
713.063	37342.65
713.407	37609.99
713.75	37407.51
714.094	37400.5
714.438	37176.55
714.782	37167.51
715.125	37012.26
715.469	37115.08
715.812	36930.23
716.156	36703.79
716.499	36686.85
716.843	36750.57
717.186	36474.42
717.53	36630.35
717.873	36778.82
718.216	36408.21
718.559	36412.5
718.902	36154.43
719.246	36197.14
719.589	36215.9
719.932	35956.7
720.275	35897.94
720.617	35967.54
720.96	35919.41
721.303	35910.37
721.646	35815
721.989	35627.44
722.331	35766.64
722.674	35641.45
723.016	35571.4
723.359	35421.79
723.701	35412.53
724.044	35070.39
724.386	35024.29
724.729	35199.65
725.071	35090.05
725.413	35033.33
725.755	35088.02
726.097	34873.11
726.439	34771.19
726.782	34591.99
727.124	34845.54
727.465	34704.3
727.807	34560.35
728.149	34392.9
728.491	34364.42
728.833	34575.49
729.175	34438.09
729.516	34302.28
729.858	34250.75
730.199	34383.18
730.541	34227.25
730.882	34271.99
731.224	34092.79
731.565	33893.93
731.906	33914.72
732.248	33994.49
732.589	33712.69
732.93	33730.99
733.271	33815.96
733.612	33698.9
733.953	33587.27
734.294	33611.45
734.635	33364.45
734.976	33409.64
735.317	33467.04
735.658	33403.54
735.999	33262.76
736.339	33180.72
736.68	33221.17
737.021	33095.75
737.361	32964.23
737.702	33065.02
738.042	33040.84
738.383	32853.73
738.723	32916.32
739.063	32792.03
739.404	32961.07
739.744	32732.37
740.084	32565.82
740.424	32750.45
740.764	32519.72
741.104	32633.39
741.444	32405.83
741.784	32371.71
742.124	32393.17
742.464	32276.57
742.804	32180.98
743.143	32174.2
743.483	32205.16
743.823	31911.15
744.162	31904.37
744.502	32022.34
744.841	31746.86
745.181	31957.7
745.52	31821.66
745.86	31870.93
746.199	31566.53
746.538	31643.59
746.877	31741.21
747.216	31707.54
747.556	31503.93
747.895	31513.2
748.234	31413.09
748.573	31291.96
748.911	31296.93
749.25	31325.41
749.589	31049.71
749.928	31159.76
750.267	31185.97
750.605	31148.69
750.944	30966.32
751.283	30819.43
751.621	30890.84
751.96	30834.12
752.298	30709.83
752.636	30629.6
752.975	30444.3
753.313	30324.3
