Data from breadboard_white_FLMS001491_00085.txt Node
Date: Wed Feb 08 10:48:23 GMT 2017
User: dcchb
Spectrometer: FLMS00149
Trigger mode: 0
Integration Time (sec): 2.000000E-2
Scans to average: 10
Electric dark correction enabled: true
Nonlinearity correction enabled: false
Boxcar width: 0
XAxis mode: Wavelengths
Number of Pixels in Spectrum: 2048
>>>>>Begin Spectral Data<<<<<
341.393	-9.69
341.776	-9.69
342.16	-9.69
342.543	-69.57
342.927	-69.35
343.31	-65.05
343.693	-71.61
344.077	-51.5
344.46	-60.08
344.843	-46.75
345.226	-38.61
345.61	-38.84
345.993	-18.5
346.376	10.42
346.759	-3.59
347.142	35.51
347.525	37.54
347.908	56.98
348.291	71.44
348.674	77.54
349.057	105.11
349.44	136.97
349.823	144.88
350.206	166.13
350.588	216.97
350.971	217.65
351.354	240.7
351.737	266.46
352.119	266.46
352.502	266.46
352.884	284.31
353.267	288.38
353.65	307.59
354.032	311.43
354.414	309.85
354.797	334.71
355.179	322.73
355.562	337.87
355.944	352.56
356.326	331.77
356.709	337.87
357.091	352.79
357.473	379.91
357.855	352.11
358.238	373.35
358.62	365.22
359.002	359.79
359.384	367.93
359.766	357.98
360.148	360.02
360.53	337.65
360.912	351.66
361.294	347.82
361.676	371.77
362.057	352.56
362.439	365.22
362.821	350.53
363.203	356.18
363.584	356.18
363.966	361.6
364.348	340.58
364.729	339.91
365.111	348.49
365.493	344.65
365.874	360.47
366.256	350.08
366.637	350.98
367.019	328.38
367.4	344.88
367.781	370.19
368.163	345.78
368.544	346.91
368.925	369.28
369.306	347.59
369.688	344.43
370.069	364.99
370.45	371.09
370.831	347.82
371.212	380.13
371.593	357.08
371.974	368.83
372.355	350.53
372.736	361.37
373.117	353.01
373.498	359.79
373.879	355.73
374.26	350.08
374.641	351.88
375.021	361.15
375.402	380.58
375.783	387.14
376.163	388.49
376.544	370.87
376.925	380.81
377.305	382.39
377.686	389.62
378.066	369.06
378.447	401.15
378.827	387.36
379.208	414.71
379.588	404.76
379.968	397.76
380.349	396.18
380.729	369.96
381.109	412.45
381.489	398.21
381.87	393.46
382.25	416.51
382.63	403.86
383.01	427.36
383.39	421.26
383.77	422.39
384.15	433.92
384.53	413.8
384.91	453.58
385.29	428.94
385.67	452.22
386.049	442.28
386.429	430.3
386.809	433.24
387.189	428.04
387.568	448.83
387.948	466.91
388.328	457.87
388.707	467.81
389.087	448.38
389.466	461.26
389.846	478.89
390.225	473.69
390.605	480.92
390.984	501.48
391.363	489.96
391.743	503.29
392.122	508.94
392.501	514.14
392.881	510.07
393.26	533.8
393.639	531.54
394.018	517.53
394.397	535.61
394.776	539.22
395.155	573.12
395.534	547.58
395.913	563.63
396.292	559.34
396.671	581.71
397.05	589.39
397.429	601.14
397.808	598.2
398.186	601.37
398.565	611.99
398.944	615.83
399.323	627.81
399.701	646.79
400.08	654.25
400.458	639.79
400.837	659.22
401.215	687.92
401.594	682.95
401.972	668.71
402.351	697.19
402.729	712.33
403.107	704.64
403.486	741.7
403.864	764.08
404.242	776.96
404.62	763.62
404.999	763.17
405.377	806.33
405.755	797.07
406.133	808.82
406.511	844.53
406.889	850.63
407.267	881.36
407.645	862.6
408.023	885.88
408.401	906.67
408.779	912.77
409.156	955.26
409.534	926.78
409.912	986.89
410.29	993.9
410.667	995.93
411.045	1014.24
411.422	1040.68
411.8	1058.76
412.178	1055.59
412.555	1097.4
412.933	1127
413.31	1140.79
413.687	1136.72
414.065	1171.52
414.442	1198.19
414.819	1241.8
415.197	1212.88
415.574	1264.85
415.951	1282.71
416.328	1273.67
416.705	1305.76
417.082	1314.8
417.46	1322.71
417.837	1355.25
418.214	1363.61
418.591	1372.87
418.967	1401.57
419.344	1444.74
419.721	1425.3
420.098	1439.99
420.475	1464.17
420.852	1480.44
421.228	1495.58
421.605	1531.97
421.982	1558.86
422.358	1570.38
422.735	1593.21
423.111	1602.02
423.488	1640.89
423.864	1640.89
424.241	1621.45
424.617	1654.9
424.994	1670.72
425.37	1716.59
425.746	1706.88
426.123	1737.61
426.499	1764.95
426.875	1801.11
427.251	1826.19
427.627	1856.48
428.003	1825.07
428.379	1895.12
428.756	1892.41
429.132	1955.68
429.507	1973.76
429.883	2040.2
430.259	2067.09
430.635	2025.51
431.011	2102.35
431.387	2145.28
431.763	2182.57
432.138	2146.64
432.514	2216.92
432.89	2216.47
433.265	2277.03
433.641	2333.75
434.016	2338.05
434.392	2385.95
434.767	2428.44
435.143	2402.45
435.518	2447.87
435.894	2440.42
436.269	2496.23
436.644	2526.74
437.02	2573.75
437.395	2582.56
437.77	2655.78
438.145	2651.26
438.52	2674.08
438.895	2692.16
439.271	2707.98
439.646	2807.19
440.021	2814.64
440.395	2829.78
440.77	2800.18
441.145	2850.57
441.52	2923.57
441.895	2918.6
442.27	2932.83
442.645	2915.21
443.019	3017.12
443.394	2976.9
443.769	3032.26
444.143	3020.29
444.518	3114.3
444.892	3089.89
445.267	3093.73
445.641	3142.09
446.016	3139.15
446.39	3151.36
446.764	3206.05
447.139	3181.64
447.513	3237.23
447.887	3265.71
448.262	3311.58
448.636	3323.56
449.01	3341.18
449.384	3429.77
449.758	3427.96
450.132	3476.55
450.506	3463.44
450.88	3497.56
451.254	3498.69
451.628	3579.37
452.002	3581.4
452.376	3631.12
452.75	3683.55
453.123	3674.73
453.497	3753.83
453.871	3768.29
454.244	3888.74
454.618	3902.52
454.992	3937.78
455.365	3958.34
455.739	4089.86
456.112	4102.52
456.486	4072.01
456.859	4155.4
457.232	4236.3
457.606	4276.3
457.979	4339.35
458.352	4396.07
458.725	4457.09
459.099	4474.49
459.472	4558.1
459.845	4628.83
460.218	4669.96
460.591	4687.36
460.964	4727.36
461.337	4844.42
461.71	4891.43
462.083	4992.21
462.456	4994.93
462.829	5015.49
463.201	5096.84
463.574	5135.26
463.947	5209.61
464.32	5333
464.692	5375.93
465.065	5452.54
465.438	5501.8
465.81	5617.06
466.183	5632.87
466.555	5801.68
466.928	5807.79
467.3	5821.34
467.672	5918.29
468.045	6075.8
468.417	6103.6
468.789	6121.45
469.161	6195.12
469.534	6314.44
469.906	6434.89
470.278	6490.25
470.65	6596.01
471.022	6706.52
471.394	6789.68
471.766	6894.08
472.138	6936.12
472.51	7113.29
472.882	7238.93
473.253	7271.93
473.625	7416.1
473.997	7615.42
474.369	7676.21
474.74	7737.45
475.112	7872.36
475.484	7984.45
475.855	8140.38
476.227	8283.2
476.598	8474.16
476.97	8569.97
477.341	8731.55
477.713	8910.3
478.084	8887.7
478.455	9148.26
478.827	9230.07
479.198	9511.19
479.569	9536.27
479.94	9830.5
480.311	9900.78
480.682	10088.8
481.053	10327.89
481.424	10463.03
481.795	10555.23
482.166	10740.54
482.537	10856.92
482.908	11087.19
483.279	11279.96
483.65	11472.27
484.021	11672.72
484.391	11824.35
484.762	11913.16
485.133	12089.43
485.503	12153.38
485.874	12506.37
486.244	12653.71
486.615	12880.14
486.985	12959.01
487.356	13310.19
487.726	13441.71
488.097	13626.56
488.467	13645.77
488.837	14039.21
489.207	14234.91
489.578	14311.52
489.948	14527.56
490.318	14672.64
490.688	14810.26
491.058	15044.15
491.428	15173.19
491.798	15384.71
492.168	15641.42
492.538	15772.04
492.908	15951.47
493.278	16101.75
493.648	16092.71
494.017	16457.67
494.387	16534.51
494.757	16794.16
495.126	16981.95
495.496	17003.2
495.866	17082.74
496.235	17336.52
496.605	17323.19
496.974	17512.79
497.344	17761.37
497.713	17871.65
498.082	18002.94
498.452	18203.62
498.821	18300.79
499.19	18344.4
499.559	18505.08
499.928	18633.66
500.298	18802.47
500.667	18979.42
501.036	18945.52
501.405	19151.84
501.774	19314.55
502.143	19447.2
502.512	19558.61
502.88	19761.77
503.249	19701.21
503.618	19898.71
503.987	20067.98
504.356	20136.67
504.724	20377.8
505.093	20403.79
505.462	20518.81
505.83	20671.8
506.199	20885.13
506.567	21182.52
506.936	21051.9
507.304	21474.94
507.672	21438.11
508.041	21553.13
508.409	21810.3
508.777	21924.2
509.145	22142.72
509.514	22130.07
509.882	22419.55
510.25	22474.92
510.618	22673.33
510.986	22744.97
511.354	23005.07
511.722	23177.5
512.09	23390.37
512.458	23391.73
512.826	23595.79
513.193	23701.1
513.561	23870.36
513.929	24084.59
514.297	24177.47
514.664	24398.71
515.032	24651.13
515.4	24908.3
515.767	24963.21
516.135	25140.61
516.502	25077.33
516.869	25525.91
517.237	25583.31
517.604	25519.58
517.972	25967.26
518.339	26139.45
518.706	26155.72
519.073	26390.29
519.44	26550.74
519.808	26837.51
520.175	26818.76
520.542	27326.09
520.909	27373.09
521.276	27302.14
521.643	27721.33
522.009	27938.05
522.376	28121.32
522.743	28268.21
523.11	28660.74
523.477	28927.18
523.843	28999.04
524.21	29366.49
524.577	29624.11
524.943	29815.29
525.31	29870.66
525.676	30215.5
526.043	30453.69
526.409	30522.84
526.776	30810.74
527.142	31048.7
527.508	31091.64
527.874	31411.86
528.241	31655.24
528.607	31724.62
528.973	32068.34
529.339	32173.42
529.705	32398.95
530.071	32704.71
530.437	32735.21
530.803	32998.03
531.169	33279.61
531.535	33094.75
531.901	33370.9
532.267	33514.4
532.632	33744.23
532.998	33842.3
533.364	34038.68
533.73	34069.87
534.095	34531.78
534.461	34574.03
534.826	34867.36
535.192	34912.78
535.557	35119.33
535.923	35212.66
536.288	35280
536.653	35516.61
537.019	35530.17
537.384	35677.06
537.749	35891.06
538.114	35979.65
538.479	36186.2
538.845	36228.45
539.21	36267.55
539.575	36385.74
539.94	36526.53
540.305	36776.24
540.67	36659.4
541.034	37010.13
541.399	37114.98
541.764	37219.16
542.129	37270.69
542.494	37510.23
542.858	37582.99
543.223	37744.12
543.587	37940.05
543.952	37840.39
544.316	38190.89
544.681	38145.92
545.045	38214.84
545.41	38514.95
545.774	38589.97
546.138	38638.79
546.503	38738.67
546.867	38819.57
547.231	38996.97
547.595	39131.43
547.959	39239.9
548.324	39421.59
548.688	39429.27
549.052	39667.23
549.416	39841.92
549.779	39809.83
550.143	39921.01
550.507	40309.25
550.871	40365.07
551.235	40469.25
551.599	40629.02
551.962	40827.2
552.326	40913.53
552.689	41150.81
553.053	41094.31
553.417	41119.85
553.78	41638.03
554.143	41607.52
554.507	41728.2
554.87	41992.14
555.234	42236.43
555.597	42073.05
555.96	42141.75
556.323	42598.91
556.686	42500.61
557.05	42902.18
557.413	42858.56
557.776	43179.91
558.139	43324.76
558.502	43246.8
558.865	43478.43
559.228	43755.71
559.59	43867.12
559.953	44071.41
560.316	44504.17
560.679	44438.41
561.041	44735.58
561.404	44787.33
561.767	45075
562.129	44939.19
562.492	45514.76
562.854	45450.81
563.217	45525.84
563.579	45693.74
563.941	46019.16
564.304	46019.61
564.666	46390.67
565.028	46479.48
565.39	46642.19
565.753	46944.78
566.115	46965.57
566.477	47158.11
566.839	47268.16
567.201	47578.21
567.563	47587.25
567.925	47786.34
568.287	47846
568.648	47843.29
569.01	48093.9
569.372	48375.03
569.734	48306.78
570.095	48624.06
570.457	48704.51
570.819	48770.5
571.18	48823.15
571.542	49085.29
571.903	49132.52
572.265	49227.89
572.626	49356.92
572.987	49413.64
573.349	49457.48
573.71	49634.88
574.071	49757.14
574.432	49860.64
574.794	50095.21
575.155	50028.32
575.516	49916.23
575.877	50236.22
576.238	50271.02
576.599	50424.69
576.96	50336.11
577.32	50405.71
577.681	50521.41
578.042	50639.15
578.403	50650.45
578.763	50688.86
579.124	50708.53
579.485	50840.5
579.845	50935.19
580.206	50931.34
580.566	50902.19
580.927	50937.9
581.287	51025.13
581.648	51001.17
582.008	51211.34
582.368	51033.26
582.728	51168.17
583.089	51076.2
583.449	51134.5
583.809	51092.92
584.169	51181.96
584.529	51095.18
584.889	51374.95
585.249	51128.18
585.609	51082.07
585.969	51381.5
586.329	51124.33
586.688	51302.86
587.048	51232.35
587.408	51134.28
587.768	51264.67
588.127	51209.53
588.487	51215.18
588.846	51445.91
589.206	51251.34
589.565	51214.05
589.925	51376.76
590.284	51196.42
590.643	51374.72
591.003	51388.96
591.362	51442.29
591.721	51434.38
592.08	51471.67
592.44	51561.16
592.799	51491.56
593.158	51400.71
593.517	51504.66
593.876	51561.84
594.235	51436.64
594.593	51513.02
594.952	51551.67
595.311	51509.63
595.67	51555.96
596.029	51724.54
596.387	51719.35
596.746	51769.97
597.104	51597.99
597.463	51626.47
597.822	51711.21
598.18	51607.94
598.538	51554.6
598.897	51719.8
599.255	51468.05
599.613	51961.15
599.972	51719.8
600.33	51908.27
600.688	51823.52
601.046	51960.7
601.404	52023.97
601.762	51819.46
602.12	52111.43
602.478	52138.54
602.836	52044.99
603.194	51912.56
603.552	52001.37
603.91	51974.48
604.268	52092.22
604.625	52035.95
604.983	52131.54
605.341	52144.42
605.698	52226.9
606.056	52311.87
606.413	52290.63
606.771	52347.58
607.128	52341.93
607.485	52236.17
607.843	52349.84
608.2	52354.81
608.557	52600.45
608.914	52445.2
609.272	52529.27
609.629	52558.19
609.986	52756.83
610.343	52584.63
610.7	52778.75
611.057	52815.81
611.414	52711.64
611.771	52740.34
612.127	52875.25
612.484	52800.22
612.841	52944.4
613.198	52744.63
613.554	52811.52
613.911	53004.74
614.267	53049.25
614.624	52964.51
614.98	53040.67
615.337	53135.13
615.693	53161.57
616.05	52990.95
616.406	53342.81
616.762	53169.7
617.118	53169.25
617.475	53183.94
617.831	53256.71
618.187	53334.9
618.543	53392.97
618.899	53455.57
619.255	53431.84
619.611	53336.03
619.967	53436.14
620.323	53481.56
620.678	53422.58
621.034	53331.51
621.39	53391.17
621.746	53382.35
622.101	53625.28
622.457	53423.93
622.812	53516.59
623.168	53591.84
623.523	53632.97
623.879	53584.16
624.234	53360.66
624.589	53573.76
624.945	53550.48
625.3	53606.53
625.655	53541.9
626.01	53542.35
626.365	53582.57
626.72	53584.61
627.075	53487.21
627.43	53543.03
627.785	53412.86
628.14	53592.74
628.495	53465.52
628.85	53432.07
629.205	53375.8
629.559	53445.4
629.914	53375.8
630.269	53400.88
630.623	53313.43
630.978	53208.57
631.332	53402.69
631.687	53390.49
632.041	53169.48
632.396	53332.86
632.75	53150.5
633.104	53238.4
633.459	53175.35
633.813	53115.47
634.167	53162.47
634.521	53069.14
634.875	53137.61
635.229	53073.21
635.583	52917.05
635.937	52949.37
636.291	52906.89
636.645	52848.13
636.999	52817.17
637.352	52873.89
637.706	52643.39
638.06	52764.97
638.413	52672.09
638.767	52613.33
639.121	52690.17
639.474	52370.4
639.828	52469.84
640.181	52515.03
640.534	52586.22
640.888	52392.55
641.241	52162.95
641.594	52289.05
641.947	52372.89
642.301	52268.94
642.654	52281.14
643.007	52317.52
643.36	52141.71
643.713	52128.6
644.066	52258.99
644.419	52059.9
644.771	51884.99
645.124	51704.88
645.477	51481.16
645.83	51240.94
646.182	50952.13
646.535	50949.42
646.888	51023.55
647.24	50901.97
647.593	51067.84
647.945	50911.91
648.298	50740.16
648.65	50742.65
649.002	50603.44
649.355	50667.85
649.707	50620.84
650.059	50844.12
650.411	51253.14
650.763	51251.79
651.115	51649.97
651.467	51373.82
651.819	51482.74
652.171	51289.08
652.523	51263.77
652.875	51244.33
653.227	51049.31
653.578	51338.34
653.93	51280.71
654.282	50986.48
654.633	50976.32
654.985	51135.41
655.337	51073.94
655.688	51045.47
656.039	51121.4
656.391	50821.06
656.742	50905.13
657.094	50916.66
657.445	51093.6
657.796	50944.9
658.147	50832.59
658.498	50808.18
658.849	50920.72
659.2	50793.27
659.551	50720.5
659.902	50931.8
660.253	50698.58
660.604	50793.95
660.955	50649.77
661.306	50881.85
661.656	50709.88
662.007	50621.97
662.358	50667.62
662.708	50655.19
663.059	50581.98
663.409	50408.65
663.76	50613.84
664.11	50722.54
664.461	50622.65
664.811	50551.02
665.161	50560.51
665.511	50450.68
665.862	50485.03
666.212	50556.67
666.562	50575.2
666.912	50544.24
667.262	50432.6
667.612	50407.52
667.962	50456.33
668.312	50413.39
668.662	50522.09
669.011	50450
669.361	50406.84
669.711	50323.9
670.06	50224.24
670.41	50245.94
670.76	50186.05
671.109	50410.91
671.459	50293.17
671.808	50100.86
672.157	50215.88
672.507	49927.76
672.856	50040.97
673.205	50163.91
673.554	50198.93
673.904	49981.76
674.253	50238.93
674.602	50112.16
674.951	49440.31
675.3	49355.57
675.649	49840.3
675.998	49739.51
676.346	49748.1
676.695	49962.1
677.044	49551.95
677.393	49725.5
677.741	49759.85
678.09	49697.7
678.438	49614.54
678.787	49636.69
679.135	49689.8
679.484	49485.96
679.832	49605.73
680.181	49400.54
680.529	49463.36
680.877	49340.2
681.225	49372.74
681.573	49501.1
681.922	49226.76
682.27	49028.34
682.618	49092.97
682.966	49023.15
683.314	49147.44
683.661	49002.13
684.009	48858.63
684.357	48759.65
684.705	48641.46
685.053	48749.03
685.4	48696.83
685.748	48370.96
686.095	48454.12
686.443	48332.09
686.79	48335.71
687.138	48306.78
687.485	48242.15
687.832	48142.49
688.18	48069.72
688.527	47913.12
688.874	47790.18
689.221	47820.92
689.568	47711.77
689.915	47685.55
690.262	47498.44
690.609	47562.39
690.956	47316.98
691.303	47317.65
691.65	47118.34
691.997	47266.13
692.344	46851.68
692.69	46810.77
693.037	46718.8
693.383	46553.15
693.73	46774.17
694.077	46462.99
694.423	46501.86
694.769	46300.73
695.116	46236.55
695.462	46258.47
695.808	45959.72
696.155	46115.43
696.501	45739.16
696.847	45740.52
697.193	45488.32
697.539	45558.38
697.885	45364.03
698.231	45209.01
698.577	45180.54
698.923	45159.52
699.269	44916.14
699.614	44696.48
699.96	44693.99
700.306	44591.17
700.651	44470.72
700.997	44286.1
701.342	44388.01
701.688	44303.5
702.033	44160
702.379	44114.8
702.724	43994.8
703.069	44097.17
703.415	43520.01
703.76	43665.77
704.105	43530.64
704.45	43471.43
704.795	43196.41
705.14	43106.69
705.485	43111.66
705.83	42955.73
706.175	43022.63
706.52	42879.58
706.865	42627.16
707.209	42639.81
707.554	42498.35
707.899	42585.58
708.243	42428.97
708.588	42325.02
708.932	42170.44
709.277	41992.14
709.621	42008.87
709.966	41863.56
710.31	41832.15
710.654	41416.79
710.998	41456.11
711.342	41651.36
711.687	41485.72
712.031	41218.15
712.375	41142.68
712.719	41262.67
713.063	41057.03
713.407	41143.58
713.75	40866.3
714.094	40910.36
714.438	40685.06
714.782	40801.67
715.125	40515.8
715.469	40640.32
715.812	40317.84
716.156	40309.25
716.499	40137.05
716.843	40347.67
717.186	39959.88
717.53	40118.3
717.873	40229.03
718.216	40100.67
718.559	39915.14
718.902	39609.38
719.246	39637.18
719.589	39517.41
719.932	39447.35
720.275	39372.78
720.617	39376.85
720.96	39275.83
721.303	39206.23
721.646	39176.63
721.989	38955.16
722.331	39129.39
722.674	39009.17
723.016	38919.68
723.359	38764.43
723.701	38866.35
724.044	38494.16
724.386	38336.65
724.729	38639.01
725.071	38429.98
725.413	38492.8
725.755	38401.05
726.097	38265.46
726.439	38095.3
726.782	38100.95
727.124	38211.45
727.465	38029.54
727.807	37986.37
728.149	37903.66
728.491	37810.79
728.833	37889.88
729.175	37649.21
729.516	37620.51
729.858	37618.47
730.199	37565.82
730.541	37426.61
730.882	37373.28
731.224	37575.54
731.565	37210.12
731.906	37302.32
732.248	37312.49
732.589	37022.33
732.93	37037.92
733.271	36973.75
733.612	37026.85
733.953	36871.6
734.294	36825.73
734.635	36788.44
734.976	36921.32
735.317	36580.08
735.658	36560.87
735.999	36480.88
736.339	36475.23
736.68	36452.4
737.021	36449.69
737.361	36298.06
737.702	36449.92
738.042	36179.87
738.383	36200.88
738.723	36256.02
739.063	36039.31
739.404	36132.41
739.744	35985.52
740.084	35756.15
740.424	35890.16
740.764	35804.51
741.104	35968.8
741.444	35703.95
741.784	35512.09
742.124	35679.77
742.464	35485.2
742.804	35347.57
743.143	35288.37
743.483	35339.89
743.823	35293.11
744.162	35149.84
744.502	35247.92
744.841	35013.34
745.181	35028.94
745.52	34945.55
745.86	35079.33
746.199	34940.13
746.538	34911.65
746.877	34816.06
747.216	34867.13
747.556	34742.39
747.895	34678.44
748.234	34496.97
748.573	34502.4
748.911	34405.45
749.25	34296.98
749.589	34207.26
749.928	34235.51
750.267	34316.41
750.605	34127.49
750.944	33970.89
751.283	33824.9
751.621	33972.69
751.96	33797.33
752.298	33696.32
752.636	33664
752.975	33542.2
