Data from breadboard_white_FLMS001491_00076.txt Node
Date: Wed Feb 08 10:48:15 GMT 2017
User: dcchb
Spectrometer: FLMS00149
Trigger mode: 0
Integration Time (sec): 2.000000E-2
Scans to average: 10
Electric dark correction enabled: true
Nonlinearity correction enabled: false
Boxcar width: 0
XAxis mode: Wavelengths
Number of Pixels in Spectrum: 2048
>>>>>Begin Spectral Data<<<<<
341.393	-19.6
341.776	-19.6
342.16	-19.6
342.543	-69.77
342.927	-70.45
343.31	-64.35
343.693	-76.33
344.077	-48.53
344.46	-57.8
344.843	-44.46
345.226	-36.33
345.61	-18.25
345.993	-8.3
346.376	-29.55
346.759	11.58
347.142	27.4
347.525	37.57
347.908	60.62
348.291	73.27
348.674	77.12
349.057	96.33
349.44	132.71
349.823	139.49
350.206	145.36
350.588	208.86
350.971	222.88
351.354	232.14
351.737	236.66
352.119	270.11
352.502	261.97
352.884	284.57
353.267	289.09
353.65	300.16
354.032	318.01
354.414	318.69
354.797	321.86
355.179	327.73
355.562	326.38
355.944	331.57
356.326	352.82
356.709	354.17
357.091	336.09
357.473	348.52
357.855	361.85
358.238	364.79
358.62	367.28
359.002	355.98
359.384	348.75
359.766	362.08
360.148	347.39
360.53	357.79
360.912	366.6
361.294	357.11
361.676	331.35
362.057	360.05
362.439	317.79
362.821	343.78
363.203	358.47
363.584	344.68
363.966	343.1
364.348	354.62
364.729	335.64
365.111	364.57
365.493	346.26
365.874	349.2
366.256	351.23
366.637	319.82
367.019	337
367.4	341.29
367.781	338.8
368.163	351.91
368.544	338.13
368.925	349.43
369.306	336.32
369.688	339.26
370.069	347.39
370.45	348.3
370.831	338.58
371.212	346.49
371.593	328.41
371.974	348.3
372.355	354.17
372.736	362.76
373.117	333.61
373.498	358.24
373.879	339.71
374.26	340.39
374.641	361.4
375.021	360.95
375.402	335.41
375.783	359.82
376.163	355.3
376.544	373.38
376.925	386.94
377.305	378.58
377.686	381.29
378.066	372.25
378.447	408.86
378.827	379.48
379.208	370.89
379.588	387.84
379.968	390.1
380.349	395.3
380.729	394.17
381.109	385.13
381.489	399.37
381.87	397.79
382.25	388.29
382.63	387.84
383.01	408.18
383.39	413.15
383.77	422.64
384.15	433.72
384.53	434.17
384.91	411.35
385.29	442.53
385.67	402.53
386.049	442.76
386.429	436.43
386.809	430.78
387.189	433.94
387.568	433.04
387.948	421.06
388.328	427.84
388.707	473.26
389.087	455.19
389.466	456.99
389.846	461.97
390.225	490.89
390.605	479.14
390.984	476.65
391.363	485.47
391.743	470.1
392.122	485.92
392.501	519.59
392.881	504.68
393.26	490.44
393.639	511.91
394.018	527.05
394.397	509.65
394.776	544.9
395.155	551.23
395.534	533.15
395.913	550.78
396.292	538.57
396.671	570.66
397.05	564.56
397.429	589.65
397.808	573.37
398.186	561.85
398.565	578.57
398.944	598.91
399.323	592.36
399.701	628.74
400.08	622.41
400.458	641.17
400.837	641.17
401.215	658.8
401.594	649.98
401.972	694.73
402.351	678.68
402.729	656.99
403.107	698.34
403.486	702.64
403.864	671.68
404.242	742.64
404.62	747.61
404.999	768.4
405.377	753.71
405.755	777.89
406.133	764.78
406.511	798.23
406.889	816.53
407.267	834.61
407.645	847.27
408.023	847.94
408.401	880.94
408.779	862.41
409.156	901.05
409.534	886.59
409.912	936.3
410.29	941.73
410.667	986.7
411.045	985.57
411.422	987.6
411.8	982.18
412.178	1062.85
412.555	1028.73
412.933	1066.92
413.31	1076.19
413.687	1105.79
414.065	1104.66
414.442	1134.04
414.819	1162.74
415.197	1173.58
415.574	1211.1
415.951	1199.8
416.328	1205.22
416.705	1237.31
417.082	1265.33
417.46	1250.87
417.837	1285.22
418.214	1320.02
418.591	1316.18
418.967	1301.49
419.344	1350.53
419.721	1379.68
420.098	1386.23
420.475	1414.26
420.852	1433.69
421.228	1437.53
421.605	1463.75
421.982	1474.14
422.358	1489.06
422.735	1507.81
423.111	1503.29
423.488	1563.18
423.864	1537.42
424.241	1578.77
424.617	1618.55
424.994	1630.3
425.37	1610.86
425.746	1641.6
426.123	1670.97
426.499	1696.74
426.875	1708.71
427.251	1739.22
427.627	1779.67
428.003	1799.11
428.379	1830.74
428.756	1822.38
429.132	1860.57
429.507	1873.23
429.883	1889.95
430.259	1960
430.635	1949.38
431.011	1989.83
431.387	2067.57
431.763	2047.01
432.138	2089.27
432.514	2122.03
432.89	2138.08
433.265	2198.64
433.641	2201.13
434.016	2216.95
434.392	2269.38
434.767	2317.74
435.143	2319.77
435.518	2399.09
435.894	2331.07
436.269	2444.29
436.644	2433.21
437.02	2466.21
437.395	2504.85
437.77	2513.89
438.145	2529.48
438.52	2594.34
438.895	2618.07
439.271	2627.33
439.646	2705.52
440.021	2675.24
440.395	2708.23
440.77	2684.96
441.145	2761.79
441.52	2819.42
441.895	2775.12
442.27	2835.01
442.645	2818.29
443.019	2885.4
443.394	2876.59
443.769	2932.86
444.143	2947.55
444.518	2992.29
444.892	2970.6
445.267	3008.79
445.641	3085.17
446.016	3082.69
446.39	3055.8
446.764	3067.55
447.139	3084.04
447.513	3112.07
447.887	3158.39
448.262	3163.14
448.636	3206.75
449.01	3244.94
449.384	3235.9
449.758	3254.66
450.132	3342.12
450.506	3364.04
450.88	3369.23
451.254	3382.57
451.628	3430.93
452.002	3486.29
452.376	3540.08
452.75	3538.49
453.123	3575.78
453.497	3640.41
453.871	3668.89
454.244	3770.8
454.618	3769
454.992	3842.22
455.365	3815.1
455.739	3882.21
456.112	3947.07
456.486	4003.12
456.859	3987.97
457.232	4104.58
457.606	4081.31
457.979	4150.46
458.352	4252.6
458.725	4313.84
459.099	4322.43
459.472	4420.05
459.845	4481.75
460.218	4538.69
460.591	4578.69
460.964	4530.56
461.337	4700.05
461.71	4792.25
462.083	4827.27
462.456	4835.86
462.829	4876.54
463.201	4954.28
463.574	4992.92
463.947	5076.76
464.32	5210.77
464.692	5242.4
465.065	5277.21
465.438	5374.6
465.81	5426.81
466.183	5474.94
466.555	5643.52
466.928	5644.43
467.3	5629.96
467.672	5789.51
468.045	5935.04
468.417	5905.66
468.789	5984.53
469.161	6100.24
469.534	6178.43
469.906	6280.8
470.278	6224.75
470.65	6395.14
471.022	6503.61
471.394	6657.06
471.766	6710.16
472.138	6779.54
472.51	6891.4
472.882	7094.56
473.253	7114.22
473.625	7224.5
473.997	7400.99
474.369	7459.97
474.74	7626.52
475.112	7727.08
475.484	7851.6
475.855	7931.6
476.227	8011.6
476.598	8205.04
476.97	8372.49
477.341	8494.52
477.713	8673.5
478.084	8743.56
478.455	8988.97
478.827	9033.27
479.198	9249.08
479.569	9273.71
479.94	9601.16
480.311	9648.84
480.682	9890.64
481.053	10105.78
481.424	10256.28
481.795	10355.04
482.166	10562.04
482.537	10722.49
482.908	10907.11
483.279	11035.47
483.65	11206.77
484.021	11515.69
484.391	11457.61
484.762	11622.8
485.133	11781.67
485.503	12070.93
485.874	12207.42
486.244	12362.67
486.615	12566.51
486.985	12728.31
487.356	12951.35
487.726	13113.38
488.097	13393.83
488.467	13469.31
488.837	13725.35
489.207	13859.81
489.578	14123.98
489.948	14070.42
490.318	14417.53
490.688	14481.26
491.058	14641.25
491.428	14973.45
491.798	15151.52
492.168	15358.07
492.538	15356.04
492.908	15566.88
493.278	15881.9
493.648	15901.11
494.017	16202.79
494.387	16261.55
494.757	16423.81
495.126	16523.69
495.496	16735.21
495.866	16716
496.235	16991.93
496.605	17202.77
496.974	17255.65
497.344	17448.64
497.713	17586.26
498.082	17628.75
498.452	17965.23
498.821	17959.13
499.19	18030.32
499.559	18311.44
499.928	18402.28
500.298	18537.87
500.667	18707.14
501.036	18658.55
501.405	18879.11
501.774	18950.97
502.143	19166.11
502.512	19256.95
502.88	19470.05
503.249	19538.07
503.618	19640.67
503.987	19739.88
504.356	19869.82
504.724	19989.36
505.093	20117.49
505.462	20289.92
505.83	20356.36
506.199	20587.76
506.567	20785.5
506.936	20820.75
507.304	21047.41
507.672	21244.24
508.041	21302.77
508.409	21528.53
508.777	21624.57
509.145	21796.55
509.514	21920.84
509.882	22101.85
510.25	22239.92
510.618	22461.39
510.986	22492.35
511.354	22574.83
511.722	22940.02
512.09	23142.05
512.458	23095.49
512.826	23434.69
513.193	23522.38
513.561	23525.54
513.929	23721.47
514.297	23963.04
514.664	24185.86
515.032	24242.81
515.4	24478.96
515.767	24581.11
516.135	24735.9
516.502	24706.98
516.869	25204.14
517.237	25260.64
517.604	25193.52
517.972	25558.71
518.339	25812.26
518.706	25935.19
519.073	26106.94
519.44	26239.82
519.808	26499.25
520.175	26564.1
520.542	26918.22
520.909	27018.33
521.276	27141.72
521.643	27390.3
522.009	27700.35
522.376	27750.74
522.743	27922.49
523.11	28212.87
523.477	28614.67
523.843	28808.11
524.21	28961.1
524.577	29199.97
524.943	29505.04
525.31	29577.58
525.676	29853.06
526.043	29933.51
526.409	30188.42
526.776	30498.69
527.142	30610.33
527.508	30848.06
527.874	30965.57
528.241	31100.03
528.607	31304.54
528.973	31598.1
529.339	31608.72
529.705	31927.58
530.071	32205.76
530.437	32369.6
530.803	32526.43
531.169	32667.22
531.535	32712.64
531.901	32945.4
532.267	33060.2
532.632	33384.04
532.998	33448.22
533.364	33727.08
533.73	33798.49
534.095	34029.44
534.461	34212.26
534.826	34414.29
535.192	34482.99
535.557	34706.26
535.923	34565.48
536.288	34953.04
536.653	35099.25
537.019	35045.24
537.384	35210.66
537.749	35447.03
538.114	35501.27
538.479	35660.81
538.845	35693.13
539.21	35759.12
539.575	35841.37
539.94	35956.63
540.305	36256.5
540.67	36109.16
541.034	36478.87
541.399	36600.45
541.764	36750.28
542.129	36787.79
542.494	36975.58
542.858	37073.21
543.223	37107.1
543.587	37335.12
543.952	37330.83
544.316	37598.62
544.681	37482.69
545.045	37739.4
545.41	37918.16
545.774	37950.02
546.138	37913.64
546.503	38192.05
546.867	38188.2
547.231	38574.18
547.595	38644.69
547.959	38755.2
548.324	38833.61
548.688	39002.19
549.052	39144.11
549.416	39123.55
549.779	39248.06
550.143	39382.75
550.507	39662.29
550.871	39752.01
551.235	39718.56
551.599	40010.98
551.962	40074.93
552.326	40289.84
552.689	40437.19
553.053	40312.22
553.417	40431.54
553.78	41007.34
554.143	40823.16
554.507	40958.08
554.87	41121.24
555.234	41375.01
555.597	41369.14
555.96	41567.1
556.323	41688
556.686	41715.57
557.05	41966.64
557.413	42282.11
557.776	42391.71
558.139	42608.2
558.502	42624.02
558.865	42793.51
559.228	43167.28
559.59	43218.58
559.953	43226.72
560.316	43531.12
560.679	43691.56
561.041	43932.91
561.404	44155.05
561.767	44314.6
562.129	44152.79
562.492	44661.93
562.854	44690.41
563.217	44690.41
563.579	44881.36
563.941	45113.67
564.304	45421.46
564.666	45529.93
565.028	45568.12
565.39	45760.89
565.753	45995.68
566.115	46173.98
566.477	46386.41
566.839	46473.86
567.201	46844.02
567.563	46707.75
567.925	47057.12
568.287	46976.45
568.648	47056.67
569.01	47316.55
569.372	47453.95
569.734	47491.92
570.095	47644.68
570.457	47802.87
570.819	47831.79
571.18	47891.9
571.542	48157.66
571.903	48168.51
572.265	48313.14
572.626	48462.96
572.987	48500.7
573.349	48714.26
573.71	48887.58
574.071	48873.57
574.432	48997.19
574.794	49306.33
575.155	49121.7
575.516	49076.28
575.877	49299.78
576.238	49409.38
576.599	49472.65
576.96	49539.54
577.32	49548.36
577.681	49728.01
578.042	49780.89
578.403	49695.47
578.763	49695.02
579.124	49813.44
579.485	50015.92
579.845	50137.95
580.206	50070.15
580.566	49960.1
580.927	50031.28
581.287	50235.8
581.648	50154.9
582.008	50317.83
582.368	50303.82
582.728	50389.92
583.089	50244.16
583.449	50293.88
583.809	50322.58
584.169	50288.68
584.529	50345.85
584.889	50461.78
585.249	50216.36
585.609	50310.6
585.969	50510.82
586.329	50299.52
586.688	50433.53
587.048	50272.63
587.408	50308.79
587.768	50286.64
588.127	50276.25
588.487	50250.71
588.846	50413.65
589.206	50275.57
589.565	50273.99
589.925	50532.06
590.284	50401.22
590.643	50403.25
591.003	50494.1
591.362	50624.26
591.721	50471.95
592.08	50459.52
592.44	50537.48
592.799	50641.89
593.158	50639.18
593.517	50511.72
593.876	50556.24
594.235	50495.9
594.593	50602.12
594.952	50652.28
595.311	50596.01
595.67	50712.85
596.029	50878.72
596.387	50756.46
596.746	50999.39
597.104	50680.08
597.463	50722.56
597.822	50903.58
598.18	50749.46
598.538	50727.31
598.897	51003.01
599.255	50587.88
599.613	51141.76
599.972	50901.99
600.33	50874.2
600.688	50829.45
601.046	50944.48
601.404	51090.24
601.762	51010.92
602.12	51222.21
602.478	51220.86
602.836	51164.59
603.194	51027.19
603.552	51097.02
603.91	51011.14
604.268	51205.04
604.625	51163.46
604.983	51154.64
605.341	51044.14
605.698	51328.42
606.056	51422.21
606.413	51334.07
606.771	51422.43
607.128	51615.65
607.485	51318.48
607.843	51412.26
608.2	51597.12
608.557	51599.6
608.914	51491.58
609.272	51664.23
609.629	51693.84
609.986	51860.61
610.343	51652.48
610.7	52011.34
611.057	51881.86
611.414	51788.98
611.771	51766.15
612.127	52022.87
612.484	51862.2
612.841	52070.78
613.198	51905.58
613.554	51843.67
613.911	52114.39
614.267	52050.89
614.624	52112.58
614.98	52198.91
615.337	52264.67
615.693	52263.32
616.05	52131.57
616.406	52400.94
616.762	52223.09
617.118	52356.42
617.475	52337.89
617.831	52442.29
618.187	52418.57
618.543	52437.32
618.899	52582.18
619.255	52485.46
619.611	52556.19
619.967	52579.01
620.323	52593.02
620.678	52503.99
621.034	52449.98
621.39	52532.91
621.746	52508.28
622.101	52856.75
622.457	52578.11
622.812	52586.7
623.168	52644.55
623.523	52648.84
623.879	52780.59
624.234	52557.54
624.589	52675.28
624.945	52618.11
625.3	52664.66
625.655	52573.59
626.01	52611.78
626.365	52677.09
626.72	52603.65
627.075	52529.75
627.43	52560.48
627.785	52527.04
628.14	52467.38
628.495	52544.44
628.85	52534.49
629.205	52470.99
629.559	52587.83
629.914	52428.51
630.269	52499.02
630.623	52400.71
630.978	52389.41
631.332	52508.28
631.687	52490.88
632.041	52330.21
632.396	52306.7
632.75	52237.1
633.104	52231.9
633.459	52129.76
633.813	52111.23
634.167	52109.19
634.521	52134.5
634.875	52077.56
635.229	52068.74
635.583	51830.33
635.937	51973.38
636.291	51833.04
636.645	51777.45
636.999	51805.7
637.352	51946.26
637.706	51594.86
638.06	51802.08
638.413	51751.46
638.767	51623.33
639.121	51713.72
639.474	51455.2
639.828	51465.37
640.181	51514.18
640.534	51459.27
640.888	51473.73
641.241	51286.17
641.594	51374.75
641.947	51533.84
642.301	51292.04
642.654	51286.17
643.007	51268.09
643.36	51146.73
643.713	51085.49
644.066	51141.54
644.419	50948.32
644.771	50806.86
645.124	50651.61
645.477	50551.95
645.83	50353.08
646.182	50048.01
646.535	49855.02
646.888	49993.54
647.24	49732.31
647.593	49935.69
647.945	49875.58
648.298	49560.79
648.65	49571.86
649.002	49472.88
649.355	49638.98
649.707	49641.24
650.059	49817.5
650.411	50261.79
650.763	50226.08
651.115	50535.45
651.467	50345.85
651.819	50321.9
652.171	50181.79
652.523	50102.02
652.875	50199.87
653.227	50011.85
653.578	50187.21
653.93	50131.85
654.282	49970.72
654.633	49873.77
654.985	49996.26
655.337	49915.81
655.688	49972.08
656.039	50062.24
656.391	49791.74
656.742	49882.59
657.094	49820.67
657.445	49879.2
657.796	49752.65
658.147	49856.82
658.498	49686.43
658.849	49735.92
659.2	49636.27
659.551	49544.06
659.902	49629.71
660.253	49541.13
660.604	49651.63
660.955	49402.15
661.306	49636.94
661.656	49427.23
662.007	49540.45
662.358	49487.79
662.708	49502.94
663.059	49457.51
663.409	49231.08
663.76	49439.21
664.11	49350.85
664.461	49336.16
664.811	49328.7
665.161	49323.28
665.511	49301.13
665.862	49360.11
666.212	49428.14
666.562	49354.24
666.912	49220.01
667.262	49100.69
667.612	49246.67
667.962	49212.55
668.312	49139.56
668.662	49213.9
669.011	49258.87
669.361	49110.4
669.711	49046
670.06	49142.27
670.41	49143.4
670.76	48982.5
671.109	49238.08
671.459	49085.77
671.808	48997.19
672.157	49050.29
672.507	48759.68
672.856	48759.45
673.205	48799.9
673.554	48851.88
673.904	48798.77
674.253	48880.35
674.602	48806
674.951	48300.48
675.3	48112.69
675.649	48681.04
675.998	48557.42
676.346	48649.4
676.695	48718.55
677.044	48327.6
677.393	48574.37
677.741	48579.57
678.09	48450.31
678.438	48368.73
678.787	48398.33
679.135	48427.48
679.484	48178
679.832	48271.1
680.181	48187.04
680.529	48252.8
680.877	48072.01
681.225	48096.87
681.573	48311.1
681.922	47829.76
682.27	47828.18
682.618	47846.71
682.966	47792.47
683.314	47862.53
683.661	47662.31
684.009	47462.09
684.357	47257.57
684.705	47284.46
685.053	47389.54
685.4	47235.65
685.748	47020.52
686.095	47000.85
686.443	46923.57
686.79	46799.96
687.138	46888.77
687.485	46844.7
687.832	46721.54
688.18	46755.66
688.527	46530.13
688.874	46429.8
689.221	46385.73
689.568	46291.27
689.915	46204.72
690.262	46126.53
690.609	45980.54
690.956	45975.34
691.303	45905.29
691.65	45756.14
691.997	45779.87
692.344	45514.79
692.69	45458.97
693.037	45419.65
693.383	45188.02
693.73	45342.59
694.077	45074.8
694.423	45030.28
694.769	44849.05
695.116	44774.7
695.462	44672.55
695.808	44653.57
696.155	44617.64
696.501	44314.15
696.847	44325.9
697.193	43925.46
697.539	44227.14
697.885	43848.17
698.231	43634.39
698.577	43882.97
698.923	43705.35
699.269	43418.8
699.614	43263.33
699.96	43257.22
700.306	43104.23
700.651	43088.19
700.997	42976.1
701.342	42754.86
701.688	42730.68
702.033	42683.23
702.379	42563.91
702.724	42530.46
703.069	42548.77
703.415	42091.83
703.76	42137.48
704.105	42203.69
704.45	41935.23
704.795	41681.45
705.14	41778.17
705.485	41689.36
705.83	41486.42
706.175	41574.78
706.52	41252.31
706.865	41145.19
707.209	41252.31
707.554	41062.25
707.899	41098.18
708.243	40787.46
708.588	40854.58
708.932	40562.61
709.277	40550.85
709.621	40614.13
709.966	40235.16
710.31	40386.34
710.654	39925.11
710.998	40070.64
711.342	40084.65
711.687	39932.79
712.031	39751.55
712.375	39626.13
712.719	39712.23
713.063	39574.61
713.407	39634.95
713.75	39376.2
714.094	39321.06
714.438	39120.84
714.782	39249.42
715.125	39015.75
715.469	39118.58
715.812	39013.95
716.156	38805.59
716.499	38710
716.843	38934.4
717.186	38469.55
717.53	38751.81
717.873	38681.53
718.216	38630.68
718.559	38359.73
718.902	38148.43
719.246	38229.11
719.589	38174.42
719.932	37895.78
720.275	38031.6
720.617	37856.91
720.96	37927.42
721.303	37844.71
721.646	37939.85
721.989	37512.06
722.331	37710.93
722.674	37625.51
723.016	37577.37
723.359	37351.39
723.701	37476.59
724.044	37128.12
724.386	37075.69
724.729	37059.65
725.071	37020.33
725.413	36924.51
725.755	36880.67
726.097	36733.78
726.439	36560.68
726.782	36725.19
727.124	36785.08
727.465	36593.9
727.807	36525.2
728.149	36426.44
728.491	36335.37
728.833	36371.3
729.175	36239.78
729.516	36214.7
729.858	36169.95
730.199	36239.33
730.541	36094.25
730.882	35998.43
731.224	35994.36
731.565	35827.82
731.906	35859.9
732.248	35771.55
732.589	35747.59
732.93	35687.03
733.271	35661.49
733.612	35652
733.953	35716.18
734.294	35444.1
734.635	35354.83
734.976	35496.75
735.317	35301.95
735.658	35252.69
735.999	35247.49
736.339	34976.54
736.68	35153.03
737.021	34901.74
737.361	34797.56
737.702	34998.01
738.042	34841.85
738.383	34806.6
738.723	34888.18
739.063	34542.2
739.404	34819.25
739.744	34728.63
740.084	34558.92
740.424	34533.61
740.764	34481.18
741.104	34495.19
741.444	34332.94
741.784	34154.64
742.124	34313.5
742.464	34162.1
742.804	34173.4
743.143	34128.88
743.483	34101.98
743.823	33901.99
744.162	33977.69
744.502	33874.42
744.841	33758.72
745.181	33899.28
745.52	33730.02
745.86	33811.6
746.199	33444.15
746.538	33510.14
746.877	33534.99
747.216	33299.52
747.556	33285.96
747.895	33407.99
748.234	33192.18
748.573	33167.09
748.911	33146.3
749.25	33177.72
749.589	33002.13
749.928	32969.13
750.267	32970.71
750.605	32803.04
750.944	32677.16
751.283	32595.13
751.621	32597.39
751.96	32449.6
752.298	32404.18
752.636	32412.99
752.975	32187.01
753.313	32096.84
