Data from breadboard_white_FLMS001491_00081.txt Node
Date: Wed Feb 08 10:48:23 GMT 2017
User: dcchb
Spectrometer: FLMS00149
Trigger mode: 0
Integration Time (sec): 2.000000E-2
Scans to average: 10
Electric dark correction enabled: true
Nonlinearity correction enabled: false
Boxcar width: 0
XAxis mode: Wavelengths
Number of Pixels in Spectrum: 2048
>>>>>Begin Spectral Data<<<<<
341.393	-22.71
341.776	-22.71
342.16	-22.71
342.543	-68.36
342.927	-51.64
343.31	-51.64
343.693	-62.48
344.077	-64.29
344.46	-55.25
344.843	-67.23
345.226	-43.28
345.61	-45.54
345.993	-27.68
346.376	-1.69
346.759	10.73
347.142	31.75
347.525	53.9
347.908	50.96
348.291	70.39
348.674	88.92
349.057	112.43
349.44	101.81
349.823	137.74
350.206	153.78
350.588	200.79
350.971	237.62
351.354	237.17
351.737	259.77
352.119	271.52
352.502	277.85
352.884	295.92
353.267	307.9
353.65	304.29
354.032	320.1
354.414	319.65
354.797	335.7
355.179	342.7
355.562	337.28
355.944	353.32
356.326	340.67
356.709	376.15
357.091	362.59
357.473	367.33
357.855	391.06
358.238	361.91
358.62	352.65
359.002	349.26
359.384	371.4
359.766	371.63
360.148	361.23
360.53	362.82
360.912	398.07
361.294	358.3
361.676	344.06
362.057	372.08
362.439	361.69
362.821	370.95
363.203	353.1
363.584	351.97
363.966	336.15
364.348	337.96
364.729	360.78
365.111	359.2
365.493	342.25
365.874	347.9
366.256	346.54
366.637	352.19
367.019	352.65
367.4	339.54
367.781	342.02
368.163	370.5
368.544	358.52
368.925	353.78
369.306	364.85
369.688	345.41
370.069	365.75
370.45	356.71
370.831	366.66
371.212	362.14
371.593	366.43
371.974	344.51
372.355	365.08
372.736	347.22
373.117	349.48
373.498	354.23
373.879	362.59
374.26	384.28
374.641	377.28
375.021	371.4
375.402	361.69
375.783	359.88
376.163	382.48
376.544	372.98
376.925	375.92
377.305	379.54
377.686	362.14
378.066	395.81
378.447	396.03
378.827	386.77
379.208	397.16
379.588	389.93
379.968	388.35
380.349	407.56
380.729	386.54
381.109	417.28
381.489	410.72
381.87	419.76
382.25	402.14
382.63	410.72
383.01	404.4
383.39	423.15
383.77	415.7
384.15	429.93
384.53	419.99
384.91	441.01
385.29	426.32
385.67	440.78
386.049	460.44
386.429	477.61
386.809	455.69
387.189	461.12
387.568	454.56
387.948	470.61
388.328	466.54
388.707	463.15
389.087	473.77
389.466	472.19
389.846	472.64
390.225	482.81
390.605	485.07
390.984	507.9
391.363	508.35
391.743	508.12
392.122	506.09
392.501	504.05
392.881	527.33
393.26	516.03
393.639	544.51
394.018	537.73
394.397	544.51
394.776	540.21
395.155	576.14
395.534	567.33
395.913	569.36
396.292	573.88
396.671	578.85
397.05	613.66
397.429	610.94
397.808	611.62
398.186	613.66
398.565	614.56
398.944	623.83
399.323	629.47
399.701	650.49
400.08	634.45
400.458	650.72
400.837	670.83
401.215	682.13
401.594	677.84
401.972	697.95
402.351	683.71
402.729	694.11
403.107	709.7
403.486	752.41
403.864	753.54
404.242	746.76
404.62	771.84
404.999	773.88
405.377	792.63
405.755	811.62
406.133	822.69
406.511	826.08
406.889	864.95
407.267	848.23
407.645	883.03
408.023	896.36
408.401	923.03
408.779	940.88
409.156	942.24
409.534	976.81
409.912	1004.15
410.29	973.87
410.667	1016.13
411.045	1038.5
411.422	1055.23
411.8	1036.24
412.178	1092.06
412.555	1117.15
412.933	1116.24
413.31	1136.58
413.687	1165.28
414.065	1175.45
414.442	1206.18
414.819	1213.41
415.197	1222
415.574	1255.67
415.951	1274.43
416.328	1293.19
416.705	1332.51
417.082	1332.28
417.46	1343.35
417.837	1353.07
418.214	1384.71
418.591	1382.9
418.967	1376.12
419.344	1419.51
419.721	1450.24
420.098	1447.76
420.475	1484.82
420.852	1500.41
421.228	1500.86
421.605	1514.2
421.982	1529.56
422.358	1568.66
422.735	1610.24
423.111	1621.77
423.488	1628.77
423.864	1652.95
424.241	1652.27
424.617	1690.01
424.994	1698.83
425.37	1738.15
425.746	1725.94
426.123	1732.5
426.499	1769.78
426.875	1800.29
427.251	1821.76
427.627	1853.85
428.003	1874.64
428.379	1915.09
428.756	1917.35
429.132	1934.75
429.507	1972.49
429.883	2017.46
430.259	2040.74
430.635	2061.3
431.011	2063.79
431.387	2126.38
431.763	2152.15
432.138	2198.93
432.514	2206.16
432.89	2244.12
433.265	2282.54
433.641	2304.91
434.016	2298.36
434.392	2388.75
434.767	2436.43
435.143	2442.99
435.518	2447.51
435.894	2460.39
436.269	2534.74
436.644	2585.36
437.02	2565.47
437.395	2589.2
437.77	2628.52
438.145	2682.08
438.52	2672.59
438.895	2727.72
439.271	2739.48
439.646	2757.55
440.021	2812.92
440.395	2805.24
440.77	2827.16
441.145	2852.92
441.52	2896.08
441.895	2919.36
442.27	2939.47
442.645	2960.71
443.019	2977.89
443.394	2988.73
443.769	3023.08
444.143	3015.85
444.518	3070.54
444.892	3050.2
445.267	3103.76
445.641	3180.14
446.016	3123.19
446.39	3171.78
446.764	3195.06
447.139	3189.63
447.513	3273.02
447.887	3271.21
448.262	3295.85
448.636	3339.23
449.01	3342.17
449.384	3391.21
449.758	3429.85
450.132	3477.76
450.506	3476.18
450.88	3478.21
451.254	3527.7
451.628	3555.95
452.002	3597.08
452.376	3601.6
452.75	3695.16
453.123	3688.38
453.497	3757.3
453.871	3774.93
454.244	3826.45
454.618	3858.09
454.992	3959.1
455.365	3963.17
455.739	4067.58
456.112	4119.33
456.486	4163.39
456.859	4137.86
457.232	4245.65
457.606	4236.16
457.979	4308.25
458.352	4374.91
458.725	4497.85
459.099	4511.41
459.472	4586.21
459.845	4627.79
460.218	4639.31
460.591	4701.01
460.964	4696.26
461.337	4828.69
461.71	4963.15
462.083	5008.79
462.456	5005.18
462.829	5019.42
463.201	5128.57
463.574	5126.76
463.947	5223.48
464.32	5332.85
464.692	5366.07
465.065	5408.78
465.438	5525.84
465.81	5576.24
466.183	5611.49
466.555	5738.49
466.928	5782.79
467.3	5784.37
467.672	5896.91
468.045	6084.92
468.417	6067.52
468.789	6185.49
469.161	6220.06
469.534	6281.3
469.906	6434.52
470.278	6517.46
470.65	6596.55
471.022	6667.51
471.394	6813.72
471.766	6851.23
472.138	6949.08
472.51	7185.23
472.882	7227.04
473.253	7310.43
473.625	7413.93
473.997	7546.81
474.369	7585.9
474.74	7734.6
475.112	7859.57
475.484	7967.36
475.855	8094.36
476.227	8213.68
476.598	8439.67
476.97	8520.57
477.341	8697.06
477.713	8812.31
478.084	8895.92
478.455	9214.56
478.827	9231.51
479.198	9484.16
479.569	9524.38
479.94	9754.43
480.311	9899.29
480.682	10162.33
481.053	10321.2
481.424	10511.02
481.795	10573.62
482.166	10779.49
482.537	10892.48
482.908	11196.2
483.279	11234.85
483.65	11484.33
484.021	11710.31
484.391	11924.77
484.762	11879.35
485.133	12110.76
485.503	12203.18
485.874	12477.98
486.244	12603.17
486.615	12861.92
486.985	13021.69
487.356	13249.93
487.726	13332.19
488.097	13672.75
488.467	13649.92
488.837	14025.05
489.207	14010.82
489.578	14303.92
489.948	14466.85
490.318	14674.76
490.688	14743.91
491.058	14997.68
491.428	15256.21
491.798	15335.75
492.168	15685.12
492.538	15777.33
492.908	15908.62
493.278	16136.41
493.648	16071.78
494.017	16382.06
494.387	16576.4
494.757	16734.14
495.126	16799.45
495.496	17038.54
495.866	17038.76
496.235	17239.89
496.605	17432.2
496.974	17547
497.344	17801.9
497.713	17854.33
498.082	17977.95
498.452	18196.92
498.821	18308.33
499.19	18398.73
499.559	18549.68
499.928	18712.84
500.298	18737.93
500.667	18843.69
501.036	19072.61
501.405	19221.3
501.774	19258.82
502.143	19412.94
502.512	19498.81
502.88	19677.34
503.249	19670.56
503.618	20047.5
503.987	20011.11
504.356	20138.79
504.724	20294.49
505.093	20349.86
505.462	20536.97
505.83	20702.17
506.199	20990.3
506.567	21083.63
506.936	21167.92
507.304	21421.24
507.672	21458.08
508.041	21635.48
508.409	21776.26
508.777	22002.7
509.145	22071.17
509.514	22131.06
509.882	22203.37
510.25	22378.96
510.618	22593.19
510.986	22772.17
511.354	22970.13
511.722	23146.85
512.09	23399.72
512.458	23339.39
512.826	23588.19
513.193	23754.06
513.561	23898.02
513.929	24050.78
514.297	24264.56
514.664	24418
515.032	24548.17
515.4	24850.53
515.767	24870.87
516.135	25081.04
516.502	25088.72
516.869	25460.46
517.237	25525.09
517.604	25608.25
517.972	25912.88
518.339	26175.02
518.706	26102.48
519.073	26341.12
519.44	26454.33
519.808	26770.26
520.175	26810.71
520.542	27212.73
520.909	27352.16
521.276	27547.19
521.643	27715.77
522.009	27851.58
522.376	28120.5
522.743	28295.41
523.11	28539.93
523.477	28845
523.843	29006.58
524.21	29285.9
524.577	29519.11
524.943	29635.49
525.31	29772.89
525.676	30201.8
526.043	30415.36
526.409	30613.32
526.776	30843.6
527.142	31068.22
527.508	31123.59
527.874	31454.65
528.241	31529.45
528.607	31661.88
528.973	32073.85
529.339	32066.61
529.705	32354.29
530.071	32582.99
530.437	32759.03
530.803	32877.89
531.169	33147.94
531.535	33140.26
531.901	33290.99
532.267	33506.12
532.632	33706.35
532.998	33786.8
533.364	34093.23
533.73	34200.8
534.095	34426.33
534.461	34500.45
534.826	34748.35
535.192	34942.92
535.557	35199.87
535.923	35135.69
536.288	35252.52
536.653	35350.82
537.019	35510.37
537.384	35643.02
537.749	35826.29
538.114	35883.01
538.479	35934.31
538.845	36204.36
539.21	36190.57
539.575	36410.91
539.94	36487.97
540.305	36772.93
540.67	36700.62
541.034	36796.66
541.399	37031.23
541.764	37157.78
542.129	37296.53
542.494	37409.52
542.858	37603.64
543.223	37671.66
543.587	37991.43
543.952	37921.6
544.316	38068.49
544.681	38013.35
545.045	38218.54
545.41	38628.93
545.774	38562.94
546.138	38615.59
546.503	38714.58
546.867	38772.88
547.231	39256.93
547.595	39062.14
547.959	39270.04
548.324	39325.18
548.688	39497.15
549.052	39597.94
549.416	39829.12
549.779	39816.92
550.143	39942.34
550.507	40199.51
550.871	40291.93
551.235	40130.81
551.599	40658.48
551.962	40692.38
552.326	40690.79
552.689	41064.8
553.053	40939.38
553.417	41069.54
553.78	41485.8
554.143	41491.45
554.507	41794.27
554.87	41957.43
555.234	42245.56
555.597	42074.26
555.96	42310.19
556.323	42487.36
556.686	42491.65
557.05	42786.33
557.413	42854.81
557.776	43148.81
558.139	43299.54
558.502	43401.46
558.865	43453.21
559.228	43820.66
559.59	43951.05
559.953	44079.63
560.316	44398.72
560.679	44439.4
561.041	44742.89
561.404	44773.85
561.767	45179.49
562.129	44925.03
562.492	45367.51
562.854	45445.7
563.217	45608.41
563.579	45672.58
563.941	46049.98
564.304	46094.49
564.666	46384.88
565.028	46399.34
565.39	46669.39
565.753	46840.69
566.115	46957.52
566.477	47173.11
566.839	47239.55
567.201	47598.18
567.563	47436.38
567.925	47773.09
568.287	47784.85
568.648	47776.94
569.01	48157.04
569.372	48462.79
569.734	48296.24
570.095	48672.05
570.457	48619.4
570.819	48724.48
571.18	48768.77
571.542	49026.85
571.903	48992.95
572.265	49126.05
572.626	49361.75
572.987	49392.03
573.349	49592.26
573.71	49578.47
574.071	49654.17
574.432	49798.58
574.794	50065.24
575.155	50020.04
575.516	50006.93
575.877	50132.13
576.238	50206.93
576.599	50375.74
576.96	50317.43
577.32	50417.54
577.681	50513.36
578.042	50587.26
578.403	50679.91
578.763	50605.34
579.124	50674.71
579.485	50810.53
579.845	50996.96
580.206	50839.45
580.566	50890.75
580.927	50874.48
581.287	51084.87
581.648	50950.64
582.008	51032.22
582.368	51017.98
582.728	51114.48
583.089	51050.97
583.449	51055.72
583.809	51167.36
584.169	51150.41
584.529	51161.03
584.889	51288.03
585.249	51150.18
585.609	51064.98
585.969	51222.04
586.329	51137.75
586.688	51257.52
587.048	51220.91
587.408	51164.64
587.768	51088.49
588.127	51116.06
588.487	51191.08
588.846	51358.08
589.206	51144.3
589.565	51043.29
589.925	51330.06
590.284	51174.13
590.643	51356.05
591.003	51331.64
591.362	51450.51
591.721	51376.16
592.08	51336.39
592.44	51479.21
592.799	51475.6
593.158	51441.47
593.517	51467.69
593.876	51451.64
594.235	51388.59
594.593	51416.39
594.952	51589.26
595.311	51412.09
595.67	51406.44
596.029	51702.03
596.387	51650.28
596.746	51745.19
597.104	51556.27
597.463	51682.6
597.822	51640.56
598.18	51705.65
598.538	51617.96
598.897	51806.66
599.255	51498.42
599.613	52010.04
599.972	51784.51
600.33	51819.32
600.688	51723.72
601.046	51804.85
601.404	51928.69
601.762	51870.16
602.12	51963.72
602.478	52113.54
602.836	52042.13
603.194	51971.4
603.552	52028.8
603.91	51941.8
604.268	52079.42
604.625	52024.96
604.983	52175.46
605.341	52089.14
605.698	52202.58
606.056	52255.91
606.413	52284.61
606.771	52302.47
607.128	52308.34
607.485	52254.56
607.843	52224.05
608.2	52447.32
608.557	52505.4
608.914	52370.04
609.272	52412.52
609.629	52657.03
609.986	52659.52
610.343	52542.69
610.7	52749.91
611.057	52736.13
611.414	52727.77
611.771	52768.67
612.127	52844.15
612.484	52821.32
612.841	52901.55
613.198	52784.71
613.554	52881.66
613.911	53010.02
614.267	52958.27
614.624	52996.91
614.98	53044.37
615.337	53120.07
615.693	53045.5
616.05	53075.78
616.406	53155.1
616.762	53113.52
617.118	53136.12
617.475	53116.91
617.831	53292.27
618.187	53277.58
618.543	53251.14
618.899	53454.07
619.255	53385.38
619.611	53406.17
619.967	53459.27
620.323	53502.66
620.678	53380.18
621.034	53436.45
621.39	53362.78
621.746	53316.9
622.101	53667.63
622.457	53382.44
622.812	53479.16
623.168	53626.05
623.523	53527.75
623.879	53611.81
624.234	53464.92
624.589	53495.66
624.945	53509.67
625.3	53517.8
625.655	53516.45
626.01	53462.89
626.365	53579.04
626.72	53424.92
627.075	53492.49
627.43	53493.62
627.785	53336.56
628.14	53489.33
628.495	53592.83
628.85	53435.54
629.205	53354.64
629.559	53496.33
629.914	53297.69
630.269	53371.82
630.623	53244.59
630.978	53237.36
631.332	53387.18
631.687	53384.47
632.041	53284.14
632.396	53272.61
632.75	53178.6
633.104	53180.86
633.459	53099.96
633.813	53104.25
634.167	53111.94
634.521	53064.03
634.875	53021.54
635.229	52987.87
635.583	52891.83
635.937	52975.67
636.291	52820.42
636.645	52837.37
636.999	52805.28
637.352	52786.07
637.706	52693.64
638.06	52760.53
638.413	52702.68
638.767	52542.01
639.121	52559.86
639.474	52425.85
639.828	52505.85
640.181	52504.5
640.534	52490.94
640.888	52424.05
641.241	52302.24
641.594	52263.6
641.947	52416.36
642.301	52365.29
642.654	52290.04
643.007	52189.48
643.36	52151.74
643.713	52078.74
644.066	52272.18
644.419	52052.08
644.771	51920.33
645.124	51517.18
645.477	51561.92
645.83	51194.02
646.182	51063.63
646.535	50948.83
646.888	51015.04
647.24	51002.61
647.593	51099.56
647.945	50942.05
648.298	50766.46
648.65	50785.9
649.002	50611.21
649.355	50709.97
649.707	50753.35
650.059	50833.13
650.411	51238.54
650.763	51152.89
651.115	51567.12
651.467	51407.57
651.819	51407.35
652.171	51248.93
652.523	51186.11
652.875	51272.44
653.227	51157.64
653.578	51219.78
653.93	51201.48
654.282	51010.75
654.633	50881.71
654.985	50982.95
655.337	50967.81
655.688	50984.08
656.039	51070.86
656.391	50807.59
656.742	50898.44
657.094	50808.04
657.445	51020.47
657.796	50911.54
658.147	50792.45
658.498	50817.53
658.849	50876.74
659.2	50791.77
659.551	50692.34
659.902	50980.69
660.253	50665.67
660.604	50824.99
660.955	50612.34
661.306	50750.42
661.656	50739.8
662.007	50666.58
662.358	50658.89
662.708	50634.26
663.059	50513.81
663.409	50298
663.76	50533.02
664.11	50511.78
664.461	50636.52
664.811	50518.11
665.161	50553.13
665.511	50400.82
665.862	50470.2
666.212	50543.19
666.562	50536.41
666.912	50421.39
667.262	50425.23
667.612	50435.17
667.962	50427.49
668.312	50275.85
668.662	50533.25
669.011	50341.39
669.361	50349.07
669.711	50307.26
670.06	50224.33
670.41	50265.91
670.76	50116.99
671.109	50357.66
671.459	50343.42
671.808	50128.96
672.157	50137.78
672.507	49989.99
672.856	49927.39
673.205	50010.55
673.554	50134.61
673.904	49982.3
674.253	50127.83
674.602	50097.1
674.951	49459.38
675.3	49346.84
675.649	49934.62
675.998	49786.37
676.346	49831.35
676.695	49967.61
677.044	49577.34
677.393	49742.76
677.741	49771.23
678.09	49664.12
678.438	49645.14
678.787	49621.63
679.135	49718.58
679.484	49278.37
679.832	49591.13
680.181	49323.79
680.529	49439.04
680.877	49361.53
681.225	49270.46
681.573	49520.17
681.922	49261.19
682.27	49133.06
682.618	49074.3
682.966	49013.29
683.314	49098.48
683.661	48979.62
684.009	48780.98
684.357	48726.29
684.705	48707.98
685.053	48610.59
685.4	48644.26
685.748	48376.47
686.095	48461.44
686.443	48256.25
686.79	48183.25
687.138	48338.28
687.485	48258.28
687.832	48156.13
688.18	48074.33
688.527	47973.77
688.874	47997.27
689.221	47764.28
689.568	47659.2
689.915	47578.3
690.262	47608.35
690.609	47456.04
690.956	47277.97
691.303	47371.07
691.65	47157.52
691.997	47214.69
692.344	46920.69
692.69	46792.78
693.037	46791.2
693.383	46487.48
693.73	46791.88
694.077	46385.33
694.423	46338.33
694.769	46420.14
695.116	46111.44
695.462	46135.17
695.808	46081.84
696.155	45922.97
696.501	45826.25
696.847	45732.02
697.193	45468.97
697.539	45577.45
697.885	45214.97
698.231	45157.8
698.577	45147.4
698.923	45142.65
699.269	44878.48
699.614	44818.6
699.96	44633.06
700.306	44663.12
700.651	44522.11
700.997	44208.22
701.342	44383.8
701.688	44250.93
702.033	44053.42
702.379	44035.57
702.724	43998.28
703.069	44156.69
703.415	43499.08
703.76	43511.96
704.105	43526.65
704.45	43402.59
704.795	43357.17
705.14	43196.27
705.485	43072.2
705.83	42952.2
706.175	42974.8
706.52	42802.38
706.865	42783.85
707.209	42606.45
707.554	42442.39
707.899	42490.75
708.243	42429.05
708.588	42354.48
708.932	41987.94
709.277	41984.32
709.621	42126.01
709.966	41812.8
710.31	41825.68
710.654	41458.91
710.998	41457.33
711.342	41583.43
711.687	41338.91
712.031	41199.93
712.375	41125.81
712.719	41128.3
713.063	41133.72
713.407	41215.98
713.75	40863.45
714.094	40769.89
714.438	40728.08
714.782	40814.18
715.125	40588.88
715.469	40671.59
715.812	40291.48
716.156	40154.09
716.499	40231.82
716.843	40236.57
717.186	39994.54
717.53	40181.66
717.873	40017.37
718.216	39904.83
718.559	39895.56
718.902	39716.36
719.246	39757.71
719.589	39489.7
719.932	39472.07
720.275	39492.18
720.617	39369.02
720.96	39221.23
721.303	39249.48
721.646	39393.2
721.989	39052.19
722.331	39100.78
722.674	38995.7
723.016	38847.68
723.359	38772.88
723.701	38763.61
724.044	38602.71
724.386	38452.89
724.729	38620.34
725.071	38512.77
725.413	38438.65
725.755	38393.68
726.097	38180.58
726.439	38021.03
726.782	38009.51
727.124	38098.32
727.465	37943.52
727.807	37915.95
728.149	37852.9
728.491	37887.7
728.833	37821.27
729.175	37789.4
729.516	37592.12
729.858	37510.77
730.199	37656.98
730.541	37374.5
730.882	37419.24
731.224	37520.93
731.565	37261.73
731.906	37246.37
732.248	37187.16
732.589	37060.61
732.93	36941.97
733.271	37100.15
733.612	37012.25
733.953	36962.53
734.294	36851.35
734.635	36771.8
734.976	36844.79
735.317	36646.61
735.658	36596.44
735.999	36538.36
736.339	36355.32
736.68	36590.79
737.021	36374.52
737.361	36222.21
737.702	36368.65
738.042	36169.11
738.383	36078.26
738.723	36229.89
739.063	36062.44
739.404	35989.68
739.744	35917.36
740.084	35800.53
740.424	35822.45
740.764	35709.91
741.104	35923.01
741.444	35736.12
741.784	35596.47
742.124	35501.78
742.464	35553.53
742.804	35402.35
743.143	35440.31
743.483	35362.12
743.823	35134.1
744.162	35131.39
744.502	35192.86
744.841	34897.27
745.181	35136.82
745.52	34948.8
745.86	34988.12
746.199	34855.47
746.538	34747
746.877	34780.44
747.216	34693.44
747.556	34636.04
747.895	34690.5
748.234	34494.35
748.573	34424.29
748.911	34470.39
749.25	34282.38
749.589	34074.02
749.928	34136.39
750.267	34236.95
750.605	34129.16
750.944	34006.45
751.283	33805.33
751.621	33837.87
751.96	33679.23
752.298	33785.67
752.636	33744.08
