Data from breadboard_white_FLMS001491_00066.txt Node
Date: Wed Feb 08 10:48:06 GMT 2017
User: dcchb
Spectrometer: FLMS00149
Trigger mode: 0
Integration Time (sec): 2.000000E-2
Scans to average: 10
Electric dark correction enabled: true
Nonlinearity correction enabled: false
Boxcar width: 0
XAxis mode: Wavelengths
Number of Pixels in Spectrum: 2048
>>>>>Begin Spectral Data<<<<<
341.393	-8.02
341.776	-8.02
342.16	-8.02
342.543	-43.73
342.927	-57.06
343.31	-68.36
343.693	-63.16
344.077	-48.25
344.46	-57.51
344.843	-60.45
345.226	-69.04
345.61	-38.3
345.993	-9.6
346.376	-24.52
346.759	39.66
347.142	37.63
347.525	43.73
347.908	38.3
348.291	74.01
348.674	94.35
349.057	111.52
349.44	147.45
349.823	154.01
350.206	179.77
350.588	204.85
350.971	235.59
351.354	224.06
351.737	229.03
352.119	244.17
352.502	262.03
352.884	295.25
353.267	300.67
353.65	321.01
354.032	317.62
354.414	317.17
354.797	325.3
355.179	349.71
355.562	341.57
355.944	336.83
356.326	357.62
356.709	342.48
357.091	368.92
357.473	353.55
357.855	349.71
358.238	359.88
358.62	350.39
359.002	356.71
359.384	345.64
359.766	369.82
360.148	356.94
360.53	368.01
360.912	348.58
361.294	348.35
361.676	358.07
362.057	341.57
362.439	340.22
362.821	326.66
363.203	338.41
363.584	339.54
363.966	360.78
364.348	353.32
364.729	365.53
365.111	352.19
365.493	353.1
365.874	341.35
366.256	336.38
366.637	350.84
367.019	334.57
367.4	342.48
367.781	343.38
368.163	357.17
368.544	362.36
368.925	335.7
369.306	349.93
369.688	350.84
370.069	375.24
370.45	348.35
370.831	350.84
371.212	376.83
371.593	343.61
371.974	347.45
372.355	352.87
372.736	355.81
373.117	363.27
373.498	358.52
373.879	351.97
374.26	360.56
374.641	355.81
375.021	342.7
375.402	355.36
375.783	364.62
376.163	381.8
376.544	389.26
376.925	363.95
377.305	374.34
377.686	362.59
378.066	391.74
378.447	384.51
378.827	363.27
379.208	401.01
379.588	394.9
379.968	372.31
380.349	392.65
380.729	367.11
381.109	416.83
381.489	413.21
381.87	394
382.25	389.03
382.63	390.61
383.01	400.55
383.39	395.81
383.77	417.96
384.15	425.64
384.53	417.96
384.91	416.37
385.29	405.75
385.67	412.53
386.049	430.38
386.429	426.99
386.809	433.32
387.189	443.27
387.568	422.93
387.948	447.11
388.328	444.85
388.707	450.04
389.087	461.8
389.466	469.03
389.846	464.96
390.225	468.58
390.605	456.82
390.984	481
391.363	484.39
391.743	483.26
392.122	490.72
392.501	518.29
392.881	494.56
393.26	520.1
393.639	491.4
394.018	514
394.397	517.61
394.776	521.68
395.155	528.01
395.534	549.48
395.913	526.65
396.292	581.57
396.671	527.78
397.05	567.78
397.429	586.99
397.808	587.44
398.186	609.81
398.565	575.47
398.944	611.17
399.323	586.99
399.701	613.88
400.08	622.24
400.458	620.89
400.837	613.88
401.215	626.09
401.594	634.22
401.972	647.55
402.351	665.86
402.729	694.11
403.107	694.78
403.486	664.95
403.864	712.64
404.242	713.77
404.62	719.42
404.999	744.5
405.377	761.22
405.755	765.29
406.133	778.4
406.511	781.11
406.889	824.27
407.267	822.01
407.645	831.05
408.023	844.38
408.401	845.06
408.779	869.24
409.156	852.97
409.534	902.91
409.912	909.24
410.29	951.27
410.667	948.34
411.045	957.6
411.422	963.93
411.8	993.08
412.178	1046.87
412.555	1034.66
412.933	1068.79
413.31	1052.51
413.687	1102.91
414.065	1140.2
414.442	1111.5
414.819	1133.64
415.197	1187.65
415.574	1191.27
415.951	1198.5
416.328	1207.09
416.705	1230.82
417.082	1244.15
417.46	1274.2
417.837	1257.03
418.214	1275.79
418.591	1282.57
418.967	1319.63
419.344	1341.09
419.721	1350.59
420.098	1377.7
420.475	1369.79
420.852	1400.08
421.228	1416.35
421.605	1435.33
421.982	1443.69
422.358	1442.33
422.735	1480.07
423.111	1464.93
423.488	1525.04
423.864	1512.62
424.241	1560.98
424.617	1584.25
424.994	1590.35
425.37	1642.56
425.746	1608.43
426.123	1648.43
426.499	1667.41
426.875	1695.21
427.251	1719.16
427.627	1744.02
428.003	1778.37
428.379	1781.99
428.756	1836.67
429.132	1813.62
429.507	1867.86
429.883	1859.95
430.259	1892.27
430.635	1946.05
431.011	1952.6
431.387	1986.5
431.763	2021.75
432.138	2025.37
432.514	2066.27
432.89	2071.02
433.265	2143.79
433.641	2147.18
434.016	2142.66
434.392	2215.87
434.767	2260.39
435.143	2233.73
435.518	2298.13
435.894	2277.34
436.269	2347.62
436.644	2348.53
437.02	2389.2
437.395	2372.93
437.77	2471.46
438.145	2465.81
438.52	2485.47
438.895	2519.82
439.271	2546.49
439.646	2614.06
440.021	2599.14
440.395	2636.88
440.77	2622.19
441.145	2625.58
441.52	2685.24
441.895	2723.21
442.27	2711.68
442.645	2756.88
443.019	2764.11
443.394	2815.18
443.769	2783.32
444.143	2797.55
444.518	2833.03
444.892	2867.16
445.267	2852.24
445.641	2918.91
446.016	2927.95
446.39	2952.13
446.764	2967.72
447.139	2998.9
447.513	2990.54
447.887	3014.5
448.262	3018.11
448.636	3051.33
449.01	3124.1
449.384	3136.08
449.758	3139.47
450.132	3230.99
450.506	3181.72
450.88	3234.6
451.254	3254.94
451.628	3289.07
452.002	3362.96
452.376	3361.38
452.75	3397.76
453.123	3446.58
453.497	3478.89
453.871	3507.37
454.244	3602.96
454.618	3570.64
454.992	3650.19
455.365	3647.93
455.739	3769.96
456.112	3778.77
456.486	3814.93
456.859	3806.79
457.232	3916.17
457.606	3918.65
457.979	3980.12
458.352	4085.66
458.725	4120.68
459.099	4127.69
459.472	4171.75
459.845	4271.41
460.218	4315.93
460.591	4316.61
460.964	4344.63
461.337	4511.63
461.71	4527.45
462.083	4576.04
462.456	4564.06
462.829	4634.57
463.201	4710.95
463.574	4747.33
463.947	4770.16
464.32	4893.77
464.692	4939.42
465.065	4943.49
465.438	5079.75
465.81	5115.68
466.183	5152.75
466.555	5278.62
466.928	5319.75
467.3	5335.79
467.672	5407.2
468.045	5570.81
468.417	5520.65
468.789	5600.19
469.161	5648.33
469.534	5787.08
469.906	5884.48
470.278	5934.87
470.65	6003.12
471.022	6133.29
471.394	6302.55
471.766	6314.3
472.138	6352.94
472.51	6472.03
472.882	6583.44
473.253	6686.26
473.625	6784.34
473.997	6929.65
474.369	6945.92
474.74	7025.01
475.112	7147.72
475.484	7274.5
475.855	7400.82
476.227	7568.05
476.598	7763.07
476.97	7741.83
477.341	7960.81
477.713	8073.35
478.084	8166.23
478.455	8417.52
478.827	8434.69
479.198	8652.31
479.569	8699.77
479.94	8968.69
480.311	9039.88
480.682	9241.9
481.053	9391.73
481.424	9531.84
481.795	9678.05
482.166	9829.91
482.537	9930.47
482.908	10070.13
483.279	10294.76
483.65	10415.21
484.021	10578.59
484.391	10747.4
484.762	10861.75
485.133	10939.26
485.503	11162.76
485.874	11342.41
486.244	11495.4
486.615	11790.76
486.985	11835.06
487.356	12068.27
487.726	12148.27
488.097	12417.19
488.467	12522.04
488.837	12724.07
489.207	12812.88
489.578	13070.73
489.948	13214.68
490.318	13333.32
490.688	13436.14
491.058	13712.07
491.428	13805.17
491.798	13952.51
492.168	14206.75
492.538	14211.49
492.908	14434.99
493.278	14660.07
493.648	14727.86
494.017	14852.38
494.387	15009.21
494.757	15198.58
495.126	15385.47
495.496	15392.02
495.866	15526.48
496.235	15682.86
496.605	15855.06
496.974	15959.47
497.344	16095.73
497.713	16189.07
498.082	16303.19
498.452	16508.83
498.821	16594.25
499.19	16623.63
499.559	16895.49
499.928	17020
500.298	16968.03
500.667	17279.21
501.036	17324.63
501.405	17435.13
501.774	17459.31
502.143	17599.42
502.512	17743.6
502.88	17891.39
503.249	17900.43
503.618	18111.28
503.987	18137.26
504.356	18416.8
504.724	18464.49
505.093	18514.43
505.462	18615.89
505.83	18789.22
506.199	18923.23
506.567	19212.72
506.936	19157.8
507.304	19392.15
507.672	19570.9
508.041	19662.42
508.409	19820.16
508.777	19882.53
509.145	20050.21
509.514	20012.92
509.882	20333.82
510.25	20407.71
510.618	20506.47
510.986	20570.42
511.354	20833.92
511.722	20953.46
512.09	21193.68
512.458	21231.42
512.826	21317.74
513.193	21616.49
513.561	21666.66
513.929	21906.66
514.297	21954.56
514.664	22246.53
515.032	22341.9
515.4	22555.68
515.767	22697.6
516.135	22767.65
516.502	22624.6
516.869	23120.64
517.237	23224.81
517.604	23152.27
517.972	23409.44
518.339	23632.03
518.706	23735.99
519.073	23881.74
519.44	24091.68
519.808	24391.79
520.175	24367.38
520.542	24730.08
520.909	24899.35
521.276	24825.9
521.643	25146.12
522.009	25243.74
522.376	25452.55
522.743	25741.36
523.11	25966.89
523.477	26243.49
523.843	26365.52
524.21	26613.65
524.577	26800.54
524.943	26883.02
525.31	27081.66
525.676	27433.74
526.043	27496.79
526.409	27759.84
526.776	27927.74
527.142	28066.72
527.508	28114.18
527.874	28426.03
528.241	28595.75
528.607	28654.05
528.973	28963.87
529.339	29040.93
529.705	29325.22
530.071	29543.74
530.437	29702.16
530.803	29772.44
531.169	30122.71
531.535	30091.98
531.901	30200.45
532.267	30313.89
532.632	30634.56
532.998	30691.28
533.364	30976.7
533.73	30954.78
534.095	31265.73
534.461	31303.02
534.826	31681.99
535.192	31706.85
535.557	31876.79
535.923	31922.21
536.288	31958.82
536.653	32157.23
537.019	32115.88
537.384	32370.79
537.749	32389.32
538.114	32567.84
538.479	32712.02
538.845	32764.68
539.21	32882.86
539.575	32996.08
539.94	33101.62
540.305	33289.63
540.67	33339.58
541.034	33429.29
541.399	33634.71
541.764	33641.49
542.129	33790.41
542.494	33921.48
542.858	34162.83
543.223	34084.19
543.587	34343.39
543.952	34267.01
544.316	34588.81
544.681	34540
545.045	34838.29
545.41	34932.3
545.774	34996.48
546.138	34932.53
546.503	35174.78
546.867	35092.3
547.231	35398.5
547.595	35539.29
547.959	35703.36
548.324	35781.32
548.688	36018.15
549.052	35969.34
549.416	36103.34
549.779	36068.77
550.143	36387.4
550.507	36476.67
550.871	36605.48
551.235	36538.36
551.599	36882.99
551.962	36989.2
552.326	37042.53
552.689	37417.89
553.053	37213.6
553.417	37374.5
553.78	37786.24
554.143	37579.46
554.507	37825.79
554.87	38095.83
555.234	38338.54
555.597	38133.57
555.96	38414.92
556.323	38543.73
556.686	38520.91
557.05	38866.66
557.413	39049.26
557.776	39205.86
558.139	39203.6
558.502	39341.9
558.865	39578.51
559.228	39755.45
559.59	39905.05
559.953	40051.04
560.316	40436.79
560.679	40432.27
561.041	40649.21
561.404	40804.24
561.767	41120.39
562.129	40972.37
562.492	41456.42
562.854	41347.27
563.217	41388.63
563.579	41691.22
563.941	41913.59
564.304	41976.86
564.666	42295.5
565.028	42184.99
565.39	42463.86
565.753	42687.58
566.115	42863.84
566.477	43137.28
566.839	43177.51
567.201	43399.2
567.563	43530.27
567.925	43775.01
568.287	43819.75
568.648	43861.33
569.01	43935
569.372	44414.31
569.734	44249.57
570.095	44432.39
570.457	44815.66
570.819	44711.71
571.18	44716.68
571.542	45043.22
571.903	45148.76
572.265	45189.66
572.626	45457
572.987	45486.15
573.349	45642.53
573.71	45680.04
574.071	45794.16
574.432	45942.86
574.794	46207.71
575.155	46146.02
575.516	46175.4
575.877	46258.33
576.238	46270.31
576.599	46444.77
576.96	46438.21
577.32	46520.7
577.681	46684.08
578.042	46814.93
578.403	46901.48
578.763	46753.91
579.124	46848.15
579.485	47073.9
579.845	47189.83
580.206	47030.51
580.566	47069.38
580.927	47167.91
581.287	47368.36
581.648	47171.08
582.008	47311.19
582.368	47233.9
582.728	47332.43
583.089	47339.66
583.449	47209.04
583.809	47326.78
584.169	47485.87
584.529	47348.92
584.889	47678.41
585.249	47385.99
585.609	47322.48
585.969	47508.24
586.329	47352.77
586.688	47414.23
587.048	47470.28
587.408	47457.62
587.768	47352.31
588.127	47388.92
588.487	47475.47
588.846	47670.5
589.206	47372.2
589.565	47392.31
589.925	47661.23
590.284	47498.3
590.643	47506.66
591.003	47603.83
591.362	47689.25
591.721	47587.79
592.08	47650.16
592.44	47785.75
592.799	47676.6
593.158	47693.32
593.517	47668.24
593.876	47694.9
594.235	47735.58
594.593	47784.62
594.952	47655.81
595.311	47576.26
595.67	47758.86
596.029	47827.56
596.387	48017.16
596.746	47905.29
597.104	47781.91
597.463	47735.81
597.822	47956.59
598.18	47809.48
598.538	47929.25
598.897	48129.47
599.255	47717.05
599.613	48374.21
599.972	48032.52
600.33	48002.69
600.688	47904.62
601.046	48023.94
601.404	48326.98
601.762	48077.27
602.12	48370.14
602.478	48404.94
602.836	48400.87
603.194	48164.04
603.552	48267.32
603.91	48237.94
604.268	48389.12
604.625	48281.33
604.983	48552.06
605.341	48309.13
605.698	48469.12
606.056	48551.15
606.413	48434.09
606.771	48685.61
607.128	48637.25
607.485	48518.84
607.843	48638.61
608.2	48715.67
608.557	48905.49
608.914	48808.77
609.272	48892.16
609.629	48990.92
609.986	49008.09
610.343	48853.74
610.7	49225.94
611.057	49042.89
611.414	49070.69
611.771	49229.33
612.127	49220.51
612.484	49169.44
612.841	49339.38
613.198	49220.06
613.554	49310.68
613.911	49560.39
614.267	49539.38
614.624	49468.19
614.98	49416.89
615.337	49731.91
615.693	49566.72
616.05	49557
616.406	49777.11
616.762	49558.36
617.118	49499.15
617.475	49717.22
617.831	49739.37
618.187	49808.97
618.543	49811.68
618.899	49927.84
619.255	49937.33
619.611	49759.48
619.967	49977.1
620.323	50023.43
620.678	49917.67
621.034	49911.57
621.39	49941.62
621.746	49689.65
622.101	50118.8
622.457	49944.79
622.812	50037.44
623.168	50095.97
623.523	50049.42
623.879	50220.71
624.234	50001.06
624.589	50055.97
624.945	50078.34
625.3	50134.16
625.655	50002.19
626.01	50026.59
626.365	50098.68
626.72	49999.25
627.075	49993.83
627.43	49944.79
627.785	49761.52
628.14	49859.37
628.495	49938.23
628.85	49955.86
629.205	49834.73
629.559	50041.96
629.914	49752.25
630.269	49924.68
630.623	49613.5
630.978	49686.26
631.332	49832.25
631.687	49774.85
632.041	49656.21
632.396	49824.11
632.75	49547.74
633.104	49603.55
633.459	49489.43
633.813	49326.5
634.167	49507.29
634.521	49514.07
634.875	49591.35
635.229	49399.27
635.583	49145.94
635.937	49197.69
636.291	49246.05
636.645	49202.44
636.999	49067.07
637.352	49138.93
637.706	48802.22
638.06	49080.4
638.413	48882.9
638.767	48881.99
639.121	48932.84
639.474	48613.52
639.828	48743.92
640.181	48800.19
640.534	48699.62
640.888	48562.68
641.241	48459.18
641.594	48599.74
641.947	48555.67
642.301	48413.53
642.654	48549.34
643.007	48416.92
643.36	48310.03
643.713	48280.43
644.066	48406.07
644.419	48275.45
644.771	48035.01
645.124	47718.63
645.477	47575.59
645.83	47212.66
646.182	47104.64
646.535	46898.54
646.888	47077.07
647.24	46736.06
647.593	47026
647.945	46834.36
648.298	46766.11
648.65	46807.02
649.002	46542.39
649.355	46599.11
649.707	46596.63
650.059	46788.04
650.411	47099.67
650.763	47285.2
651.115	47665.3
651.467	47517.96
651.819	47591.18
652.171	47336.95
652.523	47397.28
652.875	47222.83
653.227	47100.57
653.578	47373.56
653.93	47227.12
654.282	47053.34
654.633	46895.15
654.985	47025.54
655.337	47058.31
655.688	46924.53
656.039	47170.62
656.391	46778.32
656.742	46784.87
657.094	46841.14
657.445	46792.78
657.796	46871.87
658.147	46776.06
658.498	46759.79
658.849	46786.68
659.2	46695.16
659.551	46581.04
659.902	46734.48
660.253	46628.04
660.604	46685.89
660.955	46463.52
661.306	46708.72
661.656	46547.36
662.007	46448.38
662.358	46508.49
662.708	46454.94
663.059	46452.68
663.409	46226.24
663.76	46599.11
664.11	46530.64
664.461	46373.58
664.811	46479.79
665.161	46390.76
665.511	46273.47
665.862	46315.28
666.212	46397.54
666.562	46325.9
666.912	46176.98
667.262	46059.24
667.612	46276.18
667.962	46160.48
668.312	46096.98
668.662	46300.14
669.011	46180.82
669.361	46132.01
669.711	46122.06
670.06	46037.77
670.41	46117.09
670.76	45906.93
671.109	46174.49
671.459	46070.31
671.808	45884.78
672.157	45954.61
672.507	45674.84
672.856	45748.74
673.205	45833.26
673.554	45872.81
673.904	45655.86
674.253	45885.46
674.602	45639.59
674.951	45124.58
675.3	44980.63
675.649	45654.73
675.998	45708.06
676.346	45583.55
676.695	45719.14
677.044	45312.59
677.393	45461.97
677.741	45541.29
678.09	45444.34
678.438	45292.93
678.787	45357.79
679.135	45294.97
679.484	45049.32
679.832	45272.37
680.181	44985.14
680.529	44984.24
680.877	45019.72
681.225	44975.65
681.573	45057.69
681.922	44935.2
682.27	44685.49
682.618	44749.44
682.966	44599.17
683.314	44723.68
683.661	44513.29
684.009	44411.6
684.357	44416.35
684.705	44189.23
685.053	44327.54
685.4	44302.9
685.748	43892.97
686.095	44022.01
686.443	43893.2
686.79	43703.6
687.138	43828.57
687.485	43690.26
687.832	43613.2
688.18	43591.74
688.527	43478.29
688.874	43325.98
689.221	43187.45
689.568	43183.61
689.915	43110.84
690.262	43070.17
690.609	42903.17
690.956	42794.69
691.303	42628.82
691.65	42660.69
691.997	42559.45
692.344	42409.39
692.69	42328.49
693.037	42414.82
693.383	42065.67
693.73	42219.12
694.077	41921.04
694.423	41961.04
694.769	41775.74
695.116	41655.06
695.462	41655.51
695.808	41308.86
696.155	41519.47
696.501	41306.82
696.847	41295.98
697.193	41092.82
697.539	41109.09
697.885	40805.14
698.231	40809.66
698.577	40758.14
698.923	40664.13
699.269	40407.41
699.614	40275.89
699.96	40155.67
700.306	40234.54
700.651	40000.42
700.997	39718.16
701.342	39882
701.688	39843.81
702.033	39630.03
702.379	39564.27
702.724	39489.92
703.069	39493.31
703.415	39031.86
703.76	39239.76
704.105	39063.72
704.45	38960.67
704.795	38695.14
705.14	38668.7
705.485	38640.9
705.83	38520
706.175	38683.62
706.52	38506.67
706.865	38331.31
707.209	38226.9
707.554	38193.46
707.899	38261.03
708.243	37878.21
708.588	37895.16
708.932	37676.86
709.277	37708.27
709.621	37637.54
709.966	37441.84
710.31	37449.98
710.654	37174.05
710.998	37195.07
711.342	37245.01
711.687	37066.93
712.031	36845.02
712.375	36792.82
712.719	36846.6
713.063	36790.78
713.407	36809.31
713.75	36622.88
714.094	36502.2
714.438	36390.34
714.782	36488.42
715.125	36231.02
715.469	36327.52
715.812	36102.44
716.156	36007.75
716.499	35966.4
716.843	36003.23
717.186	35772.28
717.53	35958.94
717.873	35875.1
718.216	35771.6
718.559	35676.92
718.902	35458.84
719.246	35620.42
719.589	35358.05
719.932	35220.66
720.275	35211.16
720.617	35114.67
720.96	35170.49
721.303	35014.33
721.646	35095.91
721.989	34922.58
722.331	34887.11
722.674	34885.52
723.016	34861.57
723.359	34733.66
723.701	34767.11
724.044	34351.3
724.386	34386.33
724.729	34579.09
725.071	34361.92
725.413	34309.95
725.755	34250.74
726.097	34219.78
726.439	33951.31
726.782	34008.03
727.124	34146.79
727.465	33912.44
727.807	33841.71
728.149	33769.39
728.491	33757.42
728.833	33801.03
729.175	33589.96
729.516	33506.8
729.858	33467.48
730.199	33544.32
730.541	33488.5
730.882	33398.33
731.224	33515.62
731.565	33251.22
731.906	33301.16
732.248	33169.41
732.589	32986.14
732.93	33049.64
733.271	32998.79
733.612	32958.57
733.953	33069.75
734.294	32863.43
734.635	32701.4
734.976	32871.11
735.317	32633.83
735.658	32563.78
735.999	32547.96
736.339	32476.1
736.68	32692.59
737.021	32411.24
737.361	32218.02
737.702	32368.98
738.042	32364.69
738.383	32241.07
738.723	32325.82
739.063	32022.77
739.404	32224.35
739.744	31974.41
740.084	31907.3
740.424	31959.27
740.764	31898.71
741.104	32030.46
741.444	31732.39
741.784	31576.46
742.124	31837.02
742.464	31680.86
742.804	31656.68
743.143	31504.6
743.483	31644.03
743.823	31346.63
744.162	31363.36
744.502	31321.1
744.841	31347.99
745.181	31288.78
745.52	31145.06
745.86	31034.78
746.199	31037.71
746.538	31006.53
746.877	30959.3
747.216	30928.34
747.556	30884.95
747.895	30869.58
748.234	30738.97
748.573	30787.33
748.911	30657.39
749.25	30542.59
749.589	30465.75
749.928	30463.04
750.267	30571.29
750.605	30339.88
750.944	30265.31
751.283	30044.07
751.621	30230.05
751.96	30057.4
752.298	29952.32
752.636	29973.11
752.975	29987.8
