Data from breadboard_white_FLMS001491_00074.txt Node
Date: Wed Feb 08 10:48:14 GMT 2017
User: dcchb
Spectrometer: FLMS00149
Trigger mode: 0
Integration Time (sec): 2.000000E-2
Scans to average: 10
Electric dark correction enabled: true
Nonlinearity correction enabled: false
Boxcar width: 0
XAxis mode: Wavelengths
Number of Pixels in Spectrum: 2048
>>>>>Begin Spectral Data<<<<<
341.393	3.11
341.776	3.11
342.16	3.11
342.543	-52.03
342.927	-73.27
343.31	-70.11
343.693	-68.3
344.077	-84.57
344.46	-39.6
344.843	-67.17
345.226	-42.09
345.61	-37.34
345.993	-8.42
346.376	0.62
346.759	15.31
347.142	15.54
347.525	52.37
347.908	57.12
348.291	73.39
348.674	96.44
349.057	106.83
349.44	133.5
349.823	151.35
350.206	167.62
350.588	208.53
350.971	215.98
351.354	258.02
351.737	246.26
352.119	249.43
352.502	268.41
352.884	302.53
353.267	273.61
353.65	313.61
354.032	316.77
354.414	317.22
354.797	331.01
355.179	325.13
355.562	353.83
355.944	355.41
356.326	351.8
356.709	352.93
357.091	360.39
357.473	372.36
357.855	335.3
358.238	361.29
358.62	349.09
359.002	377.79
359.384	338.01
359.766	366.49
360.148	353.61
360.53	357.45
360.912	384.57
361.294	365.36
361.676	355.87
362.057	339.82
362.439	360.84
362.821	350.89
363.203	342.76
363.584	341.4
363.966	348.41
364.348	350.22
364.729	373.72
365.111	348.86
365.493	352.48
365.874	352.7
366.256	352.93
366.637	331.23
367.019	335.08
367.4	350.67
367.781	373.04
368.163	366.26
368.544	323.32
368.925	338.92
369.306	354.28
369.688	334.85
370.069	349.54
370.45	346.6
370.831	344.34
371.212	343.89
371.593	329.2
371.974	349.31
372.355	352.25
372.736	349.99
373.117	357.22
373.498	346.6
373.879	379.59
374.26	356.77
374.641	370.56
375.021	353.38
375.402	356.54
375.783	356.09
376.163	384.79
376.544	362.87
376.925	374.4
377.305	355.87
377.686	378.46
378.066	370.78
378.447	381.63
378.827	388.18
379.208	380.05
379.588	378.92
379.968	407.39
380.349	374.17
380.729	385.7
381.109	384.11
381.489	390.22
381.87	395.64
382.25	397.9
382.63	400.84
383.01	398.13
383.39	402.64
383.77	398.35
384.15	400.84
384.53	434.06
384.91	413.04
385.29	419.59
385.67	417.56
386.049	439.03
386.429	423.89
386.809	433.38
387.189	441.29
387.568	440.38
387.948	458.24
388.328	453.49
388.707	459.14
389.087	450.55
389.466	455.75
389.846	460.72
390.225	482.64
390.605	468.41
390.984	476.54
391.363	474.73
391.743	475.64
392.122	503.21
392.501	494.85
392.881	514.96
393.26	506.37
393.639	508.18
394.018	516.77
394.397	525.81
394.776	547.05
395.155	561.28
395.534	541.4
395.913	549.76
396.292	547.73
396.671	533.26
397.05	531.68
397.429	595.18
397.808	603.77
398.186	599.02
398.565	604.67
398.944	592.92
399.323	614.16
399.701	595.41
400.08	615.97
400.458	627.72
400.837	655.07
401.215	649.42
401.594	658.01
401.972	667.27
402.351	691.45
402.729	686.93
403.107	694.61
403.486	695.74
403.864	697.1
404.242	734.39
404.62	732.58
404.999	749.3
405.377	764.67
405.755	780.94
406.133	804.44
406.511	786.82
406.889	799.92
407.267	823.42
407.645	841.28
408.023	826.81
408.401	852.35
408.779	871.33
409.156	911.11
409.534	902.97
409.912	931.44
410.29	963.53
410.667	968.05
411.045	990.65
411.422	995.85
411.8	1006.24
412.178	1046.47
412.555	1055.73
412.933	1059.12
413.31	1102.51
413.687	1104.55
414.065	1110.87
414.442	1140.7
414.819	1194.04
415.197	1198.56
415.574	1202.17
415.951	1232.68
416.328	1227.71
416.705	1236.52
417.082	1249.85
417.46	1272.45
417.837	1304.32
418.214	1293.92
418.591	1340.02
418.967	1326.46
419.344	1345.44
419.721	1405.78
420.098	1396.74
420.475	1427.48
420.852	1436.06
421.228	1419.57
421.605	1465.22
421.982	1489.62
422.358	1511.54
422.735	1517.87
423.111	1533.01
423.488	1546.12
423.864	1549.73
424.241	1555.38
424.617	1584.76
424.994	1624.31
425.37	1611.65
425.746	1619.34
426.123	1694.81
426.499	1703.18
426.875	1744.76
427.251	1752.67
427.627	1819.56
428.003	1812.1
428.379	1836.05
428.756	1835.15
429.132	1876.05
429.507	1925.09
429.883	1913.34
430.259	1941.81
430.635	1961.7
431.011	1992.89
431.387	2046.9
431.763	2079.21
432.138	2106.78
432.514	2126.67
432.89	2160.11
433.265	2184.29
433.641	2228.36
434.016	2217.06
434.392	2300
434.767	2320.56
435.143	2337.28
435.518	2341.12
435.894	2357.17
436.269	2423.38
436.644	2443.95
437.02	2485.08
437.395	2477.39
437.77	2507
438.145	2521.46
438.52	2567.79
438.895	2606.88
439.271	2637.16
439.646	2665.41
440.021	2712.64
440.395	2729.36
440.77	2683.49
441.145	2747.89
441.52	2805.52
441.895	2790.38
442.27	2817.5
442.645	2826.54
443.019	2916.03
443.394	2892.97
443.769	2918.74
444.143	2923.26
444.518	2928.45
444.892	3003.03
445.267	3013.65
445.641	3000.32
446.016	3058.17
446.39	3083.93
446.764	3068.34
447.139	3113.08
447.513	3180.88
447.887	3162.35
448.262	3184.04
448.636	3185.4
449.01	3244.6
449.384	3297.48
449.758	3288.67
450.132	3361.89
450.506	3358.5
450.88	3376.8
451.254	3401.44
451.628	3459.29
452.002	3543.81
452.376	3531.15
452.75	3519.17
453.123	3544.03
453.497	3631.94
453.871	3649.57
454.244	3770.24
454.618	3781.76
454.992	3830.13
455.365	3826.51
455.739	3928.2
456.112	3999.39
456.486	3989.44
456.859	4045.03
457.232	4134.07
457.606	4101.98
457.979	4195.77
458.352	4268.08
458.725	4341.07
459.099	4341.07
459.472	4421.3
459.845	4490.67
460.218	4550.11
460.591	4568.86
460.964	4644.57
461.337	4685.24
461.71	4829.65
462.083	4878.23
462.456	4862.87
462.829	4867.39
463.201	4972.69
463.574	4964.11
463.947	5057.44
464.32	5193.71
464.692	5218.56
465.065	5255.17
465.438	5331.78
465.81	5411.33
466.183	5504.21
466.555	5667.82
466.928	5616.52
467.3	5675.05
467.672	5746.23
468.045	5892.22
468.417	5903.74
468.789	5984.19
469.161	6066.9
469.534	6182.83
469.906	6286.78
470.278	6341.92
470.65	6388.93
471.022	6521.58
471.394	6653.78
471.766	6741.01
472.138	6813.55
472.51	6938.07
472.882	7059.64
473.253	7075.69
473.625	7259.19
473.997	7384.83
474.369	7483.14
474.74	7543.02
475.112	7664.83
475.484	7764.71
475.855	7941.66
476.227	8047.19
476.598	8226.62
476.97	8320.85
477.341	8533.28
477.713	8687.85
478.084	8716.32
478.455	8994.74
478.827	8998.12
479.198	9330.55
479.569	9258.46
479.94	9557.21
480.311	9622.74
480.682	9919.23
481.053	10072.9
481.424	10338.2
481.795	10313.57
482.166	10504.75
482.537	10701.81
482.908	10878.3
483.279	11004.63
483.65	11205.07
484.021	11400.32
484.391	11611.39
484.762	11621.78
485.133	11777.71
485.503	12006.63
485.874	12182.9
486.244	12324.14
486.615	12550.12
486.985	12760.06
487.356	13054.06
487.726	13113.5
488.097	13347.84
488.467	13380.61
488.837	13752.35
489.207	13826.92
489.578	14087.71
489.948	14157.09
490.318	14322.5
490.688	14433.24
491.058	14735.15
491.428	14904.86
491.798	15042.03
492.168	15429.59
492.538	15430.27
492.908	15670.04
493.278	15869.81
493.648	15870.03
494.017	16053.98
494.387	16250.82
494.757	16449.45
495.126	16611.94
495.496	16710.01
495.866	16790.24
496.235	17020.29
496.605	17163.11
496.974	17225.93
497.344	17501.86
497.713	17585.24
498.082	17680.61
498.452	17959.02
498.821	18005.12
499.19	17999.02
499.559	18275.85
499.928	18307.26
500.298	18472.9
500.667	18696.63
501.036	18676.29
501.405	18944.08
501.774	18920.58
502.143	19134.13
502.512	19290.74
502.88	19409.15
503.249	19507.91
503.618	19615.25
503.987	19711.52
504.356	19857.73
504.724	19979.31
505.093	20094.78
505.462	20255.91
505.83	20405.28
506.199	20533.19
506.567	20891.37
506.936	20797.14
507.304	21046.85
507.672	21122.55
508.041	21294.07
508.409	21446.39
508.777	21682.99
509.145	21777.22
509.514	21948.52
509.882	22096.76
510.25	22073.49
510.618	22462.63
510.986	22409.3
511.354	22685
511.722	22831.89
512.09	23126.57
512.458	23046.12
512.826	23271.87
513.193	23417.63
513.561	23515.71
513.929	23763.16
514.297	23902.14
514.664	24146.65
515.032	24262.36
515.4	24504.84
515.767	24479.98
516.135	24738.05
516.502	24628.45
516.869	25082.22
517.237	25357.92
517.604	25238.6
517.972	25532.61
518.339	25664.58
518.706	25815.08
519.073	25942.09
519.44	26270.44
519.808	26571.45
520.175	26486.93
520.542	26797.43
520.909	27026.35
521.276	27055.5
521.643	27347.92
522.009	27507.92
522.376	27813
522.743	27976.61
523.11	28227.68
523.477	28555.8
523.843	28646.65
524.21	29044.38
524.577	29186.29
524.943	29362.11
525.31	29520.3
525.676	29702.67
526.043	30012.94
526.409	30103.78
526.776	30502.87
527.142	30678.91
527.508	30694.05
527.874	30963.88
528.241	31202.51
528.607	31350.98
528.973	31547.81
529.339	31429.17
529.705	31963.4
530.071	32217.63
530.437	32362.93
530.803	32512.08
531.169	32647.9
531.535	32685.86
531.901	32914.56
532.267	33044.95
532.632	33224.83
532.998	33380.31
533.364	33729.68
533.73	33730.36
534.095	34062.32
534.461	34132.83
534.826	34241.53
535.192	34421.86
535.557	34715.87
535.923	34698.69
536.288	34918.57
536.653	35059.59
537.019	35021.4
537.384	35242.18
537.749	35433.59
538.114	35626.13
538.479	35559.23
538.845	35742.73
539.21	35799.68
539.575	36010.52
539.94	36036.74
540.305	36328.71
540.67	36273.11
541.034	36432.66
541.399	36466.33
541.764	36502.26
542.129	36925.98
542.494	36872.19
542.858	37118.52
543.223	37092.53
543.587	37405.06
543.952	37314.89
544.316	37566.87
544.681	37615.9
545.045	37808.67
545.41	37905.84
545.774	37933.18
546.138	38052.73
546.503	38182.67
546.867	38248.43
547.231	38439.16
547.595	38587.18
547.959	38690.68
548.324	38811.8
548.688	38925.47
549.052	38974.74
549.416	38983.1
549.779	39187.16
550.143	39304.9
550.507	39663.08
550.871	39765
551.235	39729.29
551.599	40004.32
551.962	40037.08
552.326	40129.74
552.689	40360.69
553.053	40374.25
553.417	40445.43
553.78	40879.32
554.143	40846.78
554.507	41025.08
554.87	41262.36
555.234	41429.36
555.597	41332.19
555.96	41594.56
556.323	41743.25
556.686	41768.11
557.05	42186.63
557.413	42250.58
557.776	42229.34
558.139	42587.98
558.502	42721.31
558.865	42782.32
559.228	43148.64
559.59	43145.93
559.953	43299.14
560.316	43655.29
560.679	43594.05
561.041	43916.08
561.404	44127.37
561.767	44337.53
562.129	44126.47
562.492	44689.16
562.854	44654.36
563.217	44671.76
563.579	44762.38
563.941	45141.36
564.304	45312.88
564.666	45510.84
565.028	45535.47
565.39	45746.76
565.753	46029.69
566.115	46131.61
566.477	46251.16
566.839	46420.64
567.201	46727.53
567.563	46670.13
567.925	46870.35
568.287	47016.11
568.648	47085.49
569.01	47311.24
569.372	47475.98
569.734	47381.75
570.095	47655.87
570.457	47814.73
570.819	47862.64
571.18	47862.41
571.542	48085.91
571.903	48154.84
572.265	48238
572.626	48352.57
572.987	48651.32
573.349	48568.61
573.71	48716.85
574.071	48827.13
574.432	48920.24
574.794	49109.61
575.155	49169.5
575.516	49020.58
575.877	49324.75
576.238	49338.08
576.599	49563.84
576.96	49426.67
577.32	49535.14
577.681	49681.58
578.042	49852.42
578.403	49807.22
578.763	49854
579.124	49858.97
579.485	50017.16
579.845	50078.85
580.206	49965.64
580.566	50149.59
580.927	50058.06
581.287	50327.43
581.648	50116.14
582.008	50319.07
582.368	50324.95
582.728	50315.46
583.089	50168.34
583.449	50220.09
583.809	50371.95
584.169	50354.33
584.529	50127.44
584.889	50429.58
585.249	50231.39
585.609	50182.8
585.969	50444.72
586.329	50269.36
586.688	50322.91
587.048	50183.71
587.408	50203.6
587.768	50323.37
588.127	50307.77
588.487	50178.51
588.846	50508.45
589.206	50222.13
589.565	50283.82
589.925	50493.31
590.284	50284.5
590.643	50470.48
591.003	50488.33
591.362	50620.53
591.721	50512.97
592.08	50453.53
592.44	50570.82
592.799	50474.32
593.158	50552.74
593.517	50500.08
593.876	50452.63
594.235	50551.83
594.593	50634.09
594.952	50584.15
595.311	50500.99
595.67	50646.3
596.029	50766.74
596.387	50809.68
596.746	50838.61
597.104	50708.89
597.463	50685.62
597.822	50896.91
598.18	50630.48
598.538	50729.01
598.897	50936.01
599.255	50616.24
599.613	51040.86
599.972	50837.48
600.33	50915.21
600.688	50853.52
601.046	50985.04
601.404	51032.05
601.762	50985.27
602.12	51108.2
602.478	51086.74
602.836	51221.2
603.194	51056
603.552	51076.57
603.91	51003.35
604.268	51209.44
604.625	51018.94
604.983	51204.02
605.341	51009
605.698	51238.37
606.056	51319.5
606.413	51375.32
606.771	51371.47
607.128	51454.18
607.485	51298.93
607.843	51366.28
608.2	51525.59
608.557	51670.22
608.914	51398.14
609.272	51693.73
609.629	51700.96
609.986	51814.85
610.343	51719.26
610.7	51839.48
611.057	51779.15
611.414	51764.68
611.771	51910.89
612.127	51841.07
612.484	51961.74
612.841	51975.53
613.198	51952.7
613.554	51958.58
613.911	52209.42
614.267	52132.58
614.624	52132.58
614.98	52117.44
615.337	52286.03
615.693	52284.9
616.05	52135.07
616.406	52332.35
616.762	52224.79
617.118	52253.03
617.475	52308.62
617.831	52421.16
618.187	52489.64
618.543	52488.73
618.899	52598.33
619.255	52459.81
619.611	52474.04
619.967	52477.21
620.323	52575.74
620.678	52503.42
621.034	52425.23
621.39	52411.22
621.746	52376.19
622.101	52794.49
622.457	52493.93
622.812	52615.74
623.168	52660.03
623.523	52671.1
623.879	52712.68
624.234	52505.91
624.589	52631.78
624.945	52711.78
625.3	52663.64
625.655	52630.2
626.01	52637.43
626.365	52629.29
626.72	52759.23
627.075	52509.75
627.43	52556.53
627.785	52523.31
628.14	52497.77
628.495	52483.99
628.85	52497.09
629.205	52411.67
629.559	52558.79
629.914	52436.98
630.269	52452.8
630.623	52373.26
630.978	52287.16
631.332	52416.64
631.687	52455.74
632.041	52260.72
632.396	52318.12
632.75	52165.8
633.104	52314.05
633.459	52110.44
633.813	52131.23
634.167	52145.01
634.521	52072.02
634.875	52166.93
635.229	52034.28
635.583	51849.88
635.937	51898.01
636.291	51744.8
636.645	51854.4
636.999	51671.58
637.352	51812.59
637.706	51601.3
638.06	51726.04
638.413	51828.86
638.767	51653.95
639.121	51740.96
639.474	51440.62
639.828	51538.7
640.181	51474.3
640.534	51483.11
640.888	51315.2
641.241	51297.8
641.594	51298.71
641.947	51392.04
642.301	51229.78
642.654	51343.23
643.007	51315.2
643.36	51192.95
643.713	50987.08
644.066	51119.28
644.419	51006.96
644.771	50881.32
645.124	50557.26
645.477	50483.14
645.83	50306.64
646.182	50130.6
646.535	49864.17
646.888	49939.42
647.24	49634.34
647.593	49844.06
647.945	49862.59
648.298	49582.37
648.65	49509.83
649.002	49396.84
649.355	49562.03
649.707	49616.72
650.059	49697.39
650.411	50105.97
650.763	50184.84
651.115	50514.1
651.467	50317.72
651.819	50323.37
652.171	50162.47
652.523	50093.99
652.875	50110.49
653.227	50049.7
653.578	50157.49
653.93	50157.27
654.282	49936.94
654.633	49843.83
654.985	49801.57
655.337	49965.41
655.688	49815.13
656.039	49991.4
656.391	49721.35
656.742	49801.35
657.094	49753.66
657.445	49919.31
657.796	49706.66
658.147	49697.39
658.498	49624.85
658.849	49754.12
659.2	49668.92
659.551	49588.02
659.902	49649.71
660.253	49630.73
660.604	49687.22
660.955	49476.38
661.306	49437.97
661.656	49404.97
662.007	49484.52
662.358	49544.86
662.708	49340.57
663.059	49461.69
663.409	49183.06
663.76	49491.52
664.11	49265.09
664.461	49334.92
664.811	49317.06
665.161	49306.22
665.511	49224.19
665.862	49294.24
666.212	49353
666.562	49266.9
666.912	49189.61
667.262	49040.69
667.612	49064.87
667.962	49158.65
668.312	49118.43
668.662	49254.02
669.011	49208.82
669.361	49123.85
669.711	49127.24
670.06	49051.08
670.41	49058.31
670.76	49054.25
671.109	49126.56
671.459	48977.19
671.808	48900.8
672.157	49008.82
672.507	48701.94
672.856	48786.46
673.205	48870.97
673.554	48883.86
673.904	48643.86
674.253	48894.7
674.602	48815.16
674.951	48201.16
675.3	47970.66
675.649	48700.36
675.998	48623.75
676.346	48611.32
676.695	48624.65
677.044	48432.12
677.393	48389.41
677.741	48503.07
678.09	48542.4
678.438	48355.96
678.787	48414.94
679.135	48370.88
679.484	47997.1
679.832	48277.32
680.181	48113.93
680.529	48107.15
680.877	48069.64
681.225	47985.35
681.573	48266.02
681.922	47952.35
682.27	47669.65
682.618	47810.44
682.966	47701.97
683.314	47841.85
683.661	47624.45
684.009	47424.46
684.357	47338.59
684.705	47343.33
685.053	47347.4
685.4	47261.53
685.748	46967.3
686.095	47049.55
686.443	46817.7
686.79	46887.52
687.138	46835.77
687.485	46764.59
687.832	46742.44
688.18	46579.28
688.527	46408.44
688.874	46497.93
689.221	46380.87
689.568	46412.06
689.915	46148.56
690.262	46106.3
690.609	45939.07
690.956	45992.86
691.303	45898.62
691.65	45699.98
691.997	45793.77
692.344	45362.37
692.69	45393.78
693.037	45378.86
693.383	45160.34
693.73	45342.03
694.077	45011.19
694.423	44907.46
694.769	44827.69
695.116	44689.62
695.462	44597.64
695.808	44559.9
696.155	44689.84
696.501	44203.98
696.847	44207.59
697.193	43900.26
697.539	44167.37
697.885	43823.2
698.231	43636.08
698.577	43831.33
698.923	43675.41
699.269	43356.09
699.614	43181.86
699.96	43219.37
700.306	43187.73
700.651	43054.63
700.997	42912.71
701.342	42714.98
701.688	42616
702.033	42503.01
702.379	42637.01
702.724	42475.44
703.069	42545.49
703.415	42036.13
703.76	42173.52
704.105	42051.72
704.45	42005.84
704.795	41800.88
705.14	41660.32
705.485	41560.21
705.83	41362.25
706.175	41387.1
706.52	41313.21
706.865	41036.83
707.209	41214.68
707.554	41030.28
707.899	41269.14
708.243	40906.21
708.588	40811.75
708.932	40648.82
709.277	40460.12
709.621	40507.13
709.966	40311.88
710.31	40382.16
710.654	40007.03
710.998	40110.3
711.342	40047.7
711.687	39996.41
712.031	39773.81
712.375	39745.57
712.719	39581.73
713.063	39518.45
713.407	39705.79
713.75	39505.57
714.094	39437.32
714.438	39310.1
714.782	39168.41
715.125	39162.3
715.469	39225.13
715.812	38968.64
716.156	38606.16
716.499	38663.11
716.843	38730.68
717.186	38637.57
717.53	38621.07
717.873	38618.36
718.216	38459.72
718.559	38421.08
718.902	38189.22
719.246	38277.13
719.589	38164.14
719.932	37990.58
720.275	37850.02
720.617	37775.67
720.96	37838.04
721.303	37826.52
721.646	37819.74
721.989	37610.03
722.331	37680.76
722.674	37435.12
723.016	37504.04
723.359	37424.95
723.701	37397.15
724.044	37089.36
724.386	37093.88
724.729	37190.6
725.071	37079.65
725.413	36999.42
725.755	36899.09
726.097	36792.87
726.439	36656.83
726.782	36629.94
727.124	36864.28
727.465	36564.18
727.807	36533.67
728.149	36487.35
728.491	36408.25
728.833	36505.2
729.175	36208.48
729.516	36248.71
729.858	36219.78
730.199	36167.58
730.541	36104.53
730.882	36006.23
731.224	36168.48
731.565	35757.87
731.906	35817.08
732.248	35908.6
732.589	35718.55
732.93	35576.41
733.271	35591.32
733.612	35522.85
733.953	35556.07
734.294	35428.39
734.635	35315.17
734.976	35334.16
735.317	35319.69
735.658	35208.06
735.999	35214.38
736.339	34942.75
736.68	35188.62
737.021	34947.27
737.361	34835.41
737.702	34940.27
738.042	34814.85
738.383	34722.87
738.723	34839.71
739.063	34653.5
739.404	34753.61
739.744	34677
740.084	34493.95
740.424	34500.96
740.764	34378.7
741.104	34368.31
741.444	34179.84
741.784	34208.54
742.124	34243.34
742.464	34223.22
742.804	34131.7
743.143	34030.69
743.483	34049.22
743.823	33879.73
744.162	33855.32
744.502	33872.95
744.841	33748.43
745.181	33847.42
745.52	33590.02
745.86	33665.05
746.199	33728.55
746.538	33579.63
746.877	33535.78
747.216	33411.95
747.556	33280.88
747.895	33422.79
748.234	33253.76
748.573	33271.39
748.911	33114.78
749.25	32958.4
749.589	32850.83
749.928	32912.07
750.267	32992.52
750.605	32781.23
750.944	32729.48
751.283	32554.34
751.621	32709.14
751.96	32297.85
752.298	32494.68
752.636	32488.81
752.975	32203.39
