Data from breadboard_white_FLMS001491_00018.txt Node
Date: Wed Feb 08 10:47:21 GMT 2017
User: dcchb
Spectrometer: FLMS00149
Trigger mode: 0
Integration Time (sec): 2.000000E-2
Scans to average: 10
Electric dark correction enabled: true
Nonlinearity correction enabled: false
Boxcar width: 0
XAxis mode: Wavelengths
Number of Pixels in Spectrum: 2048
>>>>>Begin Spectral Data<<<<<
341.393	-1.31
341.776	-1.31
342.16	-1.31
342.543	-55.55
342.927	-56
343.31	-73.4
343.693	-79.28
344.077	-67.3
344.46	-63.68
344.843	-37.02
345.226	-19.84
345.61	-23.69
345.993	-2.67
346.376	-33.4
346.759	2.08
347.142	0.27
347.525	36.2
347.908	69.65
348.291	87.27
348.674	91.34
349.057	113.49
349.44	124.33
349.823	171.34
350.206	161.17
350.588	209.3
350.971	240.49
351.354	241.62
351.737	257.66
352.119	276.87
352.502	277.55
352.884	311.67
353.267	309.41
353.65	292.92
354.032	325.23
354.414	308.28
354.797	342.18
355.179	338.56
355.562	340.6
355.944	371.11
356.326	362.29
356.709	361.84
357.091	346.7
357.473	358.9
357.855	382.41
358.238	356.19
358.62	373.59
359.002	381.5
359.384	376.98
359.766	362.52
360.148	353.48
360.53	377.66
360.912	379.02
361.294	352.8
361.676	356.19
362.057	361.16
362.439	350.77
362.821	374.95
363.203	364.78
363.584	374.04
363.966	368.62
364.348	376.08
364.729	374.5
365.111	363.42
365.493	357.1
365.874	362.74
366.256	341.5
366.637	344.44
367.019	365
367.4	365.23
367.781	341.28
368.163	355.97
368.544	366.13
368.925	354.16
369.306	356.42
369.688	360.94
370.069	358.23
370.45	347.38
370.831	356.42
371.212	382.63
371.593	358.45
371.974	355.97
372.355	382.41
372.736	362.07
373.117	371.11
373.498	353.71
373.879	370.65
374.26	357.55
374.641	362.29
375.021	352.12
375.402	404.1
375.783	388.05
376.163	407.72
376.544	398.68
376.925	382.86
377.305	383.08
377.686	385.57
378.066	398.9
378.447	405
378.827	394.61
379.208	400.94
379.588	406.36
379.968	410.65
380.349	425.79
380.729	406.13
381.109	427.15
381.489	422.86
381.87	440.48
382.25	408.17
382.63	444.78
383.01	422.18
383.39	435.74
383.77	437.54
384.15	437.09
384.53	454.27
384.91	452.91
385.29	445.45
385.67	447.26
386.049	467.83
386.429	488.39
386.809	487.94
387.189	470.99
387.568	484.32
387.948	486.81
388.328	504.21
388.707	492.23
389.087	479.35
389.466	510.09
389.846	502.4
390.225	530.2
390.605	505.34
390.984	534.04
391.363	517.77
391.743	535.62
392.122	545.56
392.501	566.81
392.881	559.58
393.26	560.03
393.639	562.06
394.018	596.86
394.397	580.82
394.776	576.75
395.155	583.08
395.534	601.61
395.913	611.55
396.292	628.5
396.671	616.75
397.05	648.39
397.429	651.55
397.808	643.64
398.186	642.96
398.565	666.92
398.944	666.47
399.323	720.02
399.701	683.19
400.08	699.23
400.458	716.18
400.837	743.75
401.215	748.5
401.594	748.05
401.972	768.61
402.351	773.58
402.729	749.85
403.107	791.66
403.486	810.19
403.864	795.5
404.242	830.75
404.62	814.26
404.999	829.17
405.377	882.51
405.755	866.46
406.133	901.94
406.511	917.53
406.889	937.42
407.267	966.12
407.645	988.72
408.023	998.43
408.401	1009.51
408.779	1039.34
409.156	1028.72
409.534	1077.98
409.912	1094.02
410.29	1090.64
410.667	1132.89
411.045	1148.49
411.422	1191.42
411.8	1181.48
412.178	1226.22
412.555	1253.12
412.933	1275.04
413.31	1281.14
413.687	1306.45
414.065	1329.05
414.442	1340.57
414.819	1389.61
415.197	1391.19
415.574	1440.91
415.951	1472.77
416.328	1456.28
416.705	1470.29
417.082	1468.93
417.46	1508.7
417.837	1545.54
418.214	1553.45
418.591	1593.67
418.967	1610.62
419.344	1651.75
419.721	1645.65
420.098	1654.01
420.475	1700.34
420.852	1725.87
421.228	1737.4
421.605	1745.76
421.982	1778.07
422.358	1819.43
422.735	1844.74
423.111	1829.15
423.488	1847.9
423.864	1915.92
424.241	1936.26
424.617	1918.64
424.994	1929.48
425.37	1989.37
425.746	1998.18
426.123	2009.26
426.499	2023.94
426.875	2083.6
427.251	2089.93
427.627	2175.13
428.003	2182.58
428.379	2201.11
428.756	2223.94
429.132	2276.37
429.507	2336.93
429.883	2352.75
430.259	2391.62
430.635	2377.16
431.011	2409.47
431.387	2466.87
431.763	2507.1
432.138	2491.05
432.514	2542.35
432.89	2574.66
433.265	2685.17
433.641	2695.79
434.016	2704.15
434.392	2745.96
434.767	2804.71
435.143	2804.49
435.518	2849.91
435.894	2901.89
436.269	2959.06
436.644	2998.38
437.02	3005.61
437.395	3008.55
437.77	3018.49
438.145	3101.88
438.52	3119.06
438.895	3166.96
439.271	3194.31
439.646	3269.79
440.021	3302.33
440.395	3320.41
440.77	3303.91
441.145	3319.5
441.52	3385.04
441.895	3415.77
442.27	3457.35
442.645	3482.66
443.019	3523.57
443.394	3488.76
443.769	3561.08
444.143	3548.42
444.518	3623.9
444.892	3578.48
445.267	3653.05
445.641	3648.53
446.016	3723.56
446.39	3671.81
446.764	3761.07
447.139	3724.46
447.513	3811.24
447.887	3818.47
448.262	3808.98
448.636	3836.78
449.01	3918.36
449.384	3960.16
449.758	3980.05
450.132	4034.96
450.506	4065.92
450.88	4108.86
451.254	4071.12
451.628	4146.15
452.002	4211.23
452.376	4226.37
452.75	4277.44
453.123	4334.17
453.497	4387.5
453.871	4462.52
454.244	4531
454.618	4565.12
454.992	4636.3
455.365	4606.02
455.739	4822.29
456.112	4794.94
456.486	4822.06
456.859	4859.35
457.232	4971.21
457.606	4970.08
457.979	5087.37
458.352	5128.95
458.725	5222.05
459.099	5284.88
459.472	5389.73
459.845	5410.3
460.218	5469.96
460.591	5543.63
460.964	5599.67
461.337	5709.27
461.71	5827.46
462.083	5832.43
462.456	5843.28
462.829	5947.91
463.201	6040.34
463.574	6017.06
463.947	6133.67
464.32	6260.22
464.692	6335.24
465.065	6370.04
465.438	6480.32
465.81	6629.7
466.183	6658.62
466.555	6747.89
466.928	6807.32
467.3	6864.49
467.672	6909.24
468.045	7094.32
468.417	7173.41
468.789	7219.51
469.161	7278.95
469.534	7478.94
469.906	7635.55
470.278	7701.53
470.65	7755.54
471.022	7920.96
471.394	8110.56
471.766	8165.03
472.138	8220.84
472.51	8430.78
472.882	8576.99
473.253	8642.98
473.625	8803.88
473.997	8955.51
474.369	8965.46
474.74	9199.8
475.112	9343.53
475.484	9442.28
475.855	9611.99
476.227	9694.7
476.598	10011.3
476.97	10017.63
477.341	10273.9
477.713	10406.55
478.084	10536.94
478.455	10755.01
478.827	10939.87
479.198	11186.87
479.569	11261.22
479.94	11567.65
480.311	11661.88
480.682	11922.67
481.053	12222.77
481.424	12387.06
481.795	12534.63
482.166	12781.4
482.537	12869.08
482.908	13189.75
483.279	13390.2
483.65	13620.93
484.021	13797.65
484.391	13986.57
484.762	14143.85
485.133	14275.6
485.503	14424.3
485.874	14810.73
486.244	14923.49
486.615	15172.75
486.985	15387.66
487.356	15662.91
487.726	15835.56
488.097	16158.26
488.467	16177.7
488.837	16523.22
489.207	16765.48
489.578	17000.05
489.948	17219.02
490.318	17355.97
490.688	17445.23
491.058	17818.56
491.428	17968.38
491.798	18229.85
492.168	18450.18
492.538	18680.91
492.908	18829.83
493.278	19094.46
493.648	19138.75
494.017	19275.69
494.387	19653.54
494.757	19769.92
495.126	20049.91
495.496	19971.04
495.866	20168.33
496.235	20451.03
496.605	20622.78
496.974	20664.58
497.344	21006.72
497.713	21147.28
498.082	21221.86
498.452	21460.95
498.821	21516.31
499.19	21651.22
499.559	21874.72
499.928	22093.92
500.298	22107.26
500.667	22292.56
501.036	22428.15
501.405	22769.84
501.774	22681.93
502.143	22913.11
502.512	23056.16
502.88	23414.34
503.249	23356.72
503.618	23418.41
503.987	23651.17
504.356	23808
504.724	23897.72
505.093	23994.44
505.462	24155.57
505.83	24479.62
506.199	24695.89
506.567	24778.15
506.936	24799.62
507.304	25198.02
507.672	25285.93
508.041	25419.94
508.409	25729.08
508.777	25771.79
509.145	26058.79
509.514	25978.57
509.882	26359.35
510.25	26450.42
510.618	26664.43
510.986	26734.93
511.354	27005.21
511.722	27150.74
512.09	27535.14
512.458	27485.65
512.826	27741.46
513.193	27859.42
513.561	28055.35
513.929	28226.42
514.297	28638.84
514.664	28721.77
515.032	28902.79
515.4	29072.72
515.767	29184.13
516.135	29343.68
516.502	29399.5
516.869	29913.38
517.237	29968.75
517.604	29940.95
517.972	30243.31
518.339	30746.58
518.706	30616.86
519.073	30893.69
519.44	31010.07
519.808	31356.96
520.175	31422.72
520.542	31824.29
520.909	32118.52
521.276	32023.38
521.643	32354.67
522.009	32755.34
522.376	32966.18
522.743	33165.95
523.11	33516.22
523.477	33790.79
523.843	34019.49
524.21	34296.77
524.577	34423.54
524.943	34733.82
525.31	34941.5
525.676	35187.82
526.043	35361.82
526.409	35578.77
526.776	35946.89
527.142	36173.1
527.508	36318.18
527.874	36731.05
528.241	36902.8
528.607	36902.8
528.973	37172.85
529.339	37348.66
529.705	37727.64
530.071	37988.65
530.437	38064.13
530.803	38299.15
531.169	38595.86
531.535	38577.33
531.901	38806.93
532.267	39016.87
532.632	39160.14
532.998	39385.45
533.364	39573.47
533.73	39598.55
534.095	39980.69
534.461	40200.57
534.826	40432.2
535.192	40461.8
535.557	40795.81
535.923	40743.83
536.288	41078.51
536.653	41066.31
537.019	41068.12
537.384	41291.39
537.749	41631.49
538.114	41654.99
538.479	41690.25
538.845	42079.16
539.21	42099.5
539.575	42033.97
539.94	42160.52
540.305	42503.56
540.67	42460.17
541.034	42612.26
541.399	42902.19
541.764	42935.86
542.129	43009.98
542.494	43142.64
542.858	43371.33
543.223	43411.56
543.587	43647.71
543.952	43800.25
544.316	43976.97
544.681	43953.46
545.045	44151.42
545.41	44261.48
545.774	44442.04
546.138	44377.41
546.503	44603.39
546.867	44653.56
547.231	44989.37
547.595	44947.79
547.959	45179.42
548.324	45195.69
548.688	45324.5
549.052	45456.25
549.416	45548.68
549.779	45677.26
550.143	45750.25
550.507	45935.11
550.871	46092.62
551.235	46090.81
551.599	46500.29
551.962	46409.22
552.326	46722.43
552.689	46838.36
553.053	46705.71
553.417	46921.52
553.78	47345.24
554.143	47290.55
554.507	47363.54
554.87	47686.92
555.234	47991.1
555.597	47787.26
555.96	48002.17
556.323	48215.05
556.686	48167.59
557.05	48427.02
557.413	48594.02
557.776	48737.52
558.139	48884.86
558.502	48982.26
558.865	49137.73
559.228	49474.67
559.59	49548.8
559.953	49631.51
560.316	49919.41
560.679	49916.47
561.041	50241.89
561.404	50307.19
561.767	50530.01
562.129	50385.16
562.492	50801.87
562.854	50809.1
563.217	50786.5
563.579	50986.95
563.941	51208.87
564.304	51356.66
564.666	51607.95
565.028	51661.96
565.39	51717.78
565.753	51838.23
566.115	52122.06
566.477	52257.2
566.839	52260.14
567.201	52501.71
567.563	52457.65
567.925	52731.09
568.287	52715.04
568.648	52767.24
569.01	53039.78
569.372	53077.52
569.734	53056.05
570.095	53157.51
570.457	53437.96
570.819	53429.37
571.18	53425.98
571.542	53602.47
571.903	53724.51
572.265	53858.29
572.626	53841.34
572.987	53950.94
573.349	54028.9
573.71	54080.2
574.071	54171.27
574.432	54233.87
574.794	54407.43
575.155	54416.69
575.516	54317.48
575.877	54488.1
576.238	54482.23
576.599	54649
576.96	54702.78
577.32	54620.08
577.681	54752.5
578.042	54852.16
578.403	54879.73
578.763	54950.91
579.124	54949.11
579.485	55034.53
579.845	55056.67
580.206	55055.09
580.566	55005.83
580.927	55106.84
581.287	55211.92
581.648	55127.41
582.008	55280.62
582.368	55128.31
582.728	55267.74
583.089	55170.12
583.449	55140.29
583.809	55271.13
584.169	55292.6
584.529	55242.66
584.889	55411.01
585.249	55189.55
585.609	55161.98
585.969	55355.65
586.329	55248.08
586.688	55298.48
587.048	55262.54
587.408	55255.31
587.768	55225.26
588.127	55290.57
588.487	55230
588.846	55350
589.206	55203.11
589.565	55307.97
589.925	55371.02
590.284	55259.61
590.643	55240.4
591.003	55384.12
591.362	55461.41
591.721	55422.09
592.08	55354.07
592.44	55455.53
592.799	55396.33
593.158	55391.58
593.517	55385.93
593.876	55418.47
594.235	55365.59
594.593	55300.74
594.952	55408.3
595.311	55425.48
595.67	55467.96
596.029	55581.86
596.387	55603.55
596.746	55590.9
597.104	55495.76
597.463	55464.57
597.822	55493.5
598.18	55411.92
598.538	55599.26
598.897	55700.27
599.255	55375.54
599.613	55833.6
599.972	55650.33
600.33	55726.49
600.688	55589.99
601.046	55766.71
601.404	55789.31
601.762	55703.89
602.12	55820.27
602.478	55814.85
602.836	55874.05
603.194	55753.83
603.552	55836.31
603.91	55822.3
604.268	55811.91
604.625	55730.55
604.983	55871.79
605.341	55853.26
605.698	55954.5
606.056	56011
606.413	55962.41
606.771	56060.72
607.128	56103.65
607.485	56000.6
607.843	56071.11
608.2	56179.13
608.557	56225.46
608.914	56115.86
609.272	56220.94
609.629	56294.16
609.986	56360.37
610.343	56187.27
610.7	56412.8
611.057	56344.32
611.414	56326.92
611.771	56390.2
612.127	56451.21
612.484	56469.97
612.841	56482.4
613.198	56434.04
613.554	56462.06
613.911	56581.61
614.267	56558.78
614.624	56514.26
614.98	56491.66
615.337	56713.81
615.693	56622.28
616.05	56609.18
616.406	56765.78
616.762	56687.82
617.118	56667.7
617.475	56724.43
617.831	56778.66
618.187	56816.85
618.543	56832.67
618.899	56897.76
619.255	56904.76
619.611	56841.49
619.967	56900.47
620.323	56979.56
620.678	56878.55
621.034	56831.99
621.39	56882.84
621.746	56803.29
622.101	57059.33
622.457	56827.25
622.812	56890.3
623.168	56963.97
623.523	56994.7
623.879	57004.65
624.234	56837.87
624.589	56986.57
624.945	56997.64
625.3	57049.62
625.655	56926.91
626.01	56924.65
626.365	56981.82
626.72	56956.96
627.075	56895.04
627.43	56940.69
627.785	56847.36
628.14	56894.14
628.495	56931.88
628.85	56889.62
629.205	56707.7
629.559	56904.53
629.914	56768.72
630.269	56786.8
630.623	56700.7
630.978	56648.95
631.332	56765.78
631.687	56746.57
632.041	56628.16
632.396	56660.7
632.75	56585
633.104	56579.12
633.459	56477.2
633.813	56488.27
634.167	56449.18
634.521	56389.29
634.875	56446.69
635.229	56418.45
635.583	56260.03
635.937	56281.05
636.291	56266.36
636.645	56238.79
636.999	56162.41
637.352	56249.64
637.706	56063.43
638.06	56153.59
638.413	56054.61
638.767	55985.91
639.121	56043.99
639.474	55884
639.828	55965.12
640.181	55952.7
640.534	55875.86
640.888	55844.68
641.241	55624.79
641.594	55770.78
641.947	55815.75
642.301	55745.24
642.654	55780.72
643.007	55706.6
643.36	55651.91
643.713	55533.72
644.066	55662.99
644.419	55503.67
644.771	55304.12
645.124	55125.37
645.477	55076.56
645.83	54843.12
646.182	54666.85
646.535	54611.26
646.888	54685.38
647.24	54417.37
647.593	54547.76
647.945	54473.64
648.298	54321.33
648.65	54366.3
649.002	54181.89
649.355	54295.79
649.707	54303.25
650.059	54411.49
650.411	54794.99
650.763	54730.13
651.115	55097.58
651.467	54983.68
651.819	54938.94
652.171	54869.11
652.523	54801.31
652.875	54788.88
653.227	54705.5
653.578	54865.94
653.93	54796.57
654.282	54697.14
654.633	54587.99
654.985	54608.78
655.337	54609.45
655.688	54672.73
656.039	54693.52
656.391	54415.11
656.742	54560.64
657.094	54501.89
657.445	54520.87
657.796	54418.95
658.147	54409.69
658.498	54431.83
658.849	54374.66
659.2	54457.14
659.551	54314.09
659.902	54449.46
660.253	54375.79
660.604	54387.76
660.955	54274.32
661.306	54284.26
661.656	54235.9
662.007	54231.16
662.358	54192.97
662.708	54202.23
663.059	54108.9
663.409	53969.47
663.76	54137.15
664.11	54098.96
664.461	54093.99
664.811	54120.65
665.161	54128.34
665.511	54002.92
665.862	54024.38
666.212	54058.28
666.562	54089.02
666.912	53929.47
667.262	53979.87
667.612	53981.22
667.962	53939.42
668.312	53929.02
668.662	54038.17
669.011	53908
669.361	53898.74
669.711	53910.72
670.06	53789.81
670.41	53766.09
670.76	53646.77
671.109	53768.35
671.459	53714.34
671.808	53695.35
672.157	53690.61
672.507	53541.91
672.856	53487.9
673.205	53566.77
673.554	53623.49
673.904	53476.15
674.253	53657.16
674.602	53429.6
674.951	53105.76
675.3	52943.06
675.649	53446.32
675.998	53338.98
676.346	53402.03
676.695	53367.9
677.044	53234.8
677.393	53334.23
677.741	53430.28
678.09	53303.73
678.438	53203.16
678.787	53232.32
679.135	53290.62
679.484	53078.19
679.832	53144.41
680.181	52945.77
680.529	53011.08
680.877	52964.53
681.225	52871.19
681.573	53082.49
681.922	52781.03
682.27	52776.06
682.618	52808.82
682.966	52663.06
683.314	52640.92
683.661	52584.42
684.009	52464.88
684.357	52427.82
684.705	52346.46
685.053	52367.93
685.4	52333.58
685.748	52121.38
686.095	52076.87
686.443	51990.54
686.79	51910.54
687.138	51998
687.485	52045.91
687.832	51798.91
688.18	51981.73
688.527	51742.41
688.874	51680.94
689.221	51503.32
689.568	51411.12
689.915	51489.99
690.262	51367.05
690.609	51252.93
690.956	51158.92
691.303	51087.74
691.65	50894.75
691.997	50910.12
692.344	50755.54
692.69	50670.57
693.037	50702.66
693.383	50444.82
693.73	50415.89
694.077	50258.16
694.423	50281.43
694.769	50150.81
695.116	50170.25
695.462	50029.46
695.808	49970.71
696.155	50024.72
696.501	49697.72
696.847	49663.14
697.193	49394
697.539	49480.1
697.885	49188.13
698.231	49099.77
698.577	49136.15
698.923	49106.1
699.269	48959.88
699.614	48708.14
699.96	48734.58
700.306	48578.2
700.651	48541.59
700.997	48407.13
701.342	48472.21
701.688	48266.57
702.033	48137.76
702.379	48116.97
702.724	48066.8
703.069	47952.91
703.415	47573.71
703.76	47534.61
704.105	47455.97
704.45	47524.44
704.795	47177.33
705.14	46968.52
705.485	47109.76
705.83	46745.48
706.175	46984.12
706.52	46742.09
706.865	46614.18
707.209	46626.61
707.554	46496.45
707.899	46374.19
708.243	46182.1
708.588	46244.02
708.932	45981.88
709.277	45996.8
709.621	46042.22
709.966	45669.8
710.31	45878.16
710.654	45431.62
710.998	45501.22
711.342	45496.47
711.687	45260.55
712.031	45121.12
712.375	45078.41
712.719	44945.08
713.063	44922.48
713.407	45095.13
713.75	44845.19
714.094	44790.96
714.438	44526.1
714.782	44532.66
715.125	44406.33
715.469	44410.17
715.812	44201.14
716.156	44067.36
716.499	44058.54
716.843	44169.73
717.186	43804.31
717.53	44032.56
717.873	43968.38
718.216	43847.03
718.559	43716.86
718.902	43501.05
719.246	43415.62
719.589	43244.56
719.932	43189.42
720.275	43333.14
720.617	43133.6
720.96	43118.46
721.303	43039.36
721.646	43038.91
721.989	42841.4
722.331	42927.5
722.674	42634.4
723.016	42602.09
723.359	42661.29
723.701	42578.81
724.044	42205.94
724.386	42262.21
724.729	42346.05
725.071	42212.49
725.413	42152.38
725.755	42087.3
726.097	41849.56
726.439	41776.12
726.782	41846.4
727.124	41914.42
727.465	41590.14
727.807	41693.18
728.149	41445.96
728.491	41363.47
728.833	41325.06
729.175	41131.39
729.516	41285.74
729.858	41136.81
730.199	41236.92
730.541	41043.71
730.882	41066.08
731.224	41143.37
731.565	40789.7
731.906	40766.88
732.248	40758.74
732.589	40641.01
732.93	40343.39
733.271	40384.29
733.612	40627.67
733.953	40467
734.294	40333.9
734.635	40134.81
734.976	40131.64
735.317	40033.79
735.658	39885.77
735.999	40013.68
736.339	39921.48
736.68	39815.04
737.021	39727.36
737.361	39554.48
737.702	39811.2
738.042	39660.24
738.383	39579.34
738.723	39457.99
739.063	39345.9
739.404	39540.7
739.744	39316.52
740.084	39227.03
740.424	39205.79
740.764	39248.95
741.104	39284.21
741.444	38949.3
741.784	38810.55
742.124	38864.78
742.464	38836.08
742.804	38729.87
743.143	38641.74
743.483	38606.03
743.823	38569.2
744.162	38312.48
744.502	38513.15
744.841	38228.64
745.181	38470.22
745.52	38178.7
745.86	38240.84
746.199	38110
746.538	38010.12
746.877	38128.98
747.216	38050.12
747.556	37839.05
747.895	37924.92
748.234	37672.5
748.573	37644.48
748.911	37512.05
749.25	37606.74
749.589	37288.55
749.928	37371.94
750.267	37468.66
750.605	37260.76
750.944	37186.41
751.283	36977.38
751.621	37021.22
751.96	36728.34
752.298	36779.87
752.636	36768.79
752.975	36527.44
753.313	36338.07
