Data from breadboard_black_back_FLMS001491_00046.txt Node
Date: Wed Feb 08 10:50:26 GMT 2017
User: dcchb
Spectrometer: FLMS00149
Trigger mode: 0
Integration Time (sec): 2.000000E-2
Scans to average: 10
Electric dark correction enabled: true
Nonlinearity correction enabled: false
Boxcar width: 0
XAxis mode: Wavelengths
Number of Pixels in Spectrum: 2048
>>>>>Begin Spectral Data<<<<<
341.393	-23.83
341.776	-23.83
342.16	-23.83
342.543	-47.1
342.927	-66.54
343.31	-81.9
343.693	-71.51
344.077	-63.6
344.46	-49.59
344.843	-62.24
345.226	-36.93
345.61	-44.39
345.993	-19.31
346.376	-6.43
346.759	21.82
347.142	11.2
347.525	44.87
347.908	72.44
348.291	71.54
348.674	102.05
349.057	111.99
349.44	120.58
349.823	111.54
350.206	182.04
350.588	191.99
350.971	194.92
351.354	223.85
351.737	236.73
352.119	237.18
352.502	274.47
352.884	265.43
353.267	271.31
353.65	296.39
354.032	292.55
354.414	295.94
354.797	321.93
355.179	318.76
355.562	325.54
355.944	305.66
356.326	346.11
356.709	319.67
357.091	340.46
357.473	348.59
357.855	344.07
358.238	357.86
358.62	344.3
359.002	329.84
359.384	374.81
359.766	351.3
360.148	326.67
360.53	334.58
360.912	352.89
361.294	354.47
361.676	335.49
362.057	327.35
362.439	324.86
362.821	342.72
363.203	319.67
363.584	347.91
363.966	321.93
364.348	337.52
364.729	348.59
365.111	342.94
365.493	342.04
365.874	333.68
366.256	336.16
366.637	344.98
367.019	320.12
367.4	338.65
367.781	334.13
368.163	335.03
368.544	338.42
368.925	345.2
369.306	346.78
369.688	348.14
370.069	326.22
370.45	336.84
370.831	351.76
371.212	340.68
371.593	362.38
371.974	343.85
372.355	347.91
372.736	342.27
373.117	344.98
373.498	349.95
373.879	349.72
374.26	336.62
374.641	360.12
375.021	351.3
375.402	364.64
375.783	368.03
376.163	356.5
376.544	362.38
376.925	371.19
377.305	383.39
377.686	357.41
378.066	369.38
378.447	402.15
378.827	388.59
379.208	395.37
379.588	392.21
379.968	371.19
380.349	377.07
380.729	394.47
381.109	387.46
381.489	405.99
381.87	392.89
382.25	398.31
382.63	392.43
383.01	414.58
383.39	411.42
383.77	412.09
384.15	408.25
384.53	395.14
384.91	415.71
385.29	403.96
385.67	431.3
386.049	413.9
386.429	426.56
386.809	442.6
387.189	436.05
387.568	430.4
387.948	449.15
388.328	447.57
388.707	442.6
389.087	468.59
389.466	461.81
389.846	447.35
390.225	478.31
390.605	464.97
390.984	469.04
391.363	473.11
391.743	472.21
392.122	490.06
392.501	483.05
392.881	482.6
393.26	478.98
393.639	506.78
394.018	493.9
394.397	497.52
394.776	508.81
395.155	531.86
395.534	530.06
395.913	501.81
396.292	551.98
396.671	531.19
397.05	525.54
397.429	528.25
397.808	508.59
398.186	524.41
398.565	534.8
398.944	546.33
399.323	544.52
399.701	537.06
400.08	544.52
400.458	580.9
400.837	557.17
401.215	577.97
401.594	593.11
401.972	596.27
402.351	591.52
402.729	599.66
403.107	597.63
403.486	579.32
403.864	601.92
404.242	621.58
404.62	614.35
404.999	626.1
405.377	654.12
405.755	631.07
406.133	644.86
406.511	650.96
406.889	644.63
407.267	668.58
407.645	668.58
408.023	663.39
408.401	684.63
408.779	702.93
409.156	689.83
409.534	691.41
409.912	720.33
410.29	716.04
410.667	739.32
411.045	751.29
411.422	745.64
411.8	753.33
412.178	770.95
412.555	788.13
412.933	788.81
413.31	790.16
413.687	798.98
414.065	813.44
414.442	787.45
414.819	831.52
415.197	841.01
415.574	846.66
415.951	841.46
416.328	831.29
416.705	840.78
417.082	872.19
417.46	877.39
417.837	882.14
418.214	883.72
418.591	893.89
418.967	885.3
419.344	897.73
419.721	927.11
420.098	901.12
420.475	947.9
420.852	950.84
421.228	990.84
421.605	988.58
421.982	955.36
422.358	1000.78
422.735	1003.26
423.111	997.84
423.488	1046.2
423.864	1032.64
424.241	1018.18
424.617	1038.74
424.994	1065.64
425.37	1057.05
425.746	1060.21
426.123	1075.81
426.499	1095.69
426.875	1099.76
427.251	1133.43
427.627	1153.32
428.003	1111.96
428.379	1156.48
428.756	1148.8
429.132	1214.11
429.507	1182.47
429.883	1214.33
430.259	1221.11
430.635	1273.99
431.011	1257.95
431.387	1284.39
431.763	1305.4
432.138	1282.58
432.514	1334.56
432.89	1331.17
433.265	1368.45
433.641	1341.33
434.016	1379.98
434.392	1422.46
434.767	1440.09
435.143	1435.57
435.518	1456.81
435.894	1483.48
436.269	1481.44
436.644	1482.8
437.02	1537.04
437.395	1508.11
437.77	1557.6
438.145	1569.13
438.52	1576.13
438.895	1577.94
439.271	1600.99
439.646	1637.37
440.021	1627.65
440.395	1639.86
440.77	1666.75
441.145	1662.68
441.52	1685.73
441.895	1686.18
442.27	1716.47
442.645	1700.42
443.019	1684.15
443.394	1749.46
443.769	1754.43
444.143	1741.78
444.518	1779.97
444.892	1792.62
445.267	1800.31
445.641	1810.93
446.016	1831.04
446.39	1826.75
446.764	1834.66
447.139	1834.88
447.513	1871.26
447.887	1878.5
448.262	1891.83
448.636	1905.84
449.01	1919.4
449.384	1960.75
449.758	1970.24
450.132	1973.18
450.506	1980.87
450.88	1981.54
451.254	2039.85
451.628	2053.63
452.002	2087.76
452.376	2100.41
452.75	2069.68
453.123	2107.64
453.497	2167.3
453.871	2171.37
454.244	2214.53
454.618	2218.37
454.992	2276.23
455.365	2272.61
455.739	2335.43
456.112	2342.89
456.486	2329.78
456.859	2387.41
457.232	2401.42
457.606	2429.44
457.979	2453.4
458.352	2524.13
458.725	2544.24
459.099	2566.16
459.472	2620.17
459.845	2653.84
460.218	2630.79
460.591	2673.28
460.964	2702.43
461.337	2746.04
461.71	2796.21
462.083	2794.86
462.456	2857.91
462.829	2857.68
463.201	2901.07
463.574	2912.14
463.947	3001.4
464.32	3046.37
464.692	3052.25
465.065	3069.65
465.438	3094.74
465.81	3186.94
466.183	3197.56
466.555	3283.66
466.928	3250.44
467.3	3292.7
467.672	3305.35
468.045	3421.96
468.417	3428.96
468.789	3479.81
469.161	3517.77
469.534	3556.87
469.906	3643.2
470.278	3678.22
470.65	3744.66
471.022	3795.96
471.394	3879.12
471.766	3909.85
472.138	3947.82
472.51	3972
472.882	4064.88
473.253	4097.87
473.625	4179.68
473.997	4258.32
474.369	4259.22
474.74	4338.32
475.112	4442.5
475.484	4474.13
475.855	4537.18
476.227	4646.78
476.598	4757.52
476.97	4791.19
477.341	4890.62
477.713	4948.92
478.084	4991.18
478.455	5109.37
478.827	5117.28
479.198	5293.32
479.569	5378.52
479.94	5503.71
480.311	5541.9
480.682	5581
481.053	5725.85
481.424	5864.15
481.795	5841.33
482.166	5979.86
482.537	6039.97
482.908	6187.31
483.279	6258.95
483.65	6360.19
484.021	6447.19
484.391	6576.45
484.762	6594.53
485.133	6692.61
485.503	6814.86
485.874	6943.67
486.244	7025.03
486.615	7134.63
486.985	7188.19
487.356	7273.61
487.726	7350.44
488.097	7598.35
488.467	7563.54
488.837	7831.11
489.207	7862.07
489.578	7968.05
489.948	8029.07
490.318	8170.53
490.688	8198.56
491.058	8298.67
491.428	8384.99
491.798	8541.37
492.168	8660.46
492.538	8710.86
492.908	8794.02
493.278	8941.13
493.648	8958.08
494.017	9101.81
494.387	9189.94
494.757	9235.14
495.126	9296.38
495.496	9347.45
495.866	9418.64
496.235	9560.1
496.605	9680.78
496.974	9671.74
497.344	9829.02
497.713	9870.83
498.082	9925.06
498.452	10078.05
498.821	10068.34
499.19	10116.02
499.559	10267.88
499.928	10360.08
500.298	10445.05
500.667	10602.11
501.036	10413.64
501.405	10566.4
501.774	10598.94
502.143	10791.03
502.512	10796.68
502.88	10889.56
503.249	10904.7
503.618	11029.44
503.987	11109.67
504.356	11174.07
504.724	11235.99
505.093	11278.7
505.462	11413.39
505.83	11530.22
506.199	11475.08
506.567	11680.95
506.936	11713.94
507.304	11814.96
507.672	11946.25
508.041	11925.24
508.409	12041.17
508.777	12170.65
509.145	12320.71
509.514	12243.42
509.882	12369.29
510.25	12432.57
510.618	12575.62
510.986	12569.51
511.354	12761.37
511.722	12841.15
512.09	12902.16
512.458	12954.14
512.826	13114.58
513.193	13192.32
513.561	13168.59
513.929	13382.6
514.297	13568.13
514.664	13549.38
515.032	13604.74
515.4	13727
515.767	13935.35
516.135	13933.77
516.502	13872.76
516.869	14167.44
517.237	14115.69
517.604	14194.1
517.972	14389.81
518.339	14465.28
518.706	14543.7
519.073	14571.72
519.44	14803.35
519.808	14862.56
520.175	14930.58
520.542	15105.27
520.909	15195.89
521.276	15241.99
521.643	15472.26
522.009	15501.41
522.376	15682.88
522.743	15729.43
523.11	15873.16
523.477	16099.14
523.843	16243.54
524.21	16395.85
524.577	16476.08
524.943	16452.12
525.31	16652.8
525.676	16795.84
526.043	16866.8
526.409	16946.57
526.776	17212.33
527.142	17205.55
527.508	17314.25
527.874	17448.71
528.241	17603.05
528.607	17685.76
528.973	17811.18
529.339	17862.93
529.705	18073.55
530.071	18193.77
530.437	18339.08
530.803	18360.55
531.169	18513.54
531.535	18552.63
531.901	18607.1
532.267	18739.97
532.632	18894.32
532.998	18895
533.364	19064.03
533.73	19066.74
534.095	19249.79
534.461	19339.05
534.826	19443.23
535.192	19547.64
535.557	19720.74
535.923	19593.06
536.288	19836.44
536.653	19890.45
537.019	19852.94
537.384	19979.49
537.749	20163.89
538.114	20154.17
538.479	20139.71
538.845	20315.75
539.21	20318.24
539.575	20385.13
539.94	20478.68
540.305	20664.22
540.67	20630.32
541.034	20723.42
541.399	20729.3
541.764	20821.27
542.129	20884.78
542.494	20965.9
542.858	21033.92
543.223	21177.2
543.587	21293.58
543.952	21246.57
544.316	21364.31
544.681	21327.48
545.045	21609.73
545.41	21643.85
545.774	21661.7
546.138	21709.39
546.503	21726.11
546.867	21795.94
547.231	21981.7
547.595	22110.51
547.959	22153.67
548.324	22239.09
548.688	22221.92
549.052	22247.68
549.416	22541.68
549.779	22447.9
550.143	22520.89
550.507	22596.6
550.871	22684.28
551.235	22693.99
551.599	22918.62
551.962	22934.67
552.326	23012.63
552.689	23246.3
553.053	23139.41
553.417	23088.79
553.78	23633.86
554.143	23431.83
554.507	23538.27
554.87	23712.72
555.234	23927.63
555.597	23750.92
555.96	23892.83
556.323	24045.6
556.686	23975.99
557.05	24273.61
557.413	24308.64
557.776	24351.35
558.139	24548.63
558.502	24585.24
558.865	24675.41
559.228	24706.14
559.59	24886.25
559.953	25072.69
560.316	25307.71
560.679	25175.74
561.041	25464.99
561.404	25403.75
561.767	25567.82
562.129	25582.51
562.492	25866.57
562.854	25929.84
563.217	25883.06
563.579	26149.5
563.941	26168.93
564.304	26437.62
564.666	26448.47
565.028	26554.01
565.39	26737.28
565.753	26716.26
566.115	26871.28
566.477	27027.44
566.839	27091.17
567.201	27317.83
567.563	27285.96
567.925	27402.57
568.287	27479.86
568.648	27492.74
569.01	27784.03
569.372	27922.1
569.734	27849.34
570.095	28175.88
570.457	28191.25
570.819	28315.99
571.18	28182.21
571.542	28364.35
571.903	28375.65
572.265	28541.52
572.626	28595.99
572.987	28665.36
573.349	28791.91
573.71	28899.25
574.071	28908.07
574.432	28955.52
574.794	29269.41
575.155	29116.88
575.516	29099.25
575.877	29368.62
576.238	29381.5
576.599	29545.56
576.96	29447.26
577.32	29581.72
577.681	29581.5
578.042	29687.26
578.403	29686.58
578.763	29670.31
579.124	29799.8
579.485	29867.14
579.845	30047.92
580.206	29922.28
580.566	29906.23
580.927	30027.59
581.287	30103.97
581.648	30086.34
582.008	30188.94
582.368	30174.02
582.728	30221.93
583.089	30207.02
583.449	30136.96
583.809	30194.59
584.169	30250.18
584.529	30227.13
584.889	30440.23
585.249	30320.01
585.609	30133.12
585.969	30361.14
586.329	30281.14
586.688	30291.31
587.048	30357.52
587.408	30309.39
587.768	30349.61
588.127	30331.76
588.487	30275.49
588.846	30497.18
589.206	30334.47
589.565	30402.94
589.925	30531.08
590.284	30478.2
590.643	30392.32
591.003	30582.6
591.362	30589.38
591.721	30579.66
592.08	30488.82
592.44	30693.11
592.799	30598.19
593.158	30565.65
593.517	30664.41
593.876	30666.67
594.235	30517.06
594.593	30574.46
594.952	30728.58
595.311	30518.19
595.67	30577.18
596.029	30782.82
596.387	30880.45
596.746	30938.07
597.104	30705.99
597.463	30742.14
597.822	30983.04
598.18	30872.31
598.538	30777.62
598.897	30933.33
599.255	30760.67
599.613	31110.72
599.972	30962.48
600.33	31103.94
600.688	30978.97
601.046	31043.15
601.404	31101.68
601.762	31116.6
602.12	31217.39
602.478	31257.38
602.836	31289.02
603.194	31169.48
603.552	31381.22
603.91	31055.36
604.268	31384.16
604.625	31245.41
604.983	31327.44
605.341	31200.89
605.698	31425.29
606.056	31572.86
606.413	31326.76
606.771	31519.52
607.128	31649.24
607.485	31483.82
607.843	31483.14
608.2	31584.83
608.557	31844.71
608.914	31581.67
609.272	31797.94
609.629	31907.08
609.986	31877.26
610.343	31867.31
610.7	32015.1
611.057	31966.97
611.414	31876.13
611.771	32002.68
612.127	32085.84
612.484	32086.06
612.841	32196.57
613.198	31920.64
613.554	31959.74
613.911	32195.21
614.267	32276.34
614.624	32212.61
614.98	32291.48
615.337	32462.55
615.693	32393.4
616.05	32297.58
616.406	32600.4
616.762	32370.58
617.118	32454.42
617.475	32483.11
617.831	32561.76
618.187	32546.16
618.543	32586.16
618.899	32753.16
619.255	32717.91
619.611	32655.09
619.967	32829.32
620.323	32868.42
620.678	32748.42
621.034	32716.1
621.39	32602.66
621.746	32702.32
622.101	33024.12
622.457	32750.45
622.812	32897.12
623.168	32960.39
623.523	32928.3
623.879	33067.28
624.234	32657.57
624.589	32827.29
624.945	33061.18
625.3	32984.57
625.655	32879.49
626.01	32879.94
626.365	32911.13
626.72	32814.18
627.075	32844.69
627.43	32953.84
627.785	32765.37
628.14	32737.57
628.495	32833.61
628.85	32802.43
629.205	32758.81
629.559	32881.75
629.914	32720.17
630.269	32653.96
630.623	32582.1
630.978	32754.75
631.332	32744.58
631.687	32810.56
632.041	32585.71
632.396	32591.36
632.75	32588.65
633.104	32628.87
633.459	32328.32
633.813	32455.09
634.167	32371.71
634.521	32367.64
634.875	32365.15
635.229	32370.35
635.583	32162.67
635.937	32162.67
636.291	32191.15
636.645	32222.78
636.999	32019.85
637.352	32169.22
637.706	32116.57
638.06	32056.46
638.413	32122.45
638.767	32045.39
639.121	32056.23
639.474	31902.11
639.828	31865.73
640.181	31937.14
640.534	31895.11
640.888	31726.75
641.241	31653.76
641.594	31720.42
641.947	31813.3
642.301	31593.19
642.654	31685.4
643.007	31609.47
643.36	31555.91
643.713	31514.1
644.066	31582.12
644.419	31409.7
644.771	31298.06
645.124	31006.77
645.477	30988.01
645.83	30676.16
646.182	30602.26
646.535	30497.86
646.888	30500.57
647.24	30148.49
647.593	30471.64
647.945	30440
648.298	30218.99
648.65	30232.1
649.002	30038.89
649.355	30125.44
649.707	30119.56
650.059	30394.58
650.411	30726.55
650.763	30704.18
651.115	31010.39
651.467	30854.68
651.819	30932.65
652.171	30765.42
652.523	30740.34
652.875	30609.27
653.227	30603.84
653.578	30768.81
653.93	30662.6
654.282	30432.32
654.633	30384.86
654.985	30567.23
655.337	30586.22
655.688	30600.68
656.039	30581.24
656.391	30422.6
656.742	30432.77
657.094	30375.6
657.445	30523.84
657.796	30433.9
658.147	30346.22
658.498	30280.01
658.849	30444.98
659.2	30292.21
659.551	30243.85
659.902	30497.63
660.253	30282.95
660.604	30353.23
660.955	30109.17
661.306	30303.29
661.656	30243.17
662.007	30194.14
662.358	30268.71
662.708	30169.96
663.059	30178.77
663.409	29961.83
663.76	30265.77
664.11	30158.66
664.461	30198.66
664.811	30130.63
665.161	30110.3
665.511	30129.5
665.862	30013.12
666.212	30025.55
666.562	30089.28
666.912	30003.41
667.262	30012.67
667.612	29927.93
667.962	30099.67
668.312	29908.27
668.662	30091.99
669.011	29909.17
669.361	29899.45
669.711	29808.83
670.06	29826.69
670.41	29979.23
670.76	29865.33
671.109	29884.31
671.459	29872.11
671.808	29828.95
672.157	29793.92
672.507	29638.44
672.856	29652.45
673.205	29761.38
673.554	29790.76
673.904	29649.07
674.253	29644.77
674.602	29649.97
674.951	29236.42
675.3	29134.95
675.649	29589.63
675.998	29492.91
676.346	29599.12
676.695	29572.68
677.044	29344.89
677.393	29550.54
677.741	29556.41
678.09	29426.25
678.438	29300.37
678.787	29347.15
679.135	29403.42
679.484	29214.27
679.832	29258.34
680.181	29046.37
680.529	29237.32
680.877	29085.69
681.225	28956.43
681.573	29214.27
681.922	29056.31
682.27	28976.54
682.618	28981.29
682.966	28899.93
683.314	28831.01
683.661	28797.56
684.009	28682.99
684.357	28656.1
684.705	28604.57
685.053	28566.61
685.4	28655.87
685.748	28367.52
686.095	28393.05
686.443	28292.94
686.79	28179.27
687.138	28360.96
687.485	28265.15
687.832	28185.83
688.18	28237.8
688.527	28088.2
688.874	28022.67
689.221	28027.19
689.568	27800.75
689.915	27817.25
690.262	27829.45
690.609	27673.3
690.956	27629.91
691.303	27606.18
691.65	27464.49
691.997	27470.37
692.344	27337.04
692.69	27205.29
693.037	27299.75
693.383	27023.15
693.73	27107.44
694.077	26995.8
694.423	27033.99
694.769	26798.29
695.116	26825.64
695.462	26833.77
695.808	26763.27
696.155	26777.73
696.501	26550.62
696.847	26532.54
697.193	26313.33
697.539	26454.57
697.885	26251.64
698.231	26185.43
698.577	26246.67
698.923	26095.94
699.269	26142.49
699.614	25962.16
699.96	25730.07
700.306	25868.83
700.651	25772.1
700.997	25697.08
701.342	25543.41
701.688	25609.4
702.033	25457.76
702.379	25489.4
702.724	25293.93
703.069	25474.49
703.415	25086.93
703.76	25237.66
704.105	25167.37
704.45	25101.39
704.795	25019.13
705.14	24911.56
705.485	24980.71
705.83	24747.72
706.175	24824.56
706.52	24729.87
706.865	24624.79
707.209	24634.06
707.554	24466.83
707.899	24717.22
708.243	24392.25
708.588	24354.97
708.932	24104.13
709.277	24303.89
709.621	24238.59
709.966	24057.8
710.31	24184.12
710.654	23906.17
710.998	23993.17
711.342	24070
711.687	23881.08
712.031	23774.19
712.375	23643.35
712.719	23727.19
713.063	23641.31
713.407	23667.3
713.75	23568.32
714.094	23550.02
714.438	23438.38
714.782	23603.57
715.125	23369.23
715.469	23422.34
715.812	23295.56
716.156	23118.62
716.499	23136.69
716.843	23200.87
717.186	23004.72
717.53	23165.17
717.873	23132.85
718.216	23142.12
718.559	22953.42
718.902	22879.53
719.246	22877.72
719.589	22765.63
719.932	22711.17
720.275	22653.09
720.617	22683.15
720.96	22681.34
721.303	22669.81
721.646	22584.17
721.989	22557.27
722.331	22553.88
722.674	22443.6
723.016	22528.8
723.359	22359.77
723.701	22358.41
724.044	22277.73
724.386	22139.21
724.729	22237.96
725.071	22190.96
725.413	22103.5
725.755	22091.52
726.097	22103.5
726.439	21947.57
726.782	21973.56
727.124	22116.61
727.465	21920.45
727.807	21920.23
728.149	21879.33
728.491	21707.35
728.833	21892.66
729.175	21701.93
729.516	21792.55
729.858	21769.05
730.199	21710.06
730.541	21583.97
730.882	21609.5
731.224	21658.31
731.565	21515.95
731.906	21535.15
732.248	21540.8
732.589	21430.3
732.93	21350.75
733.271	21344.42
733.612	21275.5
733.953	21400.02
734.294	21263.97
734.635	21157.31
734.976	21179.01
735.317	21077.76
735.658	21226.46
735.999	21131.77
736.339	21077.76
736.68	21160.25
737.021	20941.05
737.361	20834.83
737.702	20963.42
738.042	20975.39
738.383	20815.62
738.723	20909.41
739.063	20816.3
739.404	20783.76
739.744	20820.14
740.084	20696.53
740.424	20753.25
740.764	20719.58
741.104	20689.3
741.444	20501.51
741.784	20526.37
742.124	20504.9
742.464	20627.16
742.804	20506.03
743.143	20399.36
743.483	20450.66
743.823	20424.22
744.162	20303.77
744.502	20368.18
744.841	20318.69
745.181	20461.96
745.52	20334.73
745.86	20185.81
746.199	20344.45
746.538	20109.2
746.877	20264.45
747.216	20173.16
747.556	20045.48
747.895	20104.46
748.234	19908.3
748.573	19992.14
748.911	19898.59
749.25	19809.78
749.589	19703.34
749.928	19760.29
750.267	19809.55
750.605	19779.04
750.944	19688.65
751.283	19641.42
751.621	19673.73
751.96	19499.73
752.298	19579.27
752.636	19437.58
752.975	19399.62
753.313	19283.46
753.651	19372.5
753.989	19290.24
