Data from breadboard_black_back_FLMS001491_00057.txt Node
Date: Wed Feb 08 10:50:35 GMT 2017
User: dcchb
Spectrometer: FLMS00149
Trigger mode: 0
Integration Time (sec): 2.000000E-2
Scans to average: 10
Electric dark correction enabled: true
Nonlinearity correction enabled: false
Boxcar width: 0
XAxis mode: Wavelengths
Number of Pixels in Spectrum: 2048
>>>>>Begin Spectral Data<<<<<
341.393	-24.8
341.776	-24.8
342.16	-24.8
342.543	-72.71
342.927	-46.72
343.31	-74.97
343.693	-91.69
344.077	-43.33
344.46	-51.47
344.843	-41.07
345.226	-43.11
345.61	-16.89
345.993	-15.31
346.376	0.96
346.759	-2.66
347.142	25.37
347.525	29.89
347.908	59.04
348.291	69.89
348.674	79.15
349.057	116.21
349.44	129.09
349.823	160.73
350.206	164.57
350.588	216.77
350.971	215.19
351.354	230.78
351.737	247.51
352.119	255.42
352.502	276.89
352.884	281.63
353.267	271.24
353.65	285.47
354.032	295.42
354.414	304.23
354.797	307.62
355.179	325.7
355.562	313.27
355.944	327.28
356.326	344.68
356.709	334.28
357.091	344
357.473	341.52
357.855	367.96
358.238	341.52
358.62	360.72
359.002	360.72
359.384	340.16
359.766	347.39
360.148	337.22
360.53	345.81
360.912	353.49
361.294	357.34
361.676	325.92
362.057	343.1
362.439	337.9
362.821	331.8
363.203	343.55
363.584	340.39
363.966	326.38
364.348	343.78
364.729	321.4
365.111	344.23
365.493	365.24
365.874	338.13
366.256	349.2
366.637	319.82
367.019	321.63
367.4	327.73
367.781	311.46
368.163	339.26
368.544	344.45
368.925	348.75
369.306	327.05
369.688	343.78
370.069	327.28
370.45	347.17
370.831	327.73
371.212	344
371.593	334.51
371.974	337
372.355	345.81
372.736	350.1
373.117	351.23
373.498	369.09
373.879	355.98
374.26	332.7
374.641	336.77
375.021	366.37
375.402	355.08
375.783	360.5
376.163	368.63
376.544	377.9
376.925	387.84
377.305	375.41
377.686	382.87
378.066	381.29
378.447	378.58
378.827	385.36
379.208	391.23
379.588	391.01
379.968	378.8
380.349	406.15
380.729	380.61
381.109	388.07
381.489	384.45
381.87	389.88
382.25	389.65
382.63	411.35
383.01	404.34
383.39	408.18
383.77	397.11
384.15	422.87
384.53	433.94
384.91	413.83
385.29	421.51
385.67	410.89
386.049	422.19
386.429	441.4
386.809	411.35
387.189	433.27
387.568	434.4
387.948	435.98
388.328	450.89
388.707	428.52
389.087	442.53
389.466	435.98
389.846	447.5
390.225	467.61
390.605	468.97
390.984	449.08
391.363	469.2
391.743	489.99
392.122	479.37
392.501	477.33
392.881	478.24
393.26	489.54
393.639	504.9
394.018	508.52
394.397	506.94
394.776	498.12
395.155	494.51
395.534	503.77
395.913	506.48
396.292	535.86
396.671	516.2
397.05	530.21
397.429	517.33
397.808	526.6
398.186	521.62
398.565	535.86
398.944	521.62
399.323	543.09
399.701	531.79
400.08	540.83
400.458	541.51
400.837	541.96
401.215	557.33
401.594	575.63
401.972	575.86
402.351	564.11
402.729	582.41
403.107	593.94
403.486	577.22
403.864	582.19
404.242	588.74
404.62	605.92
404.999	603.66
405.377	614.5
405.755	614.28
406.133	628.29
406.511	630.1
406.889	664.45
407.267	663.54
407.645	657.44
408.023	660.38
408.401	681.39
408.779	666.48
409.156	692.24
409.534	691.34
409.912	693.15
410.29	717.33
410.667	714.16
411.045	703.31
411.422	738.57
411.8	731.79
412.178	746.93
412.555	761.84
412.933	782.63
413.31	777.66
413.687	789.64
414.065	789.87
414.442	775.4
414.819	785.8
415.197	798.23
415.574	809.07
415.951	845.01
416.328	817.21
416.705	831
417.082	850.66
417.46	854.5
417.837	856.53
418.214	863.76
418.591	872.58
418.967	900.15
419.344	908.28
419.721	881.84
420.098	891.33
420.475	890.65
420.852	910.54
421.228	923.65
421.605	923.87
421.982	972.01
422.358	945.57
422.735	973.14
423.111	978.34
423.488	991.44
423.864	983.31
424.241	1013.82
424.617	1014.72
424.994	998.67
425.37	1031.22
425.746	1066.47
426.123	1012.23
426.499	1071.21
426.875	1082.51
427.251	1095.85
427.627	1094.49
428.003	1114.38
428.379	1105.79
428.756	1111.44
429.132	1152.34
429.507	1156.41
429.883	1205.22
430.259	1177.43
430.635	1186.24
431.011	1209.06
431.387	1228.95
431.763	1268.95
432.138	1276.18
432.514	1245
432.89	1274.83
433.265	1296.75
433.641	1322.73
434.016	1327.25
434.392	1348.27
434.767	1378.33
435.143	1382.39
435.518	1383.52
435.894	1397.31
436.269	1451.09
436.644	1441.37
437.02	1468.72
437.395	1469.85
437.77	1498.77
438.145	1504.88
438.52	1519.79
438.895	1506.91
439.271	1527.02
439.646	1574.7
440.021	1552.56
440.395	1566.34
440.77	1552.33
441.145	1619
441.52	1633.69
441.895	1624.42
442.27	1644.31
442.645	1640.69
443.019	1659.22
443.394	1668.71
443.769	1686.34
444.143	1677.75
444.518	1722.95
444.892	1719.79
445.267	1720.69
445.641	1727.24
446.016	1764.98
446.39	1804.75
446.764	1781.93
447.139	1801.14
447.513	1787.13
447.887	1804.98
448.262	1836.84
448.636	1821.48
449.01	1848.82
449.384	1895.6
449.758	1884.75
450.132	1916.16
450.506	1929.05
450.88	1913
451.254	1908.71
451.628	1954.81
452.002	1981.93
452.376	1985.54
452.75	2017.63
453.123	2053.79
453.497	2092.66
453.871	2073.9
454.244	2140.57
454.618	2145.08
454.992	2141.02
455.365	2186.67
455.739	2217.4
456.112	2254.46
456.486	2327.68
456.859	2269.83
457.232	2320
457.606	2328.58
457.979	2341.24
458.352	2400.45
458.725	2431.63
459.099	2441.35
459.472	2495.13
459.845	2526.09
460.218	2527.67
460.591	2564.96
460.964	2602.47
461.337	2655.81
461.71	2671.62
462.083	2714.79
462.456	2715.47
462.829	2760.21
463.201	2759.53
463.574	2765.18
463.947	2835.69
464.32	2875.01
464.692	2899.42
465.065	2907.1
465.438	2954.1
465.81	3000.66
466.183	3108.22
466.555	3138.05
466.928	3160.65
467.3	3142.35
467.672	3212.4
468.045	3299.86
468.417	3279.52
468.789	3319.97
469.161	3339.18
469.534	3433.86
469.906	3491.49
470.278	3500.3
470.65	3568.32
471.022	3614.42
471.394	3665.95
471.766	3689
472.138	3758.15
472.51	3843.8
472.882	3897.36
473.253	3958.37
473.625	3998.14
473.997	4093.51
474.369	4108.42
474.74	4180.74
475.112	4236.33
475.484	4293.5
475.855	4330.11
476.227	4397.68
476.598	4482.88
476.97	4540.95
477.341	4649.88
477.713	4718.35
478.084	4739.14
478.455	4899.59
478.827	4912.7
479.198	5074.27
479.569	5093.93
479.94	5241.5
480.311	5291.22
480.682	5410.76
481.053	5486.01
481.424	5615.73
481.795	5633.58
482.166	5690.3
482.537	5802.84
482.908	5922.61
483.279	5973.23
483.65	6107.24
484.021	6162.38
484.391	6268.82
484.762	6361.92
485.133	6430.85
485.503	6447.8
485.874	6622.26
486.244	6695.25
486.615	6844.85
486.985	6847.79
487.356	7017.95
487.726	7037.61
488.097	7213.65
488.467	7231.5
488.837	7433.99
489.207	7472.4
489.578	7524.38
489.948	7642.34
490.318	7790.13
490.688	7796.91
491.058	7974.31
491.428	8060.41
491.798	8123.01
492.168	8317.8
492.538	8345.6
492.908	8435.31
493.278	8519.61
493.648	8523.22
494.017	8620.39
494.387	8756.89
494.757	8801.41
495.126	8908.75
495.496	8990.1
495.866	9024.68
496.235	9147.16
496.605	9265.58
496.974	9254.95
497.344	9381.73
497.713	9404.55
498.082	9502.63
498.452	9595.74
498.821	9646.81
499.19	9704.43
499.559	9773.36
499.928	9919.12
500.298	9929.74
500.667	10115.95
501.036	9983.07
501.405	10125.21
501.774	10198.21
502.143	10318.66
502.512	10337.41
502.88	10423.51
503.249	10458.09
503.618	10528.59
503.987	10566.11
504.356	10685.2
504.724	10712.32
505.093	10828.92
505.462	10888.36
505.83	10962.25
506.199	11035.7
506.567	11117.28
506.936	11163.6
507.304	11343.71
507.672	11411.28
508.041	11425.07
508.409	11583.25
508.777	11625.06
509.145	11740.54
509.514	11678.17
509.882	11816.69
510.25	11802.46
510.618	11989.12
510.986	12081.32
511.354	12142.34
511.722	12281.32
512.09	12365.16
512.458	12382.78
512.826	12455.1
513.193	12572.61
513.561	12611.93
513.929	12795.65
514.297	12964.46
514.664	12988.87
515.032	13096.89
515.4	13155.19
515.767	13235.19
516.135	13273.15
516.502	13271.12
516.869	13549.53
517.237	13575.29
517.604	13554.05
517.972	13733.93
518.339	13820.26
518.706	13895.74
519.073	14011.67
519.44	14095.05
519.808	14207.37
520.175	14206.69
520.542	14458.43
520.909	14600.58
521.276	14649.61
521.643	14684.87
522.009	14964.41
522.376	14948.36
522.743	15010.74
523.11	15171.41
523.477	15291.86
523.843	15435.13
524.21	15647.1
524.577	15718.74
524.943	15792.41
525.31	15858.85
525.676	16112.63
526.043	16176.81
526.409	16240.99
526.776	16507.19
527.142	16502.45
527.508	16617.47
527.874	16740.63
528.241	16826.96
528.607	16954.64
528.973	17140.4
529.339	17111.02
529.705	17298.13
530.071	17407.96
530.437	17557.11
530.803	17627.16
531.169	17691.79
531.535	17779.48
531.901	17935.4
532.267	17970.88
532.632	17987.15
532.998	18038.68
533.364	18218.56
533.73	18259.24
534.095	18502.85
534.461	18508.27
534.826	18569.51
535.192	18628.95
535.557	18755.27
535.923	18843.18
536.288	18909.84
536.653	19060.8
537.019	19029.39
537.384	19132.43
537.749	19275.48
538.114	19378.98
538.479	19324.75
538.845	19407.91
539.21	19549.82
539.575	19586.43
539.94	19708.46
540.305	19756.15
540.67	19721.8
541.034	19817.16
541.399	19902.81
541.764	19926.31
542.129	20104.84
542.494	20120.21
542.858	20160.66
543.223	20219.64
543.587	20397.49
543.952	20418.28
544.316	20564.71
544.681	20437.49
545.045	20621.44
545.41	20695.33
545.774	20844.71
546.138	20761.32
546.503	20970.58
546.867	20810.81
547.231	21271.81
547.595	21146.17
547.959	21175.09
548.324	21256.67
548.688	21281.98
549.052	21426.61
549.416	21551.81
549.779	21555.87
550.143	21579.38
550.507	21761.74
550.871	21774.63
551.235	21842.65
551.599	22029.08
551.962	21987.27
552.326	22149.76
552.689	22307.04
553.053	22198.12
553.417	22317.66
553.78	22517.43
554.143	22493.7
554.507	22577.09
554.87	22779.12
555.234	22948.83
555.597	22822.28
555.96	22952.22
556.323	22985.44
556.686	23135.95
557.05	23357.86
557.413	23324.64
557.776	23419.55
558.139	23538.87
558.502	23549.49
558.865	23630.62
559.228	23857.28
559.59	23958.97
559.953	23993.32
560.316	24238.74
560.679	24248.01
561.041	24359.42
561.404	24498.17
561.767	24637.37
562.129	24563.48
562.492	24858.61
562.854	24780.87
563.217	24821.1
563.579	25022
563.941	25202.56
564.304	25238.26
564.666	25424.47
565.028	25381.31
565.39	25431.93
565.753	25702.66
566.115	25798.47
566.477	25894.29
566.839	26023.33
567.201	26277.11
567.563	26275.98
567.925	26403.2
568.287	26373.15
568.648	26531.56
569.01	26588.28
569.372	26858.11
569.734	26719.58
570.095	26943.75
570.457	27038.67
570.819	27190.08
571.18	27055.16
571.542	27221.71
571.903	27262.62
572.265	27477.75
572.626	27434.59
572.987	27533.12
573.349	27616.28
573.71	27720.68
574.071	27791.87
574.432	27884.97
574.794	28112.99
575.155	28076.61
575.516	28010.39
575.877	28169.94
576.238	28209.71
576.599	28336.26
576.96	28275.7
577.32	28400.67
577.681	28394.79
578.042	28692.86
578.403	28614.22
578.763	28579.19
579.124	28643.6
579.485	28682.24
579.845	28823.03
580.206	28844.04
580.566	28813.76
580.927	28842.46
581.287	29057.15
581.648	28768.57
582.008	29030.93
582.368	28964.49
582.728	29059.63
583.089	29021.67
583.449	28986.19
583.809	29073.19
584.169	29168.78
584.529	29181.66
584.889	29343.01
585.249	29014.21
585.609	29082
585.969	29254.88
586.329	29070.25
586.688	29194.32
587.048	29152.74
587.408	29196.35
587.768	29186.41
588.127	29129.46
588.487	29106.18
588.846	29225.5
589.206	29048.11
589.565	29238.16
589.925	29363.35
590.284	29329.91
590.643	29291.04
591.003	29277.25
591.362	29347.53
591.721	29362
592.08	29362.67
592.44	29534.87
592.799	29385.95
593.158	29293.3
593.517	29431.37
593.876	29442.45
594.235	29302.79
594.593	29439.96
594.952	29426.63
595.311	29454.65
595.67	29432.28
596.029	29610.35
596.387	29588.66
596.746	29789.33
597.104	29641.76
597.463	29578.49
597.822	29828.42
598.18	29557.47
598.538	29607.41
598.897	29868.88
599.255	29474.54
599.613	29874.07
599.972	29789.1
600.33	29925.82
600.688	29781.42
601.046	29716.56
601.404	29842.44
601.762	29854.64
602.12	30015.09
602.478	30166.95
602.836	30074.29
603.194	29890.34
603.552	30056.22
603.91	30011.7
604.268	30020.74
604.625	30113.16
604.983	30107.51
605.341	29959.72
605.698	30236.78
606.056	30268.87
606.413	30229.32
606.771	30306.38
607.128	30275.19
607.485	30264.12
607.843	30306.83
608.2	30492.59
608.557	30526.71
608.914	30460.05
609.272	30568.52
609.629	30587.27
609.986	30866.82
610.343	30505.92
610.7	30940.26
611.057	30624.34
611.414	30739.14
611.771	30801.28
612.127	30915.63
612.484	30834.95
612.841	30927.6
613.198	30811
613.554	30885.8
613.911	31098.45
614.267	31034.04
614.624	31121.05
614.98	31186.13
615.337	31138.22
615.693	31115.17
616.05	31120.14
616.406	31394.03
616.762	31243.08
617.118	31217.31
617.475	31252.57
617.831	31452.34
618.187	31430.42
618.543	31419.34
618.899	31642.84
619.255	31550.41
619.611	31536.63
619.967	31484.2
620.323	31663.86
620.678	31564.2
621.034	31418.67
621.39	31475.16
621.746	31427.48
622.101	31777.53
622.457	31550.19
622.812	31730.75
623.168	31749.5
623.523	31594.25
623.879	31815.27
624.234	31521.49
624.589	31665.21
624.945	31751.99
625.3	31714.48
625.655	31712.67
626.01	31676.29
626.365	31697.3
626.72	31636.06
627.075	31697.08
627.43	31769.84
627.785	31618.21
628.14	31725.78
628.495	31631.77
628.85	31665.66
629.205	31493.24
629.559	31650.98
629.914	31530.98
630.269	31466.35
630.623	31478.55
630.978	31337.99
631.332	31568.27
631.687	31662.95
632.041	31430.42
632.396	31439.68
632.75	31326.69
633.104	31413.92
633.459	31405.33
633.813	31236.98
634.167	31182.06
634.521	31276.75
634.875	31234.04
635.229	31099.58
635.583	31025.46
635.937	31133.48
636.291	31077.43
636.645	31079.01
636.999	30945.46
637.352	31013.25
637.706	30907.72
638.06	30992.46
638.413	30892.58
638.767	30892.8
639.121	30863.65
639.474	30735.52
639.828	30762.41
640.181	30743.88
640.534	30770.77
640.888	30529.65
641.241	30447.62
641.594	30502.08
641.947	30665.46
642.301	30621.85
642.654	30539.14
643.007	30594.73
643.36	30407.84
643.713	30423.89
644.066	30464.79
644.419	30331.24
644.771	30241.52
645.124	29918.82
645.477	29817.13
645.83	29614.65
646.182	29380.98
646.535	29396.8
646.888	29454.65
647.24	29195.9
647.593	29382.56
647.945	29315.44
648.298	29206.97
648.65	29082.23
649.002	29074.77
649.355	29160.65
649.707	29164.71
650.059	29252.85
650.411	29772.83
650.763	29613.06
651.115	29995.43
651.467	29761.08
651.819	29777.58
652.171	29689.45
652.523	29555.66
652.875	29602.44
653.227	29430.02
653.578	29766.96
653.93	29536.46
654.282	29567.64
654.633	29423.46
654.985	29503.69
655.337	29625.72
655.688	29423.92
656.039	29623.91
656.391	29269.57
656.742	29378.04
657.094	29416.91
657.445	29577.36
657.796	29465.95
658.147	29291.26
658.498	29303.24
658.849	29361.09
659.2	29295.11
659.551	29200.64
659.902	29295.56
660.253	29212.62
660.604	29293.07
660.955	29062.34
661.306	29253.75
661.656	29172.62
662.007	29124.49
662.358	29205.16
662.708	28997.49
663.059	29173.3
663.409	28984.61
663.76	29216.92
664.11	29101.21
664.461	29078.84
664.811	29017.6
665.161	29037.94
665.511	28934.66
665.862	29107.99
666.212	29125.39
666.562	29075.9
666.912	29027.77
667.262	28981.44
667.612	28840.88
667.962	28933.76
668.312	28887.66
668.662	28990.48
669.011	28920.43
669.361	28874.55
669.711	28843.82
670.06	28888.56
670.41	28765.63
670.76	28792.07
671.109	28831.39
671.459	28801.33
671.808	28769.24
672.157	28693.77
672.507	28524.96
672.856	28650.15
673.205	28655.12
673.554	28693.09
673.904	28544.16
674.253	28715.01
674.602	28604.28
674.951	28203.83
675.3	28209.03
675.649	28478.4
675.998	28548.23
676.346	28460.78
676.695	28694.67
677.044	28294.91
677.393	28284.74
677.741	28353.89
678.09	28376.26
678.438	28272.08
678.787	28332.64
679.135	28388.91
679.484	28118.41
679.832	28380.1
680.181	28041.58
680.529	28258.07
680.877	28127
681.225	28011.07
681.573	28332.19
681.922	27970.62
682.27	27991.86
682.618	28008.36
682.966	27873.45
683.314	27990.96
683.661	27767.01
684.009	27668.03
684.357	27783.51
684.705	27728.37
685.053	27627.58
685.4	27542.38
685.748	27530.63
686.095	27500.35
686.443	27337.19
686.79	27271.66
687.138	27233.69
687.485	27418.09
687.832	27151.21
688.18	27167.7
688.527	27084.99
688.874	27110.08
689.221	27016.3
689.568	26958.44
689.915	26955.96
690.262	26870.54
690.609	26953.92
690.956	26748.73
691.303	26711.67
691.65	26525.69
691.997	26562.52
692.344	26419.02
692.69	26383.77
693.037	26371.11
693.383	26180.84
693.73	26220.16
694.077	26094.29
694.423	26056.77
694.769	26094.29
695.116	25970.45
695.462	25970.22
695.808	25683
696.155	25782.43
696.501	25731.81
696.847	25648.65
697.193	25450.69
697.539	25555.99
697.885	25394.42
698.231	25327.3
698.577	25241.2
698.923	25294.53
699.269	25104.26
699.614	24902.9
699.96	24919.85
700.306	24988.78
700.651	24803.25
700.997	24807.09
701.342	24718.95
701.688	24819.52
702.033	24496.36
702.379	24565.96
702.724	24505.63
703.069	24653.65
703.415	24255.69
703.76	24289.14
704.105	24305.63
704.45	24252.07
704.795	24135.92
705.14	24055.47
705.485	24062.93
705.83	23906.77
706.175	23976.15
706.52	23862.48
706.865	23782.71
707.209	23724.86
707.554	23727.34
707.899	23676.95
708.243	23597.85
708.588	23559.44
708.932	23404.64
709.277	23447.58
709.621	23427.01
709.966	23206
710.31	23306.34
710.654	23146.11
710.998	23094.82
711.342	23144.76
711.687	23090.97
712.031	23093.69
712.375	22872.22
712.719	22991.77
713.063	22824.54
713.407	23024.08
713.75	22867.93
714.094	22709.29
714.438	22732.34
714.782	22628.61
715.125	22600.59
715.469	22593.36
715.812	22491.22
716.156	22385.23
716.499	22486.92
716.843	22480.6
717.186	22256.19
717.53	22360.82
717.873	22431.33
718.216	22309.75
718.559	22263.43
718.902	22075.63
719.246	22099.81
719.589	22043.54
719.932	21999.48
720.275	21989.31
720.617	22024.11
720.96	21887.84
721.303	21978.69
721.646	21894.62
721.989	21638.13
722.331	21872.25
722.674	21734.4
723.016	21689.2
723.359	21655.08
723.701	21705.47
724.044	21542.31
724.386	21475.42
724.729	21542.31
725.071	21477.46
725.413	21397.91
725.755	21453.28
726.097	21371.92
726.439	21303
726.782	21257.58
727.124	21399.04
727.465	21103.91
727.807	21178.48
728.149	21142.55
728.491	21155.66
728.833	21130.57
729.175	21011.26
729.516	20998.15
729.858	20831.83
730.199	20988.66
730.541	20908.43
730.882	20889.68
731.224	20946.4
731.565	20784.14
731.906	20843.12
732.248	20893.52
732.589	20696.24
732.93	20605.84
733.271	20606.52
733.612	20654.2
733.953	20593.87
734.294	20565.84
734.635	20555.45
734.976	20525.39
735.317	20440.65
735.658	20502.34
735.999	20548.44
736.339	20289.24
736.68	20430.03
737.021	20229.81
737.361	20298.28
737.702	20236.36
738.042	20310.26
738.383	20241.33
738.723	20248.34
739.063	20120.21
739.404	20251.28
739.744	20090.83
740.084	20154.78
740.424	19974.22
740.764	20003.15
741.104	20030.72
741.444	19953.66
741.784	19821
742.124	19942.81
742.464	19813.55
742.804	19887.9
743.143	19873.66
743.483	19806.99
743.823	19729.71
744.162	19675.47
744.502	19820.55
744.841	19653.78
745.181	19656.71
745.52	19705.3
745.86	19515.02
746.199	19518.87
746.538	19533.33
746.877	19498.75
747.216	19557.28
747.556	19499.43
747.895	19388.02
748.234	19296.27
748.573	19307.35
748.911	19232.32
749.25	19260.57
749.589	19141.47
749.928	19152.55
750.267	19121.81
750.605	19075.71
750.944	19032.1
751.283	19040.46
751.621	19059.67
751.96	18903.97
752.298	18865.55
752.636	18880.69
752.975	18806.79
753.313	18632.33
753.651	18786.46
753.989	18689.06
754.327	18582.17
754.666	18478.21
