Data from breadboard_white_FLMS001491_00067.txt Node
Date: Wed Feb 08 10:48:06 GMT 2017
User: dcchb
Spectrometer: FLMS00149
Trigger mode: 0
Integration Time (sec): 2.000000E-2
Scans to average: 10
Electric dark correction enabled: true
Nonlinearity correction enabled: false
Boxcar width: 0
XAxis mode: Wavelengths
Number of Pixels in Spectrum: 2048
>>>>>Begin Spectral Data<<<<<
341.393	-5.93
341.776	-5.93
342.16	-5.93
342.543	-72.37
342.927	-70.11
343.31	-66.27
343.693	-60.62
344.077	-62.2
344.46	-41.41
344.843	-40.96
345.226	-54.52
345.61	-49.09
345.993	-22.88
346.376	-4.8
346.759	14.41
347.142	26.84
347.525	36.55
347.908	55.99
348.291	80.85
348.674	91.01
349.057	97.12
349.44	107.74
349.823	133.95
350.206	176.21
350.588	188.41
350.971	211.92
351.354	225.02
351.737	251.01
352.119	269.31
352.502	259.15
352.884	299.6
353.267	307.51
353.65	273.38
354.032	302.31
354.414	302.76
354.797	349.31
355.179	322.42
355.562	324.45
355.944	349.54
356.326	335.75
356.709	349.54
357.091	352.25
357.473	363.78
357.855	337.79
358.238	372.36
358.62	343.44
359.002	347.28
359.384	375.3
359.766	358.35
360.148	351.35
360.53	354.28
360.912	353.15
361.294	352.25
361.676	345.02
362.057	356.77
362.439	341.18
362.821	349.99
363.203	329.88
363.584	347.73
363.966	356.54
364.348	328.3
364.729	328.3
365.111	326.49
365.493	338.92
365.874	330.78
366.256	335.3
366.637	353.15
367.019	350.67
367.4	346.15
367.781	336.43
368.163	334.85
368.544	354.74
368.925	349.99
369.306	335.53
369.688	329.88
370.069	332.36
370.45	359.71
370.831	356.32
371.212	349.31
371.593	341.86
371.974	336.88
372.355	353.61
372.736	350.44
373.117	358.8
373.498	357.22
373.879	350.44
374.26	346.38
374.641	339.14
375.021	343.21
375.402	364.68
375.783	374.17
376.163	367.39
376.544	369.65
376.925	355.19
377.305	353.83
377.686	368.07
378.066	377.79
378.447	377.33
378.827	364.45
379.208	397
379.588	378.01
379.968	395.64
380.349	390.44
380.729	379.82
381.109	370.1
381.489	390.67
381.87	395.41
382.25	389.09
382.63	392.02
383.01	401.74
383.39	402.64
383.77	394.28
384.15	426.82
384.53	412.81
384.91	404.45
385.29	412.14
385.67	420.72
386.049	417.79
386.429	432.02
386.809	451.01
387.189	446.49
387.568	420.5
387.948	425.02
388.328	447.84
388.707	454.85
389.087	466.82
389.466	463.43
389.846	445.36
390.225	455.75
390.605	481.74
390.984	460.5
391.363	484
391.743	499.37
392.122	480.83
392.501	483.77
392.881	496.43
393.26	491.91
393.639	514.96
394.018	533.04
394.397	487.84
394.776	518.35
395.155	523.32
395.534	540.27
395.913	534.39
396.292	533.04
396.671	568.97
397.05	574.84
397.429	567.39
397.808	561.06
398.186	595.63
398.565	581.85
398.944	594.05
399.323	602.64
399.701	589.98
400.08	624.11
400.458	627.27
400.837	650.1
401.215	647.38
401.594	658.23
401.972	631.79
402.351	671.56
402.729	683.32
403.107	704.33
403.486	663.65
403.864	688.74
404.242	723.77
404.62	730.55
404.999	737.78
405.377	766.25
405.755	752.01
406.133	754.95
406.511	794.95
406.889	804.44
407.267	821.62
407.645	809.64
408.023	844.67
408.401	846.7
408.779	853.03
409.156	874.5
409.534	909.52
409.912	911.78
410.29	924.44
410.667	955.17
411.045	952.46
411.422	962.4
411.8	992.23
412.178	1036.75
412.555	1023.19
412.933	1056.64
413.31	1079.46
413.687	1092.8
414.065	1102.97
414.442	1115.85
414.819	1129.63
415.197	1156.98
415.574	1169.86
415.951	1186.58
416.328	1218.89
416.705	1225.9
417.082	1214.37
417.46	1250.08
417.837	1289.85
418.214	1278.55
418.591	1293.24
418.967	1285.33
419.344	1356.74
419.721	1360.81
420.098	1339.57
420.475	1392.22
420.852	1387.7
421.228	1401.26
421.605	1415.27
421.982	1435.39
422.358	1474.93
422.735	1496.63
423.111	1468.61
423.488	1493.01
423.864	1520.13
424.241	1575.5
424.617	1552.45
424.994	1589.05
425.37	1590.64
425.746	1606.23
426.123	1615.49
426.499	1655.95
426.875	1661.59
427.251	1707.02
427.627	1757.64
428.003	1793.12
428.379	1777.07
428.756	1781.82
429.132	1850.97
429.507	1855.04
429.883	1865.21
430.259	1909.72
430.635	1909.05
431.011	1922.15
431.387	1984.3
431.763	2024.75
432.138	2042.83
432.514	2055.26
432.89	2057.97
433.265	2115.82
433.641	2145.2
434.016	2151.75
434.392	2161.02
434.767	2250.96
435.143	2250.51
435.518	2296.61
435.894	2262.03
436.269	2357.85
436.644	2368.24
437.02	2363.05
437.395	2402.14
437.77	2424.06
438.145	2468.35
438.52	2523.72
438.895	2530.27
439.271	2532.76
439.646	2586.54
440.021	2594.23
440.395	2634.45
440.77	2584.28
441.145	2655.01
441.52	2691.62
441.895	2716.71
442.27	2739.08
442.645	2727.56
443.019	2802.58
443.394	2765.29
443.769	2798.51
444.143	2788.34
444.518	2860.66
444.892	2845.74
445.267	2857.04
445.641	2882.58
446.016	2904.05
446.39	2936.82
446.764	2967.1
447.139	2957.61
447.513	3007.55
447.887	3015.46
448.262	3027.89
448.636	3031.73
449.01	3135.23
449.384	3125.06
449.758	3155.79
450.132	3185.85
450.506	3204.38
450.88	3230.82
451.254	3226.53
451.628	3309.24
452.002	3310.59
452.376	3368.67
452.75	3384.71
453.123	3428.33
453.497	3437.59
453.871	3516.46
454.244	3574.99
454.618	3610.92
454.992	3635.1
455.365	3627.64
455.739	3771.82
456.112	3783.8
456.486	3810.69
456.859	3844.14
457.232	3952.38
457.606	3914.87
457.979	3964.81
458.352	4060.85
458.725	4076.45
459.099	4136.33
459.472	4210
459.845	4262.88
460.218	4290.68
460.591	4325.03
460.964	4369.09
461.337	4449.32
461.71	4565.93
462.083	4603.89
462.456	4631.01
462.829	4606.6
463.201	4694.28
463.574	4734.96
463.947	4836.88
464.32	4897.44
464.692	4902.41
465.065	5001.85
465.438	5077.32
465.81	5106.02
466.183	5160.49
466.555	5318.22
466.928	5332.46
467.3	5328.84
467.672	5424.89
468.045	5595.5
468.417	5565.67
468.789	5607.25
469.161	5674.37
469.534	5787.36
469.906	5905.78
470.278	5921.37
470.65	6026.9
471.022	6100.12
471.394	6267.8
471.766	6302.6
472.138	6339.89
472.51	6528.36
472.882	6599.77
473.253	6784.4
473.625	6771.74
473.997	6966.31
474.369	6998.18
474.74	7046.99
475.112	7268
475.484	7355.91
475.855	7433.87
476.227	7538.73
476.598	7721.32
476.97	7770.36
477.341	7968.77
477.713	8126.96
478.084	8131.03
478.455	8353.85
478.827	8406.5
479.198	8739.6
479.569	8642.2
479.94	8938.01
480.311	9011.91
480.682	9214.39
481.053	9457.1
481.424	9559.24
481.795	9645.11
482.166	9789.06
482.537	9952.22
482.908	10182.27
483.279	10237.19
483.65	10413.91
484.021	10605.77
484.391	10824.07
484.762	10867.68
485.133	11024.96
485.503	11153.32
485.874	11360.32
486.244	11519.19
486.615	11680.09
486.985	11898.61
487.356	12048.67
487.726	12191.71
488.097	12470.12
488.467	12519.16
488.837	12760.29
489.207	12870.79
489.578	13054.97
489.948	13178.35
490.318	13372.47
490.688	13419.48
491.058	13698.79
491.428	13906.7
491.798	13914.38
492.168	14249.06
492.538	14330.19
492.908	14483.63
493.278	14642.5
493.648	14644.3
494.017	14866.45
494.387	15049.27
494.757	15193.44
495.126	15320.67
495.496	15473.21
495.866	15559.76
496.235	15658.06
496.605	15868.45
496.974	15930.37
497.344	16100.09
497.713	16196.81
498.082	16348.89
498.452	16514.76
498.821	16607.19
499.19	16671.37
499.559	16756.11
499.928	16954.98
500.298	17133.73
500.667	17301.64
501.036	17275.65
501.405	17409.88
501.774	17503.21
502.143	17653.26
502.512	17829.53
502.88	17951.56
503.249	17982.75
503.618	18099.35
503.987	18230.2
504.356	18349.52
504.724	18474.71
505.093	18660.24
505.462	18642.17
505.83	18749.06
506.199	19025.43
506.567	19295.48
506.936	19227.01
507.304	19508.81
507.672	19488.7
508.041	19557.62
508.409	19826.31
508.777	19938.4
509.145	20102.24
509.514	20145.4
509.882	20257.94
510.25	20428.11
510.618	20521.21
510.986	20655.67
511.354	20822.9
511.722	21043.46
512.09	21224.02
512.458	21176.56
512.826	21449.1
513.193	21586.49
513.561	21666.49
513.929	21762.08
514.297	22071.68
514.664	22208.4
515.032	22289.75
515.4	22480.03
515.767	22599.35
516.135	22803.19
516.502	22739.01
516.869	23168.15
517.237	23212.89
517.604	23197.98
517.972	23517.07
518.339	23669.83
518.706	23777.17
519.073	23959.54
519.44	24042.93
519.808	24330.83
520.175	24345.74
520.542	24715.9
520.909	24784.6
521.276	24876.13
521.643	24976.91
522.009	25371.71
522.376	25619.83
522.743	25689.21
523.11	26088.52
523.477	26253.04
523.843	26341.85
524.21	26636.08
524.577	26766.25
524.943	27040.81
525.31	27195.39
525.676	27422.27
526.043	27614.13
526.409	27613.23
526.776	28031.07
527.142	28068.81
527.508	28249.37
527.874	28433.55
528.241	28599.64
528.607	28838.51
528.973	28992.63
529.339	28990.59
529.705	29245.5
530.071	29497.02
530.437	29771.59
530.803	29918.7
531.169	30100.85
531.535	30118.93
531.901	30287.06
532.267	30474.85
532.632	30666.48
532.998	30677.33
533.364	30995.96
533.73	31113.93
534.095	31254.94
534.461	31318.22
534.826	31553.92
535.192	31656.51
535.557	31844.76
535.923	31816.73
536.288	31969.95
536.653	32158.42
537.019	32096.27
537.384	32308.7
537.749	32508.69
538.114	32616.94
538.479	32729.03
538.845	32850.38
539.21	32850.61
539.575	33172.63
539.94	32988.91
540.305	33314.1
540.67	33318.16
541.034	33442
541.399	33637.93
541.764	33626.63
542.129	33850.8
542.494	33982.33
542.858	34145.71
543.223	34249.21
543.587	34361.07
543.952	34370.79
544.316	34671.8
544.681	34575.31
545.045	34853.49
545.41	34916.77
545.774	35116.31
546.138	35009.64
546.503	35295.74
546.867	35216.19
547.231	35582.74
547.595	35513.36
547.959	35737.08
548.324	35714.48
548.688	35818.66
549.052	35967.13
549.416	36147.47
549.779	36257.3
550.143	36294.81
550.507	36587
550.871	36599.43
551.235	36613.9
551.599	36818.41
551.962	36883.49
552.326	37192.64
552.689	37443.48
553.053	37310.6
553.417	37286.19
553.78	37786.07
554.143	37643.02
554.507	38003.24
554.87	38007.08
555.234	38238.49
555.597	38111.26
555.96	38384.7
556.323	38551.47
556.686	38560.96
557.05	38847.28
557.413	38989.2
557.776	39197.33
558.139	39233.26
558.502	39470.32
558.865	39410.88
559.228	39824.89
559.59	39941.49
559.953	40066.01
560.316	40483.17
560.679	40563.85
561.041	40694.01
561.404	40772.2
561.767	40939.88
562.129	40996.61
562.492	41310.27
562.854	41409.93
563.217	41472.53
563.579	41601.56
563.941	41847.2
564.304	41942.57
564.666	42237.48
565.028	42429.34
565.39	42484.48
565.753	42836.33
566.115	42964.24
566.477	43082.88
566.839	43115.87
567.201	43465.92
567.563	43460.27
567.925	43869.3
568.287	43676.76
568.648	43796.31
569.01	44088.05
569.372	44331.21
569.734	44330.08
570.095	44678.77
570.457	44717.64
570.819	44803.29
571.18	44885.99
571.542	45030.85
571.903	45153.78
572.265	45323.05
572.626	45348.81
572.987	45530.95
573.349	45647.1
573.71	45763.71
574.071	45910.83
574.432	45913.76
574.794	46257.94
575.155	46071.95
575.516	46068.79
575.877	46199.41
576.238	46363.24
576.599	46450.02
576.96	46413.19
577.32	46631.94
577.681	46814.98
578.042	46897.24
578.403	46800.52
578.763	46882.78
579.124	47047.07
579.485	47041.42
579.845	47236.89
580.206	47234.41
580.566	47053.4
580.927	47151.02
581.287	47442.76
581.648	47159.83
582.008	47403.67
582.368	47274.18
582.728	47404.57
583.089	47350.79
583.449	47287.29
583.809	47407.74
584.169	47334.07
584.529	47320.06
584.889	47715.75
585.249	47539.26
585.609	47355.76
585.969	47543.55
586.329	47454.06
586.688	47418.36
587.048	47444.35
587.408	47365.03
587.768	47514.4
588.127	47461.52
588.487	47361.18
588.846	47725.24
589.206	47355.99
589.565	47438.92
589.925	47667.39
590.284	47483.44
590.643	47579.94
591.003	47655.64
591.362	47733.38
591.721	47639.82
592.08	47599.6
592.44	47865.58
592.799	47715.98
593.158	47530.45
593.517	47603.21
593.876	47766.82
594.235	47625.13
594.593	47925.24
594.952	47749.87
595.311	47628.52
595.67	47689.31
596.029	47876.2
596.387	47888.63
596.746	47956.42
597.104	47819.48
597.463	47904.67
597.822	48011.34
598.18	47829.19
598.538	47794.84
598.897	48048.85
599.255	47748.29
599.613	48330.65
599.972	47935.86
600.33	48026.03
600.688	48050.43
601.046	48216.53
601.404	48288.17
601.762	48147.6
602.12	48475.73
602.478	48449.97
602.836	48521.38
603.194	48315.74
603.552	48278.45
603.91	48324.77
604.268	48424.21
604.625	48369.75
604.983	48615.39
605.341	48239.81
605.698	48504.2
606.056	48495.17
606.413	48528.84
606.771	48677.99
607.128	48689.74
607.485	48505.56
607.843	48660.81
608.2	48761.83
608.557	48842.05
608.914	48804.99
609.272	48953.23
609.629	48991.65
609.986	49050.63
610.343	48941.48
610.7	49227.12
611.057	49211.3
611.414	49128.37
611.771	49219.44
612.127	49317.52
612.484	49300.79
612.841	49393.45
613.198	49220.34
613.554	49321.81
613.911	49665.53
614.267	49549.6
614.624	49384.18
614.98	49637.73
615.337	49714.57
615.693	49654.23
616.05	49573.56
616.406	49816.26
616.762	49665.98
617.118	49645.87
617.475	49623.05
617.831	49740.78
618.187	49772.19
618.543	49828.24
618.899	50043.15
619.255	49945.07
619.611	49876.6
619.967	50088.57
620.323	50030.49
620.678	49864.4
621.034	49939.42
621.39	49951.85
621.746	49810.61
622.101	50288.11
622.457	49873.89
622.812	49903.04
623.168	50056.03
623.523	50071.17
623.879	50163.6
624.234	49957.5
624.589	50047.44
624.945	50120.66
625.3	50208.11
625.655	50135.35
626.01	50167.44
626.365	50070.04
626.72	50075.91
627.075	50006.99
627.43	50035.69
627.785	49823.94
628.14	49863.49
628.495	49892.42
628.85	49966.54
629.205	49853.55
629.559	49976.93
629.914	49827.56
630.269	49903.49
630.623	49766.54
630.978	49719.09
631.332	49891.29
631.687	49893.55
632.041	49660.56
632.396	49794.57
632.75	49605.42
633.104	49728.13
633.459	49506.66
633.813	49508.47
634.167	49522.48
634.521	49563.61
634.875	49503.27
635.229	49463.5
635.583	49275.71
635.937	49252.21
636.291	49135.83
636.645	49233.23
636.999	48977.64
637.352	49180.12
637.706	48814.71
638.06	49137.41
638.413	48899.67
638.767	48903.52
639.121	48962.72
639.474	48833.46
639.828	48772.67
640.181	48822.16
640.534	48822.39
640.888	48600.02
641.241	48546.01
641.594	48630.76
641.947	48657.65
642.301	48387.37
642.654	48566.58
643.007	48484.32
643.36	48396.86
643.713	48364.1
644.066	48434.83
644.419	48210.65
644.771	48033.71
645.124	47673.72
645.477	47611.8
645.83	47315.08
646.182	47095.43
646.535	46952.16
646.888	47065.15
647.24	46789
647.593	47093.17
647.945	46835.77
648.298	46769.11
648.65	46676.23
649.002	46508.1
649.355	46709.68
649.707	46638.04
650.059	46719.62
650.411	47261.07
650.763	47221.53
651.115	47801.17
651.467	47494.29
651.819	47517.11
652.171	47414.29
652.523	47295.88
652.875	47272.82
653.227	47128.65
653.578	47376.78
653.93	47177.69
654.282	47100.85
654.633	47036.45
654.985	47050.46
655.337	47064.47
655.688	47061.98
656.039	47201.87
656.391	46922.78
656.742	46854.76
657.094	46957.13
657.445	46940.4
657.796	46932.04
658.147	46802.33
658.498	46749.9
658.849	46870.58
659.2	46664.48
659.551	46575.44
659.902	46807.75
660.253	46739.51
660.604	46727.08
660.955	46553.75
661.306	46649.56
661.656	46591.03
662.007	46575.22
662.358	46572.28
662.708	46595.1
663.059	46371.38
663.409	46335.22
663.76	46573.63
664.11	46450.02
664.461	46539.96
664.811	46463.58
665.161	46363.92
665.511	46336.35
665.862	46417.48
666.212	46432.39
666.562	46385.62
666.912	46337.71
667.262	46272.63
667.612	46150.14
667.962	46336.35
668.312	45990.82
668.662	46439.85
669.011	46223.36
669.361	46200.76
669.711	46191.95
670.06	46015.91
670.41	46127.54
670.76	46011.39
671.109	45964.61
671.459	46078.05
671.808	45994.21
672.157	45998.28
672.507	45823.6
672.856	45724.16
673.205	45828.12
673.554	45993.76
673.904	45747.67
674.253	45930.94
674.602	45745.41
674.951	45155.14
675.3	45138.64
675.649	45765.52
675.998	45632.87
676.346	45621.34
676.695	45588.35
677.044	45409.6
677.393	45545.64
677.741	45499.31
678.09	45384.51
678.438	45318.75
678.787	45235.14
679.135	45220.22
679.484	45015.71
679.832	45210.28
680.181	44927.58
680.529	45182.71
680.877	44827.47
681.225	44878.99
681.573	45213.22
681.922	44761.48
682.27	44670.63
682.618	44771.65
682.966	44623.4
683.314	44762.83
683.661	44543.41
684.009	44397.87
684.357	44379.34
684.705	44239.68
685.053	44444.2
685.4	44084.21
685.748	44136.86
686.095	44134.38
686.443	43923.99
686.79	43843.54
687.138	43806.48
687.485	43902.07
687.832	43588.18
688.18	43583.2
688.527	43496.65
688.874	43439.48
689.221	43382.98
689.568	43259.82
689.915	43197.45
690.262	43013.95
690.609	42898.02
690.956	42877.46
691.303	42854.41
691.65	42638.37
691.997	42682.44
692.344	42421.88
692.69	42370.13
693.037	42410.58
693.383	42154.09
693.73	42256.23
694.077	41976.01
694.423	41914.32
694.769	41807.43
695.116	41694.44
695.462	41749.81
695.808	41570.83
696.155	41670.71
696.501	41415.35
696.847	41289.71
697.193	41019.43
697.539	41114.57
697.885	40816.72
698.231	40797.29
698.577	40847.68
698.923	40717.52
699.269	40385.1
699.614	40150.98
699.96	40232.11
700.306	40187.59
700.651	40106.69
700.997	39880.7
701.342	39960.93
701.688	39859.91
702.033	39545.34
702.379	39671.67
702.724	39521.62
703.069	39579.02
703.415	38897.23
703.76	39118.24
704.105	39115.75
704.45	39052.93
704.795	38723.9
705.14	38685.25
705.485	38720.06
705.83	38612.04
706.175	38716.44
706.52	38452.04
706.865	38233.51
707.209	38447.07
707.554	38186.51
707.899	38188.32
708.243	37873.75
708.588	38036.23
708.932	37775.9
709.277	37697.03
709.621	37715.56
709.966	37487.77
710.31	37462.24
710.654	37179.76
710.998	37193.32
711.342	37295.91
711.687	37100.89
712.031	36979.99
712.375	36764.4
712.719	36862.48
713.063	36721.01
713.407	36928.01
713.75	36653.44
714.094	36538.19
714.438	36482.83
714.782	36488.48
715.125	36340.91
715.469	36389.5
715.812	36083.29
716.156	35869.96
716.499	36053.01
716.843	36023.4
717.186	35737.08
717.53	35982.05
717.873	35855.05
718.216	36055.27
718.559	35688.27
718.902	35417.77
719.246	35617.76
719.589	35357.21
719.932	35255.06
720.275	35316.76
720.617	35330.54
720.96	35171.45
721.303	35107.49
721.646	35065.01
721.989	34922.42
722.331	34915.18
722.674	35025.69
723.016	34834.51
723.359	34805.13
723.701	34764.23
724.044	34489.21
724.386	34363.11
724.729	34563.55
725.071	34452.82
725.413	34244.24
725.755	34322.66
726.097	34101.65
726.439	34036.34
726.782	34031.59
727.124	34188.2
727.465	33976.45
727.807	33948.88
728.149	33796.12
728.491	33661.88
728.833	33703.01
729.175	33576.24
729.516	33449.91
729.858	33606.07
730.199	33588.66
730.541	33512.06
730.882	33440.65
731.224	33461.44
731.565	33220.76
731.906	33298.05
732.248	33239.75
732.589	33175.34
732.93	33058.06
733.271	33038.62
733.612	32958.62
733.953	32981.68
734.294	32996.14
734.635	32858.06
734.976	32926.76
735.317	32642.7
735.658	32611.74
735.999	32776.03
736.339	32571.74
736.68	32527.68
737.021	32544.17
737.361	32368.13
737.702	32470.28
738.042	32364.06
738.383	32317.74
738.723	32447.68
739.063	32044.07
739.404	32158.87
739.744	32059.44
740.084	32041.81
740.424	32099.44
740.764	32037.07
741.104	31979.89
741.444	31728.37
741.784	31751.88
742.124	31885.88
742.464	31780.58
742.804	31738.77
743.143	31634.82
743.483	31522.05
743.823	31426.46
744.162	31407.48
744.502	31453.13
744.841	31219.24
745.181	31270.08
745.52	31142.4
745.86	31178.11
746.199	31052.69
746.538	30989.41
746.877	31094.95
747.216	31037.77
747.556	30974.5
747.895	30841.39
748.234	30680.04
748.573	30646.37
748.911	30763.88
749.25	30622.42
749.589	30369.77
749.928	30500.16
750.267	30554.62
750.605	30391.69
750.944	30346.72
751.283	30253.16
751.621	30313.72
751.96	30112.82
752.298	30021.53
752.636	30049.32
752.975	29907.18
