Data from breadboard_white_FLMS001491_00038.txt Node
Date: Wed Feb 08 10:47:39 GMT 2017
User: dcchb
Spectrometer: FLMS00149
Trigger mode: 0
Integration Time (sec): 2.000000E-2
Scans to average: 10
Electric dark correction enabled: true
Nonlinearity correction enabled: false
Boxcar width: 0
XAxis mode: Wavelengths
Number of Pixels in Spectrum: 2048
>>>>>Begin Spectral Data<<<<<
341.393	3.35
341.776	3.35
342.16	3.35
342.543	-52.92
342.927	-69.87
343.31	-35.52
343.693	-59.02
344.077	-89.98
344.46	-61.28
344.843	-66.93
345.226	-34.39
345.61	-29.19
345.993	-7.73
346.376	-2.98
346.759	6.51
347.142	7.19
347.525	42.22
347.908	72.27
348.291	78.83
348.674	83.35
349.057	96.68
349.44	112.5
349.823	145.94
350.206	176.68
350.588	208.54
350.971	222.32
351.354	246.73
351.737	224.13
352.119	272.49
352.502	245.37
352.884	262.32
353.267	280.63
353.65	303
354.032	304.81
354.414	308.88
354.797	320.85
355.179	321.98
355.562	354.52
355.944	328.76
356.326	326.73
356.709	342.1
357.091	328.31
357.473	333.28
357.855	347.07
358.238	342.55
358.62	362.66
359.002	346.62
359.384	361.76
359.766	366.28
360.148	371.02
360.53	359.5
360.912	341.87
361.294	319.05
361.676	344.13
362.057	328.08
362.439	333.73
362.821	345.26
363.203	343.45
363.584	341.87
363.966	343.23
364.348	341.19
364.729	330.34
365.111	328.08
365.493	332.38
365.874	331.7
366.256	343.23
366.637	325.82
367.019	313.4
367.4	327.86
367.781	321.76
368.163	332.83
368.544	310.23
368.925	346.84
369.306	316.11
369.688	322.89
370.069	304.81
370.45	329.89
370.831	326.73
371.212	330.8
371.593	319.72
371.974	326.05
372.355	328.08
372.736	322.89
373.117	317.69
373.498	314.07
373.879	337.58
374.26	337.8
374.641	332.15
375.021	344.36
375.402	337.58
375.783	357.24
376.163	345.49
376.544	355.43
376.925	358.14
377.305	333.06
377.686	353.62
378.066	360.85
378.447	339.61
378.827	333.96
379.208	373.28
379.588	363.79
379.968	352.94
380.349	343.45
380.729	365.37
381.109	372.6
381.489	355.2
381.87	371.25
382.25	364.69
382.63	356.56
383.01	374.86
383.39	365.82
383.77	380.06
384.15	385.48
384.53	416.67
384.91	382.32
385.29	406.95
385.67	398.59
386.049	386.61
386.429	393.39
386.809	412.15
387.189	397.24
387.568	418.48
387.948	407.63
388.328	410.12
388.707	436.78
389.087	441.98
389.466	404.47
389.846	434.97
390.225	448.99
390.605	422.55
390.984	423.22
391.363	435.43
391.743	447.86
392.122	436.78
392.501	448.76
392.881	482.2
393.26	447.18
393.639	474.07
394.018	463.45
394.397	480.4
394.776	465.71
395.155	491.47
395.534	495.31
395.913	503
396.292	500.96
396.671	525.59
397.05	503.9
397.429	522.66
397.808	527.85
398.186	533.95
398.565	545.48
398.944	532.15
399.323	558.36
399.701	553.39
400.08	572.37
400.458	582.32
400.837	586.61
401.215	594.07
401.594	627.06
401.972	626.61
402.351	611.02
402.729	625.93
403.107	629.09
403.486	636.55
403.864	654.63
404.242	681.07
404.62	659.6
404.999	709.32
405.377	696.21
405.755	690.33
406.133	720.62
406.511	726.72
406.889	747.96
407.267	755.64
407.645	762.65
408.023	808.98
408.401	770.33
408.779	803.78
409.156	837
409.534	843.55
409.912	867.96
410.29	883.55
410.667	882.65
411.045	902.08
411.422	914.28
411.8	944.11
412.178	947.73
412.555	982.3
412.933	981.4
413.31	988.18
413.687	1006.03
414.065	1039.25
414.442	1054.17
414.819	1078.35
415.197	1089.65
415.574	1093.71
415.951	1135.3
416.328	1135.97
416.705	1171.45
417.082	1178.01
417.46	1164.9
417.837	1203.77
418.214	1227.72
418.591	1228.63
418.967	1254.16
419.344	1260.49
419.721	1245.35
420.098	1267.49
420.475	1296.42
420.852	1295.29
421.228	1333.71
421.605	1358.11
421.982	1365.35
422.358	1384.55
422.735	1357.89
423.111	1389.53
423.488	1455.74
423.864	1401.95
424.241	1449.64
424.617	1493.25
424.994	1499.81
425.37	1485.12
425.746	1499.35
426.123	1534.38
426.499	1548.62
426.875	1587.03
427.251	1592.23
427.627	1616.19
428.003	1636.3
428.379	1665.9
428.756	1703.42
429.132	1703.42
429.507	1743.19
429.883	1755.39
430.259	1782.28
430.635	1793.36
431.011	1843.07
431.387	1832.23
431.763	1857.54
432.138	1918.55
432.514	1921.49
432.89	1921.94
433.265	1999.45
433.641	1994.48
434.016	2036.97
434.392	2080.35
434.767	2157.19
435.143	2114.93
435.518	2144.76
435.894	2187.02
436.269	2168.26
436.644	2198.54
437.02	2273.12
437.395	2252.1
437.77	2279.9
438.145	2329.61
438.52	2329.39
438.895	2377.97
439.271	2375.71
439.646	2433.34
440.021	2468.82
440.395	2488.71
440.77	2432.44
441.145	2485.32
441.52	2523.96
441.895	2535.03
442.27	2554.92
442.645	2581.36
443.019	2627.01
443.394	2593.79
443.769	2648.02
444.143	2638.31
444.518	2712.88
444.892	2672.2
445.267	2668.36
445.641	2696.84
446.016	2737.74
446.39	2748.59
446.764	2762.6
447.139	2797.4
447.513	2788.81
447.887	2847.11
448.262	2878.3
448.636	2891.86
449.01	2931.18
449.384	2946.32
449.758	2953.33
450.132	3021.12
450.506	2963.72
450.88	3022.93
451.254	2986.09
451.628	3053.21
452.002	3122.14
452.376	3115.13
452.75	3142.02
453.123	3248.23
453.497	3224.73
453.871	3269.02
454.244	3338.85
454.618	3396.48
454.992	3401.9
455.365	3393.99
455.739	3496.14
456.112	3536.36
456.486	3584.72
456.859	3627.21
457.232	3657.49
457.606	3658.17
457.979	3736.13
458.352	3775.45
458.725	3864.26
459.099	3878.95
459.472	3866.07
459.845	4002.34
460.218	4007.08
460.591	4025.61
460.964	4059.51
461.337	4127.08
461.71	4260.18
462.083	4273.52
462.456	4234.42
462.829	4362.1
463.201	4369.33
463.574	4474.19
463.947	4455.89
464.32	4605.94
464.692	4623.79
465.065	4670.8
465.438	4717.8
465.81	4803
466.183	4871.47
466.555	4930.22
466.928	4973.16
467.3	4974.06
467.672	5071.01
468.045	5224.23
468.417	5182.19
468.789	5273.27
469.161	5309.65
469.534	5361.62
469.906	5512.81
470.278	5565.01
470.65	5589.42
471.022	5722.75
471.394	5820.6
471.766	5893.14
472.138	5962.74
472.51	6063.53
472.882	6150.98
473.253	6215.39
473.625	6302.16
473.997	6467.13
474.369	6529.28
474.74	6506.68
475.112	6653.34
475.484	6855.14
475.855	6961.13
476.227	7028.93
476.598	7182.59
476.97	7286.09
477.341	7408.35
477.713	7507.33
478.084	7541.23
478.455	7825.51
478.827	7887.43
479.198	8062.57
479.569	8061.21
479.94	8316.8
480.311	8404.48
480.682	8604.03
481.053	8802.89
481.424	8879.5
481.795	8971.25
482.166	9202.88
482.537	9258.02
482.908	9466.83
483.279	9572.81
483.65	9692.58
484.021	9912.47
484.391	10055.51
484.762	10125.79
485.133	10194.27
485.503	10402.85
485.874	10593.13
486.244	10668.6
486.615	10871.76
486.985	11040.35
487.356	11163.51
487.726	11318.98
488.097	11507.68
488.467	11601.01
488.837	11764.85
489.207	11986.08
489.578	12166.19
489.948	12232.4
490.318	12405.28
490.688	12465.17
491.058	12682.56
491.428	12838.94
491.798	13008.88
492.168	13207.52
492.538	13291.59
492.908	13426.5
493.278	13638.92
493.648	13688.19
494.017	13835.3
494.387	13924.56
494.757	14066.48
495.126	14183.54
495.496	14299.02
495.866	14422.18
496.235	14573.81
496.605	14734.71
496.974	14837.08
497.344	14976.29
497.713	15041.37
498.082	15154.36
498.452	15387.12
498.821	15377.18
499.19	15493.11
499.559	15653.78
499.928	15756.61
500.298	15782.59
500.667	16041.12
501.036	15996.6
501.405	16200.21
501.774	16202.02
502.143	16395.91
502.512	16432.29
502.88	16703.47
503.249	16625.96
503.618	16754.32
503.987	16842.68
504.356	17002.45
504.724	17116.57
505.093	17192.05
505.462	17297.13
505.83	17411.48
506.199	17450.12
506.567	17874.06
506.936	17709.1
507.304	17952.48
507.672	17994.29
508.041	18208.29
508.409	18308.18
508.777	18402.41
509.145	18652.35
509.514	18622.07
509.882	18853.02
510.25	18899.8
510.618	19048.5
510.986	19095.05
511.354	19332.56
511.722	19453.91
512.09	19722.15
512.458	19676.5
512.826	19900.45
513.193	19997.85
513.561	20047.57
513.929	20198.75
514.297	20422.25
514.664	20485.29
515.032	20718.51
515.4	20829.69
515.767	20887.32
516.135	21083.25
516.502	20960.54
516.869	21475.33
517.237	21489.56
517.604	21485.95
517.972	21746.96
518.339	22026.95
518.706	21972.71
519.073	22128.64
519.44	22181.07
519.808	22527.05
520.175	22477.56
520.542	22836.65
520.909	22978.11
521.276	23102.4
521.643	23309.4
522.009	23392.11
522.376	23628.49
522.743	23706.45
523.11	24014.02
523.477	24164.75
523.843	24355.48
524.21	24644.06
524.577	24695.81
524.943	24911.17
525.31	25036.36
525.676	25265.28
526.043	25482.45
526.409	25577.36
526.776	25884.7
527.142	25920.63
527.508	26062.32
527.874	26272.71
528.241	26542.31
528.607	26560.16
528.973	26759.25
529.339	26858.91
529.705	27034.05
530.071	27173.71
530.437	27500.48
530.803	27602.85
531.169	27810.53
531.535	27819.34
531.901	27970.52
532.267	28108.82
532.632	28304.52
532.998	28340.46
533.364	28531.41
533.73	28527.8
534.095	28811.63
534.461	28869.93
534.826	29166.65
535.192	29165.29
535.557	29469.24
535.923	29273.31
536.288	29478.05
536.653	29655.68
537.019	29644.38
537.384	29804.82
537.749	30052.95
538.114	30108.32
538.479	30137.02
538.845	30316.45
539.21	30259.27
539.575	30514.86
539.94	30525.26
540.305	30785.81
540.67	30658.13
541.034	30814.51
541.399	30976.54
541.764	31094.96
542.129	31256.08
542.494	31135.18
542.858	31529.07
543.223	31404.33
543.587	31582.63
543.952	31612.46
544.316	31858.33
544.681	31827.37
545.045	31951.43
545.41	32235.72
545.774	32267.81
546.138	32228.26
546.503	32402.5
546.867	32447.69
547.231	32801.58
547.595	32723.39
547.959	32943.95
548.324	32730.17
548.688	33010.84
549.052	33159.54
549.416	33212.87
549.779	33265.98
550.143	33375.13
550.507	33608.34
550.871	33675.91
551.235	33740.31
551.599	33963.13
551.962	33972.4
552.326	34077.25
552.689	34295.55
553.053	34182.79
553.417	34264.14
553.78	34831.58
554.143	34592.95
554.507	34810.12
554.87	34991.81
555.234	35169.65
555.597	34998.59
555.96	35471.34
556.323	35521.96
556.686	35718.57
557.05	35851.9
557.413	35856.87
557.776	36071.78
558.139	36259.12
558.502	36414.14
558.865	36385.67
559.228	36708.82
559.59	36737.75
559.953	36839.89
560.316	37294.34
560.679	37273.55
561.041	37529.82
561.404	37532.98
561.767	37816.14
562.129	37742.69
562.492	38158.28
562.854	38042.8
563.217	38224.72
563.579	38323.7
563.941	38603.46
564.304	38694.08
564.666	38992.6
565.028	39028.76
565.39	39170.23
565.753	39498.58
566.115	39606.83
566.477	39744.22
566.839	39977.66
567.201	40193.48
567.563	40155.06
567.925	40381.49
568.287	40425.11
568.648	40445.45
569.01	40762.28
569.372	41032.33
569.734	40896.96
570.095	41169.27
570.457	41296.95
570.819	41357.51
571.18	41347.57
571.542	41622.59
571.903	41654
572.265	41701.01
572.626	41842.25
572.987	41888.35
573.349	42020.55
573.71	42310.71
574.071	42291.5
574.432	42485.85
574.794	42691.49
575.155	42680.19
575.516	42623.24
575.877	42811.04
576.238	42988.21
576.599	42991.82
576.96	43088.99
577.32	42964.25
577.681	43164.25
578.042	43257.13
578.403	43228.65
578.763	43179.61
579.124	43281.53
579.485	43520.62
579.845	43606.27
580.206	43526.72
580.566	43524.91
580.927	43584.8
581.287	43738.24
581.648	43587.51
582.008	43859.37
582.368	43747.06
582.728	43841.52
583.089	43896.43
583.449	43932.14
583.809	43798.13
584.169	43874.06
584.529	43776.89
584.889	44074.05
585.249	43766.72
585.609	43760.61
585.969	43972.81
586.329	43851.23
586.688	44057.33
587.048	43815.98
587.408	43857.56
587.768	43893.27
588.127	43991.57
588.487	43851.91
588.846	44124.45
589.206	43805.13
589.565	43970.33
589.925	44114.05
590.284	43940.95
590.643	43932.59
591.003	44238.12
591.362	44116.31
591.721	44116.09
592.08	44107.27
592.44	44115.41
592.799	44270.43
593.158	44088.29
593.517	44173.94
593.876	44193.82
594.235	43999.03
594.593	44328.74
594.952	44200.15
595.311	44081.28
595.67	44187.04
596.029	44420.03
596.387	44350.88
596.746	44543.87
597.104	44291.22
597.463	44306.36
597.822	44413.03
598.18	44246.03
598.538	44157.89
598.897	44443.08
599.255	44121.51
599.613	44852.34
599.972	44528.05
600.33	44632.23
600.688	44450.77
601.046	44573.93
601.404	44750.42
601.762	44838.55
602.12	44808.72
602.478	44826.35
602.836	44883.98
603.194	44665.68
603.552	44829.51
603.91	44744.09
604.268	44862.05
604.625	44592.68
604.983	44946.35
605.341	44761.72
605.698	44960.58
606.056	45043.52
606.413	44934.37
606.771	45113.35
607.128	45082.16
607.485	45012.56
607.843	45074.7
608.2	45329.61
608.557	45402.61
608.914	45262.04
609.272	45319.44
609.629	45385.2
609.986	45696.38
610.343	45441.25
610.7	45716.72
611.057	45649.38
611.414	45544.75
611.771	45629.49
612.127	45863.61
612.484	45815.48
612.841	45809.37
613.198	45721.92
613.554	45790.62
613.911	46005.3
614.267	45895.47
614.624	45849.37
614.98	45905.64
615.337	46169.82
615.693	46078.29
616.05	45965.75
616.406	46399.42
616.762	46171.4
617.118	46228.8
617.475	46283.03
617.831	46323.03
618.187	46292.53
618.543	46354.9
618.899	46497.49
619.255	46452.75
619.611	46391.73
619.967	46572.52
620.323	46548.11
620.678	46500.2
621.034	46386.08
621.39	46436.02
621.746	46246.88
622.101	46687.77
622.457	46370.94
622.812	46549.24
623.168	46624.49
623.523	46622.01
623.879	46649.35
624.234	46395.35
624.589	46665.62
624.945	46746.07
625.3	46638.73
625.655	46578.17
626.01	46641.67
626.365	46547.66
626.72	46626.75
627.075	46455.69
627.43	46408.68
627.785	46412.97
628.14	46589.69
628.495	46483.93
628.85	46621.1
629.205	46337.5
629.559	46520.32
629.914	46301.57
630.269	46296.82
630.623	46223.6
630.978	46055.92
631.332	46258.18
631.687	46218.4
632.041	46219.08
632.396	46234.67
632.75	46039.65
633.104	46165.07
633.459	45997.39
633.813	45964.62
634.167	45789.94
634.521	45950.84
634.875	45885.76
635.229	45778.19
635.583	45594.01
635.937	45629.94
636.291	45677.85
636.645	45586.1
636.999	45574.13
637.352	45667.01
637.706	45194.02
638.06	45531.19
638.413	45376.39
638.767	45193.8
639.121	45345.66
639.474	45028.38
639.828	45069.73
640.181	45048.49
640.534	45129.62
640.888	44991.77
641.241	44714.49
641.594	44869.06
641.947	44971.2
642.301	44849.63
642.654	44820.02
643.007	44768.27
643.36	44614.38
643.713	44626.81
644.066	44872.68
644.419	44509.07
644.771	44298.91
645.124	43903.21
645.477	43833.38
645.83	43662.31
646.182	43307.97
646.535	43270.68
646.888	43177.13
647.24	43086.96
647.593	43335.32
647.945	43190.23
648.298	42868.66
648.65	42878.38
649.002	42833.41
649.355	42879.73
649.707	42804.71
650.059	42968.09
650.411	43558.59
650.763	43580.05
651.115	43884.45
651.467	43655.76
651.819	43588.19
652.171	43304.36
652.523	43506.16
652.875	43538.47
653.227	43284.47
653.578	43604.23
653.93	43494.18
654.282	43194.08
654.633	43322.66
654.985	43262.32
655.337	43205.38
655.688	43175.09
656.039	43317.91
656.391	42943.69
656.742	43063.68
657.094	43037.92
657.445	43183.23
657.796	43027.3
658.147	43028.66
658.498	42900.52
658.849	43026.62
659.2	42841.99
659.551	42796.8
659.902	42968.32
660.253	42859.17
660.604	42892.16
660.955	42616.01
661.306	42769.68
661.656	42766.97
662.007	42728.1
662.358	42667.08
662.708	42626.41
663.059	42694.2
663.409	42400.2
663.76	42654.43
664.11	42732.62
664.461	42576.47
664.811	42546.64
665.161	42636.8
665.511	42515.9
665.862	42493.3
666.212	42565.62
666.562	42472.97
666.912	42325.85
667.262	42360.43
667.612	42342.57
667.962	42377.83
668.312	42360.65
668.662	42587.31
669.011	42318.62
669.361	42308.68
669.711	42266.19
670.06	42259.86
670.41	42286.08
670.76	42117.95
671.109	42288.56
671.459	42244.95
671.808	42071.85
672.157	42234.1
672.507	41874.56
672.856	41979.19
673.205	42042.92
673.554	42126.53
673.904	41863.72
674.253	42008.57
674.602	41961.34
674.951	41442.71
675.3	41169.04
675.649	41722.48
675.998	41654.46
676.346	41649.48
676.695	41849.48
677.044	41426.44
677.393	41663.49
677.741	41633.89
678.09	41458.08
678.438	41583.27
678.787	41327.23
679.135	41523.16
679.484	41341.47
679.832	41367.91
680.181	41121.59
680.529	41284.52
680.877	41061.7
681.225	41202.49
681.573	41288.36
681.922	40898.54
682.27	40838.21
682.618	40935.83
682.966	40688.15
683.314	40787.59
683.661	40656.52
684.009	40564.09
684.357	40412.23
684.705	40322.06
685.053	40356.64
685.4	40303.3
685.748	40205.23
686.095	40177.43
686.443	39897.21
686.79	40035.74
687.138	39943.54
687.485	40007.27
687.832	39772.02
688.18	39784
688.527	39635.53
688.874	39546.26
689.221	39548.75
689.568	39363.22
689.915	39301.75
690.262	39409.32
690.609	39264.91
690.956	39156.22
691.303	39038.25
691.65	38925.49
691.997	38797.58
692.344	38570.47
692.69	38626.96
693.037	38480.08
693.383	38140.88
693.73	38468.55
694.077	38242.12
694.423	38089.13
694.769	37857.04
695.116	37930.71
695.462	37873.76
695.808	37815.23
696.155	37885.06
696.501	37443.04
696.847	37569.14
697.193	37201.69
697.539	37390.84
697.885	37097.29
698.231	37022.71
698.577	37050.06
698.923	36994.47
699.269	36771.19
699.614	36530.97
699.96	36548.38
700.306	36562.16
700.651	36353.35
700.997	36123.75
701.342	36169.4
701.688	36026.13
702.033	35879.24
702.379	36017.77
702.724	35725.8
703.069	35816.87
703.415	35504.56
703.76	35434.73
704.105	35481.74
704.45	35310.67
704.795	35173.95
705.14	35069.32
705.485	35074.52
705.83	34893.28
706.175	34915.88
706.52	34828.87
706.865	34739.84
707.209	34634.98
707.554	34735.99
707.899	34764.69
708.243	34381.2
708.588	34245.38
708.932	34163.35
709.277	34151.6
709.621	34091.49
709.966	33901.89
710.31	33957.93
710.654	33650.37
710.998	33761.33
711.342	33693.31
711.687	33568.79
712.031	33560.88
712.375	33343.49
712.719	33426.88
713.063	33256.48
713.407	33381.45
713.75	33139.88
714.094	33139.88
714.438	33057.17
714.782	32956.83
715.125	32804.07
715.469	32888.36
715.812	32601.59
716.156	32556.39
716.499	32616.05
716.843	32525.43
717.186	32324.08
717.53	32553.23
717.873	32422.61
718.216	32432.33
718.559	32217.64
718.902	32067.82
719.246	31989.17
719.589	31971.55
719.932	31877.31
720.275	31910.76
720.617	31807.48
720.96	31897.2
721.303	31828.5
721.646	31754.38
721.989	31656.53
722.331	31649.97
722.674	31534.27
723.016	31428.74
723.359	31382.41
723.701	31398.68
724.044	31208.63
724.386	31125.92
724.729	31353.48
725.071	31152.81
725.413	31239.36
725.755	31068.52
726.097	30928.41
726.439	30785.36
726.782	30875.53
727.124	30896.32
727.465	30669.43
727.807	30679.38
728.149	30605.93
728.491	30626.27
728.833	30494.75
729.175	30321.42
729.516	30332.72
729.858	30376.79
730.199	30418.37
730.541	30357.35
730.882	30193.74
731.224	30320.74
731.565	30036
731.906	30048.89
732.248	30113.74
732.589	29838.27
732.93	29740.42
733.271	29774.54
733.612	29873.07
733.953	29734.77
734.294	29687.09
734.635	29729.12
734.976	29633.98
735.317	29569.58
735.658	29488
735.999	29532.74
736.339	29382.24
736.68	29436.02
737.021	29275.57
737.361	29312.86
737.702	29358.28
738.042	29317.6
738.383	29059.76
738.723	29149.7
739.063	28985.18
739.404	29073.09
739.744	28894.34
740.084	28731.86
740.424	28808.24
740.764	28852.08
741.104	28735.25
741.444	28674.91
741.784	28497.29
742.124	28646.89
742.464	28487.57
742.804	28400.79
743.143	28342.72
743.483	28294.13
743.823	28117.18
744.162	28290.06
744.502	28366.9
744.841	28098.65
745.181	28278.76
745.52	28115.6
745.86	28122.83
746.199	28081.03
746.538	28020.92
746.877	28065.66
747.216	28083.96
747.556	27886.23
747.895	27911.31
748.234	27808.49
748.573	27740.25
748.911	27580.93
749.25	27520.36
749.589	27491.21
749.928	27526.92
750.267	27508.84
750.605	27387.49
750.944	27317.43
751.283	27106.14
751.621	27182.07
751.96	27001.06
752.298	27014.61
752.636	26996.54
752.975	27025.91
