Data from breadboard_white_FLMS001491_00084.txt Node
Date: Wed Feb 08 10:48:23 GMT 2017
User: dcchb
Spectrometer: FLMS00149
Trigger mode: 0
Integration Time (sec): 2.000000E-2
Scans to average: 10
Electric dark correction enabled: true
Nonlinearity correction enabled: false
Boxcar width: 0
XAxis mode: Wavelengths
Number of Pixels in Spectrum: 2048
>>>>>Begin Spectral Data<<<<<
341.393	-14.79
341.776	-14.79
342.16	-14.79
342.543	-57.5
342.927	-73.77
343.31	-72.41
343.693	-70.61
344.077	-50.27
344.46	-49.82
344.843	-53.88
345.226	-48.46
345.61	-40.32
345.993	-16.6
346.376	-13.66
346.759	13.46
347.142	35.15
347.525	45.78
347.908	65.21
348.291	62.05
348.674	95.04
349.057	99.33
349.44	124.87
349.823	154.02
350.206	165.55
350.588	216.84
350.971	210.74
351.354	247.13
351.737	261.59
352.119	283.74
352.502	293.23
352.884	255.26
353.267	287.8
353.65	300.46
354.032	321.25
354.414	325.54
354.797	325.77
355.179	343.85
355.562	334.13
355.944	348.59
356.326	337.75
356.709	345.88
357.091	363.73
357.473	369.83
357.855	352.89
358.238	359.44
358.62	351.3
359.002	354.02
359.384	351.3
359.766	367.58
360.148	376.39
360.53	359.44
360.912	375.03
361.294	360.57
361.676	364.64
362.057	351.98
362.439	357.86
362.821	350.4
363.203	336.16
363.584	357.41
363.966	359.67
364.348	367.58
364.729	363.51
365.111	339.33
365.493	353.56
365.874	342.04
366.256	355.82
366.637	344.07
367.019	339.33
367.4	343.62
367.781	361.93
368.163	354.69
368.544	355.82
368.925	340.68
369.306	356.28
369.688	350.17
370.069	336.84
370.45	328.03
370.831	348.37
371.212	341.81
371.593	336.16
371.974	343.39
372.355	348.14
372.736	358.54
373.117	341.36
373.498	365.99
373.879	343.39
374.26	375.71
374.641	339.55
375.021	345.2
375.402	355.15
375.783	357.86
376.163	386.11
376.544	379.55
376.925	376.84
377.305	370.06
377.686	374.81
378.066	359.89
378.447	387.01
378.827	390.17
379.208	386.33
379.588	361.02
379.968	412.55
380.349	390.4
380.729	385.43
381.109	396.95
381.489	398.31
381.87	422.26
382.25	411.42
382.63	398.08
383.01	397.86
383.39	422.04
383.77	390.63
384.15	423.17
384.53	434.47
384.91	424.75
385.29	434.24
385.67	433.56
386.049	443.05
386.429	457.06
386.809	449.38
387.189	445.99
387.568	445.31
387.948	438.53
388.328	455.26
388.707	462.26
389.087	446.9
389.466	478.31
389.846	495.03
390.225	502.26
390.605	480.79
390.984	484.18
391.363	488.02
391.743	504.07
392.122	500.45
392.501	511.07
392.881	517.63
393.26	538.87
393.639	544.75
394.018	529.15
394.397	537.97
394.776	547.91
395.155	550.4
395.534	563.73
395.913	537.74
396.292	584.74
396.671	591.3
397.05	585.87
397.429	595.37
397.808	632.2
398.186	611.18
398.565	625.2
398.944	627.91
399.323	620.45
399.701	635.59
400.08	652.31
400.458	654.35
400.837	660.22
401.215	672.43
401.594	698.19
401.972	694.8
402.351	700.22
402.729	703.16
403.107	710.39
403.486	723.05
403.864	731.63
404.242	776.6
404.62	786.77
404.999	776.38
405.377	813.67
405.755	791.97
406.133	801.01
406.511	832.87
406.889	837.39
407.267	877.84
407.645	878.75
408.023	891.63
408.401	919.2
408.779	918.75
409.156	932.53
409.534	950.16
409.912	955.36
410.29	1008.46
410.667	1010.27
411.045	997.39
411.422	1031.51
411.8	1065.86
412.178	1069.25
412.555	1102.47
412.933	1112.64
413.31	1157.84
413.687	1160.1
414.065	1156.71
414.442	1198.74
414.819	1201.45
415.197	1222.24
415.574	1243.71
415.951	1268.79
416.328	1283.94
416.705	1296.82
417.082	1320.32
417.46	1332.97
417.837	1370.03
418.214	1391.05
418.591	1410.94
418.967	1400.54
419.344	1433.54
419.721	1453.42
420.098	1477.38
420.475	1443.03
420.852	1505.4
421.228	1497.49
421.605	1515.79
421.982	1516.47
422.358	1533.19
422.735	1573.87
423.111	1580.65
423.488	1612.51
423.864	1631.27
424.241	1666.3
424.617	1693.64
424.994	1666.07
425.37	1703.81
425.746	1698.16
426.123	1746.75
426.499	1769.57
426.875	1809.8
427.251	1854.09
427.627	1859.74
428.003	1860.19
428.379	1902.22
428.756	1921.21
429.132	1930.25
429.507	1968.44
429.883	2024.71
430.259	2033.52
430.635	2065.38
431.011	2077.81
431.387	2158.49
431.763	2162.78
432.138	2167.98
432.514	2209.79
432.89	2243.23
433.265	2303.12
433.641	2326.17
434.016	2308.99
434.392	2394.19
434.767	2431.7
435.143	2412.95
435.518	2466.5
435.894	2463.79
436.269	2494.07
436.644	2541.53
437.02	2568.42
437.395	2577.46
437.77	2611.13
438.145	2641.19
438.52	2650
438.895	2704.24
439.271	2717.34
439.646	2802.77
440.021	2816.32
440.395	2797.34
440.77	2792.82
441.145	2830.11
441.52	2918.69
441.895	2903.55
442.27	2871.92
442.645	2936.1
443.019	2991.69
443.394	3003.66
443.769	3017.67
444.143	2999.14
444.518	3060.84
444.892	3089.54
445.267	3120.5
445.641	3138.12
446.016	3174.51
446.39	3193.94
446.764	3177.44
447.139	3216.09
447.513	3264.67
447.887	3261.28
448.262	3277.1
448.636	3292.02
449.01	3348.06
449.384	3369.98
449.758	3419.25
450.132	3449.75
450.506	3451.34
450.88	3484.78
451.254	3532.92
451.628	3538.57
452.002	3581.05
452.376	3636.19
452.75	3625.34
453.123	3703.76
453.497	3807.48
453.871	3811.78
454.244	3852.46
454.618	3859.01
454.992	3909.85
455.365	3996.63
455.739	4088.16
456.112	4096.29
456.486	4114.14
456.859	4156.85
457.232	4295.83
457.606	4220.13
457.979	4255.83
458.352	4383.51
458.725	4473
459.099	4481.59
459.472	4557.07
459.845	4605.43
460.218	4683.17
460.591	4706.9
460.964	4755.48
461.337	4851.98
461.71	4932.2
462.083	4967.23
462.456	4993.67
462.829	4997.74
463.201	5105.76
463.574	5102.14
463.947	5256.26
464.32	5309.82
464.692	5360.66
465.065	5393.66
465.438	5524.5
465.81	5607.66
466.183	5598.4
466.555	5712.75
466.928	5786.64
467.3	5823.25
467.672	5915.68
468.045	6050.36
468.417	6093.75
468.789	6136.91
469.161	6206.74
469.534	6308.21
469.906	6407.19
470.278	6474.08
470.65	6556.79
471.022	6704.81
471.394	6824.35
471.766	6920.85
472.138	6964.24
472.51	7150.67
472.882	7264.79
473.253	7271.12
473.625	7427.95
473.997	7554.28
474.369	7666.14
474.74	7758.57
475.112	7854.61
475.484	7989.52
475.855	8105.9
476.227	8209.18
476.598	8477.64
476.97	8550.86
477.341	8749.95
477.713	8868.59
478.084	8895.49
478.455	9227.91
478.827	9267.45
479.198	9553.32
479.569	9514.68
479.94	9833.09
480.311	9865.4
480.682	10135.68
481.053	10234.21
481.424	10527.99
481.795	10605.05
482.166	10772.73
482.537	10946.51
482.908	11129.33
483.279	11296.55
483.65	11389.21
484.021	11629.65
484.391	11849.31
484.762	11926.82
485.133	12078
485.503	12226.25
485.874	12508.5
486.244	12609.51
486.615	12838.66
486.985	13063.74
487.356	13243.17
487.726	13434.8
488.097	13628.7
488.467	13700.56
488.837	13944.85
489.207	14163.37
489.578	14421.22
489.948	14547.54
490.318	14697.14
490.688	14805.84
491.058	15053.97
491.428	15219.39
491.798	15321.31
492.168	15664.57
492.538	15693.95
492.908	15923.32
493.278	16156.31
493.648	16122.87
494.017	16337.55
494.387	16515.17
494.757	16603.76
495.126	16874.26
495.496	16898.89
495.866	17075.61
496.235	17238.77
496.605	17462.94
496.974	17510.18
497.344	17738.64
497.713	17877.62
498.082	18029.03
498.452	18157.62
498.821	18274.67
499.19	18288.01
499.559	18546.08
499.928	18714.21
500.298	18864.94
500.667	19001.44
501.036	18988.33
501.405	19143.8
501.774	19319.17
502.143	19369.11
502.512	19515.32
502.88	19773.84
503.249	19747.4
503.618	19979.94
503.987	19972.26
504.356	20149.2
504.724	20274.62
505.093	20368.86
505.462	20570.21
505.83	20628.74
506.199	20809.75
506.567	21105.33
506.936	21139.01
507.304	21393.24
507.672	21389.85
508.041	21578.77
508.409	21729.73
508.777	21987.35
509.145	22121.13
509.514	22241.12
509.882	22300.78
510.25	22466.88
510.618	22769.92
510.986	22884.27
511.354	22984.16
511.722	23134.21
512.09	23389.57
512.458	23416.23
512.826	23583.91
513.193	23774.87
513.561	23822.78
513.929	24017.57
514.297	24367.4
514.664	24485.58
515.032	24546.6
515.4	24765.35
515.767	24849.19
516.135	25131.44
516.502	24944.1
516.869	25488.95
517.237	25527.82
517.604	25636.97
517.972	25902.27
518.339	26113.56
518.706	26174.13
519.073	26334.58
519.44	26568.92
519.808	26932.07
520.175	26866.99
520.542	27209.58
520.909	27247.09
521.276	27413.19
521.643	27695.22
522.009	28018.37
522.376	28211.14
522.743	28329.78
523.11	28702.2
523.477	28774.06
523.843	29081.4
524.21	29308.51
524.577	29539.24
524.943	29758.44
525.31	29859
525.676	30148.26
526.043	30325.66
526.409	30575.82
526.776	30901.46
527.142	30949.37
527.508	31176.26
527.874	31379.87
528.241	31575.12
528.607	31767.43
528.973	32003.58
529.339	32102.79
529.705	32358.6
530.071	32617.12
530.437	32845.37
530.803	33026.38
531.169	33285.81
531.535	33180.27
531.901	33256.88
532.267	33444.67
532.632	33717.43
532.998	33854.38
533.364	34095.73
533.73	34134.82
534.095	34469.05
534.461	34678.31
534.826	34848.02
535.192	34899.32
535.557	35194.23
535.923	35070.84
536.288	35408.91
536.653	35496.37
537.019	35505.41
537.384	35722.13
537.749	35845.29
538.114	35968.9
538.479	36127.31
538.845	36207.99
539.21	36216.58
539.575	36330.7
539.94	36586.51
540.305	36878.25
540.67	36644.59
541.034	37005.93
541.399	37046.84
541.764	37196.89
542.129	37400.95
542.494	37478.24
542.858	37642.3
543.223	37667.16
543.587	37958.9
543.952	37920.71
544.316	38150.54
544.681	38178.11
545.045	38298.33
545.41	38466.69
545.774	38570.19
546.138	38757.07
546.503	38786
546.867	38822.16
547.231	39103.96
547.595	39207.91
547.959	39353.22
548.324	39413.1
548.688	39505.08
549.052	39604.28
549.416	39669.37
549.779	39867.33
550.143	40030.94
550.507	40304.6
550.871	40300.99
551.235	40302.12
551.599	40633.63
551.962	40712.05
552.326	40911.14
552.689	41128.76
553.053	40976.22
553.417	41063.91
553.78	41701.63
554.143	41519.26
554.507	41686.26
554.87	41786.15
555.234	42418.9
555.597	41879.7
555.96	42257.77
556.323	42507.26
556.686	42520.14
557.05	42831.09
557.413	43037.87
557.776	43099.56
558.139	43289.61
558.502	43356.73
558.865	43588.13
559.228	43822.03
559.59	44031.74
559.953	44062.7
560.316	44460.88
560.679	44434.66
561.041	44662
561.404	44882.79
561.767	45174.08
562.129	44987.42
562.492	45590.11
562.854	45484.81
563.217	45471.02
563.579	45694.07
563.941	45988.07
564.304	46097.45
564.666	46350.32
565.028	46304.45
565.39	46628.28
565.753	47007.03
566.115	46970.19
566.477	47176.74
566.839	47306.68
567.201	47537.63
567.563	47555.49
567.925	47948.47
568.287	47795.93
568.648	47941.01
569.01	48109.37
569.372	48321.57
569.734	48273.89
570.095	48522.02
570.457	48723.14
570.819	48859.86
571.18	48794.55
571.542	49080.64
571.903	49093.53
572.265	49166.97
572.626	49326.51
572.987	49288.1
573.349	49568.99
573.71	49692.61
574.071	49724.7
574.432	49798.14
574.794	50037.91
575.155	49993.39
575.516	49971.47
575.877	50134.63
576.238	50268.18
576.599	50343.89
576.96	50364.23
577.32	50440.16
577.681	50578.23
578.042	50536.43
578.403	50580.04
578.763	50718.79
579.124	50715.86
579.485	50833.37
579.845	50950.88
580.206	50857.77
580.566	50930.54
580.927	50978.22
581.287	51051.89
581.648	50935.51
582.008	51137.54
582.368	51032.68
582.728	51131.21
583.089	51048.28
583.449	51085.34
583.809	51141.16
584.169	51186.35
584.529	51093.7
584.889	51373.47
585.249	51194.71
585.609	51132.34
585.969	51251.43
586.329	51171.21
586.688	51252.34
587.048	51213.02
587.408	51224.54
587.768	51187.03
588.127	51188.16
588.487	51147.93
588.846	51427.02
589.206	51295.5
589.565	51302.06
589.925	51328.04
590.284	51290.98
590.643	51367.14
591.003	51439.23
591.362	51497.08
591.721	51445.33
592.08	51403.52
592.44	51507.93
592.799	51422.28
593.158	51419.79
593.517	51411.66
593.876	51494.59
594.235	51518.09
594.593	51428.38
594.952	51581.82
595.311	51487.81
595.67	51472.22
596.029	51694.81
596.387	51754.25
596.746	51725.09
597.104	51507.47
597.463	51618.88
597.822	51724.19
598.18	51613.01
598.538	51549.28
598.897	51786.11
599.255	51526.23
599.613	51933.9
599.972	51829.95
600.33	51938.87
600.688	51695.72
601.046	51857.07
601.404	51999.44
601.762	51879.67
602.12	52102.26
602.478	52080.34
602.836	51994.92
603.194	51922.6
603.552	52100.23
603.91	51994.47
604.268	52182.26
604.625	52076.95
604.983	52187.68
605.341	52022.71
605.698	52212.77
606.056	52252.76
606.413	52224.06
606.771	52312.2
607.128	52436.94
607.485	52309.94
607.843	52266.1
608.2	52440.56
608.557	52568.01
608.914	52418.86
609.272	52552.64
609.629	52674.67
609.986	52721.45
610.343	52631.29
610.7	52815.69
611.057	52785.63
611.414	52736.59
611.771	52738.85
612.127	52862.92
612.484	52857.49
612.841	52994.89
613.198	52814.33
613.554	52836.7
613.911	53069.24
614.267	53016.13
614.624	52950.83
614.98	53083.03
615.337	53204.83
615.693	53081.44
616.05	53059.75
616.406	53274.43
616.762	53193.53
617.118	53098.62
617.475	53233.3
617.831	53254.77
618.187	53303.81
618.543	53284.38
618.899	53483.69
619.255	53387.88
619.611	53358.05
619.967	53370.7
620.323	53611.82
620.678	53407.08
621.034	53295.45
621.39	53405.5
621.746	53378.16
622.101	53725.27
622.457	53408.89
622.812	53439.63
623.168	53635.78
623.523	53519.85
623.879	53582.9
624.234	53506.74
624.589	53527.08
624.945	53579.96
625.3	53596.68
625.655	53524.6
626.01	53460.19
626.365	53538.83
626.72	53567.08
627.075	53455.67
627.43	53419.06
627.785	53451.6
628.14	53465.39
628.495	53535.89
628.85	53449.12
629.205	53387.65
629.559	53530.7
629.914	53397.82
630.269	53367.31
630.623	53440.76
630.978	53279.4
631.332	53315.34
631.687	53302
632.041	53292.74
632.396	53256.35
632.75	53260.2
633.104	53270.82
633.459	53069.92
633.813	53076.47
634.167	53134.32
634.521	53085.06
634.875	53108.56
635.229	52931.39
635.583	52865.63
635.937	52934.78
636.291	52906.76
636.645	52823.14
636.999	52728.01
637.352	52882.35
637.706	52737.27
638.06	52821.11
638.413	52704.5
638.767	52572.53
639.121	52655.24
639.474	52453.21
639.828	52495.02
640.181	52467.9
640.534	52458.86
640.888	52394.23
641.241	52330.05
641.594	52279.88
641.947	52416.15
642.301	52262.26
642.654	52299.09
643.007	52307.23
643.36	52287.11
643.713	52178.19
644.066	52184.52
644.419	52156.72
644.771	51873.11
645.124	51616.17
645.477	51546.12
645.83	51222.96
646.182	51147.71
646.535	50961.5
646.888	51099.57
647.24	50847.38
647.593	51131.44
647.945	51077.2
648.298	50751.34
648.65	50799.92
649.002	50706.36
649.355	50625.01
649.707	50615.29
650.059	50773.26
650.411	51220.02
650.763	51327.82
651.115	51634.7
651.467	51349.29
651.819	51430.64
652.171	51293.24
652.523	51257.31
652.875	51271.1
653.227	51039.92
653.578	51260.7
653.93	51177.09
654.282	51079.91
654.633	50927.38
654.985	51070.42
655.337	50973.02
655.688	51077.65
656.039	51125.56
656.391	50933.03
656.742	50872.46
657.094	50819.58
657.445	50973.7
657.796	50938.67
658.147	50832.69
658.498	50804.22
658.849	50903.87
659.2	50834.27
659.551	50780.26
659.902	50874.27
660.253	50753.14
660.604	50837.89
660.955	50674.5
661.306	50713.82
661.656	50620.49
662.007	50685.8
662.358	50673.15
662.708	50739.36
663.059	50643.77
663.409	50397.45
663.76	50574.84
664.11	50591.34
664.461	50547.27
664.811	50595.18
665.161	50586.14
665.511	50458.91
665.862	50463.66
666.212	50529.19
666.562	50550.44
666.912	50415.98
667.262	50355.64
667.612	50377.11
667.962	50403.32
668.312	50340.5
668.662	50481.74
669.011	50480.83
669.361	50324.91
669.711	50269.31
670.06	50336.66
670.41	50248.98
670.76	50178.92
671.109	50319.93
671.459	50328.52
671.808	50112.03
672.157	50202.65
672.507	49994.97
672.856	49997.46
673.205	50115.87
673.554	50210.56
673.904	50006.27
674.253	50215.3
674.602	50025.93
674.951	49475.21
675.3	49302.79
675.649	49839.04
675.998	49737.12
676.346	49799.95
676.695	49925.59
677.044	49752.94
677.393	49747.29
677.741	49859.38
678.09	49680.4
678.438	49655.09
678.787	49661.87
679.135	49735.54
679.484	49428.66
679.832	49586.17
680.181	49334.2
680.529	49528.32
680.877	49306.18
681.225	49295.78
681.573	49626.39
681.922	49281.32
682.27	49084.94
682.618	49177.37
682.966	49113.64
683.314	49178.95
683.661	48993.64
684.009	48885.85
684.357	48743.25
684.705	48736.7
685.053	48727.89
685.4	48604.05
685.748	48365.86
686.095	48291.06
686.443	48205.19
686.79	48141.01
687.138	48359.31
687.485	48223.49
687.832	48169.03
688.18	48180.1
688.527	47926.1
688.874	47850.39
689.221	47902.37
689.568	47649.72
689.915	47576.73
690.262	47550.52
690.609	47547.13
690.956	47458.54
691.303	47329.96
691.65	47191.43
691.997	47155.72
692.344	46961.6
692.69	46788.5
693.037	46882.28
693.383	46446.82
693.73	46633.93
694.077	46533.14
694.423	46493.82
694.769	46380.15
695.116	46254.28
695.462	46219.25
695.808	45984
696.155	46113.49
696.501	45789.88
696.847	45772.93
697.193	45500.4
697.539	45581.3
697.885	45148.32
698.231	45204.14
698.577	45217.02
698.923	45233.97
699.269	45008.89
699.614	44733.19
699.96	44587.2
700.306	44612.74
700.651	44480.99
700.997	44345.4
701.342	44263.6
701.688	44256.59
702.033	44208.46
702.379	44082.13
702.724	43966.65
703.069	44061.34
703.415	43538.42
703.76	43632.88
704.105	43554.91
704.45	43441.47
704.795	43161.48
705.14	43130.29
705.485	43090.29
705.83	42861.37
706.175	43041.03
706.52	42878.55
706.865	42726.46
707.209	42549.52
707.554	42444.89
707.899	42585.22
708.243	42189.53
708.588	42293.93
708.932	42039.25
709.277	41940.72
709.621	41964
709.966	41733.72
710.31	41887.39
710.654	41536.66
710.998	41684.23
711.342	41597.23
711.687	41513.16
712.031	41246.05
712.375	41187.07
712.719	41268.65
713.063	41058.71
713.407	41113.4
713.75	40946.4
714.094	40893.52
714.438	40741.2
714.782	40791.37
715.125	40537.82
715.469	40578.04
715.812	40407.2
716.156	40256.92
716.499	40269.58
716.843	40265.28
717.186	39984.39
717.53	40224.38
717.873	40175.57
718.216	40122.01
718.559	39836.82
718.902	39698.74
719.246	39698.74
719.589	39596.83
719.932	39446.77
720.275	39515.7
720.617	39368.58
720.96	39206.55
721.303	39409.03
721.646	39287.68
721.989	38990.74
722.331	39209.27
722.674	39019.44
723.016	38908.71
723.359	38823.29
723.701	38886.79
724.044	38677.98
724.386	38452.22
724.729	38686.79
725.071	38506.01
725.413	38479.12
725.755	38369.74
726.097	38264.88
726.439	38101.05
726.782	38146.92
727.124	38233.47
727.465	37970.2
727.807	37977.21
728.149	37933.82
728.491	37780.38
728.833	37826.25
729.175	37772.02
729.516	37614.51
729.858	37529.76
730.199	37587.84
730.541	37356.88
730.882	37424
731.224	37507.39
731.565	37212.71
731.906	37150.11
732.248	37351.46
732.589	37093.84
732.93	36893.62
733.271	37046.38
733.612	36994.41
733.953	37036.89
734.294	36698.15
734.635	36782.44
734.976	36895.88
735.317	36639.16
735.658	36713.51
735.999	36584.25
736.339	36405.72
736.68	36560.75
737.021	36353.75
737.361	36250.25
737.702	36365.72
738.042	36319.85
738.383	36294.54
738.723	36231.26
739.063	36117.37
739.404	36139.06
739.744	35956.02
740.084	35842.12
740.424	35915.57
740.764	35889.58
741.104	35945.62
741.444	35713.76
741.784	35602.35
742.124	35574.56
742.464	35501.34
742.804	35495.24
743.143	35517.84
743.483	35387.67
743.823	35243.95
744.162	35220.22
744.502	35260.44
744.841	35067.45
745.181	35188.81
745.52	35035.36
745.86	34946.78
746.199	34716.05
746.538	34906.1
746.877	34911.07
747.216	34775.48
747.556	34650.74
747.895	34555.15
748.234	34515.15
748.573	34444.65
748.911	34321.94
749.25	34425.89
749.589	34226.8
749.928	34200.13
750.267	34191.09
750.605	34086.01
750.944	33914.72
751.283	34046.46
751.621	33907.48
751.96	33822.97
752.298	33803.53
752.636	33738.9
752.975	33560.15
