Data from breadboard_white_FLMS001491_00007.txt Node
Date: Wed Feb 08 10:47:09 GMT 2017
User: dcchb
Spectrometer: FLMS00149
Trigger mode: 0
Integration Time (sec): 2.000000E-2
Scans to average: 10
Electric dark correction enabled: true
Nonlinearity correction enabled: false
Boxcar width: 0
XAxis mode: Wavelengths
Number of Pixels in Spectrum: 2048
>>>>>Begin Spectral Data<<<<<
341.393	-4.05
341.776	-4.05
342.16	-4.05
342.543	-55.58
342.927	-59.19
343.31	-79.31
343.693	-55.8
344.077	-76.37
344.46	-67.33
344.843	-62.58
345.226	-28.23
345.61	-21.91
345.993	-21
346.376	-13.77
346.759	6.57
347.142	32.33
347.525	44.98
347.908	64.87
348.291	81.14
348.674	93.57
349.057	102.84
349.44	136.73
349.823	138.09
350.206	155.72
350.588	210.63
350.971	225.32
351.354	248.82
351.737	257.63
352.119	277.07
352.502	274.58
352.884	277.97
353.267	292.21
353.65	312.77
354.032	332.66
354.414	336.95
354.797	337.41
355.179	357.74
355.562	329.72
355.944	359.1
356.326	364.52
356.709	345.54
357.091	349.84
357.473	349.16
357.855	348.25
358.238	376.5
358.62	376.73
359.002	368.82
359.384	355.94
359.766	351.42
360.148	360.46
360.53	387.8
360.912	358.65
361.294	358.65
361.676	351.19
362.057	369.72
362.439	365.43
362.821	355.03
363.203	363.39
363.584	362.94
363.966	351.42
364.348	344.64
364.729	360.46
365.111	345.54
365.493	353
365.874	359.1
366.256	343.73
366.637	357.29
367.019	347.35
367.4	357.97
367.781	364.3
368.163	340.12
368.544	349.84
368.925	346.67
369.306	357.29
369.688	367.69
370.069	347.35
370.45	362.49
370.831	367.69
371.212	347.58
371.593	352.32
371.974	367.01
372.355	363.17
372.736	368.82
373.117	357.07
373.498	369.5
373.879	378.76
374.26	354.58
374.641	384.86
375.021	364.3
375.402	350.06
375.783	393.68
376.163	384.64
376.544	390.74
376.925	363.62
377.305	388.93
377.686	398.42
378.066	361.13
378.447	414.01
378.827	389.16
379.208	410.62
379.588	374.24
379.968	411.75
380.349	381.47
380.729	400
381.109	378.31
381.489	421.47
381.87	398.87
382.25	413.79
382.63	443.84
383.01	410.17
383.39	421.47
383.77	423.28
384.15	431.64
384.53	418.76
384.91	417.86
385.29	436.16
385.67	420.34
386.049	435.03
386.429	436.61
386.809	431.64
387.189	458.76
387.568	478.19
387.948	443.17
388.328	464.86
388.707	482.71
389.087	484.3
389.466	472.54
389.846	493.11
390.225	496.72
390.605	510.28
390.984	479.55
391.363	463.5
391.743	514.58
392.122	508.48
392.501	510.74
392.881	535.82
393.26	530.4
393.639	537.18
394.018	509.38
394.397	543.95
394.776	553.9
395.155	545.76
395.534	569.94
395.913	579.66
396.292	574.46
396.671	600.22
397.05	589.15
397.429	599.09
397.808	596.83
398.186	616.72
398.565	632.31
398.944	636.83
399.323	642.48
399.701	639.09
400.08	639.55
400.458	678.64
400.837	664.4
401.215	695.82
401.594	703.27
401.972	710.5
402.351	730.39
402.729	745.98
403.107	749.15
403.486	781.01
403.864	767.45
404.242	779.88
404.62	796.83
404.999	795.25
405.377	834.57
405.755	854.23
406.133	835.25
406.511	876.15
406.889	887.67
407.267	883.61
407.645	891.52
408.023	930.84
408.401	937.16
408.779	958.86
409.156	1004.51
409.534	1000.67
409.912	1031.4
410.29	1064.62
410.667	1094.22
411.045	1087.44
411.422	1109.59
411.8	1144.16
412.178	1153.88
412.555	1207.89
412.933	1221.9
413.31	1211.28
413.687	1236.82
414.065	1257.16
414.442	1286.76
414.819	1334.44
415.197	1338.51
415.574	1361.56
415.951	1357.04
416.328	1366.31
416.705	1395.68
417.082	1404.5
417.46	1465.51
417.837	1482.01
418.214	1494.21
418.591	1486.75
418.967	1553.19
419.344	1561.33
419.721	1566.07
420.098	1601.78
420.475	1611.5
420.852	1608.56
421.228	1646.3
421.605	1680.65
421.982	1710.93
422.358	1729.01
422.735	1773.75
423.111	1728.56
423.488	1755.67
423.864	1792.96
424.241	1828.89
424.617	1846.75
424.994	1859.85
425.37	1861.43
425.746	1902.34
426.123	1920.19
426.499	1969.68
426.875	1946.4
427.251	2006.29
427.627	2054.2
428.003	2069.56
428.379	2074.54
428.756	2138.04
429.132	2123.12
429.507	2184.36
429.883	2197.7
430.259	2242.67
430.635	2249.67
431.011	2298.48
431.387	2354.08
431.763	2397.01
432.138	2400.4
432.514	2433.62
432.89	2481.3
433.265	2489.67
433.641	2523.56
434.016	2553.39
434.392	2616.89
434.767	2651.7
435.143	2662.54
435.518	2674.29
435.894	2694.41
436.269	2782.31
436.644	2820.05
437.02	2865.02
437.395	2850.56
437.77	2886.94
438.145	2916.32
438.52	2957.22
438.895	3019.6
439.271	2975.98
439.646	3104.11
440.021	3081.74
440.395	3128.52
440.77	3102.53
441.145	3073.83
441.52	3219.82
441.895	3215.97
442.27	3236.99
442.645	3243.77
443.019	3268.18
443.394	3271.34
443.769	3289.19
444.143	3334.16
444.518	3374.16
444.892	3335.97
445.267	3400.15
445.641	3444.67
446.016	3454.61
446.39	3484.22
446.764	3513.37
447.139	3489.19
447.513	3569.41
447.887	3594.72
448.262	3590.88
448.636	3628.85
449.01	3647.83
449.384	3731.44
449.758	3713.14
450.132	3735.74
450.506	3784.1
450.88	3794.04
451.254	3835.85
451.628	3898.89
452.002	3932.57
452.376	3944.54
452.75	4013.92
453.123	4039.68
453.497	4117.65
453.871	4136.18
454.244	4228.6
454.618	4221.15
454.992	4286.68
455.365	4311.77
455.739	4441.48
456.112	4429.95
456.486	4454.81
456.859	4528.71
457.232	4639.44
457.606	4645.09
457.979	4751.08
458.352	4813.45
458.725	4854.12
459.099	4890.06
459.472	4972.99
459.845	5026.1
460.218	5095.47
460.591	5083.72
460.964	5132.53
461.337	5294.11
461.71	5359.2
462.083	5387.9
462.456	5488.01
462.829	5518.29
463.201	5528.23
463.574	5592.41
463.947	5717.83
464.32	5808.45
464.692	5829.47
465.065	5907.88
465.438	6038.27
465.81	6087.76
466.183	6129.8
466.555	6260.87
466.928	6322.56
467.3	6319.4
467.672	6435.33
468.045	6612.27
468.417	6660.18
468.789	6596.22
469.161	6733.85
469.534	6841.42
469.906	7041.64
470.278	7069.43
470.65	7129.54
471.022	7277.79
471.394	7454.73
471.766	7516.88
472.138	7589.87
472.51	7753.26
472.882	7833.48
473.253	7931.56
473.625	8082.51
473.997	8284.54
474.369	8297.88
474.74	8388.95
475.112	8558.89
475.484	8694.93
475.855	8789.61
476.227	8890.4
476.598	9161.13
476.97	9258.3
477.341	9429.6
477.713	9591.4
478.084	9654.45
478.455	9919.3
478.827	9988.9
479.198	10314.32
479.569	10314.32
479.94	10615.55
480.311	10775.78
480.682	10943.91
481.053	11198.36
481.424	11270
481.795	11435.65
482.166	11614.4
482.537	11783.21
482.908	12011.22
483.279	12178.45
483.65	12409.63
484.021	12686.23
484.391	12818.21
484.762	12961.48
485.133	13001.03
485.503	13147.01
485.874	13559.66
486.244	13610.5
486.615	13930.04
486.985	14013.2
487.356	14284.16
487.726	14479.41
488.097	14706.52
488.467	14703.13
488.837	15116.68
489.207	15216.79
489.578	15459.04
489.948	15624.24
490.318	15845.93
490.688	15910.56
491.058	16235.52
491.428	16403.88
491.798	16533.59
492.168	16905.33
492.538	17021.49
492.908	17184.87
493.278	17355.49
493.648	17314.36
494.017	17675.48
494.387	17739.66
494.757	17971.07
495.126	18116.15
495.496	18210.16
495.866	18286.54
496.235	18570.15
496.605	18677.72
496.974	18891.04
497.344	19069.12
497.713	19063.47
498.082	19334.42
498.452	19346.17
498.821	19620.97
499.19	19754.97
499.559	19749.1
499.928	19900.51
500.298	20130.33
500.667	20382.76
501.036	20375.3
501.405	20519.93
501.774	20462.53
502.143	20767.83
502.512	20898.22
502.88	21035.17
503.249	21092.57
503.618	21264.31
503.987	21380.92
504.356	21606.68
504.724	21664.53
505.093	21807.35
505.462	21843.73
505.83	22050.06
506.199	22196.72
506.567	22574.56
506.936	22563.04
507.304	22710.83
507.672	22910.6
508.041	22894.33
508.409	23178.16
508.777	23298.16
509.145	23496.35
509.514	23592.39
509.882	23796.45
510.25	23779.73
510.618	23982.43
510.986	24192.6
511.354	24348.75
511.722	24556.88
512.09	24675.3
512.458	24729.31
512.826	24976.08
513.193	25193.93
513.561	25217.43
513.929	25499.23
514.297	25700.13
514.664	25875.27
515.032	26005.43
515.4	26270.06
515.767	26319.77
516.135	26611.52
516.502	26451.52
516.869	26868.01
517.237	26973.54
517.604	26970.15
517.972	27385.96
518.339	27486.52
518.706	27666.41
519.073	27874.08
519.44	27914.08
519.808	28286.5
520.175	28249.44
520.542	28704.57
520.909	28851.23
521.276	28949.76
521.643	29206.25
522.009	29394.04
522.376	29652.34
522.743	29909.28
523.11	30079.45
523.477	30375.94
523.843	30538.87
524.21	30854.12
524.577	31007.11
524.943	31251.4
525.31	31389.7
525.676	31637.6
526.043	31895.9
526.409	32041.88
526.776	32375.66
527.142	32457.24
527.508	32734.75
527.874	32905.59
528.241	33077.11
528.607	33128.41
528.973	33552.13
529.339	33547.61
529.705	33941.04
530.071	34056.29
530.437	34285.21
530.803	34520.24
531.169	34739.89
531.535	34712.1
531.901	34858.98
532.267	35079.54
532.632	35200.44
532.998	35254.23
533.364	35410.83
533.73	35606.08
534.095	35876.81
534.461	35998.84
534.826	36184.6
535.192	36346.86
535.557	36463.46
535.923	36654.42
536.288	36668.43
536.653	36940.29
537.019	36898.03
537.384	37039.72
537.749	37318.13
538.114	37386.6
538.479	37553.15
538.845	37641.06
539.21	37646.93
539.575	37810.09
539.94	37889.64
540.305	38176.19
540.67	38217.31
541.034	38229.52
541.399	38524.88
541.764	38505.67
542.129	38621.37
542.494	38886.9
542.858	39083.51
543.223	38954.7
543.587	39292.31
543.952	39221.58
544.316	39401.46
544.681	39504.29
545.045	39553.1
545.41	39780.21
545.774	39767.33
546.138	39902.47
546.503	40075.12
546.867	40076.25
547.231	40458.39
547.595	40381.33
547.959	40457.48
548.324	40493.19
548.688	40623.8
549.052	40894.08
549.416	41103.57
549.779	41109.22
550.143	41064.92
550.507	41478.92
550.871	41461.52
551.235	41604.8
551.599	41849.99
551.962	42059.47
552.326	42041.39
552.689	42252.24
553.053	42176.08
553.417	42265.8
553.78	42718.21
554.143	42574.49
554.507	42865.78
554.87	43105.77
555.234	43269.16
555.597	43270.29
555.96	43428.02
556.323	43602.26
556.686	43593.9
557.05	43818.75
557.413	43950.04
557.776	43983.72
558.139	44391.84
558.502	44540.31
558.865	44553.42
559.228	44888.78
559.59	44963.13
559.953	45086.96
560.316	45498.25
560.679	45350.91
561.041	45659.6
561.404	45829.32
561.767	46250.78
562.129	46024.57
562.492	46399.25
562.854	46448.96
563.217	46424.33
563.579	46657.54
563.941	47004.65
564.304	47179.56
564.666	47351.76
565.028	47408.03
565.39	47494.36
565.753	47762.83
566.115	47766.22
566.477	48010.73
566.839	48139.31
567.201	48424.05
567.563	48359.87
567.925	48641.9
568.287	48711.05
568.648	48761.44
569.01	48980.65
569.372	49158.95
569.734	49114.43
570.095	49362.78
570.457	49523.91
570.819	49606.39
571.18	49570.69
571.542	49817.91
571.903	49827.4
572.265	49931.13
572.626	50045.93
572.987	50175.87
573.349	50307.84
573.71	50437.11
574.071	50445.24
574.432	50493.15
574.794	50755.52
575.155	50791.45
575.516	50672.58
575.877	50734.27
576.238	50831.9
576.599	50924.78
576.96	50908.96
577.32	51013.14
577.681	51138.78
578.042	51328.83
578.403	51288.16
578.763	51229.4
579.124	51318.21
579.485	51371.32
579.845	51554.14
580.206	51491.54
580.566	51435.5
580.927	51484.99
581.287	51709.39
581.648	51534.93
582.008	51678.43
582.368	51588.94
582.728	51769.5
583.089	51606.11
583.449	51642.27
583.809	51657.19
584.169	51755.94
584.529	51654.02
584.889	51864.87
585.249	51697.41
585.609	51644.76
585.969	51905.77
586.329	51703.51
586.688	51697.64
587.048	51729.28
587.408	51704.64
587.768	51714.36
588.127	51736.96
588.487	51672.1
588.846	51857.41
589.206	51606.57
589.565	51762.95
589.925	51732.67
590.284	51655.15
590.643	51737.18
591.003	51731.31
591.362	51828.03
591.721	51812.89
592.08	51762.72
592.44	51890.4
592.799	51864.87
593.158	51809.27
593.517	51843.62
593.876	51923.17
594.235	51752.33
594.593	51801.82
594.952	51872.1
595.311	51770.4
595.67	51874.13
596.029	52014.24
596.387	52068.02
596.746	52149.15
597.104	51849.95
597.463	51850.63
597.822	52033.67
598.18	51920.91
598.538	51961.81
598.897	52217.17
599.255	51828.26
599.613	52298.3
599.972	52001.36
600.33	52134.46
600.688	52041.81
601.046	52101.92
601.404	52255.82
601.762	52234.35
602.12	52366.32
602.478	52366.09
602.836	52293.55
603.194	52203.16
603.552	52299.43
603.91	52243.61
604.268	52363.84
604.625	52257.62
604.983	52463.27
605.341	52207.68
605.698	52440.22
606.056	52520.89
606.413	52428.24
606.771	52658.74
607.128	52501.91
607.485	52483.61
607.843	52525.64
608.2	52644.05
608.557	52662.13
608.914	52664.39
609.272	52725.41
609.629	52849.02
609.986	52922.24
610.343	52646.54
610.7	52946.19
611.057	52869.81
611.414	52885.4
611.771	52956.36
612.127	52988
612.484	52969.47
612.841	53063.25
613.198	52903.03
613.554	52966.98
613.911	53226.19
614.267	53200.65
614.624	53123.14
614.98	53135.57
615.337	53302.57
615.693	53297.14
616.05	53209.46
616.406	53385.05
616.762	53285.62
617.118	53249.46
617.475	53237.94
617.831	53369.46
618.187	53409.23
618.543	53337.14
618.899	53518.38
619.255	53484.26
619.611	53336.46
619.967	53465.27
620.323	53535.1
620.678	53460.76
621.034	53329.91
621.39	53406.97
621.746	53319.29
622.101	53680.41
622.457	53425.5
622.812	53478.83
623.168	53580.53
623.523	53489.46
623.879	53717.92
624.234	53426.41
624.589	53524.48
624.945	53551.6
625.3	53566.06
625.655	53565.61
626.01	53503.69
626.365	53501.43
626.72	53505.05
627.075	53510.25
627.43	53424.6
627.785	53350.48
628.14	53424.6
628.495	53356.58
628.85	53358.16
629.205	53338.27
629.559	53444.71
629.914	53236.58
630.269	53247.65
630.623	53266.64
630.978	53132.4
631.332	53218.5
631.687	53278.84
632.041	53161.33
632.396	53248.33
632.75	53040.65
633.104	53099.41
633.459	52976.47
633.813	52940.32
634.167	52878.85
634.521	52885.18
634.875	52817.61
635.229	52847.21
635.583	52635.69
635.937	52733.54
636.291	52660.32
636.645	52659.19
636.999	52551.63
637.352	52588.69
637.706	52457.17
638.06	52560.89
638.413	52471.63
638.767	52374.23
639.121	52417.17
639.474	52239.32
639.828	52329.26
640.181	52305.76
640.534	52209.94
640.888	52226.21
641.241	52055.14
641.594	52146.21
641.947	52171.52
642.301	52069.83
642.654	52061.92
643.007	52051.75
643.36	52022.38
643.713	51919.33
644.066	52028.02
644.419	51720.01
644.771	51554.36
645.124	51305.78
645.477	51155.51
645.83	50930.65
646.182	50800.26
646.535	50673.48
646.888	50854.95
647.24	50534.96
647.593	50752.13
647.945	50615.18
648.298	50446.37
648.65	50427.84
649.002	50320.5
649.355	50496.09
649.707	50405.24
650.059	50460.61
650.411	50921.61
650.763	50862.18
651.115	51243.19
651.467	51125
651.819	51021.5
652.171	50922.74
652.523	50860.6
652.875	50920.94
653.227	50691.79
653.578	51002.74
653.93	50789.64
654.282	50635.07
654.633	50622.86
654.985	50666.93
655.337	50653.37
655.688	50551.91
656.039	50737.44
656.391	50530.66
656.742	50478.46
657.094	50581.96
657.445	50738.79
657.796	50399.82
658.147	50573.6
658.498	50411.12
658.849	50377.9
659.2	50343.32
659.551	50326.83
659.902	50426.94
660.253	50301.29
660.604	50376.09
660.955	50080.28
661.306	50325.92
661.656	50225.13
662.007	50272.59
662.358	50190.33
662.708	50066.95
663.059	50150.56
663.409	49905.82
663.76	50161.63
664.11	50060.62
664.461	50196.66
664.811	50143.55
665.161	50082.77
665.511	49944.24
665.862	49930.9
666.212	50014.29
666.562	49895.65
666.912	49944.01
667.262	49791.25
667.612	49777.69
667.962	49838.93
668.312	49708.76
668.662	50010.22
669.011	49901.98
669.361	49753.06
669.711	49645.71
670.06	49734.07
670.41	49631.48
670.76	49651.36
671.109	49743.79
671.459	49523.23
671.808	49480.97
672.157	49581.99
672.507	49347.19
672.856	49430.35
673.205	49474.42
673.554	49582.89
673.904	49394.42
674.253	49669.22
674.602	49326.4
674.951	48794.66
675.3	48657.94
675.649	49264.71
675.998	49138.61
676.346	49252.96
676.695	49280.53
677.044	48973.87
677.393	49045.96
677.741	49090.25
678.09	48972.06
678.438	48915.79
678.787	48980.87
679.135	48922.57
679.484	48771.39
679.832	48894.77
680.181	48631.5
680.529	48599.19
680.877	48519.64
681.225	48471.96
681.573	48800.54
681.922	48423.83
682.27	48287.11
682.618	48343.38
682.966	48222.02
683.314	48336.37
683.661	48138.18
684.009	48000.56
684.357	47942.93
684.705	47905.2
685.053	47942.93
685.4	47769.83
685.748	47699.78
686.095	47661.36
686.443	47401.93
686.79	47485.32
687.138	47385.89
687.485	47398.09
687.832	47217.98
688.18	47297.98
688.527	47092.34
688.874	46988.84
689.221	46897.76
689.568	46869.06
689.915	46705
690.262	46740.03
690.609	46661.39
690.956	46444.67
691.303	46417.55
691.65	46183.88
691.997	46245.13
692.344	45821.63
692.69	45939.15
693.037	45924.91
693.383	45518.37
693.73	45681.75
694.077	45485.6
694.423	45276.11
694.769	45263.46
695.116	45101.2
695.462	45102.11
695.808	44853.98
696.155	44942.11
696.501	44758.84
696.847	44690.82
697.193	44312.3
697.539	44593.42
697.885	44229.59
698.231	44058.06
698.577	44221
698.923	43954.11
699.269	43928.8
699.614	43587.12
699.96	43530.62
700.306	43527.91
700.651	43464.63
700.997	43280.01
701.342	43154.13
701.688	43088.82
702.033	43035.94
702.379	42889.28
702.724	42703.52
703.069	42799.57
703.415	42394.15
703.76	42364.32
704.105	42281.39
704.45	42348.05
704.795	41974.96
705.14	41951.68
705.485	41883.21
705.83	41745.81
706.175	41829.65
706.52	41582.65
706.865	41437.79
707.209	41350.34
707.554	41281.41
707.899	41468.08
708.243	41102.89
708.588	41069.22
708.932	40798.26
709.277	40730.69
709.621	40824.48
709.966	40458.39
710.31	40660.64
710.654	40138.39
710.998	40308.56
711.342	40323.93
711.687	40335.22
712.031	40052.07
712.375	39872.86
712.719	39835.35
713.063	39837.16
713.407	39861.34
713.75	39547.67
714.094	39654.79
714.438	39308.81
714.782	39490.05
715.125	39112.21
715.469	39268.81
715.812	39161.02
716.156	38748.37
716.499	39091.19
716.843	38855.49
717.186	38704.99
717.53	38869.27
717.873	38787.92
718.216	38673.12
718.559	38619.56
718.902	38414.15
719.246	38372.34
719.589	38268.84
719.932	38116.75
720.275	38164.66
720.617	38074.95
720.96	37952.01
721.303	37973.7
721.646	37981.39
721.989	37616.2
722.331	37783.88
722.674	37538.91
723.016	37643.77
723.359	37577.56
723.701	37552.7
724.044	37176.21
724.386	37193.39
724.729	37347.96
725.071	37103.45
725.413	37087.4
725.755	37069.32
726.097	36742.1
726.439	36708.43
726.782	36732.61
727.124	36834.07
727.465	36621.65
727.807	36564.93
728.149	36514.53
728.491	36371.49
728.833	36534.65
729.175	36168.33
729.516	36062.12
729.858	36102.34
730.199	36206.29
730.541	36091.49
730.882	36115.67
731.224	36191.6
731.565	35874.78
731.906	35922.91
732.248	35901.22
732.589	35721.33
732.93	35560.21
733.271	35708
733.612	35678.62
733.953	35668.68
734.294	35463.26
734.635	35383.49
734.976	35503.04
735.317	35184.85
735.658	35191.18
735.999	35124.06
736.339	35149.6
736.68	35128.36
737.021	34924.29
737.361	34835.26
737.702	34986.44
738.042	34783.51
738.383	34758.42
738.723	34861.47
739.063	34616.05
739.404	34743.06
739.744	34613.34
740.084	34471.88
740.424	34426.68
740.764	34378.32
741.104	34435.72
741.444	34200.92
741.784	34212.9
742.124	34093.81
742.464	34067.82
742.804	33927.94
743.143	33932.23
743.483	33866.24
743.823	33798.22
744.162	33665.8
744.502	33665.34
744.841	33574.72
745.181	33732.23
745.52	33513.71
745.86	33426.25
746.199	33337.44
746.538	33315.3
746.877	33383.77
747.216	33316.88
747.556	33166.83
747.895	33214.73
748.234	33049.77
748.573	32867.17
748.911	32990.79
749.25	32808.87
749.589	32631.02
749.928	32747.18
750.267	32795.08
750.605	32715.54
750.944	32621.3
751.283	32360.97
751.621	32399.61
751.96	32240.07
752.298	32220.18
752.636	32299.5
752.975	32095.44
