Data from breadboard_black_back_FLMS001491_00089.txt Node
Date: Wed Feb 08 10:51:03 GMT 2017
User: dcchb
Spectrometer: FLMS00149
Trigger mode: 0
Integration Time (sec): 2.000000E-2
Scans to average: 10
Electric dark correction enabled: true
Nonlinearity correction enabled: false
Boxcar width: 0
XAxis mode: Wavelengths
Number of Pixels in Spectrum: 2048
>>>>>Begin Spectral Data<<<<<
341.393	-0.97
341.776	-0.97
342.16	-0.97
342.543	-81.88
342.927	-58.37
343.31	-72.61
343.693	-57.92
344.077	-68.32
344.46	-70.35
344.843	-66.96
345.226	-22.89
345.61	-10.01
345.993	1.29
346.376	-9.11
346.759	14.84
347.142	23.88
347.525	37.22
347.908	77.89
348.291	42.41
348.674	84.45
349.057	96.2
349.44	106.37
349.823	141.39
350.206	163.31
350.588	177.78
350.971	232.01
351.354	245.57
351.737	232.24
352.119	260.04
352.502	276.76
352.884	263.65
353.267	297.55
353.65	291.45
354.032	303.65
354.414	319.24
354.797	318.11
355.179	345.46
355.562	325.12
355.944	325.34
356.326	338.9
356.709	340.94
357.091	336.64
357.473	335.29
357.855	351.56
358.238	347.26
358.62	347.49
359.002	363.99
359.384	350.65
359.766	363.54
360.148	344.33
360.53	335.97
360.912	353.14
361.294	333.48
361.676	356.76
362.057	322.63
362.439	339.81
362.821	354.95
363.203	345.91
363.584	343.42
363.966	345.91
364.348	345.01
364.729	332.12
365.111	330.99
365.493	325.12
365.874	332.35
366.256	334.84
366.637	344.33
367.019	338.68
367.4	340.26
367.781	322.63
368.163	339.81
368.544	353.37
368.925	321.28
369.306	378
369.688	351.78
370.069	326.47
370.45	354.27
370.831	341.84
371.212	349.52
371.593	345.68
371.974	341.84
372.355	323.31
372.736	360.82
373.117	345.01
373.498	341.39
373.879	369.86
374.26	346.59
374.641	346.13
375.021	347.04
375.402	338.68
375.783	368.96
376.163	352.24
376.544	392.24
376.925	377.55
377.305	382.97
377.686	361.95
378.066	392.24
378.447	368.28
378.827	381.39
379.208	399.69
379.588	377.55
379.968	384.33
380.349	384.78
380.729	402.86
381.109	368.28
381.489	397.43
381.87	411.44
382.25	403.76
382.63	396.76
383.01	416.19
383.39	399.01
383.77	422.52
384.15	408.51
384.53	418.9
384.91	421.61
385.29	425.45
385.67	428.17
386.049	431.78
386.429	438.34
386.809	454.61
387.189	436.3
387.568	435.17
387.948	439.24
388.328	438.79
388.707	444.44
389.087	453.48
389.466	440.14
389.846	445.79
390.225	477.88
390.605	486.24
390.984	465
391.363	493.02
391.743	479.46
392.122	493.7
392.501	489.18
392.881	482.85
393.26	502.74
393.639	487.15
394.018	507.49
394.397	496.64
394.776	512.91
395.155	497.54
395.534	533.02
395.913	517.66
396.292	510.88
396.671	537.32
397.05	544.1
397.429	538.22
397.808	539.8
398.186	545.68
398.565	512.68
398.944	533.47
399.323	557.65
399.701	584.77
400.08	561.04
400.458	573.47
400.837	589.74
401.215	588.39
401.594	564.21
401.972	572.57
402.351	575.28
402.729	597.88
403.107	587.71
403.486	620.7
403.864	605.56
404.242	611.89
404.62	626.81
404.999	622.29
405.377	664.32
405.755	638.56
406.133	657.99
406.511	656.64
406.889	644.88
407.267	664.09
407.645	665.67
408.023	712.68
408.401	688.05
408.779	705.67
409.156	710.19
409.534	717.2
409.912	714.49
410.29	748.16
410.667	723.75
411.045	748.38
411.422	739.8
411.8	741.15
412.178	762.62
412.555	787.25
412.933	779.57
413.31	797.42
413.687	825.44
414.065	826.35
414.442	816.86
414.819	845.33
415.197	842.62
415.574	854.6
415.951	834.94
416.328	864.77
416.705	867.03
417.082	912.45
417.46	896.63
417.837	905.22
418.214	895.73
418.591	879.68
418.967	892.11
419.344	919.91
419.721	927.36
420.098	937.31
420.475	938.66
420.852	925.78
421.228	970.07
421.605	955.61
421.982	996.06
422.358	998.77
422.735	993.12
423.111	999.45
423.488	1053.24
423.864	1023.63
424.241	1043.74
424.617	1065.89
424.994	1071.99
425.37	1024.99
425.746	1100.47
426.123	1086
426.499	1098.88
426.875	1114.02
427.251	1143.18
427.627	1163.29
428.003	1166.45
428.379	1165.32
428.756	1189.95
429.132	1212.55
429.507	1222.04
429.883	1238.77
430.259	1256.85
430.635	1279.44
431.011	1267.01
431.387	1296.17
431.763	1303.85
432.138	1308.37
432.514	1343.4
432.89	1332.1
433.265	1370.97
433.641	1393.79
434.016	1401.47
434.392	1453.68
434.767	1441.7
435.143	1462.72
435.518	1477.86
435.894	1452.55
436.269	1494.81
436.644	1499.78
437.02	1519.21
437.395	1532.77
437.77	1580.45
438.145	1571.19
438.52	1599.66
438.895	1611.86
439.271	1588.59
439.646	1627.23
440.021	1641.24
440.395	1672.65
440.77	1650.96
441.145	1662.71
441.52	1700.68
441.895	1708.81
442.27	1743.61
442.645	1747.91
443.019	1764.63
443.394	1780.67
443.769	1804.63
444.143	1765.08
444.518	1787.23
444.892	1752.65
445.267	1825.42
445.641	1823.38
446.016	1886.43
446.39	1852.76
446.764	1842.37
447.139	1868.81
447.513	1906.77
447.887	1926.43
448.262	1866.77
448.636	1905.64
449.01	1922.59
449.384	1939.77
449.758	1962.14
450.132	2000.55
450.506	2011.85
450.88	2031.51
451.254	2049.59
451.628	2080.1
452.002	2098.86
452.376	2112.19
452.75	2133.66
453.123	2125.75
453.497	2154.9
453.871	2198.52
454.244	2234.22
454.618	2244.84
454.992	2267.21
455.365	2274.45
455.739	2353.31
456.112	2358.51
456.486	2379.98
456.859	2393.99
457.232	2471.28
457.606	2451.39
457.979	2524.83
458.352	2543.59
458.725	2539.52
459.099	2577.94
459.472	2593.31
459.845	2611.16
460.218	2675.34
460.591	2706.75
460.964	2689.12
461.337	2770.48
461.71	2851.83
462.083	2829.23
462.456	2894.09
462.829	2834.43
463.201	2927.99
463.574	2956.46
463.947	2975.44
464.32	3043.69
464.692	3055.67
465.065	3109.68
465.438	3115.78
465.81	3186.06
466.183	3204.36
466.555	3313.97
466.928	3285.94
467.3	3298.37
467.672	3367.3
468.045	3457.47
468.417	3419.05
468.789	3484.36
469.161	3508.99
469.534	3613.85
469.906	3670.57
470.278	3676.44
470.65	3738.59
471.022	3802.32
471.394	3889.09
471.766	3909.66
472.138	3949.43
472.51	4013.16
472.882	4093.83
473.253	4114.85
473.625	4200.5
473.997	4265.13
474.369	4294.05
474.74	4325.24
475.112	4452.92
475.484	4518
475.855	4545.57
476.227	4622.18
476.598	4740.82
476.97	4780.14
477.341	4891.78
477.713	4960.48
478.084	4974.94
478.455	5142.39
478.827	5191.88
479.198	5331.77
479.569	5386
479.94	5493.57
480.311	5552.33
480.682	5637.75
481.053	5757.97
481.424	5820.57
481.795	5905.31
482.166	6028.47
482.537	6098.3
482.908	6199.31
483.279	6253.78
483.65	6411.51
484.021	6530.38
484.391	6585.97
484.762	6679.75
485.133	6748
485.503	6789.36
485.874	6899.86
486.244	7021.89
486.615	7138.72
486.985	7274.54
487.356	7371.94
487.726	7430.02
488.097	7643.12
488.467	7646.96
488.837	7829.55
489.207	7862.1
489.578	7983.45
489.948	8068.64
490.318	8153.84
490.688	8240.62
491.058	8335.98
491.428	8487.84
491.798	8532.36
492.168	8775.29
492.538	8712.24
492.908	8834.95
493.278	8989.52
493.648	9011.44
494.017	9147.03
494.387	9176.86
494.757	9240.14
495.126	9401.94
495.496	9370.53
495.866	9539.11
496.235	9537.31
496.605	9660.24
496.974	9712.44
497.344	9892.1
497.713	9843.29
498.082	9973.23
498.452	10034.02
498.821	10158.08
499.19	10202.6
499.559	10273.33
499.928	10356.27
500.298	10431.07
500.667	10607.11
501.036	10504.51
501.405	10638.52
501.774	10634.45
502.143	10831.28
502.512	10843.49
502.88	10943.14
503.249	10930.04
503.618	11040.09
503.987	11111.05
504.356	11220.88
504.724	11310.59
505.093	11384.94
505.462	11349.91
505.83	11498.16
506.199	11559.17
506.567	11681.2
506.936	11753.29
507.304	11835.1
507.672	11959.39
508.041	11941.31
508.409	12168.65
508.777	12208.42
509.145	12338.81
509.514	12364.58
509.882	12473.27
510.25	12393.05
510.618	12598.92
510.986	12631.69
511.354	12756.66
511.722	12864.9
512.09	13027.38
512.458	13031
512.826	13090.66
513.193	13197.55
513.561	13281.84
513.929	13402.29
514.297	13496.52
514.664	13616.52
515.032	13575.17
515.4	13722.51
515.767	13898.32
516.135	13851.99
516.502	13956.85
516.869	14144.42
517.237	14308.71
517.604	14183.96
517.972	14371.75
518.339	14493.33
518.706	14554.12
519.073	14622.82
519.44	14784.63
519.808	14875.47
520.175	14999.31
520.542	15143.26
520.909	15282.24
521.276	15242.01
521.643	15382.35
522.009	15566.98
522.376	15675.9
522.743	15651.95
523.11	15919.96
523.477	16094.65
523.843	16237.69
524.21	16352.04
524.577	16449.67
524.943	16615.99
525.31	16652.6
525.676	16783.67
526.043	16982.31
526.409	17057.56
526.776	17178.01
527.142	17238.8
527.508	17355.41
527.874	17556.76
528.241	17618.22
528.607	17681.72
528.973	17891.21
529.339	17872.23
529.705	18026.35
530.071	18133.92
530.437	18294.82
530.803	18431.99
531.169	18491.87
531.535	18586.11
531.901	18559.22
532.267	18719.66
532.632	18795.82
532.998	18835.37
533.364	19088.47
533.73	19119.2
534.095	19307.44
534.461	19327.56
534.826	19364.39
535.192	19438.97
535.557	19665.63
535.923	19545.86
536.288	19695.68
536.653	19906.52
537.019	19843.25
537.384	19880.31
537.749	20083.92
538.114	20136.58
538.479	20157.37
538.845	20360.98
539.21	20217.93
539.575	20308.55
539.94	20429.22
540.305	20623.79
540.67	20534.76
541.034	20620.18
541.399	20738.59
541.764	20794.86
542.129	20974.75
542.494	20940.17
542.858	21144.68
543.223	21111.46
543.587	21338.8
543.952	21259.03
544.316	21353.27
544.681	21378.12
545.045	21477.1
545.41	21605.24
545.774	21535.63
546.138	21634.39
546.503	21783.99
546.867	21770.43
547.231	22003.19
547.595	21925.23
547.959	22161.38
548.324	22033.02
548.688	22056.3
549.052	22246.58
549.416	22296.97
549.779	22284.54
550.143	22460.81
550.507	22601.59
550.871	22666.68
551.235	22674.59
551.599	22754.81
551.962	22909.84
552.326	22974.92
552.689	23183.27
553.053	23127
553.417	23169.49
553.78	23394.57
554.143	23409.71
554.507	23560.44
554.87	23576.26
555.234	23808.79
555.597	23639.53
555.96	23701.23
556.323	23931.73
556.686	23890.6
557.05	24249.24
557.413	24210.59
557.776	24333.07
558.139	24356.13
558.502	24527.42
558.865	24556.12
559.228	24846.06
559.59	24923.79
559.953	24878.15
560.316	25209.66
560.679	25181.41
561.041	25297.8
561.404	25349.32
561.767	25523.33
562.129	25514.74
562.492	25861.17
562.854	25788.4
563.217	25912.24
563.579	25930.32
563.941	26224.32
564.304	26310.88
564.666	26488.27
565.028	26372.57
565.39	26518.33
565.753	26770.07
566.115	26814.14
566.477	26988.82
566.839	27045.09
567.201	27115.37
567.563	27241.02
567.925	27317.18
568.287	27316.27
568.648	27654.57
569.01	27684.63
569.372	27767.11
569.734	27732.08
570.095	27930.27
570.457	28090.49
570.819	28017.72
571.18	28217.49
571.542	28205.06
571.903	28236.02
572.265	28477.6
572.626	28458.39
572.987	28600.08
573.349	28619.52
573.71	28761.21
574.071	28922.33
574.432	28913.75
574.794	29215.43
575.155	29069.9
575.516	29055.21
575.877	29320.06
576.238	29336.11
576.599	29446.16
576.96	29273.06
577.32	29434.18
577.681	29506.05
578.042	29700.84
578.403	29610
578.763	29666.27
579.124	29711.24
579.485	29804.34
579.845	29822.2
580.206	29808.86
580.566	29826.49
580.927	29840.5
581.287	30079.36
581.648	29838.01
582.008	30009.31
582.368	29970.89
582.728	30083.43
583.089	29980.61
583.449	30002.98
583.809	30024.9
584.169	30087.95
584.529	29972.25
584.889	30179.7
585.249	30156.65
585.609	30128.4
585.969	30270.77
586.329	30128.18
586.688	30189.42
587.048	30218.12
587.408	30143.09
587.768	30244.78
588.127	30238.91
588.487	30198.68
588.846	30290.21
589.206	30094.51
589.565	30234.61
589.925	30321.39
590.284	30240.72
590.643	30293.14
591.003	30363.42
591.362	30474.38
591.721	30427.15
592.08	30489.52
592.44	30401.16
592.799	30340.37
593.158	30317.1
593.517	30355.74
593.876	30422.63
594.235	30498.79
594.593	30455.85
594.952	30504.44
595.311	30399.36
595.67	30520.26
596.029	30605.9
596.387	30788.5
596.746	30711.89
597.104	30574.49
597.463	30536.08
597.822	30601.38
598.18	30590.31
598.538	30620.14
598.897	30767.26
599.255	30563.87
599.613	30980.36
599.972	30723.42
600.33	30814.71
600.688	30752.79
601.046	30805.45
601.404	31007.93
601.762	30881.15
602.12	31089.96
602.478	31035.5
602.836	31023.52
603.194	31047.02
603.552	30990.75
603.91	30831.66
604.268	31033.46
604.625	31108.04
604.983	31120.47
605.341	31038.66
605.698	31227.58
606.056	31204.76
606.413	31187.58
606.771	31315.94
607.128	31440.91
607.485	31192.1
607.843	31300.58
608.2	31528.37
608.557	31534.92
608.914	31534.92
609.272	31602.71
609.629	31528.82
609.986	31701.24
610.343	31621.47
610.7	31776.04
611.057	31660.79
611.414	31767.46
611.771	31725.2
612.127	31904.85
612.484	32009.03
612.841	31903.5
613.198	31861.69
613.554	31985.08
613.911	32139.65
614.267	32094
614.624	32034.34
614.98	32104.85
615.337	32165.19
615.693	32218.07
616.05	32199.31
616.406	32319.98
616.762	32197.95
617.118	32182.59
617.475	32207.9
617.831	32362.24
618.187	32354.33
618.543	32328.34
618.899	32489.02
619.255	32468.91
619.611	32432.07
619.967	32490.6
620.323	32695.57
620.678	32348.91
621.034	32355.24
621.39	32485.63
621.746	32423.03
622.101	32725.17
622.457	32365.41
622.812	32657.38
623.168	32641.33
623.523	32611.5
623.879	32717.94
624.234	32475.01
624.589	32631.84
624.945	32564.27
625.3	32696.24
625.655	32754.77
626.01	32630.26
626.365	32658.51
626.72	32456.48
627.075	32565.85
627.43	32630.48
627.785	32650.37
628.14	32599.75
628.495	32647.43
628.85	32505.29
629.205	32490.83
629.559	32612.63
629.914	32338.06
630.269	32490.15
630.623	32384.16
630.978	32379.64
631.332	32390.94
631.687	32509.58
632.041	32246.09
632.396	32386.65
632.75	32270.04
633.104	32317.27
633.459	32130.38
633.813	32191.4
634.167	32105.3
634.521	32116.37
634.875	32125.64
635.229	32105.98
635.583	31949.6
635.937	31848.36
636.291	31886.1
636.645	31823.5
636.999	31766.55
637.352	31824.4
637.706	31550.06
638.06	31813.33
638.413	31769.04
638.767	31687.91
639.121	31750.51
639.474	31515.48
639.828	31495.15
640.181	31580.12
640.534	31436.16
640.888	31517.29
641.241	31205.21
641.594	31300.58
641.947	31501.7
642.301	31339.9
642.654	31326.56
643.007	31491.08
643.36	31331.31
643.713	31198.21
644.066	31222.61
644.419	31125.21
644.771	30904.65
645.124	30613.81
645.477	30592.35
645.83	30492.69
646.182	30319.13
646.535	30128.63
646.888	30213.15
647.24	30034.17
647.593	30182.64
647.945	29969.54
648.298	29937.22
648.65	29923.89
649.002	29715.76
649.355	30018.8
649.707	29804.8
650.059	29965.47
650.411	30407.72
650.763	30293.82
651.115	30729.29
651.467	30476.64
651.819	30463.08
652.171	30392.12
652.523	30526.58
652.875	30421.5
653.227	30269.64
653.578	30444.33
653.93	30338.34
654.282	30306.25
654.633	30139.7
654.985	30277.55
655.337	30256.76
655.688	30200.04
656.039	30334.95
656.391	30119.36
656.742	29973.83
657.094	30049.76
657.445	30132.02
657.796	30014.06
658.147	30041.17
658.498	29941.51
658.849	30061.29
659.2	29894.74
659.551	29915.53
659.902	30133.15
660.253	30048.86
660.604	29962.31
660.955	29839.37
661.306	29949.2
661.656	29939.26
662.007	29880.05
662.358	29814.06
662.708	29912.36
663.059	29780.84
663.409	29692.71
663.76	29847.51
664.11	29700.17
664.461	29864
664.811	29727.74
665.161	29806.83
665.511	29681.18
665.862	29691.13
666.212	29706.72
666.562	29688.64
666.912	29683.89
667.262	29710.79
667.612	29613.84
667.962	29660.39
668.312	29619.94
668.662	29603.44
669.011	29571.13
669.361	29607.96
669.711	29504.92
670.06	29682.99
670.41	29428.76
670.76	29487.06
671.109	29568.42
671.459	29451.81
671.808	29354.64
672.157	29452.04
672.507	29428.53
672.856	29353.96
673.205	29403.9
673.554	29423.11
673.904	29263.34
674.253	29412.04
674.602	29275.32
674.951	28919.17
675.3	28715.11
675.649	29240.97
675.998	29216.11
676.346	29184.92
676.695	29225.83
677.044	29068.09
677.393	29129.33
677.741	29205.49
678.09	28985.83
678.438	29107.86
678.787	29053.18
679.135	29003.23
679.484	28828.78
679.832	28859.74
680.181	28883.24
680.529	28890.92
680.877	28756.69
681.225	28710.36
681.573	28898.6
681.922	28639.4
682.27	28541.33
682.618	28629.69
682.966	28522.34
683.314	28512.85
683.661	28519.63
684.009	28388.34
684.357	28292.07
684.705	28284.38
685.053	28300.43
685.4	28183.82
685.748	28160.77
686.095	28068.34
686.443	27802.36
686.79	27913.77
687.138	27900.21
687.485	27890.95
687.832	27842.81
688.18	27850.5
688.527	27737.28
688.874	27726.21
689.221	27662.7
689.568	27657.06
689.915	27555.59
690.262	27447.12
690.609	27383.39
690.956	27363.5
691.303	27311.3
691.65	27170.74
691.997	27262.04
692.344	26994.02
692.69	27094.36
693.037	26905.89
693.383	26700.7
693.73	26859.79
694.077	26708.61
694.423	26677.65
694.769	26558.1
695.116	26506.58
695.462	26512.45
695.808	26370.54
696.155	26444.21
696.501	26210.99
696.847	26290.76
697.193	26020.04
697.539	26133.03
697.885	25855.29
698.231	25789.53
698.577	25805.58
698.923	25856.88
699.269	25716.77
699.614	25526.49
699.96	25519.03
700.306	25542.53
700.651	25431.35
700.997	25307.06
701.342	25349.09
701.688	25202.43
702.033	25140.74
702.379	25208.76
702.724	25041.76
703.069	25113.85
703.415	24799.96
703.76	24919.73
704.105	24916.11
704.45	24758.15
704.795	24641.99
705.14	24628.89
705.485	24496.91
705.83	24490.36
706.175	24495.56
706.52	24439.06
706.865	24344.37
707.209	24329.69
707.554	24270.03
707.899	24292.62
708.243	24080.2
708.588	24118.39
708.932	23911.84
709.277	23938.28
709.621	24011.73
709.966	23873.65
710.31	23914.78
710.654	23667.56
710.998	23637.73
711.342	23636.6
711.687	23637.73
712.031	23568.12
712.375	23357.96
712.719	23519.31
713.063	23400.67
713.407	23510.72
713.75	23368.58
714.094	23261.92
714.438	23096.05
714.782	23250.62
715.125	23169.26
715.469	23140.11
715.812	22997.06
716.156	22800.23
716.499	22890.17
716.843	22869.61
717.186	22768.37
717.53	22891.98
717.873	22815.83
718.216	22786.67
718.559	22738.09
718.902	22510.98
719.246	22627.81
719.589	22569.05
719.932	22360.02
720.275	22409.06
720.617	22416.97
720.96	22284.32
721.303	22317.08
721.646	22339
721.989	22138.1
722.331	22181.72
722.674	22197.99
723.016	22156.18
723.359	22114.38
723.701	22159.8
724.044	21903.31
724.386	21899.24
724.729	21997.54
725.071	21936.3
725.413	21871.67
725.755	21887.72
726.097	21675.29
726.439	21703.77
726.782	21766.14
727.124	21738.34
727.465	21667.83
727.807	21464
728.149	21570.89
728.491	21568.18
728.833	21535.18
729.175	21431.23
729.516	21449.31
729.858	21339.48
730.199	21412.02
730.541	21395.3
730.882	21352.36
731.224	21327.28
731.565	21108.07
731.906	21141.29
732.248	21165.25
732.589	21072.6
732.93	21047.29
733.271	21041.86
733.612	21040.73
733.953	21099.49
734.294	20974.97
734.635	20930.9
734.976	20915.09
735.317	20817.91
735.658	20839.16
735.999	20849.55
736.339	20704.47
736.68	20804.13
737.021	20658.14
737.361	20574.53
737.702	20682.78
738.042	20564.81
738.383	20573.4
738.723	20593.29
739.063	20425.61
739.404	20583.57
739.744	20547.19
740.084	20490.69
740.424	20454.31
740.764	20327.76
741.104	20393.52
741.444	20183.81
741.784	20221.09
742.124	20214.31
742.464	20231.49
742.804	20292.73
743.143	20226.06
743.483	20137.03
743.823	20080.08
744.162	20119.17
744.502	20037.37
744.841	19915.79
745.181	20059.97
745.52	19913.53
745.86	19951.04
746.199	19869.46
746.538	19892.97
746.877	19958.27
747.216	19865.4
747.556	19714.44
747.895	19706.3
748.234	19716.93
748.573	19636.25
748.911	19628.34
749.25	19631.28
749.589	19448.01
749.928	19495.46
750.267	19504.95
750.605	19413.43
750.944	19489.81
751.283	19389.25
751.621	19386.09
751.96	19280.33
752.298	19254.56
752.636	19301.79
752.975	19025.19
753.313	19057.28
753.651	19123.49
753.989	18929.6
754.327	18934.8
