Data from breadboard_white_FLMS001491_00048.txt Node
Date: Wed Feb 08 10:47:47 GMT 2017
User: dcchb
Spectrometer: FLMS00149
Trigger mode: 0
Integration Time (sec): 2.000000E-2
Scans to average: 10
Electric dark correction enabled: true
Nonlinearity correction enabled: false
Boxcar width: 0
XAxis mode: Wavelengths
Number of Pixels in Spectrum: 2048
>>>>>Begin Spectral Data<<<<<
341.393	-8.04
341.776	-8.04
342.16	-8.04
342.543	-64.98
342.927	-73.57
343.31	-59.79
343.693	-47.13
344.077	-56.17
344.46	-63.85
344.843	-39.9
345.226	-54.14
345.61	-23.18
345.993	-1.03
346.376	0.78
346.759	-7.13
347.142	10.95
347.525	20.66
347.908	64.05
348.291	74.67
348.674	81.68
349.057	99.53
349.44	122.58
349.823	149.93
350.206	153.54
350.588	208.45
350.971	244.16
351.354	253.65
351.737	246.42
352.119	283.71
352.502	291.84
352.884	285.74
353.267	296.14
353.65	308.11
354.032	311.05
354.414	331.39
354.797	342.01
355.179	337.49
355.562	317.6
355.944	324.16
356.326	351.95
356.709	333.2
357.091	331.84
357.473	334.78
357.855	386.08
358.238	336.36
358.62	346.53
359.002	351.28
359.384	347.43
359.766	345.17
360.148	362.12
360.53	359.64
360.912	356.93
361.294	352.63
361.676	355.57
362.057	360.77
362.439	363.48
362.821	338.62
363.203	358.96
363.584	351.5
363.966	358.28
364.348	353.76
364.729	355.34
365.111	351.05
365.493	334.55
365.874	348.11
366.256	356.25
366.637	339.52
367.019	345.4
367.4	354.44
367.781	328.9
368.163	335.91
368.544	341.78
368.925	325.06
369.306	360.32
369.688	332.29
370.069	335.01
370.45	344.27
370.831	349.02
371.212	356.93
371.593	337.27
371.974	348.79
372.355	346.98
372.736	370.03
373.117	337.04
373.498	347.66
373.879	353.31
374.26	339.52
374.641	339.75
375.021	361.22
375.402	346.3
375.783	350.82
376.163	364.16
376.544	376.59
376.925	362.58
377.305	380.43
377.686	378.39
378.066	374.78
378.447	385.63
378.827	365.96
379.208	376.59
379.588	396.25
379.968	378.17
380.349	377.72
380.729	394.66
381.109	401.22
381.489	403.7
381.87	393.99
382.25	383.37
382.63	409.35
383.01	387.21
383.39	402.57
383.77	409.58
384.15	418.84
384.53	410.26
384.91	438.05
385.29	441.22
385.67	417.72
386.049	424.04
386.429	437.15
386.809	448.22
387.189	455.45
387.568	434.89
387.948	473.53
388.328	451.16
388.707	447.77
389.087	457.71
389.466	449.8
389.846	469.01
390.225	468.11
390.605	468.11
390.984	441.44
391.363	479.63
391.743	480.76
392.122	474.44
392.501	502.68
392.881	491.84
393.26	506.75
393.639	504.27
394.018	517.37
394.397	527.99
394.776	553.76
395.155	514.21
395.534	529.58
395.913	546.53
396.292	584.94
396.671	600.99
397.05	568.45
397.429	551.95
397.808	579.52
398.186	591.72
398.565	603.02
398.944	594.66
399.323	621.1
399.701	602.34
400.08	622
400.458	629.23
400.837	659.52
401.215	674.21
401.594	673.75
401.972	701.78
402.351	686.86
402.729	679.86
403.107	726.18
403.486	714.66
403.864	723.92
404.242	777.48
404.62	787.65
404.999	774.32
405.377	792.17
405.755	799.17
406.133	793.98
406.511	812.96
406.889	846.63
407.267	831.04
407.645	861.55
408.023	886.63
408.401	920.07
408.779	937.48
409.156	916.46
409.534	919.62
409.912	953.52
410.29	992.39
410.667	1010.69
411.045	1032.16
411.422	1045.5
411.8	1085.49
412.178	1092.73
412.555	1099.05
412.933	1117.58
413.31	1148.77
413.687	1163.68
414.065	1171.82
414.442	1204.81
414.819	1207.75
415.197	1231.7
415.574	1247.98
415.951	1283
416.328	1284.81
416.705	1308.09
417.082	1310.8
417.46	1353.74
417.837	1364.58
418.214	1371.14
418.591	1388.99
418.967	1441.64
419.344	1412.49
419.721	1424.47
420.098	1487.29
420.475	1490.23
420.852	1525.26
421.228	1499.27
421.605	1541.3
421.982	1556.22
422.358	1595.09
422.735	1614.97
423.111	1629.21
423.488	1643.22
423.864	1642.32
424.241	1663.11
424.617	1693.84
424.994	1705.82
425.37	1721.41
425.746	1757.57
426.123	1791.24
426.499	1777
426.875	1812.93
427.251	1863.33
427.627	1894.51
428.003	1895.42
428.379	1938.58
428.756	1936.32
429.132	1972.02
429.507	1960.5
429.883	2014.96
430.259	2063.1
430.635	2142.87
431.011	2094.51
431.387	2182.41
431.763	2205.01
432.138	2230.32
432.514	2285.24
432.89	2272.13
433.265	2283.2
433.641	2319.13
434.016	2361.17
434.392	2421.73
434.767	2453.37
435.143	2445.46
435.518	2475.29
435.894	2525.68
436.269	2550.77
436.644	2604.1
437.02	2615.4
437.395	2639.35
437.77	2656.98
438.145	2675.28
438.52	2736.07
438.895	2778.56
439.271	2800.03
439.646	2872.79
440.021	2882.06
440.395	2890.64
440.77	2900.14
441.145	2898.33
441.52	2980.81
441.895	2958.67
442.27	3004.31
442.645	3008.61
443.019	3063.97
443.394	3042.96
443.769	3096.29
444.143	3079.79
444.518	3136.29
444.892	3104.65
445.267	3149.62
445.641	3212.67
446.016	3231.2
446.39	3276.17
446.764	3244.76
447.139	3265.55
447.513	3300.8
447.887	3323.18
448.262	3405.21
448.636	3371.99
449.01	3449.73
449.384	3468.03
449.758	3484.98
450.132	3550.51
450.506	3558.2
450.88	3576.73
451.254	3553.9
451.628	3630.51
452.002	3702.15
452.376	3675.93
452.75	3742.6
453.123	3771.53
453.497	3858.75
453.871	3898.3
454.244	3976.94
454.618	3956.15
454.992	4010.39
455.365	4069.14
455.739	4153.89
456.112	4204.51
456.486	4236.82
456.859	4304.84
457.232	4365.63
457.606	4323.6
457.979	4383.71
458.352	4489.92
458.725	4598.62
459.099	4595.68
459.472	4705.74
459.845	4729.47
460.218	4787.09
460.591	4813.08
460.964	4842.01
461.337	4959.74
461.71	5004.49
462.083	5137.36
462.456	5096.24
462.829	5173.07
463.201	5275.44
463.574	5233.86
463.947	5342.56
464.32	5482.21
464.692	5511.37
465.065	5581.42
465.438	5630.01
465.81	5741.42
466.183	5807.63
466.555	5899.6
466.928	5938.25
467.3	5977.79
467.672	6053.5
468.045	6206.26
468.417	6251.46
468.789	6289.43
469.161	6403.09
469.534	6493.94
469.906	6615.29
470.278	6638.79
470.65	6784.1
471.022	6902.97
471.394	7039.24
471.766	7055.96
472.138	7168.27
472.51	7277.42
472.882	7432.67
473.253	7487.59
473.625	7635.15
473.997	7774.81
474.369	7908.82
474.74	7956.73
475.112	8154.23
475.484	8237.4
475.855	8358.07
476.227	8466.77
476.598	8683.03
476.97	8782.24
477.341	8972.29
477.713	9088
478.084	9215.68
478.455	9421.09
478.827	9438.49
479.198	9791.71
479.569	9847.98
479.94	10099.49
480.311	10097.91
480.682	10323.44
481.053	10616.09
481.424	10779.25
481.795	10903.54
482.166	11084.1
482.537	11199.35
482.908	11537.2
483.279	11570.19
483.65	11799.11
484.021	12044.98
484.391	12123.4
484.762	12318.87
485.133	12331.3
485.503	12570.84
485.874	12857.61
486.244	12970.15
486.615	13220.54
486.985	13347.32
487.356	13645.16
487.726	13778.95
488.097	14123.34
488.467	14111.59
488.837	14392.94
489.207	14528.53
489.578	14761.97
489.948	14858.69
490.318	15158.8
490.688	15111.34
491.058	15530.09
491.428	15681.27
491.798	15813.92
492.168	16113.8
492.538	16219.33
492.908	16476.5
493.278	16620.9
493.648	16693.9
494.017	16882.82
494.387	17002.82
494.757	17181.79
495.126	17344.5
495.496	17480.09
495.866	17614.32
496.235	17807.99
496.605	17903.81
496.974	18084.37
497.344	18195.1
497.713	18383.8
498.082	18421.99
498.452	18667.86
498.821	18833.95
499.19	18922.31
499.559	19160.73
499.928	19236.43
500.298	19380.61
500.667	19687.49
501.036	19576.53
501.405	19777.21
501.774	19868.95
502.143	20014.04
502.512	20211.09
502.88	20281.83
503.249	20297.64
503.618	20532.44
503.987	20763.39
504.356	20731.53
504.724	20933.56
505.093	20975.82
505.462	21131.97
505.83	21319.76
506.199	21533.09
506.567	21735.12
506.936	21759.07
507.304	21999.97
507.672	22082.91
508.041	22307.53
508.409	22533.74
508.777	22705.72
509.145	22764.47
509.514	22820.06
509.882	22985.48
510.25	23149.77
510.618	23346.38
510.986	23518.35
511.354	23765.12
511.722	23878.34
512.09	24066.58
512.458	24120.14
512.826	24304.77
513.193	24507.03
513.561	24607.36
513.929	24763.06
514.297	25099.55
514.664	25262.94
515.032	25227.01
515.4	25589.93
515.767	25698.18
516.135	25915.58
516.502	25820.89
516.869	26112.86
517.237	26321.67
517.604	26302.46
517.972	26751.94
518.339	26882.78
518.706	26951.03
519.073	27136.11
519.44	27386.27
519.808	27550.56
520.175	27664.46
520.542	27990.1
520.909	28152.8
521.276	28262.63
521.643	28617.65
522.009	28726.58
522.376	28955.27
522.743	29129.05
523.11	29349.61
523.477	29777.85
523.843	29933.32
524.21	30183.94
524.577	30528.56
524.943	30597.03
525.31	30829.34
525.676	31081.09
526.043	31229.56
526.409	31307.07
526.776	31695.54
527.142	31884.01
527.508	32114.06
527.874	32220.95
528.241	32459.36
528.607	32575.97
528.973	32852.79
529.339	32920.14
529.705	33336.85
530.071	33592.66
530.437	33707.91
530.803	33929.83
531.169	34114.68
531.535	34165.08
531.901	34364.62
532.267	34523.03
532.632	34868.79
532.998	34786.3
533.364	35092.51
533.73	35123.02
534.095	35556.45
534.461	35587.86
534.826	35715.09
535.192	35902.43
535.557	36221.75
535.923	36228.98
536.288	36260.39
536.653	36432.14
537.019	36495.86
537.384	36679.13
537.749	36923.2
538.114	37097.43
538.479	37069.41
538.845	37268.27
539.21	37288.61
539.575	37553.24
539.94	37503.75
540.305	37920.68
540.67	37803.4
541.034	38060.57
541.399	38068.25
541.764	38249.26
542.129	38383.72
542.494	38306.89
542.858	38627.33
543.223	38667.33
543.587	38851.28
543.952	38869.13
544.316	39049.47
544.681	39149.13
545.045	39275.22
545.41	39509.79
545.774	39656.23
546.138	39646.97
546.503	39791.82
546.867	39747.08
547.231	40117.01
547.595	40182.32
547.959	40376.44
548.324	40527.62
548.688	40636.54
549.052	40728.52
549.416	40717.45
549.779	40851.23
550.143	40982.98
550.507	41359.01
550.871	41313.14
551.235	41299.13
551.599	41714.03
551.962	41705.67
552.326	41867.25
552.689	42190.18
553.053	41913.35
553.417	42199.89
553.78	42677.85
554.143	42520.34
554.507	42841.46
554.87	42965.75
555.234	43313.31
555.597	43068.8
555.96	43381.78
556.323	43520.99
556.686	43436.24
557.05	43881.88
557.413	44024.25
557.776	44261.08
558.139	44360.51
558.502	44396.45
558.865	44501.53
559.228	44764.35
559.59	44874.17
559.953	45128.63
560.316	45468.73
560.679	45494.27
561.041	45783.08
561.404	46021.04
561.767	46234.82
562.129	46059.45
562.492	46470.97
562.854	46530.85
563.217	46570.85
563.579	46717.51
563.941	46902.59
564.304	47200.44
564.666	47364.73
565.028	47383.49
565.39	47516.36
565.753	47729.92
566.115	47840.65
566.477	48064.15
566.839	48226.63
567.201	48470.91
567.563	48469.78
567.925	48688.31
568.287	48679.72
568.648	48784.8
569.01	49079.49
569.372	49402.19
569.734	49301.63
570.095	49394.28
570.457	49630.66
570.819	49643.54
571.18	49678.57
571.542	49915.85
571.903	49909.52
572.265	50114.49
572.626	50273.13
572.987	50379.34
573.349	50354.93
573.71	50537.98
574.071	50495.27
574.432	50693
574.794	50979.55
575.155	50921.92
575.516	50918.76
575.877	51052.54
576.238	51020.68
576.599	51219.09
576.96	51187.23
577.32	51243.72
577.681	51305.64
578.042	51387
578.403	51530.27
578.763	51462.93
579.124	51540.89
579.485	51667.44
579.845	51744.95
580.206	51716.03
580.566	51604.84
580.927	51712.86
581.287	51939.07
581.648	51716.71
582.008	51926.19
582.368	51873.54
582.728	51889.36
583.089	51945.4
583.449	51852.97
583.809	51938.39
584.169	51948.79
584.529	51925.29
584.889	52140.2
585.249	52007.09
585.609	51918.51
585.969	52117.6
586.329	51975.23
586.688	52091.38
587.048	52017.04
587.408	52109.69
587.768	51996.92
588.127	52070.82
588.487	51941.56
588.846	52203.92
589.206	51995.79
589.565	51991.27
589.925	52114.43
590.284	52066.98
590.643	52109.46
591.003	52224.94
591.362	52235.79
591.721	52115.11
592.08	52206.41
592.44	52221.1
592.799	52207.31
593.158	52127.99
593.517	52319.18
593.876	52264.04
594.235	52232.17
594.593	52292.74
594.952	52277.37
595.311	52157.15
595.67	52271.72
596.029	52492.28
596.387	52444.37
596.746	52429
597.104	52358.5
597.463	52339.06
597.822	52499.51
598.18	52397.59
598.538	52353.3
598.897	52564.37
599.255	52263.81
599.613	52757.36
599.972	52508.1
600.33	52605.04
600.688	52452.51
601.046	52662.89
601.404	52749.9
601.762	52607.3
602.12	52714.42
602.478	52747.41
602.836	52812.04
603.194	52631.48
603.552	52704.02
603.91	52652.95
604.268	52850.91
604.625	52698.37
604.983	52818.15
605.341	52780.63
605.698	52849.78
606.056	52951.25
606.413	52920.97
606.771	53024.47
607.128	53090.68
607.485	52923.91
607.843	53023.56
608.2	53125.93
608.557	53265.36
608.914	53080.51
609.272	53341.3
609.629	53301.07
609.986	53449.54
610.343	53284.8
610.7	53496.55
611.057	53380.62
611.414	53461.74
611.771	53388.53
612.127	53475.53
612.484	53517.56
612.841	53568.63
613.198	53559.14
613.554	53482.53
613.911	53668.07
614.267	53733.15
614.624	53669.87
614.98	53796.88
615.337	53866.03
615.693	53882.07
616.05	53779.48
616.406	53968.17
616.762	53863.09
617.118	53854.28
617.475	53846.37
617.831	53949.19
618.187	53995.97
618.543	53922.52
618.899	54150.77
619.255	54054.5
619.611	53971.56
619.967	54096.3
620.323	54261.5
620.678	54047.27
621.034	54009.98
621.39	54024.67
621.746	54024.44
622.101	54297.88
622.457	54090.2
622.812	54188.05
623.168	54282.51
623.523	54281.84
623.879	54298.56
624.234	54054.72
624.589	54133.82
624.945	54207.26
625.3	54285.9
625.655	54285.9
626.01	54230.31
626.365	54250.2
626.72	54245.45
627.075	54193.25
627.43	54135.4
627.785	54089.75
628.14	54168.17
628.495	54198.22
628.85	54116.19
629.205	54021.73
629.559	54143.99
629.914	54005.01
630.269	54036.19
630.623	53880.26
630.978	53874.84
631.332	54033.93
631.687	54064.89
632.041	53909.64
632.396	53890.43
632.75	53748.74
633.104	53865.58
633.459	53757.1
633.813	53822.41
634.167	53784.45
634.521	53686.6
634.875	53672.36
635.229	53659.7
635.583	53489.09
635.937	53570.89
636.291	53468.07
636.645	53548.3
636.999	53397.56
637.352	53535.87
637.706	53360.5
638.06	53370
638.413	53281.64
638.767	53245.7
639.121	53343.33
639.474	53040.74
639.828	53186.95
640.181	53140.17
640.534	53098.59
640.888	53056.56
641.241	52958.25
641.594	52991.7
641.947	53040.29
642.301	52987.63
642.654	52963.68
643.007	52965.03
643.36	52881.87
643.713	52809.78
644.066	52943.34
644.419	52838.48
644.771	52601.88
645.124	52297.03
645.477	52285.5
645.83	51979.75
646.182	51845.29
646.535	51657.95
646.888	51737.5
647.24	51516.03
647.593	51752.41
647.945	51627.89
648.298	51451.4
648.65	51458.41
649.002	51321.91
649.355	51405.98
649.707	51324.4
650.059	51529.14
650.411	51926.42
650.763	51930.71
651.115	52295.22
651.467	52076.7
651.819	52078.73
652.171	51912.86
652.523	51924.16
652.875	51950.37
653.227	51647.78
653.578	51965.51
653.93	51859.3
654.282	51686.65
654.633	51729.81
654.985	51673.09
655.337	51645.75
655.688	51784.73
656.039	51783.14
656.391	51533.43
656.742	51656.59
657.094	51655.01
657.445	51635.13
657.796	51571.4
658.147	51556.94
658.498	51570.49
658.849	51640.32
659.2	51613.43
659.551	51545.18
659.902	51548.57
660.253	51483.72
660.604	51559.87
660.955	51325.08
661.306	51379.76
661.656	51329.14
662.007	51346.09
662.358	51405.07
662.708	51363.72
663.059	51330.5
663.409	51153.33
663.76	51217.06
664.11	51314.68
664.461	51340.44
664.811	51303.38
665.161	51356.94
665.511	51215.7
665.862	51098.42
666.212	51171.63
666.562	51262.25
666.912	51114.24
667.262	51106.1
667.612	51108.81
667.962	51195.59
668.312	51014.58
668.662	51180
669.011	51140.45
669.361	51119.43
669.711	51033.56
670.06	50990.4
670.41	50876.28
670.76	50914.69
671.109	50975.03
671.459	50874.47
671.808	50830.4
672.157	50980.91
672.507	50650.97
672.856	50673.79
673.205	50815.94
673.554	50797.18
673.904	50681.7
674.253	50862.94
674.602	50757.63
674.951	50270.42
675.3	50060.03
675.649	50605.32
675.998	50555.38
676.346	50508.38
676.695	50598.54
677.044	50310.64
677.393	50454.37
677.741	50651.87
678.09	50410.98
678.438	50285.78
678.787	50335.5
679.135	50342.73
679.484	50049.63
679.832	50157.42
680.181	50074.94
680.529	50118.33
680.877	50100.02
681.225	49956.98
681.573	50244.43
681.922	49933.25
682.27	49810.99
682.618	49911.1
682.966	49745.91
683.314	49711.33
683.661	49703.88
684.009	49466.37
684.357	49502.98
684.705	49338.24
685.053	49517.67
685.4	49379.59
685.748	49164.91
686.095	49174.85
686.443	48975.53
686.79	49007.17
687.138	48863.67
687.485	49019.37
687.832	48972.14
688.18	48910.9
688.527	48660.51
688.874	48606.73
689.221	48442.21
689.568	48449.9
689.915	48297.13
690.262	48389.56
690.609	48226.4
690.956	47972.85
691.303	48042.9
691.65	47933.08
691.997	47809.92
692.344	47569.92
692.69	47554.33
693.037	47600.66
693.383	47361.34
693.73	47382.58
694.077	47129.71
694.423	47154.11
694.769	46998.86
695.116	46938.07
695.462	46835.7
695.808	46686.1
696.155	46793.9
696.501	46530.17
696.847	46561.59
697.193	46123.18
697.539	46384.42
697.885	45995.5
698.231	45927.7
698.577	45973.35
698.923	45732.23
699.269	45539.24
699.614	45545.79
699.96	45233.94
700.306	45427.15
700.651	45243.66
700.997	45041.4
701.342	45068.74
701.688	44891.12
702.033	44865.13
702.379	44881.63
702.724	44644.35
703.069	44798.69
703.415	44252.49
703.76	44324.81
704.105	44356.45
704.45	44229.67
704.795	43912.62
705.14	43807.99
705.485	43746.97
705.83	43719.4
706.175	43772.73
706.52	43469.01
706.865	43476.7
707.209	43370.26
707.554	43182.01
707.899	43254.55
708.243	42977.27
708.588	43026.76
708.932	42672.42
709.277	42778.64
709.621	42782.25
709.966	42392.2
710.31	42508.36
710.654	42232.66
710.998	42194.7
711.342	42342.49
711.687	42115.38
712.031	42000.58
712.375	41725.56
712.719	41915.61
713.063	41648.72
713.407	41850.98
713.75	41596.29
714.094	41528.05
714.438	41370.31
714.782	41399.91
715.125	41249.64
715.469	41126.93
715.812	41081.28
716.156	40925.35
716.499	40945.01
716.843	40904.56
717.186	40656.21
717.53	40902.07
717.873	40855.07
718.216	40657.11
718.559	40473.61
718.902	40315.87
719.246	40448.53
719.589	40291.24
719.932	40183.45
720.275	40189.78
720.617	40082.43
720.96	39982.1
721.303	39866.85
721.646	39998.6
721.989	39719.96
722.331	39746.62
722.674	39541.66
723.016	39617.36
723.359	39526.74
723.701	39615.1
724.044	39356.58
724.386	39024.16
724.729	39337.14
725.071	39210.82
725.413	39065.06
725.755	39077.04
726.097	38933.76
726.439	38756.14
726.782	38786.65
727.124	38884.73
727.465	38768.35
727.807	38551.63
728.149	38531.06
728.491	38489.26
728.833	38391.63
729.175	38279.09
729.516	38330.39
729.858	38171.3
730.199	38176.72
730.541	38072.32
730.882	38123.62
731.224	38078.42
731.565	37836.39
731.906	37952.1
732.248	37933.56
732.589	37816.28
732.93	37754.36
733.271	37604.31
733.612	37678.66
733.953	37536.96
734.294	37259.91
734.635	37221.04
734.976	37256.52
735.317	37211.78
735.658	37229.18
735.999	37124.32
736.339	37026.92
736.68	37143.75
737.021	37032.12
737.361	36771.34
737.702	36880.26
738.042	36845.68
738.383	36896.98
738.723	36779.47
739.063	36649.98
739.404	36687.27
739.744	36565.69
740.084	36437.78
740.424	36463.09
740.764	36424.23
741.104	36529.99
741.444	36221.97
741.784	36171.35
742.124	36189.2
742.464	36122.31
742.804	35975.42
743.143	35752.38
743.483	35981.3
743.823	35868.08
744.162	35740.63
744.502	35882.09
744.841	35532.05
745.181	35717.13
745.52	35590.8
745.86	35500.18
746.199	35505.61
746.538	35374.54
746.877	35538.6
747.216	35445.49
747.556	35250.92
747.895	35229
748.234	35039.63
748.573	35003.02
748.911	34944.49
749.25	34967.09
749.589	34761.67
749.928	34837.37
750.267	34806.64
750.605	34644.39
750.944	34633.76
751.283	34505.63
751.621	34611.17
751.96	34307.22
752.298	34252.53
752.636	34153.78
752.975	34044.63
753.313	33914.46
