Data from breadboard_white_FLMS001491_00010.txt Node
Date: Wed Feb 08 10:47:10 GMT 2017
User: dcchb
Spectrometer: FLMS00149
Trigger mode: 0
Integration Time (sec): 2.000000E-2
Scans to average: 10
Electric dark correction enabled: true
Nonlinearity correction enabled: false
Boxcar width: 0
XAxis mode: Wavelengths
Number of Pixels in Spectrum: 2048
>>>>>Begin Spectral Data<<<<<
341.393	-17.22
341.776	-17.22
342.16	-17.22
342.543	-55.18
342.927	-67.61
343.31	-68.97
343.693	-73.26
344.077	-76.2
344.46	-26.71
344.843	-51.34
345.226	-39.82
345.61	-24
345.993	-9.99
346.376	-14.51
346.759	5.38
347.142	52.61
347.525	27.75
347.908	47.19
348.291	59.39
348.674	93.29
349.057	99.16
349.44	119.28
349.823	136
350.206	165.83
350.588	221.42
350.971	229.78
351.354	256
351.737	256.9
352.119	254.19
352.502	274.98
352.884	291.48
353.267	296.45
353.65	304.58
354.032	312.49
354.414	327.18
354.797	324.69
355.179	328.31
355.562	332.15
355.944	329.44
356.326	341.64
356.709	351.36
357.091	376.22
357.473	373.06
357.855	365.6
358.238	356.56
358.62	350.68
359.002	348.65
359.384	362.43
359.766	358.82
360.148	358.82
360.53	357.69
360.912	365.37
361.294	333.06
361.676	351.59
362.057	357.01
362.439	351.59
362.821	363.56
363.203	359.72
363.584	361.3
363.966	362.66
364.348	352.49
364.729	357.46
365.111	362.43
365.493	346.16
365.874	353.85
366.256	365.15
366.637	341.19
367.019	325.37
367.4	338.93
367.781	362.66
368.163	355.88
368.544	371.93
368.925	352.49
369.306	347.97
369.688	359.95
370.069	349.78
370.45	366.95
370.831	340.06
371.212	334.41
371.593	356.33
371.974	357.91
372.355	370.8
372.736	354.98
373.117	363.79
373.498	350.68
373.879	368.99
374.26	349.55
374.641	350.46
375.021	354.52
375.402	379.83
375.783	387.52
376.163	376.9
376.544	336.22
376.925	352.72
377.305	379.16
377.686	354.75
378.066	377.8
378.447	373.06
378.827	383.9
379.208	387.07
379.588	395.65
379.968	379.61
380.349	398.14
380.729	416.22
381.109	390.68
381.489	408.76
381.87	374.19
382.25	410.57
382.63	390.46
383.01	386.39
383.39	421.87
383.77	414.18
384.15	425.03
384.53	420.74
384.91	420.74
385.29	398.82
385.67	427.74
386.049	427.74
386.429	425.26
386.809	435.65
387.189	437.46
387.568	429.32
387.948	446.73
388.328	460.51
388.707	462.32
389.087	461.87
389.466	488.53
389.846	467.74
390.225	485.59
390.605	482.43
390.984	493.5
391.363	499.15
391.743	490.11
392.122	494.41
392.501	510.68
392.881	513.84
393.26	519.27
393.639	528.98
394.018	529.21
394.397	537.8
394.776	553.16
395.155	566.72
395.534	554.97
395.913	575.08
396.292	563.11
396.671	589.09
397.05	600.39
397.429	603.33
397.808	604.91
398.186	624.35
398.565	633.16
398.944	618.25
399.323	646.49
399.701	651.92
400.08	675.42
400.458	663.67
400.837	695.53
401.215	677.45
401.594	703.89
401.972	703.22
402.351	708.41
402.729	724.68
403.107	727.62
403.486	757.68
403.864	749.99
404.242	764.68
404.62	815.53
404.999	818.47
405.377	803.33
405.755	838.58
406.133	843.55
406.511	849.43
406.889	892.82
407.267	908.86
407.645	918.58
408.023	933.72
408.401	955.86
408.779	961.51
409.156	1006.03
409.534	1015.98
409.912	1042.87
410.29	1040.61
410.667	1085.13
411.045	1079.48
411.422	1125.58
411.8	1122.87
412.178	1154.5
412.555	1182.98
412.933	1182.98
413.31	1219.36
413.687	1249.64
414.065	1275.18
414.442	1302.52
414.819	1280.6
415.197	1304.1
415.574	1340.04
415.951	1374.16
416.328	1386.14
416.705	1429.75
417.082	1435.63
417.46	1452.8
417.837	1490.77
418.214	1472.69
418.591	1504.55
418.967	1525.12
419.344	1550.88
419.721	1587.49
420.098	1572.8
420.475	1606.47
420.852	1625.45
421.228	1647.15
421.605	1656.41
421.982	1677.2
422.358	1673.81
422.735	1729.4
423.111	1730.53
423.488	1782.28
423.864	1803.07
424.241	1795.84
424.617	1834.03
424.994	1842.62
425.37	1872.22
425.746	1869.74
426.123	1930.53
426.499	1924.65
426.875	1963.75
427.251	1985.67
427.627	2055.72
428.003	2043.75
428.379	2094.82
428.756	2108.15
429.132	2184.08
429.507	2153.57
429.883	2205.55
430.259	2243.51
430.635	2244.19
431.011	2277.86
431.387	2347.69
431.763	2375.26
432.138	2404.64
432.514	2443.28
432.89	2469.05
433.265	2490.74
433.641	2542.04
434.016	2557.86
434.392	2623.17
434.767	2662.71
435.143	2668.14
435.518	2685.31
435.894	2729.6
436.269	2754.91
436.644	2814.35
437.02	2794.69
437.395	2858.19
437.77	2885.08
438.145	2942.25
438.52	2982.93
438.895	2997.84
439.271	2995.81
439.646	3060.67
440.021	3099.31
440.395	3105.86
440.77	3114.9
441.145	3157.84
441.52	3163.72
441.895	3196.71
442.27	3200.78
442.645	3234.9
443.019	3293.66
443.394	3276.93
443.769	3298.4
444.143	3299.98
444.518	3364.16
444.892	3421.79
445.267	3417.04
445.641	3437.16
446.016	3452.97
446.39	3465.63
446.764	3509.24
447.139	3501.79
447.513	3543.82
447.887	3546.76
448.262	3582.69
448.636	3597.15
449.01	3678.73
449.384	3684.38
449.758	3742.01
450.132	3779.97
450.506	3798.5
450.88	3819.07
451.254	3833.53
451.628	3878.73
452.002	3950.14
452.376	3949.46
452.75	4015.9
453.123	4001.43
453.497	4114.43
453.871	4137.7
454.244	4215.67
454.618	4232.61
454.992	4313.97
455.365	4286.62
455.739	4419.95
456.112	4498.14
456.486	4504.47
456.859	4499.95
457.232	4640.51
457.606	4650.91
457.979	4665.6
458.352	4793.28
458.725	4890.22
459.099	4857.68
459.472	4975.65
459.845	4982.43
460.218	5054.06
460.591	5150.1
460.964	5135.64
461.337	5282.98
461.71	5336.54
462.083	5468.74
462.456	5416.99
462.829	5438.91
463.201	5623.09
463.574	5594.61
463.947	5668.96
464.32	5828.5
464.692	5805.68
465.065	5925.45
465.438	5967.48
465.81	6023.98
466.183	6145.33
466.555	6282.05
466.928	6304.88
467.3	6287.48
467.672	6407.92
468.045	6578.54
468.417	6590.07
468.789	6578.99
469.161	6745.32
469.534	6817.41
469.906	6988.7
470.278	7024.63
470.65	7188.92
471.022	7258.98
471.394	7450.61
471.766	7514.11
472.138	7604.05
472.51	7744.39
472.882	7881.11
473.253	7903.03
473.625	8076.13
473.997	8275.22
474.369	8304.37
474.74	8352.05
475.112	8621.2
475.484	8721.54
475.855	8817.8
476.227	8918.14
476.598	9182.09
476.97	9242.2
477.341	9496.88
477.713	9576.88
478.084	9642.19
478.455	9939.81
478.827	10046.93
479.198	10262.96
479.569	10269.07
479.94	10601.71
480.311	10672.22
480.682	10927.81
481.053	11124.86
481.424	11370.96
481.795	11507.23
482.166	11591.29
482.537	11733.66
482.908	12099.07
483.279	12212.52
483.65	12431.04
484.021	12636.01
484.391	12762.79
484.762	12862.22
485.133	13083.68
485.503	13215.43
485.874	13516.89
486.244	13628.75
486.615	13885.47
486.985	14029.65
487.356	14260.37
487.726	14524.77
488.097	14637.31
488.467	14800.02
488.837	15077.08
489.207	15253.79
489.578	15430.29
489.948	15627.8
490.318	15781.46
490.688	15826.43
491.058	16172.64
491.428	16387.32
491.798	16459.41
492.168	16827.31
492.538	16907.54
492.908	17116.57
493.278	17324.7
493.648	17385.72
494.017	17532.6
494.387	17744.35
494.757	17982.31
495.126	18068.64
495.496	18192.93
495.866	18374.16
496.235	18616.87
496.605	18678.11
496.974	18777.09
497.344	18965.56
497.713	19103.64
498.082	19202.62
498.452	19503.17
498.821	19607.58
499.19	19647.8
499.559	19793.34
499.928	19963.73
500.298	20129.6
500.667	20276.26
501.036	20224.28
501.405	20501.11
501.774	20521.68
502.143	20787.21
502.512	20812.97
502.88	21059.52
503.249	21123.7
503.618	21268.55
503.987	21501.09
504.356	21581.54
504.724	21580.41
505.093	21790.12
505.462	21723.68
505.83	22045.93
506.199	22158.92
506.567	22426.03
506.936	22384.68
507.304	22810.43
507.672	22938.34
508.041	22989.41
508.409	23227.14
508.777	23375.16
509.145	23447.48
509.514	23637.08
509.882	23719.33
510.25	23895.37
510.618	24007.69
510.986	24136.05
511.354	24392.08
511.722	24594.34
512.09	24863.71
512.458	24713.66
512.826	25052.63
513.193	25113.87
513.561	25252.18
513.929	25474.32
514.297	25643.35
514.664	25867.53
515.032	26005.6
515.4	26305.71
515.767	26314.75
516.135	26526.49
516.502	26463.22
516.869	26886.03
517.237	26958.34
517.604	27072.92
517.972	27372.35
518.339	27453.93
518.706	27677.2
519.073	27735.95
519.44	28060.91
519.808	28368.25
520.175	28295.94
520.542	28706.1
520.909	28857.73
521.276	28821.8
521.643	29202.81
522.009	29446.64
522.376	29539.07
522.743	29763.24
523.11	30115.78
523.477	30409.55
523.843	30497.23
524.21	30900.39
524.577	31111.91
524.943	31260.38
525.31	31350.09
525.676	31667.6
526.043	31960.47
526.409	32075.5
526.776	32374.02
527.142	32480.46
527.508	32765.42
527.874	32799.32
528.241	33193.89
528.607	33154.79
528.973	33598.4
529.339	33506.87
529.705	33851.5
530.071	34054.88
530.437	34258.72
530.803	34378.04
531.169	34738.48
531.535	34673.17
531.901	34710.23
532.267	34956.55
532.632	35189.77
532.998	35398.8
533.364	35524.67
533.73	35619.36
534.095	35977.54
534.461	36041.27
534.826	36254.6
535.192	36318.55
535.557	36680.12
535.923	36531.2
536.288	36871.76
536.653	36910.17
537.019	36944.75
537.384	36985.2
537.749	37238.75
538.114	37325.3
538.479	37480.1
538.845	37686.42
539.21	37528.46
539.575	37896.59
539.94	37950.82
540.305	38185.62
540.67	38101.78
541.034	38378.16
541.399	38353.53
541.764	38555.33
542.129	38661.09
542.494	38797.36
542.858	38924.13
543.223	39022.21
543.587	39332.26
543.952	39298.13
544.316	39366.83
544.681	39437.34
545.045	39698.12
545.41	39799.36
545.774	39926.37
546.138	39895.18
546.503	40052.46
546.867	40043.2
547.231	40489.74
547.595	40558.44
547.959	40457.88
548.324	40628.72
548.688	40721.82
549.052	40833.23
549.416	40843.63
549.779	40997.75
550.143	41116.84
550.507	41487.45
550.871	41477.51
551.235	41596.83
551.599	41824.85
551.962	41934.67
552.326	42058.51
552.689	42125.86
553.053	42130.15
553.417	42339.41
553.78	42928.77
554.143	42707.31
554.507	42862.79
554.87	43014.42
555.234	43351.13
555.597	43300.06
555.96	43293.28
556.323	43503.9
556.686	43638.58
557.05	43902.08
557.413	44090.55
557.776	44148.85
558.139	44371.67
558.502	44413.25
558.865	44491.9
559.228	44808.95
559.59	44970.07
559.953	45115.61
560.316	45511.08
560.679	45481.02
561.041	45878.53
561.404	45856.38
561.767	46127.56
562.129	46019.31
562.492	46515.12
562.854	46389.7
563.217	46567.32
563.579	46665.4
563.941	46960.3
564.304	47184.93
564.666	47239.17
565.028	47353.97
565.39	47637.35
565.753	47760.74
566.115	47972.71
566.477	47997.11
566.839	48159.82
567.201	48368.86
567.563	48470.32
567.925	48666.93
568.287	48707.83
568.648	48819.92
569.01	48957.09
569.372	49202.05
569.734	49053.58
570.095	49316.18
570.457	49438.66
570.819	49562.72
571.18	49647.92
571.542	49839.1
571.903	49778.99
572.265	50111.18
572.626	50090.39
572.987	50063.95
573.349	50244.29
573.71	50375.36
574.071	50491.96
574.432	50503.26
574.794	50726.99
575.155	50809.47
575.516	50676.82
575.877	50891.95
576.238	50826.42
576.599	50968.56
576.96	51070.03
577.32	50952.74
577.681	51243.13
578.042	51262.34
578.403	51287.2
578.763	51361.32
579.124	51330.81
579.485	51451.03
579.845	51597.7
580.206	51511.15
580.566	51576.23
580.927	51504.14
581.287	51731.93
581.648	51573.29
582.008	51736.22
582.368	51562.22
582.728	51764.25
583.089	51697.58
583.449	51613.74
583.809	51738.94
584.169	51690.8
584.529	51734.19
584.889	51926.05
585.249	51673.63
585.609	51683.57
585.969	51782.1
586.329	51710.01
586.688	51783.91
587.048	51720.63
587.408	51698.49
587.768	51779.61
588.127	51730.35
588.487	51651.25
588.846	51867.29
589.206	51612.16
589.565	51624.36
589.925	51907.75
590.284	51698.03
590.643	51794.3
591.003	51811.93
591.362	51861.42
591.721	51732.61
592.08	51831.59
592.44	51901.42
592.799	51865.03
593.158	51744.36
593.517	51841.08
593.876	51848.99
594.235	51781.65
594.593	51828.43
594.952	51845.15
595.311	51843.57
595.67	51855.77
596.029	52030.68
596.387	52082.2
596.746	52153.39
597.104	51886.95
597.463	51975.99
597.822	52015.77
598.18	51860.51
598.538	51937.35
598.897	52125.37
599.255	51890.57
599.613	52297.79
599.972	52168.08
600.33	52123.33
600.688	52042.21
601.046	52228.41
601.404	52313.61
601.762	52202.43
602.12	52357.9
602.478	52339.15
602.836	52301.86
603.194	52247.4
603.552	52313.16
603.91	52230.45
604.268	52328.3
604.625	52232.71
604.983	52481.97
605.341	52299.83
605.698	52434.74
606.056	52488.52
606.413	52411.23
606.771	52513.83
607.128	52622.75
607.485	52418.92
607.843	52389.09
608.2	52685.35
608.557	52709.08
608.914	52559.48
609.272	52777.1
609.629	52816.65
609.986	52863.65
610.343	52811.22
610.7	52943.88
611.057	52966.7
611.414	52812.58
611.771	52873.37
612.127	52920.37
612.484	52969.19
612.841	53058.45
613.198	52954.72
613.554	53042.86
613.911	53220.71
614.267	53208.5
614.624	53121.05
614.98	53206.02
615.337	53284.21
615.693	53257.09
616.05	53167.83
616.406	53319.01
616.762	53253.02
617.118	53295.96
617.475	53154.49
617.831	53319.01
618.187	53272.23
618.543	53406.91
618.899	53539.57
619.255	53418.89
619.611	53347.48
619.967	53557.87
620.323	53565.1
620.678	53504.09
621.034	53415.73
621.39	53380.93
621.746	53325.34
622.101	53698.88
622.457	53405.33
622.812	53540.7
623.168	53585.44
623.523	53576.63
623.879	53574.59
624.234	53373.24
624.589	53523.75
624.945	53558.32
625.3	53603.29
625.655	53503.86
626.01	53522.17
626.365	53547.02
626.72	53437.87
627.075	53481.04
627.43	53431.32
627.785	53422.28
628.14	53468.38
628.495	53445.78
628.85	53401.94
629.205	53299.35
629.559	53496.4
629.914	53219.8
630.269	53258.9
630.623	53159.69
630.978	53166.24
631.332	53196.98
631.687	53345.22
632.041	53071.1
632.396	53219.12
632.75	53058.68
633.104	53082.18
633.459	52926.7
633.813	52960.6
634.167	52893.93
634.521	52870.21
634.875	52950.2
635.229	52882.41
635.583	52695.97
635.937	52689.42
636.291	52716.99
636.645	52667.73
636.999	52603.09
637.352	52589.54
637.706	52446.71
638.06	52580.27
638.413	52524.45
638.767	52347.96
639.121	52411.46
639.474	52206.04
639.828	52243.56
640.181	52198.59
640.534	52321.97
640.888	52197.46
641.241	51969.89
641.594	52105.48
641.947	52211.92
642.301	52092.37
642.654	52046.72
643.007	52032.94
643.36	51956.56
643.713	51904.81
644.066	51984.81
644.419	51779.84
644.771	51589.79
645.124	51173.53
645.477	51093.53
645.83	50997.03
646.182	50864.38
646.535	50738.96
646.888	50738.06
647.24	50616.03
647.593	50705.74
647.945	50643.82
648.298	50516.14
648.65	50357.73
649.002	50243.83
649.355	50443.15
649.707	50290.39
650.059	50495.13
650.411	50888.34
650.763	50806.08
651.115	51213.53
651.467	51103.02
651.819	51133.53
652.171	50905.96
652.523	50866.64
652.875	50795.23
653.227	50710.94
653.578	51019.63
653.93	50855.8
654.282	50713.65
654.633	50620.77
654.985	50620.1
655.337	50579.42
655.688	50682.92
656.039	50744.16
656.391	50515.92
656.742	50513.21
657.094	50454.68
657.445	50676.37
657.796	50418.74
658.147	50383.04
658.498	50353.21
658.849	50449.7
659.2	50383.94
659.551	50239.54
659.902	50379.65
660.253	50397.05
660.604	50348.46
660.955	50215.13
661.306	50195.7
661.656	50328.8
662.007	50228.92
662.358	50151.86
662.708	50134.68
663.059	50113.67
663.409	49884.3
663.76	50169.94
664.11	50105.31
664.461	49985.08
664.811	50071.41
665.161	50011.98
665.511	49903.5
665.862	49968.36
666.212	50004.29
666.562	49933.56
666.912	49857.4
667.262	49801.59
667.612	49895.37
667.962	49800
668.312	49901.7
668.662	49958.19
669.011	49764.07
669.361	49783.06
669.711	49745.09
670.06	49704.64
670.41	49644.75
670.76	49608.82
671.109	49807.69
671.459	49681.14
671.808	49513.68
672.157	49570.41
672.507	49392.33
672.856	49405.21
673.205	49472.1
673.554	49658.54
673.904	49330.41
674.253	49512.78
674.602	49343.29
674.951	48891.78
675.3	48655.85
675.649	49352.56
675.998	49072.57
676.346	49170.87
676.695	49319.34
677.044	48984.88
677.393	49092.45
677.741	49169.29
678.09	49017.65
678.438	48828.5
678.787	48983.75
679.135	48928.39
679.484	48661.73
679.832	48785.79
680.181	48549.42
680.529	48760.94
680.877	48472.36
681.225	48631.22
681.573	48742.18
681.922	48475.29
682.27	48217.45
682.618	48448.4
682.966	48259.71
683.314	48214.28
683.661	48085.7
684.009	47844.58
684.357	47865.37
684.705	47847.51
685.053	47953.5
685.4	47793.73
685.748	47559.39
686.095	47570.91
686.443	47519.61
686.79	47282.33
687.138	47439.39
687.485	47425.38
687.832	47211.82
688.18	47297.7
688.527	47101.54
688.874	47017.7
689.221	46880.53
689.568	46791.04
689.915	46818.61
690.262	46624.49
690.609	46530.94
690.956	46421.56
691.303	46314.67
691.65	46289.81
691.997	46224.05
692.344	45902.71
692.69	45942.93
693.037	45881.69
693.383	45483.51
693.73	45608.7
694.077	45323.51
694.423	45406.9
694.769	45170.07
695.116	45244.87
695.462	45165.55
695.808	45007.14
696.155	44994.03
696.501	44682.62
696.847	44707.26
697.193	44470.88
697.539	44482.4
697.885	44223.43
698.231	44144.79
698.577	44148.4
698.923	44044.9
699.269	43809.88
699.614	43651.47
699.96	43605.14
700.306	43542.77
700.651	43408.53
700.997	43149.56
701.342	43180.74
701.688	43029.56
702.033	42892.39
702.379	42906.4
702.724	42764.71
703.069	42804.03
703.415	42365.85
703.76	42369.69
704.105	42372.18
704.45	42294.44
704.795	42194.55
705.14	42041.56
705.485	41865.98
705.83	41800.44
706.175	41696.26
706.52	41619.43
706.865	41544.85
707.209	41460.56
707.554	41326.1
707.899	41425.08
708.243	41131.98
708.588	41087.46
708.932	40854.7
709.277	40694.48
709.621	40831.2
709.966	40558.21
710.31	40656.74
710.654	40238.45
710.998	40300.14
711.342	40216.08
711.687	40240.26
712.031	39941.28
712.375	39904.45
712.719	39881.39
713.063	39651.12
713.407	39801.17
713.75	39577.45
714.094	39584
714.438	39444.34
714.782	39494.06
715.125	39214.97
715.469	39359.15
715.812	39179.27
716.156	38969.1
716.499	39018.82
716.843	39047.74
717.186	38665.83
717.53	38870.57
717.873	38732.05
718.216	38655.21
718.559	38540.64
718.902	38356.24
719.246	38328.67
719.589	38241.89
719.932	38061.33
720.275	38172.29
720.617	38066.98
720.96	38029.24
721.303	38021.56
721.646	37952.41
721.989	37771.17
722.331	37810.94
722.674	37536.15
723.016	37634.67
723.359	37528.91
723.701	37532.76
724.044	37353.33
724.386	37119.21
724.729	37317.17
725.071	37144.52
725.413	37120.79
725.755	36977.97
726.097	36829.95
726.439	36653.46
726.782	36701.37
727.124	36910.85
727.465	36575.72
727.807	36551.09
728.149	36612.1
728.491	36400.58
728.833	36466.34
729.175	36242.17
729.516	36146.58
729.858	36213.47
730.199	36266.8
730.541	36105
730.882	36088.73
731.224	36121.49
731.565	35779.36
731.906	35908.62
732.248	35880.82
732.589	35655.74
732.93	35636.99
733.271	35663.2
733.612	35601.51
733.953	35651.22
734.294	35461.85
734.635	35349.31
734.976	35433.38
735.317	35183.67
735.658	35247.62
735.999	35133.05
736.339	35085.14
736.68	35195.42
737.021	34986.83
737.361	34766.05
737.702	35028.64
738.042	34967.85
738.383	34783.45
738.723	34797.23
739.063	34589.78
739.404	34502.55
739.744	34488.99
740.084	34462.33
740.424	34443.57
740.764	34317.7
741.104	34525.38
741.444	34096.69
741.784	34173.97
742.124	34216.23
742.464	33998.39
742.804	34005.39
743.143	33926.98
743.483	33798.84
743.823	33719.07
744.162	33674.1
744.502	33727.88
744.841	33494.44
745.181	33658.51
745.52	33389.59
745.86	33505.07
746.199	33466.42
746.538	33330.61
746.877	33314.79
747.216	33355.24
747.556	33102.14
747.895	33225.3
748.234	32960.67
748.573	32968.58
748.911	32837.96
749.25	32756.38
749.589	32649.27
749.928	32713.67
750.267	32638.42
750.605	32635.71
750.944	32386
751.283	32270.75
751.621	32484.98
751.96	32190.98
752.298	32234.82
752.636	32246.34
