Data from breadboard_white_FLMS001491_00023.txt Node
Date: Wed Feb 08 10:47:29 GMT 2017
User: dcchb
Spectrometer: FLMS00149
Trigger mode: 0
Integration Time (sec): 2.000000E-2
Scans to average: 10
Electric dark correction enabled: true
Nonlinearity correction enabled: false
Boxcar width: 0
XAxis mode: Wavelengths
Number of Pixels in Spectrum: 2048
>>>>>Begin Spectral Data<<<<<
341.393	-30.63
341.776	-30.63
342.16	-30.63
342.543	-50.07
342.927	-59.79
343.31	-76.06
343.693	-73.8
344.077	-59.56
344.46	-39.9
344.843	-68.15
345.226	-36.96
345.61	-36.96
345.993	-15.27
346.376	9.36
346.759	-4.87
347.142	26.31
347.525	30.61
347.908	62.7
348.291	73.09
348.674	103.15
349.057	106.31
349.44	120.32
349.823	157.83
350.206	176.14
350.588	231.96
350.971	226.53
351.354	247.32
351.737	244.84
352.119	279.19
352.502	275.57
352.884	313.76
353.267	283.71
353.65	314.67
354.032	304.5
354.414	309.24
354.797	336.59
355.179	345.4
355.562	338.17
355.944	361.22
356.326	366.87
356.709	372.29
357.091	383.59
357.473	381.33
357.855	364.16
358.238	384.72
358.62	352.86
359.002	357.15
359.384	360.32
359.766	355.57
360.148	364.16
360.53	360.99
360.912	361.9
361.294	371.84
361.676	353.99
362.057	373.65
362.439	372.74
362.821	352.41
363.203	377.72
363.584	361.9
363.966	331.84
364.348	348.34
364.729	372.29
365.111	356.47
365.493	379.98
365.874	376.59
366.256	336.81
366.637	345.17
367.019	357.6
367.4	375.91
367.781	383.82
368.163	375.68
368.544	372.29
368.925	367.77
369.306	356.25
369.688	355.34
370.069	361.9
370.45	349.92
370.831	368.9
371.212	352.86
371.593	358.96
371.974	367.09
372.355	370.03
372.736	364.84
373.117	391.5
373.498	387.66
373.879	359.86
374.26	364.61
374.641	370.94
375.021	371.61
375.402	386.98
375.783	384.5
376.163	408.45
376.544	406.42
376.925	394.21
377.305	384.04
377.686	392.4
378.066	392.63
378.447	408.22
378.827	413.2
379.208	429.01
379.588	416.81
379.968	438.51
380.349	424.95
380.729	402.35
381.109	408.22
381.489	418.17
381.87	413.65
382.25	401.9
382.63	432.86
383.01	446.19
383.39	452.52
383.77	453.65
384.15	464.72
384.53	464.95
384.91	447.09
385.29	468.56
385.67	437.6
386.049	476.47
386.429	459.52
386.809	475.34
387.189	494.55
387.568	484.38
387.948	480.54
388.328	506.75
388.707	507.66
389.087	521.22
389.466	502.23
389.846	523.47
390.225	533.87
390.605	527.09
390.984	535.45
391.363	533.42
391.743	535.68
392.122	570.48
392.501	569.58
392.881	595.11
393.26	577.03
393.639	579.74
394.018	579.29
394.397	590.37
394.776	606.64
395.155	616.35
395.534	607.54
395.913	620.2
396.292	631.72
396.671	641.44
397.05	630.36
397.429	662.68
397.808	662.23
398.186	679.86
398.565	658.16
398.944	682.57
399.323	707.2
399.701	726.41
400.08	715.56
400.458	746.07
400.837	758.5
401.215	779.51
401.594	765.95
401.972	765.05
402.351	775.67
402.729	814.31
403.107	818.38
403.486	839.85
403.864	824.94
404.242	845.27
404.62	845.27
404.999	888.21
405.377	907.42
405.755	925.5
406.133	939.28
406.511	949.9
406.889	981.32
407.267	1017.93
407.645	1010.92
408.023	1045.95
408.401	1064.48
408.779	1076.23
409.156	1093.4
409.534	1109.9
409.912	1103.8
410.29	1170.01
410.667	1178.6
411.045	1210.46
411.422	1233.51
411.8	1256.11
412.178	1286.17
412.555	1306.51
412.933	1330.23
413.31	1326.62
413.687	1385.6
414.065	1383.79
414.442	1394.86
414.819	1450.91
415.197	1449.78
415.574	1512.38
415.951	1517.8
416.328	1521.87
416.705	1526.39
417.082	1537.46
417.46	1611.81
417.837	1621.53
418.214	1614.52
418.591	1652.71
418.967	1666.95
419.344	1704.46
419.721	1734.52
420.098	1732.26
420.475	1754.4
420.852	1795.98
421.228	1802.09
421.605	1801.41
421.982	1873.04
422.358	1922.53
422.735	1898.35
423.111	1908.52
423.488	1948.52
423.864	1976.54
424.241	1981.52
424.617	2038.69
424.994	2046.6
425.37	2070.78
425.746	2117.11
426.123	2144.45
426.499	2150.32
426.875	2169.76
427.251	2210.89
427.627	2239.59
428.003	2274.39
428.379	2314.84
428.756	2360.94
429.132	2372.92
429.507	2407.04
429.883	2414.05
430.259	2488.4
430.635	2507.38
431.011	2539.02
431.387	2601.84
431.763	2623.53
432.138	2648.62
432.514	2668.73
432.89	2708.05
433.265	2820.82
433.641	2824.66
434.016	2856.29
434.392	2897.42
434.767	2955.95
435.143	2942.62
435.518	3002.96
435.894	3045.67
436.269	3080.47
436.644	3139.45
437.02	3169.06
437.395	3183.74
437.77	3247.02
438.145	3310.97
438.52	3298.32
438.895	3368.15
439.271	3365.21
439.646	3449.05
440.021	3453.12
440.395	3484.98
440.77	3446.79
441.145	3477.97
441.52	3580.12
441.895	3602.72
442.27	3604.07
442.645	3640
443.019	3676.16
443.394	3698.53
443.769	3721.81
444.143	3726.78
444.518	3811.52
444.892	3782.6
445.267	3860.34
445.641	3839.32
446.016	3898.75
446.39	3931.75
446.764	3974.91
447.139	3958.86
447.513	4024.4
447.887	4003.38
448.262	4044.29
448.636	4105.3
449.01	4181.23
449.384	4219.2
449.758	4204.06
450.132	4258.07
450.506	4316.82
450.88	4306.2
451.254	4324.28
451.628	4424.84
452.002	4450.6
452.376	4470.94
452.75	4538.28
453.123	4580.54
453.497	4688.11
453.871	4757.71
454.244	4775.11
454.618	4853.76
454.992	4884.94
455.365	4948.67
455.739	5036.35
456.112	5093.75
456.486	5131.26
456.859	5190.02
457.232	5296.91
457.606	5237.48
457.979	5340.3
458.352	5474.76
458.725	5528.09
459.099	5549.33
459.472	5691.47
459.845	5763.11
460.218	5794.07
460.591	5864.58
460.964	5875.65
461.337	6045.36
461.71	6106.38
462.083	6242.87
462.456	6245.13
462.829	6308.41
463.201	6370.78
463.574	6464.11
463.947	6531.45
464.32	6639.02
464.692	6745.68
465.065	6736.19
465.438	6823.2
465.81	6969.41
466.183	7039.69
466.555	7192
466.928	7251.89
467.3	7271.09
467.672	7402.16
468.045	7629.73
468.417	7649.84
468.789	7711.08
469.161	7791.98
469.534	7994.46
469.906	8172.09
470.278	8159.21
470.65	8228.58
471.022	8514.23
471.394	8558.52
471.766	8632.41
472.138	8786.99
472.51	8960.09
472.882	9151.5
473.253	9206.64
473.625	9379.51
473.997	9620.64
474.369	9642.56
474.74	9754.42
475.112	9891.82
475.484	10138.14
475.855	10330.67
476.227	10355.98
476.598	10696.77
476.97	10790.1
477.341	11063.31
477.713	11158
478.084	11257.66
478.455	11552.11
478.827	11660.81
479.198	12019.67
479.569	12036.17
479.94	12428.47
480.311	12529.71
480.682	12846.99
481.053	13074.78
481.424	13322.46
481.795	13458.28
482.166	13653.98
482.537	13781.66
482.908	14055.55
483.279	14226.17
483.65	14557.68
484.021	14844.45
484.391	15032.02
484.762	15212.81
485.133	15312.92
485.503	15541.39
485.874	15853.92
486.244	16062.73
486.615	16361.02
486.985	16549.49
487.356	16855.25
487.726	17002.14
488.097	17362.13
488.467	17343.15
488.837	17760.99
489.207	18004.6
489.578	18182.22
489.948	18403.91
490.318	18657.46
490.688	18689.78
491.058	19159.14
491.428	19290.44
491.798	19511
492.168	19928.39
492.538	19874.38
492.908	20189.62
493.278	20499.67
493.648	20485.89
494.017	20837.74
494.387	20926.55
494.757	21120.67
495.126	21384.85
495.496	21528.35
495.866	21658.96
496.235	21897.83
496.605	22050.82
496.974	22196.13
497.344	22578.26
497.713	22644.7
498.082	22891.47
498.452	23187.51
498.821	23184.12
499.19	23235.65
499.559	23578.91
499.928	23628.4
500.298	23858.91
500.667	24066.81
501.036	24136.64
501.405	24438.33
501.774	24397.2
502.143	24560.36
502.512	24763.97
502.88	24998.54
503.249	25050.51
503.618	25238.08
503.987	25463.84
504.356	25675.36
504.724	25738.18
505.093	25860.89
505.462	25989.25
505.83	26236.7
506.199	26335.45
506.567	26789
506.936	26824.03
507.304	27108.31
507.672	27246.84
508.041	27465.14
508.409	27580.84
508.777	27882.53
509.145	28056.08
509.514	28122.3
509.882	28286.36
510.25	28398.67
510.618	28701.94
510.986	28736.74
511.354	29067.13
511.722	29434.35
512.09	29637.06
512.458	29696.72
512.826	29907.79
513.193	30092.19
513.561	30146.42
513.929	30523.14
514.297	30721.55
514.664	30895.78
515.032	31072.5
515.4	31409.44
515.767	31514.3
516.135	31718.81
516.502	31656.89
516.869	32308.18
517.237	32305.92
517.604	32367.16
517.972	32672.91
518.339	32964.2
518.706	33119.45
519.073	33191.32
519.44	33450.97
519.808	33970.96
520.175	33832.43
520.542	34400.55
520.909	34427.89
521.276	34565.97
521.643	34895
522.009	35250.92
522.376	35445.72
522.743	35817.46
523.11	36134.06
523.477	36375.64
523.843	36626.25
524.21	36985.34
524.577	37134.72
524.943	37376.52
525.31	37676.85
525.676	37919.33
526.043	38202.03
526.409	38550.72
526.776	38861.22
527.142	38953.65
527.508	39245.62
527.874	39514.99
528.241	39732.16
528.607	39807.41
528.973	40172.15
529.339	40298.7
529.705	40622.31
530.071	40987.5
530.437	41074.5
530.803	41331.89
531.169	41504.09
531.535	41663.86
531.901	41866.79
532.267	42069.73
532.632	42242.83
532.998	42343.39
533.364	42591.07
533.73	42781.8
534.095	43030.61
534.461	43247.1
534.826	43500.88
535.192	43716.92
535.557	43919.17
535.923	43962.11
536.288	44214.76
536.653	44331.59
537.019	44247.52
537.384	44477.8
537.749	44811.12
538.114	44813.84
538.479	44995.3
538.845	45125.69
539.21	45122.08
539.575	45264.9
539.94	45518.68
540.305	45737.43
540.67	45699.69
541.034	45996.4
541.399	46220.58
541.764	46249.5
542.129	46351.65
542.494	46514.81
542.858	46656.5
543.223	46785.08
543.587	46994.12
543.952	46882.26
544.316	47117.73
544.681	47209.93
545.045	47478.4
545.41	47633.65
545.774	47659.41
546.138	47693.31
546.503	47778.73
546.867	47922.91
547.231	48106.86
547.595	48243.12
547.959	48401.31
548.324	48487.19
548.688	48551.59
549.052	48779.38
549.416	48795.65
549.779	48864.12
550.143	49063.67
550.507	49311.8
550.871	49347.28
551.235	49372.81
551.599	49632.47
551.962	49711.11
552.326	49910.65
552.689	50089.86
553.053	49896.19
553.417	50133.7
553.78	50503.86
554.143	50427.47
554.507	50598.99
554.87	50733.68
555.234	51103.39
555.597	50889.83
555.96	50992.88
556.323	51287.56
556.686	51334.12
557.05	51523.04
557.413	51587.67
557.776	51623.83
558.139	51964.38
558.502	52002.8
558.865	52122.12
559.228	52279.4
559.59	52374.99
559.953	52443.47
560.316	52770.24
560.679	52759.39
561.041	53038.93
561.404	53099.95
561.767	53356.44
562.129	53249.09
562.492	53580.84
562.854	53554.62
563.217	53593.94
563.579	53757.56
563.941	53962.75
564.304	54040.94
564.666	54251.78
565.028	54347.6
565.39	54405.45
565.753	54611.09
566.115	54668.27
566.477	54813.8
566.839	54890.18
567.201	55062.15
567.563	55035.71
567.925	55186.9
568.287	55262.37
568.648	55303.28
569.01	55428.92
569.372	55626.88
569.734	55597.28
570.095	55822.81
570.457	55916.37
570.819	55983.49
571.18	55951.62
571.542	56110.71
571.903	56151.39
572.265	56291.5
572.626	56298.05
572.987	56322.01
573.349	56455.34
573.71	56630.02
574.071	56591.83
574.432	56714.77
574.794	56896.91
575.155	56817.36
575.516	56818.04
575.877	56891.94
576.238	56997.02
576.599	57124.02
576.96	57127.41
577.32	57121.53
577.681	57230.01
578.042	57248.09
578.403	57282.43
578.763	57316.78
579.124	57308.42
579.485	57460.73
579.845	57484.92
580.206	57386.61
580.566	57481.3
580.927	57506.16
581.287	57666.15
581.648	57448.31
582.008	57644.68
582.368	57618.47
582.728	57587.51
583.089	57622.09
583.449	57579.83
583.809	57585.03
584.169	57695.08
584.529	57595.87
584.889	57824.57
585.249	57666.61
585.609	57602.43
585.969	57758.58
586.329	57650.11
586.688	57751.35
587.048	57718.13
587.408	57652.14
587.768	57721.97
588.127	57655.08
588.487	57608.3
588.846	57799.71
589.206	57677.45
589.565	57694.4
589.925	57757
590.284	57672.48
590.643	57802.42
591.003	57863.89
591.362	57897.11
591.721	57834.28
592.08	57845.13
592.44	57882.64
592.799	57859.37
593.158	57918.58
593.517	57841.06
593.876	57902.76
594.235	57823.89
594.593	57852.81
594.952	57959.03
595.311	57817.56
595.67	57912.7
596.029	57947.28
596.387	58000.38
596.746	58084.45
597.104	57904.79
597.463	57919.25
597.822	58034.96
598.18	57884.23
598.538	57952.02
598.897	58133.49
599.255	57921.29
599.613	58259.58
599.972	58035.41
600.33	58127.84
600.688	58090.1
601.046	58111.34
601.404	58236.76
601.762	58132.81
602.12	58307.94
602.478	58268.85
602.836	58274.95
603.194	58144.56
603.552	58260.94
603.91	58111.11
604.268	58323.31
604.625	58188.85
604.983	58370.09
605.341	58282.63
605.698	58362.18
606.056	58433.14
606.413	58423.65
606.771	58504.78
607.128	58541.84
607.485	58394.27
607.843	58445.12
608.2	58581.16
608.557	58644.88
608.914	58529.63
609.272	58664.77
609.629	58686.24
609.986	58717.2
610.343	58607.82
610.7	58820.47
611.057	58751.32
611.414	58757.65
611.771	58732.79
612.127	58856.18
612.484	58803.3
612.841	58877.65
613.198	58867.7
613.554	58836.74
613.911	59017.53
614.267	58966.68
614.624	58943.86
614.98	58993.58
615.337	59149.28
615.693	59077.87
616.05	59091.43
616.406	59206
616.762	59094.14
617.118	59149.73
617.475	59067.7
617.831	59238.32
618.187	59186.79
618.543	59260.91
618.899	59389.95
619.255	59297.3
619.611	59257.75
619.967	59325.54
620.323	59429.04
620.678	59303.62
621.034	59276.05
621.39	59214.81
621.746	59250.29
622.101	59527.12
622.457	59264.53
622.812	59371.65
623.168	59385.2
623.523	59384.53
623.879	59403.96
624.234	59309.05
624.589	59354.47
624.945	59388.37
625.3	59402.38
625.655	59419.1
626.01	59404.19
626.365	59377.75
626.72	59331.65
627.075	59319.44
627.43	59384.75
627.785	59371.87
628.14	59337.07
628.495	59336.17
628.85	59324.41
629.205	59221.14
629.559	59349.05
629.914	59175.27
630.269	59265.43
630.623	59149.96
630.978	59162.39
631.332	59220.46
631.687	59214.59
632.041	59125.1
632.396	59191.08
632.75	59082.16
633.104	59100.69
633.459	58979.34
633.813	59024.08
634.167	58952
634.521	58918.55
634.875	58962.39
635.229	58891.88
635.583	58803.07
635.937	58802.17
636.291	58806.91
636.645	58815.28
636.999	58720.14
637.352	58782.96
637.706	58643.53
638.06	58712.68
638.413	58711.1
638.767	58554.72
639.121	58684.88
639.474	58468.17
639.828	58484.66
640.181	58565.34
640.534	58547.26
640.888	58357.89
641.241	58359.02
641.594	58394.27
641.947	58361.95
642.301	58333.25
642.654	58339.58
643.007	58351.56
643.36	58265.01
643.713	58170.09
644.066	58219.59
644.419	58106.59
644.771	57950.89
645.124	57807.39
645.477	57811.46
645.83	57560.85
646.182	57373.51
646.535	57228.65
646.888	57370.57
647.24	57251.25
647.593	57343.68
647.945	57291.02
648.298	57135.32
648.65	57131.48
649.002	57041.08
649.355	57177.13
649.707	57101.42
650.059	57181.87
650.411	57515.87
650.763	57440.85
651.115	57790.22
651.467	57675.87
651.819	57659.6
652.171	57513.39
652.523	57491.47
652.875	57513.16
653.227	57379.83
653.578	57520.39
653.93	57484.69
654.282	57359.27
654.633	57314.3
654.985	57378.7
655.337	57367.86
655.688	57251.02
656.039	57431.58
656.391	57230.01
656.742	57305.26
657.094	57275.66
657.445	57330.79
657.796	57226.39
658.147	57186.62
658.498	57229.33
658.849	57219.84
659.2	57157.01
659.551	57069.33
659.902	57156.34
660.253	57150.23
660.604	57152.95
660.955	57034.31
661.306	57091.93
661.656	57011.03
662.007	57027.98
662.358	57068.43
662.708	56974.65
663.059	56954.99
663.409	56766.97
663.76	56964.02
664.11	56956.34
664.461	56947.3
664.811	57068.88
665.161	57036.79
665.511	56913.18
665.862	56945.95
666.212	57004.48
666.562	56969.67
666.912	56869.34
667.262	56854.65
667.612	56868.89
667.962	56832.95
668.312	56798.15
668.662	56888.09
669.011	56895.78
669.361	56776.91
669.711	56830.24
670.06	56780.53
670.41	56710.7
670.76	56688.1
671.109	56782.33
671.459	56669.12
671.808	56573.98
672.157	56653.07
672.507	56478.61
672.856	56480.42
673.205	56510.48
673.554	56606.52
673.904	56427.32
674.253	56661.21
674.602	56585.05
674.951	56160.2
675.3	55992.3
675.649	56448.11
675.998	56407.2
676.346	56450.82
676.695	56446.52
677.044	56242.24
677.393	56308.67
677.741	56356.13
678.09	56288.11
678.438	56186.87
678.787	56346.19
679.135	56233.2
679.484	56080.21
679.832	56057.38
680.181	55954.11
680.529	56038.85
680.877	55894
681.225	55888.35
681.573	56044.5
681.922	55915.24
682.27	55769.25
682.618	55826.43
682.966	55688.58
683.314	55828.69
683.661	55784.17
684.009	55601.12
684.357	55469.6
684.705	55435.48
685.053	55474.12
685.4	55468.47
685.748	55205.65
686.095	55202.04
686.443	55111.42
686.79	55234.13
687.138	55206.78
687.485	55133.11
687.832	55085.43
688.18	55065.54
688.527	54908.26
688.874	54867.58
689.221	54732.9
689.568	54765.66
689.915	54656.97
690.262	54744.65
690.609	54552.56
690.956	54473.47
691.303	54483.86
691.65	54281.84
691.997	54393.02
692.344	54178.79
692.69	54122.07
693.037	54108.28
693.383	53969.08
693.73	54077.77
694.077	53697.22
694.423	53863.09
694.769	53626.94
695.116	53652.02
695.462	53544
695.808	53512.14
696.155	53508.97
696.501	53293.61
696.847	53248.87
697.193	53040.29
697.539	53112.37
697.885	52813.17
698.231	52821.53
698.577	52800.97
698.923	52706.51
699.269	52627.42
699.614	52378.38
699.96	52422.68
700.306	52331.6
700.651	52315.56
700.997	52113.53
701.342	52134.77
701.688	52036.47
702.033	51912.18
702.379	51866.53
702.724	51713.99
703.069	51843.71
703.415	51451.85
703.76	51456.6
704.105	51472.64
704.45	51379.31
704.795	51155.82
705.14	51075.37
705.485	51139.55
705.83	50846.67
706.175	50772.55
706.52	50795.6
706.865	50696.84
707.209	50613.91
707.554	50539.33
707.899	50648.03
708.243	50343.63
708.588	50298.89
708.932	50098.44
709.277	50098.44
709.621	50214.6
709.966	49823.2
710.31	49848.51
710.654	49550.66
710.998	49651.45
711.342	49759.92
711.687	49520.6
712.031	49431.34
712.375	49275.87
712.719	49274.74
713.063	49289.88
713.407	49306.83
713.75	49138.69
714.094	49149.09
714.438	48931.02
714.782	49000.39
715.125	48767.18
715.469	48768.99
715.812	48520.86
716.156	48396.11
716.499	48383.01
716.843	48469.11
717.186	48256.23
717.53	48431.82
717.873	48373.97
718.216	48334.2
718.559	48056.24
718.902	47708.67
719.246	47918.16
719.589	47724.04
719.932	47653.08
720.275	47567.66
720.617	47531.96
720.96	47506.87
721.303	47441.56
721.646	47444.5
721.989	47192.3
722.331	47225.98
722.674	47166.77
723.016	47095.58
723.359	47031.63
723.701	46995.47
724.044	46780.79
724.386	46569.95
724.729	46757.06
725.071	46618.99
725.413	46612.43
725.755	46530.17
726.097	46222.61
726.439	46098.32
726.782	46120.69
727.124	46331.08
727.465	46012
727.807	46040.7
728.149	45935.16
728.491	45776.75
728.833	45884.99
729.175	45617.2
729.516	45666.24
729.858	45504.44
730.199	45594.15
730.541	45481.39
730.882	45462.41
731.224	45533.82
731.565	45150.32
731.906	45312.13
732.248	45261.96
732.589	45082.3
732.93	45001.4
733.271	44918.69
733.612	45000.05
733.953	44885.47
734.294	44912.82
734.635	44704.91
734.976	44813.38
735.317	44485.71
735.658	44488.87
735.999	44391.47
736.339	44454.75
736.68	44424.02
737.021	44135.66
737.361	44111.48
737.702	44212.72
738.042	44107.41
738.383	43956.01
738.723	43907.87
739.063	43681.44
739.404	43954.42
739.744	43830.58
740.084	43678.27
740.424	43671.94
740.764	43515.11
741.104	43695.67
741.444	43361.9
741.784	43485.06
742.124	43216.59
742.464	43267.89
742.804	43262.24
743.143	43107.21
743.483	43181.56
743.823	42910.83
744.162	42923.04
744.502	42864.96
744.841	42678.98
745.181	42777.96
745.52	42667.68
745.86	42709.94
746.199	42511.75
746.538	42531.64
746.877	42595.82
747.216	42281.92
747.556	42181.14
747.895	42326.22
748.234	42271.98
748.573	41985.21
748.911	42051.87
749.25	41913.35
749.589	41719.68
749.928	41679.45
750.267	41658.21
750.605	41530.76
750.944	41361.27
751.283	41263.87
751.621	41436.98
751.96	41215.96
752.298	41077.89
752.636	41211.67
