Data from breadboard_black_back_FLMS001491_00083.txt Node
Date: Wed Feb 08 10:51:02 GMT 2017
User: dcchb
Spectrometer: FLMS00149
Trigger mode: 0
Integration Time (sec): 2.000000E-2
Scans to average: 10
Electric dark correction enabled: true
Nonlinearity correction enabled: false
Boxcar width: 0
XAxis mode: Wavelengths
Number of Pixels in Spectrum: 2048
>>>>>Begin Spectral Data<<<<<
341.393	18.22
341.776	18.22
342.16	18.22
342.543	-49.12
342.927	-55.22
343.31	-60.65
343.693	-65.39
344.077	-42.34
344.46	-59.97
344.843	-48.67
345.226	-45.96
345.61	-38.05
345.993	-16.81
346.376	-22.23
346.759	23.87
347.142	31.1
347.525	50.76
347.908	57.31
348.291	53.93
348.674	85.79
349.057	97.31
349.44	118.78
349.823	171.89
350.206	153.58
350.588	180.48
350.971	215.05
351.354	218.89
351.737	237.2
352.119	262.51
352.502	263.64
352.884	273.13
353.267	281.49
353.65	302.73
354.032	323.75
354.414	313.35
354.797	346.35
355.179	315.84
355.562	333.92
355.944	323.75
356.326	340.25
356.709	354.03
357.091	338.66
357.473	353.58
357.855	368.49
358.238	362.62
358.62	352.67
359.002	339.57
359.384	353.58
359.766	376.18
360.148	356.29
360.53	361.94
360.912	361.94
361.294	340.47
361.676	336.63
362.057	346.35
362.439	328.95
362.821	343.64
363.203	343.18
363.584	343.64
363.966	339.12
364.348	352.45
364.729	313.58
365.111	344.09
365.493	359.23
365.874	352.22
366.256	339.79
366.637	333.01
367.019	338.44
367.4	345.67
367.781	356.06
368.163	343.86
368.544	356.52
368.925	347.7
369.306	354.93
369.688	361.04
370.069	350.64
370.45	336.86
370.831	351.32
371.212	337.31
371.593	365.1
371.974	345.89
372.355	352.45
372.736	359.45
373.117	359.91
373.498	346.57
373.879	368.27
374.26	350.87
374.641	363.52
375.021	372.33
375.402	360.36
375.783	364.2
376.163	376.4
376.544	390.87
376.925	386.8
377.305	366.23
377.686	377.98
378.066	366.91
378.447	392.45
378.827	368.72
379.208	388.83
379.588	390.64
379.968	380.7
380.349	414.82
380.729	401.94
381.109	387.93
381.489	403.07
381.87	405.33
382.25	427.25
382.63	399.45
383.01	416.4
383.39	436.97
383.77	430.64
384.15	422.28
384.53	408.04
384.91	422.73
385.29	419.34
385.67	454.37
386.049	439.45
386.429	436.97
386.809	424.31
387.189	449.39
387.568	420.02
387.948	450.52
388.328	430.86
388.707	483.29
389.087	474.03
389.466	470.86
389.846	454.59
390.225	462.05
390.605	474.93
390.984	493.46
391.363	490.98
391.743	495.04
392.122	505.21
392.501	492.11
392.881	501.6
393.26	462.05
393.639	506.34
394.018	519.9
394.397	533.23
394.776	537.75
395.155	536.17
395.534	536.85
395.913	523.07
396.292	545.44
396.671	528.26
397.05	541.82
397.429	563.52
397.808	520.35
398.186	520.81
398.565	542.5
398.944	569.84
399.323	560.8
399.701	576.17
400.08	563.29
400.458	582.5
400.837	572.78
401.215	594.02
401.594	585.44
401.972	603.97
402.351	598.09
402.729	592.67
403.107	589.96
403.486	613.23
403.864	606.9
404.242	612.55
404.62	638.32
404.999	635.38
405.377	645.1
405.755	632.67
406.133	641.48
406.511	668.6
406.889	663.17
407.267	672.67
407.645	703.85
408.023	700.69
408.401	699.78
408.779	695.49
409.156	688.03
409.534	736.17
409.912	720.12
410.29	723.96
410.667	756.51
411.045	730.29
411.422	780.46
411.8	759.9
412.178	782.95
412.555	799.89
412.933	815.04
413.31	784.98
413.687	796.28
414.065	830.4
414.442	812.32
414.819	831.53
415.197	827.69
415.574	831.98
415.951	878.99
416.328	886.67
416.705	871.3
417.082	886.45
417.46	888.03
417.837	886.45
418.214	888.71
418.591	923.05
418.967	883.51
419.344	965.99
419.721	917.86
420.098	933.9
420.475	953.34
420.852	976.16
421.228	977.97
421.605	984.07
421.982	991.53
422.358	978.87
422.735	994.47
423.111	1034.46
423.488	1027.23
423.864	1045.54
424.241	1040.79
424.617	1073.11
424.994	1043.05
425.37	1082.15
425.746	1086.89
426.123	1098.87
426.499	1105.87
426.875	1124.63
427.251	1140.45
427.627	1137.96
428.003	1164.86
428.379	1184.74
428.756	1188.58
429.132	1192.65
429.507	1224.06
429.883	1207.57
430.259	1245.08
430.635	1256.38
431.011	1297.51
431.387	1278.53
431.763	1292.08
432.138	1310.16
432.514	1360.33
432.89	1353.33
433.265	1374.57
433.641	1407.11
434.016	1420.67
434.392	1403.49
434.767	1468.58
435.143	1489.82
435.518	1484.62
435.894	1476.03
436.269	1475.58
436.644	1510.38
437.02	1543.83
437.395	1540.89
437.77	1542.93
438.145	1584.51
438.52	1583.6
438.895	1586.54
439.271	1633.32
439.646	1625.18
440.021	1666.31
440.395	1679.87
440.77	1647.33
441.145	1678.74
441.52	1710.38
441.895	1695.92
442.27	1731.4
442.645	1714.22
443.019	1750.83
443.394	1748.12
443.769	1758.29
444.143	1780.89
444.518	1801.22
444.892	1808.68
445.267	1810.49
445.641	1804.84
446.016	1825.4
446.39	1871.96
446.764	1854.1
447.139	1875.8
447.513	1882.8
447.887	1902.24
448.262	1930.03
448.636	1886.42
449.01	1944.72
449.384	1982.91
449.758	1955.34
450.132	2035.34
450.506	2012.29
450.88	2010.94
451.254	2024.04
451.628	2051.84
452.002	2081.44
452.376	2122.57
452.75	2119.41
453.123	2136.13
453.497	2185.39
453.871	2196.02
454.244	2225.85
454.618	2249.8
454.992	2305.84
455.365	2295.67
455.739	2328.44
456.112	2374.32
456.486	2411.6
456.859	2411.15
457.232	2437.82
457.606	2420.64
457.979	2503.58
458.352	2539.28
458.725	2563.92
459.099	2540.41
459.472	2610.02
459.845	2635.55
460.218	2666.96
460.591	2691.82
460.964	2687.53
461.337	2796.23
461.71	2831.03
462.083	2870.57
462.456	2899.05
462.829	2869.67
463.201	2937.24
463.574	2947.41
463.947	3009.55
464.32	3069.89
464.692	3102.88
465.065	3082.32
465.438	3164.8
465.81	3160.06
466.183	3257
466.555	3268.76
466.928	3337.23
467.3	3307.17
467.672	3407.06
468.045	3475.76
468.417	3472.37
468.789	3515.76
469.161	3532.48
469.534	3584.91
469.906	3673.49
470.278	3720.04
470.65	3729.76
471.022	3785.8
471.394	3868.51
471.766	3904.45
472.138	3959.81
472.51	4064.67
472.882	4103.31
473.253	4136.76
473.625	4195.96
473.997	4304.66
474.369	4310.08
474.74	4406.13
475.112	4469.85
475.484	4503.75
475.855	4582.39
476.227	4610.19
476.598	4747.59
476.97	4848.83
477.341	4897.64
477.713	4955.27
478.084	4962.04
478.455	5120.68
478.827	5165.66
479.198	5322.04
479.569	5387.57
479.94	5555.25
480.311	5588.02
480.682	5637.73
481.053	5781.01
481.424	5901
481.795	5922.25
482.166	6017.61
482.537	6058.74
482.908	6214.44
483.279	6315.91
483.65	6393.19
484.021	6574.21
484.391	6621.89
484.762	6624.6
485.133	6690.13
485.503	6839.96
485.874	6998.83
486.244	7020.07
486.615	7190.01
486.985	7217.13
487.356	7362.21
487.726	7392.04
488.097	7588.42
488.467	7651.47
488.837	7895.07
489.207	7912.7
489.578	8002.19
489.948	8033.83
490.318	8199.7
490.688	8208.51
491.058	8324.44
491.428	8475.17
491.798	8546.58
492.168	8716.97
492.538	8759.01
492.908	8772.11
493.278	8952.22
493.648	8943.18
494.017	9075.38
494.387	9243.51
494.757	9241.48
495.126	9416.16
495.496	9399.44
495.866	9489.38
496.235	9549.27
496.605	9695.03
496.974	9778.19
497.344	9790.17
497.713	9899.32
498.082	9958.07
498.452	10071.06
498.821	10177.05
499.19	10227.44
499.559	10329.36
499.928	10326.42
500.298	10431.05
500.667	10540.66
501.036	10511.28
501.405	10656.58
501.774	10675.11
502.143	10782.91
502.512	10868.56
502.88	10966.41
503.249	10959.63
503.618	10998.04
503.987	11071.04
504.356	11186.74
504.724	11333.4
505.093	11322.1
505.462	11394.42
505.83	11459.05
506.199	11539.5
506.567	11679.83
506.936	11643.68
507.304	11780.85
507.672	11956.89
508.041	12064
508.409	12074.4
508.777	12229.88
509.145	12320.04
509.514	12325.47
509.882	12445.46
510.25	12495.86
510.618	12594.39
510.986	12647.49
511.354	12794.16
511.722	12845.91
512.09	13002.74
512.458	12958.9
512.826	13121.83
513.193	13162.28
513.561	13233.69
513.929	13375.83
514.297	13493.35
514.664	13648.14
515.032	13750.74
515.4	13781.7
515.767	13869.38
516.135	13927.68
516.502	13932.43
516.869	14218.3
517.237	14140.33
517.604	14192.76
517.972	14416.26
518.339	14518.86
518.706	14515.24
519.073	14679.76
519.44	14688.79
519.808	14885.63
520.175	15006.07
520.542	15144.15
520.909	15267.99
521.276	15313.86
521.643	15334.2
522.009	15480.19
522.376	15612.39
522.743	15721.08
523.11	15947.29
523.477	16160.85
523.843	16229.32
524.21	16317.45
524.577	16500.5
524.943	16544.56
525.31	16691.68
525.676	16812.58
526.043	16916.98
526.409	16998.11
526.776	17207.37
527.142	17282.17
527.508	17419.57
527.874	17473.13
528.241	17610.3
528.607	17686.46
528.973	17895.49
529.339	17903.63
529.705	18121.25
530.071	18220.23
530.437	18302.48
530.803	18386.78
531.169	18520.78
531.535	18523.95
531.901	18680.33
532.267	18735.69
532.632	18867.89
532.998	18864.73
533.364	19022.24
533.73	19146.76
534.095	19155.12
534.461	19292.52
534.826	19429.23
535.192	19438.95
535.557	19629
535.923	19598.95
536.288	19674.88
536.653	19887.98
537.019	19784.93
537.384	19985.38
537.749	20076.68
538.114	20141.08
538.479	20127.97
538.845	20263.56
539.21	20305.37
539.575	20384.92
539.94	20466.95
540.305	20585.36
540.67	20542.2
541.034	20659.26
541.399	20793.04
541.764	20834.17
542.129	20903.55
542.494	21048.4
542.858	21037.55
543.223	21152.35
543.587	21184.67
543.952	21174.27
544.316	21410.43
544.681	21291.11
545.045	21517.32
545.41	21568.61
545.774	21718.89
546.138	21717.76
546.503	21723.86
546.867	21728.38
547.231	21948.04
547.595	21889.74
547.959	22130.41
548.324	22093.57
548.688	22157.98
549.052	22257.18
549.416	22382.38
549.779	22474.8
550.143	22450.17
550.507	22537.63
550.871	22728.81
551.235	22649.04
551.599	22950.5
551.962	22873.66
552.326	23065.07
552.689	23165.63
553.053	22993.21
553.417	23075.47
553.78	23532.63
554.143	23307.55
554.507	23490.6
554.87	23500.77
555.234	23712.96
555.597	23730.36
555.96	23766.75
556.323	24032.28
556.686	23952.05
557.05	24226.4
557.413	24197.25
557.776	24312.5
558.139	24527.63
558.502	24540.06
558.865	24622.54
559.228	24764.01
559.59	24872.26
559.953	24954.51
560.316	25208.52
560.679	25233.15
561.041	25332.81
561.404	25381.39
561.767	25551.33
562.129	25549.75
562.492	25876.52
562.854	25814.15
563.217	25812.12
563.579	25966.01
563.941	26217.76
564.304	26352.44
564.666	26384.98
565.028	26464.76
565.39	26694.35
565.753	26696.39
566.115	26792.21
566.477	26975.25
566.839	27030.62
567.201	27187.45
567.563	27210.95
567.925	27438.52
568.287	27430.83
568.648	27467.44
569.01	27640.77
569.372	27817.71
569.734	27696.36
570.095	27952.63
570.457	28044.6
570.819	28112.4
571.18	28225.84
571.542	28318.72
571.903	28353.07
572.265	28463.57
572.626	28506.74
572.987	28533.63
573.349	28642.1
573.71	28786.05
574.071	28836.45
574.432	28877.57
574.794	29166.38
575.155	29212.03
575.516	29092.71
575.877	29213.84
576.238	29227.85
576.599	29372.48
576.96	29518.46
577.32	29367.73
577.681	29574.96
578.042	29634.39
578.403	29591
578.763	29571.79
579.124	29676.65
579.485	29778.79
579.845	29907.15
580.206	29796.65
580.566	29952.57
580.927	29962.74
581.287	30000.03
581.648	29896.98
582.008	30089.52
582.368	30025.34
582.728	30177.88
583.089	30031.22
583.449	30149.18
583.809	29917.77
584.169	30058.33
584.529	30023.98
584.889	30254.94
585.249	30151.21
585.609	30070.09
585.969	30284.99
586.329	30257.65
586.688	30223.75
587.048	30272.34
587.408	30099.69
587.768	30193.47
588.127	30215.39
588.487	30162.51
588.846	30352.56
589.206	30181.72
589.565	30228.27
589.925	30309.85
590.284	30294.26
590.643	30375.84
591.003	30292.45
591.362	30429.85
591.721	30285.45
592.08	30302.85
592.44	30448.83
592.799	30495.84
593.158	30476.63
593.517	30318.67
593.876	30369.51
594.235	30376.29
594.593	30451.09
594.952	30512.11
595.311	30420.13
595.67	30500.81
596.029	30602.05
596.387	30764.76
596.746	30658.54
597.104	30610.41
597.463	30613.57
597.822	30748.71
598.18	30570.86
598.538	30571.99
598.897	30688.6
599.255	30536.06
599.613	30903.06
599.972	30811.31
600.33	30833
600.688	30669.17
601.046	30808.82
601.404	30970.85
601.762	30973.79
602.12	31109.61
602.478	31074.35
602.836	31095.82
603.194	30840.23
603.552	31065.77
603.91	31025.99
604.268	31073.67
604.625	31076.61
604.983	31109.83
605.341	31010.85
605.698	31198.87
606.056	31293.78
606.413	31238.42
606.771	31253.33
607.128	31369.49
607.485	31236.83
607.843	31321.35
608.2	31473.44
608.557	31631.85
608.914	31426.21
609.272	31689.03
609.629	31722.92
609.986	31696.93
610.343	31642.47
610.7	31925.86
611.057	31796.59
611.414	31641.12
611.771	31769.7
612.127	31814.45
612.484	31939.41
612.841	31942.8
613.198	31841.34
613.554	31912.07
613.911	32100.77
614.267	32067.55
614.624	31956.36
614.98	32260.99
615.337	32192.74
615.693	32285.39
616.05	32118.39
616.406	32403.58
616.762	32195.68
617.118	32199.75
617.475	32186.41
617.831	32380.08
618.187	32315
618.543	32418.5
618.899	32545.73
619.255	32439.74
619.611	32556.12
619.967	32605.84
620.323	32602.9
620.678	32454.66
621.034	32345.05
621.39	32476.58
621.746	32388.44
622.101	32783.01
622.457	32603.35
622.812	32521.77
623.168	32598.83
623.523	32656.68
623.879	32749.11
624.234	32606.74
624.589	32506.41
624.945	32705.95
625.3	32650.13
625.655	32584.82
626.01	32678.38
626.365	32618.04
626.72	32519.96
627.075	32540.53
627.43	32652.84
627.785	32490.81
628.14	32587.53
628.495	32561.54
628.85	32526.52
629.205	32417.37
629.559	32621.66
629.914	32504.82
630.269	32510.92
630.623	32395
630.978	32326.97
631.332	32466.41
631.687	32399.52
632.041	32392.96
632.396	32389.8
632.75	32190.03
633.104	32317.71
633.459	32140.77
633.813	32149.13
634.167	32229.58
634.521	32076.59
634.875	32151.84
635.229	32100.31
635.583	31845.18
635.937	31963.82
636.291	31797.95
636.645	31872.52
636.999	31696.03
637.352	31871.17
637.706	31785.29
638.06	31876.14
638.413	31845.63
638.767	31640.89
639.121	31757.05
639.474	31500.1
639.828	31536.71
640.181	31576.26
640.534	31586.66
640.888	31435.25
641.241	31224.86
641.594	31372.42
641.947	31369.03
642.301	31265.99
642.654	31315.25
643.007	31346.44
643.36	31261.47
643.713	31162.94
644.066	31275.48
644.419	31158.64
644.771	30995.03
645.124	30611.09
645.477	30571.31
645.83	30454.03
646.182	30248.84
646.535	30252.45
646.888	30201.38
647.24	29892.24
647.593	30029.18
647.945	30128.84
648.298	29861.95
648.65	29880.49
649.002	29834.84
649.355	29810.2
649.707	29955.06
650.059	30013.14
650.411	30365.44
650.763	30477.76
651.115	30682.5
651.467	30528.38
651.819	30555.95
652.171	30379
652.523	30321.15
652.875	30485.44
653.227	30275.05
653.578	30608.83
653.93	30357.76
654.282	30300.81
654.633	30052.01
654.985	30203.41
655.337	30157.77
655.688	30230.31
656.039	30342.17
656.391	30122.06
656.742	30034.15
657.094	30105.56
657.445	30164.09
657.796	30092.46
658.147	29962.29
658.498	29902.63
658.849	29963.87
659.2	30005.23
659.551	30000.03
659.902	30033.7
660.253	30054.94
660.604	29962.97
660.955	29837.77
661.306	29992.12
661.656	29860.15
662.007	29868.96
662.358	29941.27
662.708	29787.83
663.059	29800.94
663.409	29552.36
663.76	29845.46
664.11	29717.55
664.461	29788.51
664.811	29767.95
665.161	29690.89
665.511	29673.71
665.862	29719.81
666.212	29802.3
666.562	29753.94
666.912	29619.93
667.262	29670.77
667.612	29619.7
667.962	29769.98
668.312	29581.06
668.662	29681.62
669.011	29677.78
669.361	29610.21
669.711	29576.99
670.06	29618.35
670.41	29614.5
670.76	29409.09
671.109	29496.31
671.459	29527.95
671.808	29426.26
672.157	29477.78
672.507	29217.9
672.856	29333.83
673.205	29455.41
673.554	29493.15
673.904	29287.51
674.253	29399.14
674.602	29412.93
674.951	29013.39
675.3	28810.01
675.649	29112.82
675.998	29163.67
676.346	29099.72
676.695	29233.95
677.044	29139.26
677.393	29077.34
677.741	29122.99
678.09	29015.42
678.438	28981.98
678.787	29082.54
679.135	29127.51
679.484	28808.65
679.832	28955.99
680.181	28837.58
680.529	28811.59
680.877	28714.87
681.225	28589.9
681.573	28822.43
681.922	28748.31
682.27	28488.43
682.618	28719.84
682.966	28569.33
683.314	28655.43
683.661	28479.39
684.009	28329.11
684.357	28339.51
684.705	28181.77
685.053	28334.31
685.4	28254.31
685.748	28089.57
686.095	28108.55
686.443	27984.49
686.79	27930.03
687.138	27988.56
687.485	27974.77
687.832	27851.61
688.18	27926.64
688.527	27708.79
688.874	27608.23
689.221	27582.47
689.568	27544.95
689.915	27508.12
690.262	27411.17
690.609	27422.92
690.956	27401.45
691.303	27273.32
691.65	27109.94
691.997	27240.78
692.344	27051.18
692.69	27026.32
693.037	26948.59
693.383	26815.48
693.73	26882.15
694.077	26817.29
694.423	26647.35
694.769	26521.03
695.116	26512.44
695.462	26508.82
695.808	26448.03
696.155	26480.8
696.501	26144.54
696.847	26166.23
697.193	26045.56
697.539	26166.23
697.885	25917.43
698.231	25856.86
698.577	25893.47
698.923	25807.15
699.269	25783.87
699.614	25545.68
699.96	25602.18
700.306	25617.32
700.651	25514.95
700.997	25410.55
701.342	25261.62
701.688	25309.76
702.033	25131.46
702.379	25199.25
702.724	25134.85
703.069	25127.16
703.415	24944.12
703.76	24910.45
704.105	24858.92
704.45	24819.83
704.795	24779.38
705.14	24541.64
705.485	24627.74
705.83	24385.94
706.175	24503.9
706.52	24402.44
706.865	24285.6
707.209	24334.87
707.554	24194.31
707.899	24246.74
708.243	24088.32
708.588	24050.36
708.932	23936.91
709.277	23952.28
709.621	23961.55
709.966	23766.97
710.31	23763.81
710.654	23589.13
710.998	23782.57
711.342	23576.92
711.687	23654.21
712.031	23531.5
712.375	23379.64
712.719	23494.89
713.063	23426.19
713.407	23441.78
713.75	23269.59
714.094	23256.48
714.438	23117.05
714.782	23192.53
715.125	23084.28
715.469	23100.78
715.812	22996.6
716.156	22880.44
716.499	22914.34
716.843	23016.26
717.186	22799.09
717.53	22777.17
717.873	22975.58
718.216	22930.84
718.559	22694.23
718.902	22543.28
719.246	22525.88
719.589	22517.97
719.932	22468.7
720.275	22435.71
720.617	22387.58
720.96	22404.98
721.303	22351.64
721.646	22313.68
721.989	22183.06
722.331	22303.28
722.674	22190.52
723.016	22166.11
723.359	22155.04
723.701	22103.29
724.044	22019.9
724.386	21910.98
724.729	21901.26
725.071	21878.89
725.413	21977.19
725.755	21913.69
726.097	21709.4
726.439	21680.02
726.782	21679.8
727.124	21801.38
727.465	21677.54
727.807	21604.54
728.149	21660.59
728.491	21528.39
728.833	21511.67
729.175	21441.39
729.516	21356.19
729.858	21419.47
730.199	21284.55
730.541	21359.13
730.882	21183.99
731.224	21394.15
731.565	21229.87
731.906	21135.63
732.248	21165.46
732.589	21057.89
732.93	21115.07
733.271	21077.1
733.612	21024.45
733.953	20993.04
734.294	20968.63
734.635	20961.4
734.976	21026.93
735.317	20884.56
735.658	20878.69
735.999	20776.77
736.339	20784.23
736.68	20802.98
737.021	20722.99
737.361	20594.18
737.702	20784
738.042	20619.71
738.383	20597.34
738.723	20565.48
739.063	20483.9
739.404	20626.27
739.744	20436.44
740.084	20419.49
740.424	20383.33
740.764	20453.39
741.104	20468.53
741.444	20308.53
741.784	20226.73
742.124	20367.52
742.464	20215.88
742.804	20160.74
743.143	20178.82
743.483	20237.8
743.823	20053.17
744.162	20036.22
744.502	20039.61
744.841	19999.16
745.181	20132.27
745.52	19843.24
745.86	19945.61
746.199	19788.55
746.538	19886.62
746.877	19933.4
747.216	19820.19
747.556	19725.27
747.895	19784.03
748.234	19576.58
748.573	19662
748.911	19667.87
749.25	19588.33
749.589	19471.27
749.928	19580.87
750.267	19539.29
750.605	19437.37
750.944	19428.33
751.283	19294.78
751.621	19346.07
751.96	19233.99
752.298	19198.73
752.636	19332.06
752.975	19102.92
753.313	18935.69
753.651	19066.76
753.989	19028.57
