Data from breadboard_white_FLMS001491_00031.txt Node
Date: Wed Feb 08 10:47:37 GMT 2017
User: dcchb
Spectrometer: FLMS00149
Trigger mode: 0
Integration Time (sec): 2.000000E-2
Scans to average: 10
Electric dark correction enabled: true
Nonlinearity correction enabled: false
Boxcar width: 0
XAxis mode: Wavelengths
Number of Pixels in Spectrum: 2048
>>>>>Begin Spectral Data<<<<<
341.393	-4.7
341.776	-4.7
342.16	-4.7
342.543	-76.11
342.927	-70.46
343.31	-64.36
343.693	-67.75
344.077	-70.24
344.46	-55.78
344.843	-59.62
345.226	-43.57
345.61	-41.54
345.993	4.34
346.376	-31.37
346.759	-7.87
347.142	32.58
347.525	49.53
347.908	68.52
348.291	66.26
348.674	96.99
349.057	123.88
349.44	127.5
349.823	152.81
350.206	158.46
350.588	209.53
350.971	218.12
351.354	217.66
351.737	250.66
352.119	261.73
352.502	266.25
352.884	271.9
353.267	285.46
353.65	300.37
354.032	305.57
354.414	305.12
354.797	308.06
355.179	302.86
355.562	338.11
355.944	323.88
356.326	345.57
356.709	332.69
357.091	330.66
357.473	341.28
357.855	348.96
358.238	374.72
358.62	362.52
359.002	334.5
359.384	351.67
359.766	341.05
360.148	345.12
360.53	343.08
360.912	352.58
361.294	335.17
361.676	346.7
362.057	334.5
362.439	339.02
362.821	352.58
363.203	328.85
363.584	326.59
363.966	330.2
364.348	346.02
364.729	334.5
365.111	336.08
365.493	328.85
365.874	333.14
366.256	332.46
366.637	321.39
367.019	332.01
367.4	346.93
367.781	308.06
368.163	350.32
368.544	359.81
368.925	343.76
369.306	324.1
369.688	339.69
370.069	347.38
370.45	313.93
370.831	348.96
371.212	331.11
371.593	325.91
371.974	316.87
372.355	346.7
372.736	338.79
373.117	347.15
373.498	328.85
373.879	346.93
374.26	355.51
374.641	326.14
375.021	346.7
375.402	364.78
375.783	348.73
376.163	364.33
376.544	373.37
376.925	366.59
377.305	345.57
377.686	352.35
378.066	353.03
378.447	358.23
378.827	358.45
379.208	371.56
379.588	369.52
379.968	361.16
380.349	364.1
380.729	372.46
381.109	377.43
381.489	382.18
381.87	366.59
382.25	393.03
382.63	367.49
383.01	376.76
383.39	386.92
383.77	381.05
384.15	392.57
384.53	396.64
384.91	420.14
385.29	396.87
385.67	413.59
386.049	382.86
386.429	410.2
386.809	404.78
387.189	411.33
387.568	398.9
387.948	411.11
388.328	409.3
388.707	429.86
389.087	427.15
389.466	440.03
389.846	428.73
390.225	432.8
390.605	428.96
390.984	432.57
391.363	449.75
391.743	429.86
392.122	458.56
392.501	456.75
392.881	465.11
393.26	475.06
393.639	471.89
394.018	493.14
394.397	490.88
394.776	463.76
395.155	483.65
395.534	506.02
395.913	496.53
396.292	513.7
396.671	476.41
397.05	535.17
397.429	511.67
397.808	541.72
398.186	549.63
398.565	536.07
398.944	522.51
399.323	544.66
399.701	561.38
400.08	545.79
400.458	593.93
400.837	574.49
401.215	601.83
401.594	608.39
401.972	609.74
402.351	626.69
402.729	630.76
403.107	639.8
403.486	631.21
403.864	697.43
404.242	638.67
404.62	665.34
404.999	676.63
405.377	681.61
405.755	709.18
406.133	721.83
406.511	733.81
406.889	759.12
407.267	753.47
407.645	761.38
408.023	776.75
408.401	786.46
408.779	831.43
409.156	825.56
409.534	817.87
409.912	833.69
410.29	848.16
410.667	910.98
411.045	895.84
411.422	911.2
411.8	936.74
412.178	963.18
412.555	966.34
412.933	980.81
413.31	1006.8
413.687	1010.41
414.065	1080.92
414.442	1013.58
414.819	1059.9
415.197	1077.53
415.574	1120.24
415.951	1123.4
416.328	1126.11
416.705	1157.3
417.082	1161.82
417.46	1170.41
417.837	1216.73
418.214	1203.85
418.591	1229.61
418.967	1234.59
419.344	1267.81
419.721	1271.87
420.098	1301.93
420.475	1291.99
420.852	1315.04
421.228	1303.51
421.605	1344.19
421.982	1379.89
422.358	1365.43
422.735	1395.49
423.111	1404.3
423.488	1439.55
423.864	1447.01
424.241	1452.21
424.617	1491.53
424.994	1475.94
425.37	1511.19
425.746	1498.53
426.123	1529.95
426.499	1555.93
426.875	1569.49
427.251	1597.29
427.627	1631.64
428.003	1639.77
428.379	1658.98
428.756	1677.74
429.132	1725.19
429.507	1768.13
429.883	1761.35
430.259	1789.37
430.635	1785.08
431.011	1825.53
431.387	1879.54
431.763	1913.44
432.138	1886.77
432.514	1936.49
432.89	1967.22
433.265	1974.45
433.641	2023.04
434.016	2056.49
434.392	2073.66
434.767	2116.82
435.143	2124.05
435.518	2138.52
435.894	2188.91
436.269	2189.36
436.644	2201.57
437.02	2229.36
437.395	2279.08
437.77	2286.54
438.145	2347.33
438.52	2341
438.895	2416.25
439.271	2330.6
439.646	2442.92
440.021	2449.47
440.395	2426.19
440.77	2435.91
441.145	2472.52
441.52	2518.62
441.895	2537.38
442.27	2550.03
442.645	2571.73
443.019	2604.72
443.394	2580.31
443.769	2631.39
444.143	2636.36
444.518	2692.85
444.892	2672.97
445.267	2685.17
445.641	2705.96
446.016	2740.08
446.39	2773.98
446.764	2781.66
447.139	2784.38
447.513	2849.91
447.887	2810.82
448.262	2813.98
448.636	2857.37
449.01	2887.2
449.384	2918.61
449.758	2937.37
450.132	2998.83
450.506	3003.35
450.88	3044.03
451.254	3034.76
451.628	3121.54
452.002	3104.37
452.376	3138.26
452.75	3206.51
453.123	3220.52
453.497	3253.52
453.871	3262.1
454.244	3342.33
454.618	3352.72
454.992	3418.26
455.365	3417.58
455.739	3468.2
456.112	3533.51
456.486	3569.67
456.859	3590.46
457.232	3657.12
457.606	3630.68
457.979	3705.93
458.352	3805.82
458.725	3826.83
459.099	3873.61
459.472	3905.02
459.845	3946.15
460.218	3951.12
460.591	4075.19
460.964	4069.31
461.337	4166.03
461.71	4226.15
462.083	4320.61
462.456	4299.59
462.829	4307.27
463.201	4386.37
463.574	4412.13
463.947	4459.59
464.32	4625.68
464.692	4616.87
465.065	4603.31
465.438	4725.34
465.81	4737.77
466.183	4841.5
466.555	4905
466.928	4976.41
467.3	4949.29
467.672	5041.72
468.045	5149.06
468.417	5143.41
468.789	5213.01
469.161	5270.41
469.534	5420.01
469.906	5565.32
470.278	5553.12
470.65	5584.08
471.022	5718.76
471.394	5803.73
471.766	5844.63
472.138	5950.39
472.51	6063.61
472.882	6163.27
473.253	6226.09
473.625	6308.58
473.997	6423.83
474.369	6513.54
474.74	6554.45
475.112	6681.22
475.484	6826.53
475.855	6940.88
476.227	7038.28
476.598	7190.81
476.97	7281.43
477.341	7417.25
477.713	7489.79
478.084	7615.66
478.455	7796.45
478.827	7897.91
479.198	8099.72
479.569	8045.03
479.94	8289.54
480.311	8391.69
480.682	8549.2
481.053	8729.98
481.424	8917.1
481.795	8902.18
482.166	9088.16
482.537	9208.61
482.908	9461.71
483.279	9479.12
483.65	9734.02
484.021	9922.27
484.391	9953.45
484.762	10096.27
485.133	10195.48
485.503	10341.92
485.874	10558.41
486.244	10679.54
486.615	10820.32
486.985	10982.13
487.356	11162.91
487.726	11317.94
488.097	11534.2
488.467	11609.45
488.837	11832.05
489.207	11956.79
489.578	12156.11
489.948	12171.25
490.318	12381.64
490.688	12465.93
491.058	12680.61
491.428	12874.51
491.798	12943.43
492.168	13277.21
492.538	13307.26
492.908	13398.56
493.278	13525.11
493.648	13606.92
494.017	13888.94
494.387	13931.65
494.757	14036.74
495.126	14134.81
495.496	14281.25
495.866	14417.06
496.235	14517.63
496.605	14651.18
496.974	14768.47
497.344	14872.65
497.713	14971.85
498.082	15125.07
498.452	15410.48
498.821	15315.35
499.19	15410.48
499.559	15626.75
499.928	15685.05
500.298	15789.23
500.667	15916.01
501.036	15994.42
501.405	16193.51
501.774	16154.42
502.143	16376.79
502.512	16416.79
502.88	16615.88
503.249	16632.6
503.618	16698.81
503.987	16816.32
504.356	16948.07
504.724	17094.28
505.093	17122.3
505.462	17284.56
505.83	17373.14
506.199	17516.64
506.567	17778.78
506.936	17778.33
507.304	17984.65
507.672	18000.47
508.041	18151.2
508.409	18281.82
508.777	18430.07
509.145	18607.91
509.514	18593.45
509.882	18685.2
510.25	18813.33
510.618	18907.79
510.986	19105.3
511.354	19346.65
511.722	19514.78
512.09	19571.05
512.458	19585.29
512.826	19870.03
513.193	19959.52
513.561	19984.15
513.929	20292.62
514.297	20434.76
514.664	20532.84
515.032	20597.92
515.4	20785.48
515.767	20876.33
516.135	20945.25
516.502	20920.62
516.869	21446.71
517.237	21354.96
517.604	21374.4
517.972	21611.23
518.339	21882.86
518.706	21886.47
519.073	22058.67
519.44	22270.42
519.808	22537.53
520.175	22484.87
520.542	22819.56
520.909	22892.77
521.276	23001.02
521.643	23211.64
522.009	23336.15
522.376	23587.22
522.743	23764.16
523.11	24035.57
523.477	24104.04
523.843	24295.67
524.21	24542.67
524.577	24631.49
524.943	24810.46
525.31	24990.57
525.676	25162.09
526.043	25431.01
526.409	25539.94
526.776	25824.67
527.142	25885.24
527.508	26030.09
527.874	26274.61
528.241	26461.95
528.607	26556.41
528.973	26743.97
529.339	26763.41
529.705	27061.03
530.071	27219.44
530.437	27421.02
530.803	27555.93
531.169	27632.76
531.535	27734.45
531.901	27824.62
532.267	28062.36
532.632	28299.19
532.998	28295.57
533.364	28493.08
533.73	28594.32
534.095	28867.76
534.461	28882.45
534.826	28982.56
535.192	29027.3
535.557	29327.63
535.923	29338.48
536.288	29421.87
536.653	29738.02
537.019	29494.41
537.384	29829.09
537.749	29980.72
538.114	29977.79
538.479	30020.27
538.845	30239.47
539.21	30225.24
539.575	30368.51
539.94	30468.85
540.305	30534.83
540.67	30648.73
541.034	30847.82
541.399	30886.69
541.764	31061.6
542.129	31227.02
542.494	31223.18
542.858	31270.86
543.223	31291.65
543.587	31475.6
543.952	31641.7
544.316	31749.49
544.681	31704.29
545.045	32017.96
545.41	32114.68
545.774	31960.56
546.138	32179.99
546.503	32378.63
546.867	32419.08
547.231	32591.28
547.595	32644.16
547.959	32870.59
548.324	32815.22
548.688	33045.28
549.052	33075.33
549.416	33125.05
549.779	33148.1
550.143	33353.97
550.507	33539.05
550.871	33665.82
551.235	33618.37
551.599	33863.11
551.962	33933.61
552.326	34050.9
552.689	34286.37
553.053	34108.52
553.417	34305.81
553.78	34882.06
554.143	34633.26
554.507	34783.08
554.87	35000.25
555.234	35155.95
555.597	35098.33
555.96	35293.35
556.323	35322.96
556.686	35504.65
557.05	35756.16
557.413	35817.41
557.776	35913.22
558.139	36163.61
558.502	36254.68
558.865	36316.38
559.228	36593.2
559.59	36605.41
559.953	36799.07
560.316	37083.14
560.679	37096.02
561.041	37352.05
561.404	37547.3
561.767	37601.99
562.129	37653.97
562.492	38054.41
562.854	38019.83
563.217	38174.86
563.579	38334.4
563.941	38494.85
564.304	38833.82
564.666	38931.22
565.028	38898.68
565.39	39080.82
565.753	39175.28
566.115	39445.33
566.477	39736.85
566.839	39747.92
567.201	40003.96
567.563	40048.93
567.925	40253.67
568.287	40360.79
568.648	40455.02
569.01	40627.22
569.372	40801.46
569.734	40734.79
570.095	41085.74
570.457	41149.02
570.819	41329.13
571.18	41149.24
571.542	41416.35
571.903	41560.31
572.265	41745.16
572.626	41690.7
572.987	41877.36
573.349	42043.68
573.71	42168.65
574.071	42174.75
574.432	42378.59
574.794	42564.57
575.155	42580.84
575.516	42522.77
575.877	42726.38
576.238	42760.05
576.599	42880.27
576.96	42849.99
577.32	42956.88
577.681	43077.55
578.042	43192.58
578.403	43118.23
578.763	43223.09
579.124	43310.09
579.485	43410.88
579.845	43363.42
580.206	43434.83
580.566	43459.46
580.927	43559.12
581.287	43665.79
581.648	43461.05
582.008	43719.8
582.368	43668.72
582.728	43670.08
583.089	43675.28
583.449	43708.05
583.809	43753.69
584.169	43779.23
584.529	43709.4
584.889	44110.52
585.249	43844.77
585.609	43820.81
585.969	44004.08
586.329	43793.02
586.688	43864.43
587.048	43713.47
587.408	43806.8
587.768	43842.96
588.127	43830.08
588.487	43746.69
588.846	44046.57
589.206	43796.18
589.565	43819.91
589.925	44012.44
590.284	43829.85
590.643	43880.47
591.003	43983.07
591.362	44026.23
591.721	44004.99
592.08	43939
592.44	44095.38
592.799	44014.25
593.158	43921.37
593.517	44164.3
593.876	44163.4
594.235	43941.94
594.593	44230.74
594.952	44115.72
595.311	43983.97
595.67	44139.45
596.029	44339.44
596.387	44345.32
596.746	44385.77
597.104	44094.48
597.463	44282.49
597.822	44314.36
598.18	44062.16
598.538	44071.43
598.897	44462.38
599.255	44117.3
599.613	44709.83
599.972	44450.85
600.33	44587.57
600.688	44381.7
601.046	44400
601.404	44579.66
601.762	44578.98
602.12	44800.67
602.478	44639.09
602.836	44706.21
603.194	44480.45
603.552	44706.44
603.91	44679.77
604.268	44829.6
604.625	44767
604.983	44825.3
605.341	44629.15
605.698	44874.12
606.056	45032.98
606.413	44943.72
606.771	45029.82
607.128	44982.14
607.485	44884.29
607.843	44910.95
608.2	45188.01
608.557	45165.63
608.914	45056.94
609.272	45437.04
609.629	45404.05
609.986	45524.27
610.343	45408.11
610.7	45625.96
611.057	45539.18
611.414	45491.5
611.771	45540.09
612.127	45651.72
612.484	45524.04
612.841	45787.09
613.198	45630.48
613.554	45661.44
613.911	45914.77
614.267	45752.74
614.624	45734.43
614.98	45877.71
615.337	46131.26
615.693	45921.32
616.05	45937.82
616.406	46223.01
616.762	46122.9
617.118	46173.52
617.475	46032.73
617.831	46144.59
618.187	46291.48
618.543	46276.57
618.899	46423.91
619.255	46379.84
619.611	46328.99
619.967	46460.97
620.323	46460.52
620.678	46387.07
621.034	46291.03
621.39	46312.72
621.746	46288.09
622.101	46519.05
622.457	46328.77
622.812	46447.41
623.168	46490.12
623.523	46514.07
623.879	46587.97
624.234	46305.49
624.589	46545.03
624.945	46504.13
625.3	46491.25
625.655	46460.52
626.01	46540.51
626.365	46558.37
626.72	46390.91
627.075	46311.14
627.43	46239.5
627.785	46388.65
628.14	46490.57
628.495	46372.61
628.85	46331.71
629.205	46234.98
629.559	46537.8
629.914	46333.74
630.269	46130.81
630.623	46115.89
630.978	46070.02
631.332	46172.16
631.687	46183.46
632.041	46103.69
632.396	46095.55
632.75	45832.96
633.104	45960.19
633.459	45799.74
633.813	45718.61
634.167	45691.5
634.521	45785.28
634.875	45965.39
635.229	45635.9
635.583	45490.15
635.937	45550.26
636.291	45625.96
636.645	45482.46
636.999	45385.06
637.352	45479.98
637.706	45181.68
638.06	45303.26
638.413	45278.85
638.767	45207.89
639.121	45258.06
639.474	44859.43
639.828	45022.59
640.181	44993.66
640.534	44997.73
640.888	44808.36
641.241	44733.33
641.594	44770.62
641.947	44911.4
642.301	44618.3
642.654	44680.68
643.007	44633.22
643.36	44561.81
643.713	44492.43
644.066	44715.02
644.419	44405.88
644.771	44156.62
645.124	43797.53
645.477	43605.68
645.83	43581.04
646.182	43282.75
646.535	43133.6
646.888	43164.33
647.24	43019.7
647.593	43145.35
647.945	43054.96
648.298	42838.92
648.65	42734.96
649.002	42679.37
649.355	42760.5
649.707	42731.35
650.059	42929.08
650.411	43370.43
650.763	43453.36
651.115	43704.43
651.467	43673.02
651.819	43525
652.171	43319.36
652.523	43379.92
652.875	43440.48
653.227	43101.73
653.578	43559.57
653.93	43262.86
654.282	43108.06
654.633	42973.6
654.985	43132.69
655.337	43060.38
655.688	43064.45
656.039	43188.29
656.391	42795.53
656.742	43051.79
657.094	43077.78
657.445	42980.83
657.796	42817.45
658.147	42814.74
658.498	42826.49
658.849	43007.27
659.2	42858.12
659.551	42729.77
659.902	42798.24
660.253	42652.93
660.604	42810.89
660.955	42458.59
661.306	42721.63
661.656	42555.99
662.007	42596.21
662.358	42709.43
662.708	42375.65
663.059	42601.41
663.409	42291.59
663.76	42588.08
664.11	42458.81
664.461	42602.09
664.811	42541.3
665.161	42443.45
665.511	42331.13
665.862	42366.61
666.212	42436.44
666.562	42556.44
666.912	42400.06
667.262	42419.49
667.612	42139.5
667.962	42284.35
668.312	42339.27
668.662	42464.91
669.011	42377.46
669.361	42139.73
669.711	42106.96
670.06	42274.41
670.41	42066.05
670.76	42256.56
671.109	42233.51
671.459	42113.51
671.808	41995.77
672.157	42075.09
672.507	41792.84
672.856	41874.87
673.205	41716.91
673.554	41961.42
673.904	41787.87
674.253	41982.67
674.602	41790.81
674.951	41260.43
675.3	41025.4
675.649	41699.06
675.998	41542.45
676.346	41699.06
676.695	41690.47
677.044	41353.53
677.393	41453.64
677.741	41515.56
678.09	41442.79
678.438	41319.41
678.787	41457.48
679.135	41327.54
679.484	41182.91
679.832	41223.37
680.181	41061.11
680.529	41188.56
680.877	40998.29
681.225	40993.99
681.573	41213.42
681.922	40726.43
682.27	40735.24
682.618	40716.49
682.966	40664.06
683.314	40776.6
683.661	40513.55
684.009	40398.08
684.357	40243.28
684.705	40413.67
685.053	40225.65
685.4	40142.04
685.748	40033.34
686.095	40112.66
686.443	39986.79
686.79	39895.26
687.138	40048.03
687.485	39823.4
687.832	39692.11
688.18	39796.51
688.527	39571.66
688.874	39513.58
689.221	39458.67
689.568	39217.99
689.915	39193.59
690.262	39237.43
690.609	38966.93
690.956	39000.15
691.303	38934.84
691.65	38807.16
691.997	38767.16
692.344	38448.97
692.69	38327.62
693.037	38378.92
693.383	38142.32
693.73	38248.3
694.077	38111.13
694.423	38122.43
694.769	37924.24
695.116	37765.83
695.462	37830.91
695.808	37745.04
696.155	37813.96
696.501	37484.48
696.847	37389.34
697.193	37162
697.539	37156.81
697.885	36929.69
698.231	36875.91
698.577	36921.33
698.923	36846.98
699.269	36796.81
699.614	36428.46
699.96	36461.68
700.306	36454
700.651	36383.04
700.997	36162.71
701.342	35985.54
701.688	36000.9
702.033	35898.53
702.379	35914.8
702.724	35759.33
703.069	35812.21
703.415	35209.96
703.76	35346.91
704.105	35383.07
704.45	35333.12
704.795	35070.76
705.14	34938.56
705.485	34989.18
705.83	34922.74
706.175	34843.65
706.52	34678.23
706.865	34612.24
707.209	34571.34
707.554	34410.44
707.899	34604.78
708.243	34313.26
708.588	34252.25
708.932	34106.72
709.277	34057.9
709.621	34047.96
709.966	33764.58
710.31	33828.76
710.654	33655.88
710.998	33673.73
711.342	33697.69
711.687	33407.53
712.031	33261.09
712.375	33196.23
712.719	33266.96
713.063	33325.04
713.407	33233.97
713.75	32973.41
714.094	32986.07
714.438	32991.04
714.782	33013.41
715.125	32815
715.469	32835.79
715.812	32759.18
716.156	32531.39
716.499	32552.18
716.843	32454.56
717.186	32322.13
717.53	32501.56
717.873	32381.79
718.216	32217.95
718.559	32161.23
718.902	32013.89
719.246	32102.7
719.589	31971.86
719.932	31821.58
720.275	31860.67
720.617	31780
720.96	31747
721.303	31679.21
721.646	31855.25
721.989	31528.25
722.331	31625.88
722.674	31501.59
723.016	31479.44
723.359	31393.57
723.701	31467.24
724.044	31174.36
724.386	31047.59
724.729	31211.2
725.071	30958.55
725.413	31053.46
725.755	31005.78
726.097	30784.54
726.439	30687.37
726.782	30732.57
727.124	30911.55
727.465	30676.75
727.807	30627.49
728.149	30402.86
728.491	30514.27
728.833	30470.2
729.175	30287.16
729.516	30313.14
729.858	30128.29
730.199	30183.2
730.541	30104.34
730.882	30229.53
731.224	30159.02
731.565	29947.96
731.906	29993.38
732.248	30047.61
732.589	29945.02
732.93	29787.51
733.271	29764.23
733.612	29848.98
733.953	29722.88
734.294	29630.9
734.635	29597.68
734.976	29631.81
735.317	29479.04
735.658	29531.02
735.999	29451.92
736.339	29295.32
736.68	29363.11
737.021	29224.36
737.361	29034.31
737.702	29292.61
738.042	29097.81
738.383	29105.49
738.723	29119.28
739.063	28932.84
739.404	28936.23
739.744	28906.85
740.084	28787.53
740.424	28722.45
740.764	28714.09
741.104	28762.68
741.444	28501.21
741.784	28529.69
742.124	28478.16
742.464	28548.44
742.804	28306.87
743.143	28254.21
743.483	28271.62
743.823	28177.83
744.162	28240.2
744.502	28252.41
744.841	27963.6
745.181	28216.48
745.52	27955.24
745.86	27996.59
746.199	27892.19
746.538	27938.97
746.877	27986.2
747.216	27997.27
747.556	27896.71
747.895	27881.12
748.234	27695.59
748.573	27615.36
748.911	27508.47
749.25	27459.43
749.589	27300.12
749.928	27456.95
750.267	27352.32
750.605	27224.64
750.944	27189.84
751.283	27075.94
751.621	27093.79
751.96	27021.25
752.298	26983.06
752.636	26978.32
752.975	26886.57
