Data from breadboard_black_back_FLMS001491_00058.txt Node
Date: Wed Feb 08 10:50:35 GMT 2017
User: dcchb
Spectrometer: FLMS00149
Trigger mode: 0
Integration Time (sec): 2.000000E-2
Scans to average: 10
Electric dark correction enabled: true
Nonlinearity correction enabled: false
Boxcar width: 0
XAxis mode: Wavelengths
Number of Pixels in Spectrum: 2048
>>>>>Begin Spectral Data<<<<<
341.393	-12.37
341.776	-12.37
342.16	-12.37
342.543	-73.84
342.927	-44.91
343.31	-63.67
343.693	-68.87
344.077	-73.84
344.46	-57.57
344.843	-56.21
345.226	-46.04
345.61	-43.33
345.993	-8.98
346.376	-1.3
346.759	17.68
347.142	12.26
347.525	43.45
347.908	56.55
348.291	71.69
348.674	105.59
349.057	112.6
349.44	129.54
349.823	122.99
350.206	163.44
350.588	182.65
350.971	200.05
351.354	227.85
351.737	236.89
352.119	241.63
352.502	275.53
352.884	259.48
353.267	285.92
353.65	300.61
354.032	298.35
354.414	315.98
354.797	317.11
355.179	337.45
355.562	325.7
355.944	337.45
356.326	337.45
356.709	345.36
357.091	329.99
357.473	356.43
357.855	332.48
358.238	357.56
358.62	358.01
359.002	340.39
359.384	347.62
359.766	344.45
360.148	341.97
360.53	329.77
360.912	346.71
361.294	360.05
361.676	359.6
362.057	339.03
362.439	339.26
362.821	329.99
363.203	349.43
363.584	332.25
363.966	341.74
364.348	339.26
364.729	322.99
365.111	341.29
365.493	332.25
365.874	336.54
366.256	334.06
366.637	343.78
367.019	325.47
367.4	334.96
367.781	312.59
368.163	318.92
368.544	350.33
368.925	334.06
369.306	323.44
369.688	348.3
370.069	326.15
370.45	349.65
370.831	341.52
371.212	356.21
371.593	356.88
371.974	337.67
372.355	341.52
372.736	367.96
373.117	342.65
373.498	340.16
373.879	356.66
374.26	333.38
374.641	347.84
375.021	369.76
375.402	346.71
375.783	370.89
376.163	369.54
376.544	370.22
376.925	371.35
377.305	366.6
377.686	359.14
378.066	382.42
378.447	380.16
378.827	375.41
379.208	384.91
379.588	370.67
379.968	370.44
380.349	386.49
380.729	386.04
381.109	401.85
381.489	373.15
381.87	391.23
382.25	388.07
382.63	400.5
383.01	388.97
383.39	396.2
383.77	392.81
384.15	434.62
384.53	423.1
384.91	414.73
385.29	398.46
385.67	407.73
386.049	436.66
386.429	398.24
386.809	424.68
387.189	427.39
387.568	435.75
387.948	446.82
388.328	440.5
388.707	436.66
389.087	432.36
389.466	472.81
389.846	447.95
390.225	448.86
390.605	458.35
390.984	475.52
391.363	457.67
391.743	477.11
392.122	476.2
392.501	485.69
392.881	501.74
393.26	482.3
393.639	498.35
394.018	494.28
394.397	504.45
394.776	509.42
395.155	508.97
395.534	522.98
395.913	500.16
396.292	524.11
396.671	506.03
397.05	520.95
397.429	517.78
397.808	526.14
398.186	525.47
398.565	556.88
398.944	542.64
399.323	546.26
399.701	553.26
400.08	555.97
400.458	546.93
400.837	571.57
401.215	579.48
401.594	570.89
401.972	562.98
402.351	574.05
402.729	576.54
403.107	584
403.486	573.6
403.864	603.2
404.242	599.81
404.62	606.14
404.999	611.11
405.377	616.76
405.755	642.53
406.133	640.94
406.511	646.14
406.889	654.95
407.267	669.87
407.645	668.74
408.023	667.84
408.401	676.2
408.779	669.87
409.156	676.2
409.534	703.99
409.912	696.76
410.29	690.89
410.667	699.47
411.045	708.29
411.422	714.16
411.8	702.18
412.178	745.12
412.555	777.66
412.933	750.09
413.31	767.95
413.687	769.75
414.065	794.61
414.442	784.44
414.819	785.8
415.197	819.02
415.574	804.78
415.951	816.53
416.328	832.58
416.705	830.09
417.082	860.15
417.46	829.87
417.837	877.32
418.214	831.67
418.591	890.88
418.967	877.55
419.344	883.2
419.721	895.85
420.098	888.85
420.475	922.52
420.852	912.12
421.228	919.13
421.605	936.08
421.982	938.34
422.358	923.87
422.735	972.69
423.111	970.88
423.488	973.82
423.864	993.7
424.241	1009.52
424.617	1023.53
424.994	1007.71
425.37	1023.31
425.746	1045.23
426.123	1034.15
426.499	1066.47
426.875	1077.77
427.251	1087.03
427.627	1098.11
428.003	1091.33
428.379	1117.09
428.756	1118.9
429.132	1141.95
429.507	1162.74
429.883	1173.13
430.259	1175.39
430.635	1197.31
431.011	1220.14
431.387	1240.02
431.763	1256.52
432.138	1263.3
432.514	1284.54
432.89	1279.34
433.265	1307.82
433.641	1331.09
434.016	1334.94
434.392	1365.9
434.767	1356.86
435.143	1355.28
435.518	1369.74
435.894	1395.5
436.269	1404.99
436.644	1426.91
437.02	1461.94
437.395	1457.87
437.77	1499
438.145	1521.6
438.52	1498.55
438.895	1512.33
439.271	1502.62
439.646	1579.45
440.021	1571.77
440.395	1587.81
440.77	1577.87
441.145	1587.36
441.52	1626.68
441.895	1611.99
442.27	1616.51
442.645	1664.19
443.019	1655.83
443.394	1680.69
443.769	1680.46
444.143	1661.48
444.518	1719.56
444.892	1678.66
445.267	1738.09
445.641	1702.84
446.016	1741.48
446.39	1765.21
446.764	1780.57
447.139	1792.55
447.513	1820.8
447.887	1792.33
448.262	1810.63
448.636	1844.53
449.01	1845.88
449.384	1871.19
449.758	1889.95
450.132	1891.08
450.506	1926.33
450.88	1914.81
451.254	1955.03
451.628	1944.64
452.002	1992.55
452.376	2012.66
452.75	1991.19
453.123	2063.05
453.497	2078.19
453.871	2079.32
454.244	2100.11
454.618	2150.28
454.992	2167.46
455.365	2166.55
455.739	2235.25
456.112	2258.3
456.486	2279.54
456.859	2283.84
457.232	2322.71
457.606	2308.02
457.979	2346.66
458.352	2404.29
458.725	2428.24
459.099	2428.24
459.472	2502.59
459.845	2503.95
460.218	2563.38
460.591	2536.94
460.964	2585.53
461.337	2624.39
461.71	2700.78
462.083	2712.98
462.456	2705.3
462.829	2746.2
463.201	2836.37
463.574	2806.99
463.947	2836.82
464.32	2865.74
464.692	2952.07
465.065	2934.22
465.438	2975.8
465.81	3043.37
466.183	3067.77
466.555	3142.57
466.928	3165.85
467.3	3133.99
467.672	3198.16
468.045	3273.19
468.417	3305.51
468.789	3296.92
469.161	3389.35
469.534	3380.08
469.906	3483.35
470.278	3556.35
470.65	3550.92
471.022	3633.41
471.394	3688.32
471.766	3729.45
472.138	3747.3
472.51	3816.23
472.882	3867.3
473.253	3896.9
473.625	4019.84
473.997	4088.31
474.369	4104.81
474.74	4146.61
475.112	4244.69
475.484	4294.18
475.855	4352.26
476.227	4384.12
476.598	4546.83
476.97	4518.81
477.341	4648.75
477.713	4728.29
478.084	4774.62
478.455	4885.8
478.827	4918.12
479.198	5043.31
479.569	5059.13
479.94	5221.39
480.311	5300.48
480.682	5363.76
481.053	5479.46
481.424	5564.43
481.795	5641.94
482.166	5748.38
482.537	5783.63
482.908	5939.79
483.279	5948.15
483.65	6074.25
484.021	6182.72
484.391	6254.81
484.762	6327.8
485.133	6417.97
485.503	6434.24
485.874	6656.6
486.244	6707
486.615	6751.07
486.985	6887.33
487.356	7040.78
487.726	7082.36
488.097	7255.23
488.467	7332.07
488.837	7406.64
489.207	7488.9
489.578	7564.38
489.948	7684.37
490.318	7752.85
490.688	7843.69
491.058	7930.92
491.428	8079.62
491.798	8081.88
492.168	8276.9
492.538	8302.66
492.908	8409.55
493.278	8562.54
493.648	8559.15
494.017	8649.77
494.387	8707.62
494.757	8838.47
495.126	8935.41
495.496	8968.86
495.866	9028.29
496.235	9182.87
496.605	9198.91
496.974	9237.78
497.344	9361.84
497.713	9445.01
498.082	9510.31
498.452	9654.72
498.821	9687.71
499.19	9668.05
499.559	9860.81
499.928	9881.15
500.298	9934.71
500.667	10006.57
501.036	10011.77
501.405	10133.8
501.774	10182.39
502.143	10259.22
502.512	10386
502.88	10429.84
503.249	10453.79
503.618	10580.34
503.987	10658.08
504.356	10680.45
504.724	10769.72
505.093	10754.58
505.462	10869.6
505.83	10937.17
506.199	11038.18
506.567	11158.41
506.936	11150.72
507.304	11366.76
507.672	11348.68
508.041	11463.03
508.409	11547.55
508.777	11561.79
509.145	11678.17
509.514	11731.73
509.882	11792.06
510.25	11877.71
510.618	12027.54
510.986	12040.42
511.354	12157.02
511.722	12286.51
512.09	12381.88
512.458	12324.25
512.826	12467.3
513.193	12632.94
513.561	12655.54
513.929	12839.94
514.297	12873.84
514.664	12935.08
515.032	13074.97
515.4	13162.87
515.767	13222.53
516.135	13275.87
516.502	13315.19
516.869	13518.8
517.237	13544.79
517.604	13602.86
517.972	13751.11
518.339	13882.63
518.706	13865.45
519.073	14028.16
519.44	14102.06
519.808	14226.8
520.175	14285.78
520.542	14485.33
520.909	14550.86
521.276	14643.74
521.643	14737.52
522.009	14865.65
522.376	14923.28
522.743	15071.3
523.11	15199.88
523.477	15311.29
523.843	15481.91
524.21	15614.11
524.577	15738.17
524.943	15818.4
525.31	15941.56
525.676	16109.46
526.043	16133.19
526.409	16243.25
526.776	16427.87
527.142	16562.11
527.508	16584.03
527.874	16755.32
528.241	16878.48
528.607	16978.37
528.973	17104.92
529.339	17149.66
529.705	17382.88
530.071	17453.61
530.437	17478.92
530.803	17653.38
531.169	17764.11
531.535	17659.25
531.901	17835.97
532.267	17925.91
532.632	18005.91
532.998	18128.85
533.364	18170.43
533.73	18339.01
534.095	18450.64
534.461	18541.94
534.826	18573.58
535.192	18671.43
535.557	18844.08
535.923	18795.95
536.288	18829.62
536.653	19027.8
537.019	19021.93
537.384	19146.9
537.749	19139.67
538.114	19182.83
538.479	19327.91
538.845	19538.98
539.21	19453.78
539.575	19526.55
539.94	19577.17
540.305	19723.15
540.67	19720.44
541.034	19898.52
541.399	19912.98
541.764	19962.24
542.129	20079.75
542.494	20069.36
542.858	20196.36
543.223	20259.86
543.587	20421.67
543.952	20338.28
544.316	20464.38
544.681	20498.5
545.045	20563.36
545.41	20776.69
545.774	20799.06
546.138	20770.81
546.503	20874.99
546.867	20876.34
547.231	21090.12
547.595	21119.05
547.959	21229.78
548.324	21261.19
548.688	21286.05
549.052	21390.91
549.416	21493.95
549.779	21465.93
550.143	21488.98
550.507	21722.65
550.871	21864.57
551.235	21697.11
551.599	22032.92
551.962	22073.83
552.326	22165.35
552.689	22203.09
553.053	22184.11
553.417	22251.45
553.78	22484.66
554.143	22565.56
554.507	22551.33
554.87	22685.79
555.234	22897.99
555.597	22777.08
555.96	22901.83
556.323	23065.66
556.686	23035.83
557.05	23236.06
557.413	23248.03
557.776	23477.63
558.139	23567.57
558.502	23580.68
558.865	23706.78
559.228	23847.57
559.59	23958.3
559.953	24113.09
560.316	24223.37
560.679	24193.77
561.041	24371.17
561.404	24604.61
561.767	24601.22
562.129	24557.38
562.492	24906.52
562.854	24805.05
563.217	24965.28
563.579	24982
563.941	25151.26
564.304	25312.61
564.666	25398.26
565.028	25409.56
565.39	25494.53
565.753	25645.48
566.115	25817.23
566.477	25817.91
566.839	25935.42
567.201	26255.64
567.563	26306.71
567.925	26320.49
568.287	26368.18
568.648	26432.13
569.01	26723.65
569.372	26857.66
569.734	26669.64
570.095	27015.17
570.457	26866.47
570.819	27113.69
571.18	27033.02
571.542	27397.53
571.903	27266.46
572.265	27401.37
572.626	27536.28
572.987	27542.38
573.349	27586.22
573.71	27807.91
574.071	27887.01
574.432	27943.28
574.794	28036.83
575.155	28122.48
575.516	28109.15
575.877	28185.76
576.238	28287.9
576.599	28326.54
576.96	28367.45
577.32	28394.56
577.681	28517.27
578.042	28518.85
578.403	28602.69
578.763	28423.26
579.124	28602.24
579.485	28761.56
579.845	28802.24
580.206	28737.15
580.566	28798.17
580.927	28909.13
581.287	29101.89
581.648	28917.49
582.008	29093.08
582.368	28944.15
582.728	28897.83
583.089	28908.9
583.449	29025.96
583.809	29146.41
584.169	29153.41
584.529	29199.06
584.889	29369.91
585.249	29108.22
585.609	29032.74
585.969	29310.25
586.329	29113.42
586.688	29139.86
587.048	29071.83
587.408	29132.85
587.768	29250.81
588.127	29040.65
588.487	29055.79
588.846	29397.25
589.206	29113.19
589.565	29191.38
589.925	29343.24
590.284	29267.76
590.643	29272.51
591.003	29395.44
591.362	29352.28
591.721	29287.65
592.08	29354.09
592.44	29435.89
592.799	29416.68
593.158	29458.94
593.517	29492.84
593.876	29388.44
594.235	29388.21
594.593	29371.26
594.952	29529.68
595.311	29432.73
595.67	29397.7
596.029	29583.69
596.387	29654.87
596.746	29740.07
597.104	29528.77
597.463	29484.7
597.822	29649.9
598.18	29584.14
598.538	29663.46
598.897	29757.01
599.255	29594.53
599.613	30035.88
599.972	29695.55
600.33	29786.17
600.688	29735.77
601.046	29815.09
601.404	29985.48
601.762	29876.33
602.12	30042.2
602.478	30055.09
602.836	30089.66
603.194	29992.04
603.552	30024.13
603.91	29902.55
604.268	30113.61
604.625	30033.62
604.983	30140.28
605.341	30034.52
605.698	30281.29
606.056	30191.81
606.413	30097.8
606.771	30358.81
607.128	30356.55
607.485	30261.18
607.843	30291.92
608.2	30458.24
608.557	30692.81
608.914	30483.32
609.272	30553.15
609.629	30624.11
609.986	30664.56
610.343	30642.64
610.7	30827.49
611.057	30720.83
611.414	30768.96
611.771	30917.89
612.127	30952.69
612.484	30811.22
612.841	30955.4
613.198	30826.59
613.554	30854.61
613.911	31095.51
614.267	31046.25
614.624	31057.32
614.98	31085.79
615.337	31137.32
615.693	31191.33
616.05	31152.91
616.406	31282.62
616.762	31168.5
617.118	31320.59
617.475	31299.35
617.831	31468.38
618.187	31469.29
618.543	31463.86
618.899	31666.12
619.255	31472.68
619.611	31511.32
619.967	31590.86
620.323	31586.12
620.678	31499.57
621.034	31461.6
621.39	31493.69
621.746	31493.69
622.101	31829.5
622.457	31593.35
622.812	31677.42
623.168	31646.23
623.523	31790.86
623.879	31725.78
624.234	31615.5
624.589	31649.39
624.945	31803.29
625.3	31729.62
625.655	31682.84
626.01	31924.41
626.365	31749.5
626.72	31696.4
627.075	31590.64
627.43	31660.47
627.785	31629.96
628.14	31608.94
628.495	31667.7
628.85	31699.79
629.205	31591.99
629.559	31765.77
629.914	31559.68
630.269	31633.58
630.623	31528.27
630.978	31499.79
631.332	31616.17
631.687	31701.6
632.041	31401.49
632.396	31450.75
632.75	31449.17
633.104	31587.47
633.459	31339.57
633.813	31326.46
634.167	31371.21
634.521	31210.31
634.875	31253.92
635.229	31153.36
635.583	30964.44
635.937	31096.64
636.291	31087.83
636.645	31083.53
636.999	30891.9
637.352	31131.67
637.706	30916.53
638.06	31058.9
638.413	30940.26
638.767	30906.81
639.121	31013.03
639.474	30806.93
639.828	30737.78
640.181	30826.59
640.534	30621.17
640.888	30605.81
641.241	30561.29
641.594	30504.57
641.947	30579.59
642.301	30605.58
642.654	30574.62
643.007	30452.82
643.36	30447.39
643.713	30375.53
644.066	30456.43
644.419	30265.02
644.771	30141.86
645.124	29956.56
645.477	29907.52
645.83	29658.03
646.182	29418.49
646.535	29394.09
646.888	29464.59
647.24	29123.58
647.593	29392.5
647.945	29365.16
648.298	29168.78
648.65	29118.61
649.002	29025.06
649.355	29230.25
649.707	29067.99
650.059	29249.68
650.411	29602.67
650.763	29651.71
651.115	29955.2
651.467	29804.02
651.819	29614.87
652.171	29825.26
652.523	29652.38
652.875	29667.3
653.227	29552.05
653.578	29787.3
653.93	29647.19
654.282	29407.87
654.633	29401.09
654.985	29435.67
655.337	29489.9
655.688	29458.94
656.039	29625.72
656.391	29336.46
656.742	29371.49
657.094	29464.82
657.445	29491.94
657.796	29470.24
658.147	29311.15
658.498	29330.81
658.849	29413.29
659.2	29220.98
659.551	29221.44
659.902	29367.42
660.253	29255.33
660.604	29263.69
660.955	29138.27
661.306	29263.02
661.656	29183.92
662.007	29231.15
662.358	29097.6
662.708	29133.53
663.059	29065.05
663.409	28904.38
663.76	29258.5
664.11	29130.14
664.461	28944.38
664.811	29133.98
665.161	29063.47
665.511	28932.18
665.862	28894.89
666.212	29097.14
666.562	29027.32
666.912	29080.87
667.262	28869.58
667.612	28990.48
667.962	29069.35
668.312	28962.46
668.662	28996.58
669.011	28937.37
669.361	28882.91
669.711	28903.7
670.06	28853.31
670.41	28783.03
670.76	28712.07
671.109	28778.96
671.459	28833.65
671.808	28739.41
672.157	28853.08
672.507	28613.54
672.856	28646.53
673.205	28528.8
673.554	28710.04
673.904	28512.3
674.253	28784.84
674.602	28607.21
674.951	28287.67
675.3	28064.4
675.649	28518.63
675.998	28513.66
676.346	28482.92
676.695	28524.28
677.044	28268.01
677.393	28339.2
677.741	28466.43
678.09	28304.17
678.438	28211.97
678.787	28309.37
679.135	28348.92
679.484	28156.15
679.832	28201.57
680.181	28112.09
680.529	28208.58
680.877	28138.98
681.225	28035.48
681.573	28297.84
681.922	28033.22
682.27	28000.22
682.618	27909.15
682.966	27835.93
683.314	28044.29
683.661	27778.99
684.009	27675.04
684.357	27608.37
684.705	27588.94
685.053	27554.81
685.4	27614.02
685.748	27308.94
686.095	27477.75
686.443	27372.44
686.79	27283.63
687.138	27246.8
687.485	27335.38
687.832	27157.53
688.18	27253.35
688.527	26938.11
688.874	27055.62
689.221	27037.99
689.568	26958.22
689.915	26838.9
690.262	26852.01
690.609	26777.66
690.956	26720.71
691.303	26652.69
691.65	26503.99
691.997	26553.48
692.344	26443.65
692.69	26392.81
693.037	26258.35
693.383	26203.21
693.73	26338.8
694.077	26106.49
694.423	26121.18
694.769	25888.42
695.116	26003.67
695.462	25798.47
695.808	25855.65
696.155	25883.44
696.501	25721.87
696.847	25754.86
697.193	25397.35
697.539	25571.36
697.885	25450.23
698.231	25305.61
698.577	25313.29
698.923	25313.97
699.269	25184.48
699.614	25017.48
699.96	25047.08
700.306	24935.67
700.651	24952.85
700.997	24840.76
701.342	24810.7
701.688	24722.8
702.033	24633.99
702.379	24659.3
702.724	24608.67
703.069	24677.6
703.415	24321.68
703.76	24403.26
704.105	24389.92
704.45	24268.57
704.795	24118.74
705.14	24013.21
705.485	24092.3
705.83	23972.08
706.175	23987
706.52	23838.07
706.865	23792.65
707.209	23814.57
707.554	23716.5
707.899	23776.15
708.243	23554.01
708.588	23516.73
708.932	23362.61
709.277	23357.41
709.621	23421.36
709.966	23199.67
710.31	23382.04
710.654	23190.86
710.998	23327.58
711.342	23241.93
711.687	23083.29
712.031	23009.17
712.375	22876.29
712.719	22997.42
713.063	22841.26
713.407	22974.37
713.75	22766.69
714.094	22856.86
714.438	22596.75
714.782	22686.92
715.125	22621.16
715.469	22774.6
715.812	22436.08
716.156	22434.49
716.499	22548.84
716.843	22475.17
717.186	22340.94
717.53	22398.56
717.873	22461.84
718.216	22350.43
718.559	22159.25
718.902	22010.1
719.246	22103.66
719.589	22017.56
719.932	21984.34
720.275	21980.72
720.617	21889.2
720.96	21905.7
721.303	22022.08
721.646	21839.48
721.989	21803.33
722.331	21860.72
722.674	21776.66
723.016	21778.47
723.359	21742.54
723.701	21716.32
724.044	21561.07
724.386	21415.99
724.729	21460.96
725.071	21484.69
725.413	21480.62
725.755	21408.99
726.097	21308.87
726.439	21273.62
726.782	21197.92
727.124	21332.38
727.465	21175.32
727.807	21070.46
728.149	21089.9
728.491	21145.94
728.833	21125.38
729.175	21100.74
729.516	20973.06
729.858	21025.72
730.199	20966.96
730.541	20882.45
730.882	20907.53
731.224	20879.96
731.565	20753.18
731.906	20796.8
732.248	20803.8
732.589	20630.7
732.93	20647.42
733.271	20645.62
733.612	20588.67
733.953	20707.99
734.294	20532.62
734.635	20519.97
734.976	20580.76
735.317	20449.46
735.658	20479.07
735.999	20476.13
736.339	20374.21
736.68	20385.74
737.021	20318.62
737.361	20262.57
737.702	20360.43
738.042	20288.34
738.383	20214.67
738.723	20246.76
739.063	20215.8
739.404	20142.58
739.744	20192.97
740.084	20096.48
740.424	20010.38
740.764	19996.59
741.104	20057.16
741.444	19977.16
741.784	19859.65
742.124	19918.85
742.464	19954.33
742.804	19811.74
743.143	19811.96
743.483	19706.21
743.823	19709.82
744.162	19599.99
744.502	19612.2
744.841	19582.14
745.181	19700.56
745.52	19498.98
745.86	19469.6
746.199	19509.15
746.538	19457.17
746.877	19481.58
747.216	19424.4
747.556	19515.25
747.895	19367.23
748.234	19309.83
748.573	19202.94
748.911	19276.39
749.25	19204.75
749.589	19166.33
749.928	19185.09
750.267	19190.74
750.605	18923.85
750.944	19029.84
751.283	18960.91
751.621	19040.23
751.96	18911.42
752.298	18880.01
752.636	18882.72
752.975	18754.37
753.313	18696.29
753.651	18740.81
753.989	18683.86
754.327	18682.05
