Data from breadboard_white_FLMS001491_00088.txt Node
Date: Wed Feb 08 10:48:24 GMT 2017
User: dcchb
Spectrometer: FLMS00149
Trigger mode: 0
Integration Time (sec): 2.000000E-2
Scans to average: 10
Electric dark correction enabled: true
Nonlinearity correction enabled: false
Boxcar width: 0
XAxis mode: Wavelengths
Number of Pixels in Spectrum: 2048
>>>>>Begin Spectral Data<<<<<
341.393	-9.82
341.776	-9.82
342.16	-9.82
342.543	-55.46
342.927	-83.26
343.31	-59.53
343.693	-52.53
344.077	-55.92
344.46	-53.43
344.843	-72.87
345.226	-32.87
345.61	-23.38
345.993	-30.38
346.376	-2.36
346.759	14.59
347.142	29.73
347.525	28.83
347.908	39.45
348.291	76.74
348.674	84.64
349.057	109.28
349.44	100.01
349.823	126.23
350.206	165.77
350.588	194.02
350.971	224.98
351.354	258.88
351.737	254.36
352.119	263.62
352.502	274.02
352.884	292.55
353.267	284.64
353.65	325.77
354.032	303.4
354.414	315.83
354.797	325.99
355.179	337.97
355.562	351.08
355.944	328.48
356.326	353.79
356.709	345.65
357.091	344.52
357.473	376.61
357.855	344.07
358.238	356.5
358.62	356.5
359.002	354.69
359.384	365.77
359.766	349.27
360.148	365.77
360.53	356.28
360.912	360.34
361.294	336.84
361.676	362.15
362.057	359.89
362.439	366.45
362.821	361.02
363.203	346.33
363.584	353.56
363.966	350.63
364.348	335.03
364.729	350.17
365.111	360.12
365.493	339.55
365.874	354.92
366.256	341.81
366.637	362.6
367.019	312.89
367.4	358.08
367.781	367.58
368.163	353.79
368.544	342.27
368.925	327.58
369.306	346.33
369.688	362.83
370.069	344.75
370.45	334.81
370.831	353.56
371.212	330.06
371.593	370.51
371.974	352.21
372.355	357.86
372.736	365.09
373.117	361.25
373.498	356.95
373.879	358.76
374.26	358.54
374.641	373
375.021	371.42
375.402	368.7
375.783	355.15
376.163	381.81
376.544	367.12
376.925	376.84
377.305	377.07
377.686	383.39
378.066	385.65
378.447	389.5
378.827	380.23
379.208	388.37
379.588	370.29
379.968	382.72
380.349	366.45
380.729	411.87
381.109	399.44
381.489	374.58
381.87	400.34
382.25	416.61
382.63	399.89
383.01	418.65
383.39	403.51
383.77	430.85
384.15	412.32
384.53	418.42
384.91	411.42
385.29	420.68
385.67	434.01
386.049	439.21
386.429	414.13
386.809	448.93
387.189	457.29
387.568	444.64
387.948	471.98
388.328	481.92
388.707	472.88
389.087	468.59
389.466	455.03
389.846	460
390.225	492.77
390.605	488.48
390.984	466.33
391.363	499.55
391.743	495.26
392.122	501.81
392.501	521.92
392.881	509.72
393.26	505.65
393.639	551.98
394.018	549.72
394.397	545.2
394.776	549.27
395.155	570.73
395.534	567.12
395.913	556.04
396.292	575.25
396.671	608.02
397.05	596.27
397.429	587.23
397.808	576.38
398.186	611.18
398.565	594.91
398.944	616.38
399.323	608.25
399.701	656.16
400.08	641.69
400.458	641.01
400.837	667.23
401.215	674.23
401.594	680.79
401.972	684.85
402.351	696.61
402.729	687.57
403.107	704.52
403.486	716.49
403.864	745.42
404.242	746.55
404.62	770.5
404.999	775.25
405.377	769.6
405.755	801.01
406.133	801.24
406.511	809.37
406.889	839.65
407.267	852.08
407.645	857.96
408.023	884.62
408.401	899.76
408.779	914
409.156	932.53
409.534	945.41
409.912	949.93
410.29	1022.7
410.667	998.07
411.045	1044.85
411.422	1040.55
411.8	1054.34
412.178	1094.56
412.555	1090.95
412.933	1102.02
413.31	1122.58
413.687	1142.02
414.065	1171.62
414.442	1201.45
414.819	1225.18
415.197	1212.75
415.574	1261.56
415.951	1253.43
416.328	1290.04
416.705	1279.19
417.082	1319.19
417.46	1333.65
417.837	1350.83
418.214	1365.06
418.591	1370.49
418.967	1400.77
419.344	1436.7
419.721	1449.13
420.098	1429.24
420.475	1471.05
420.852	1507.88
421.228	1524.15
421.605	1536.13
421.982	1528
422.358	1574.1
422.735	1587.88
423.111	1594.89
423.488	1642.34
423.864	1624.27
424.241	1647.99
424.617	1668.56
424.994	1696.58
425.37	1710.82
425.746	1718.5
426.123	1749.69
426.499	1767.76
426.875	1812.51
427.251	1791.72
427.627	1846.86
428.003	1889.12
428.379	1917.14
428.756	1912.62
429.132	1970.92
429.507	1969.11
429.883	2021.54
430.259	2043.46
430.635	2066.51
431.011	2084.14
431.387	2125.95
431.763	2144.48
432.138	2182.67
432.514	2201.2
432.89	2237.58
433.265	2254.76
433.641	2304.47
434.016	2336.34
434.392	2383.34
434.767	2427.41
435.143	2422.89
435.518	2458.14
435.894	2456.79
436.269	2493.17
436.644	2534.75
437.02	2567.74
437.395	2613.17
437.77	2646.16
438.145	2675.99
438.52	2664.46
438.895	2742.2
439.271	2739.94
439.646	2799.6
440.021	2774.29
440.395	2834.18
440.77	2857.91
441.145	2855.87
441.52	2918.02
441.895	2910.79
442.27	2922.54
442.645	2948.3
443.019	3019.03
443.394	2970.44
443.769	3065.36
444.143	2977
444.518	3078.46
444.892	3080.72
445.267	3094.74
445.641	3135.41
446.016	3114.62
446.39	3194.62
446.764	3225.81
447.139	3212.7
447.513	3243.43
447.887	3272.58
448.262	3325.46
448.636	3299.93
449.01	3343.54
449.384	3378.57
449.758	3422.86
450.132	3443.88
450.506	3494.72
450.88	3506.7
451.254	3485.69
451.628	3585.8
452.002	3556.42
452.376	3644.55
452.75	3651.78
453.123	3650.43
453.497	3720.26
453.871	3786.02
454.244	3870.53
454.618	3909.85
454.992	3927.48
455.365	3946.01
455.739	4046.35
456.112	4073.24
456.486	4109.85
456.859	4167.93
457.232	4247.93
457.606	4240.47
457.979	4307.58
458.352	4381.71
458.725	4435.94
459.099	4472.78
459.472	4568.14
459.845	4647.69
460.218	4669.16
460.591	4687.46
460.964	4696.27
461.337	4901.02
461.71	4922.94
462.083	4989.6
462.456	5010.39
462.829	5037.28
463.201	5113.44
463.574	5164.51
463.947	5199.76
464.32	5303.04
464.692	5351.4
465.065	5470.94
465.438	5513.2
465.81	5562.24
466.183	5639.53
466.555	5745.74
466.928	5839.97
467.3	5737.38
467.672	5909.12
468.045	6096.69
468.417	6076.35
468.789	6114.54
469.161	6229.57
469.534	6302.11
469.906	6451.71
470.278	6530.8
470.65	6540.29
471.022	6663.68
471.394	6859.83
471.766	6801.53
472.138	6993.39
472.51	7122.65
472.882	7218.47
473.253	7328.52
473.625	7407.16
473.997	7564.67
474.369	7651.23
474.74	7707.04
475.112	7950.65
475.484	8003.98
475.855	8171.66
476.227	8224.77
476.598	8472.9
476.97	8507.47
477.341	8773
477.713	8845.09
478.084	8882.83
478.455	9161.92
478.827	9213.67
479.198	9426.55
479.569	9476.71
479.94	9797.16
480.311	9860.21
480.682	10122.8
481.053	10337.48
481.424	10476.24
481.795	10619.96
482.166	10799.17
482.537	10856.11
482.908	11128.42
483.279	11253.39
483.65	11499.94
484.021	11722.53
484.391	11844.34
484.762	11954.16
485.133	12014.05
485.503	12259.92
485.874	12563.41
486.244	12580.14
486.615	12882.05
486.985	13033.91
487.356	13337.86
487.726	13388.7
488.097	13696.26
488.467	13736.26
488.837	14005.63
489.207	14194.56
489.578	14406.3
489.948	14491.27
490.318	14692.17
490.688	14728.78
491.058	15030.01
491.428	15176
491.798	15299.61
492.168	15691.92
492.538	15701.41
492.908	15868.41
493.278	16139.14
493.648	16234.73
494.017	16397.66
494.387	16551.56
494.757	16639.24
495.126	16794.94
495.496	16959.68
495.866	17144.76
496.235	17283.29
496.605	17420.69
496.974	17444.87
497.344	17695.03
497.713	17894.8
498.082	18026.32
498.452	18189.71
498.821	18280.78
499.19	18278.74
499.559	18548.34
499.928	18746.53
500.298	18655.46
500.667	19026.52
501.036	18886.86
501.405	19182.45
501.774	19208.89
502.143	19515.32
502.512	19663.34
502.88	19709.21
503.249	19738.59
503.618	19928.42
503.987	19977.45
504.356	20231.46
504.724	20285.47
505.093	20471.23
505.462	20586.03
505.83	20682.3
506.199	20814.04
506.567	21131.77
506.936	21015.39
507.304	21509.17
507.672	21546.23
508.041	21613.57
508.409	21706.68
508.777	21950.96
509.145	22178.53
509.514	22120
509.882	22428.01
510.25	22494
510.618	22683.15
510.986	22700.32
511.354	22939.86
511.722	23110.93
512.09	23398.38
512.458	23399.29
512.826	23656.23
513.193	23735.55
513.561	23807.86
513.929	24107.29
514.297	24151.81
514.664	24361.97
515.032	24518.58
515.4	24826.82
515.767	24905.01
516.135	25117.66
516.502	25000.83
516.869	25438.1
517.237	25545.44
517.604	25648.72
517.972	25896.85
518.339	26140.23
518.706	26236.95
519.073	26395.82
519.44	26552.65
519.808	26869.93
520.175	26845.52
520.542	27313.31
520.909	27278.05
521.276	27434.21
521.643	27842.78
522.009	27926.85
522.376	28162.78
522.743	28380.62
523.11	28618.81
523.477	28870.78
523.843	29080.04
524.21	29423.53
524.577	29584.21
524.943	29667.6
525.31	29961.83
525.676	30245.21
526.043	30326.34
526.409	30529.27
526.776	30882.48
527.142	31058.97
527.508	31221
527.874	31535.57
528.241	31743.7
528.607	31695.79
528.973	31937.59
529.339	32072.96
529.705	32476.56
530.071	32619.38
530.437	32824.8
530.803	33026.38
531.169	33228.86
531.535	33237.22
531.901	33229.54
532.267	33496.2
532.632	33759.24
532.998	33992.23
533.364	34054.15
533.73	34082.85
534.095	34491.88
534.461	34649.16
534.826	34852.32
535.192	34835.14
535.557	35325.3
535.923	35148.81
536.288	35319.65
536.653	35611.39
537.019	35372.76
537.384	35713.09
537.749	35948.11
538.114	35926.87
538.479	36145.62
538.845	36307.42
539.21	36324.14
539.575	36364.82
539.94	36431.71
540.305	36698.82
540.67	36793.06
541.034	36919.83
541.399	37148.53
541.764	37272.14
542.129	37489.31
542.494	37454.51
542.858	37622.19
543.223	37691.79
543.587	38062.63
543.952	38010.65
544.316	37986.7
544.681	38103.31
545.045	38305.56
545.41	38543.29
545.774	38481.6
546.138	38561.15
546.503	38790.75
546.867	38835.94
547.231	39131.53
547.595	39120.23
547.959	39403.61
548.324	39355.25
548.688	39630.27
549.052	39717.27
549.416	39727.22
549.779	39874.56
550.143	40038.17
550.507	40127.21
550.871	40419.4
551.235	40364.94
551.599	40702.33
551.962	40813.52
552.326	40989.33
552.689	41121.53
553.053	40979.84
553.417	41102.78
553.78	41748.41
554.143	41521.75
554.507	41748.18
554.87	41858.69
555.234	42186.81
555.597	42069.3
555.96	42368.05
556.323	42487.82
556.686	42551.32
557.05	42805.56
557.413	42956.06
557.776	43147.02
558.139	43422.04
558.502	43418.87
558.865	43529.83
559.228	43962.14
559.59	43952.87
559.953	44111.28
560.316	44530.93
560.679	44419.75
561.041	44782
561.404	44830.36
561.767	45170.24
562.129	45153.52
562.492	45486.61
562.854	45452.27
563.217	45567.29
563.579	45812.26
563.941	46001.4
564.304	46270.77
564.666	46346.93
565.028	46513.03
565.39	46533.82
565.753	47015.16
566.115	46905.33
566.477	47062.17
566.839	47250.64
567.201	47679.1
567.563	47555.03
567.925	47758.87
568.287	47986.66
568.648	47919.55
569.01	48185.75
569.372	48438.63
569.734	48236.6
570.095	48564.5
570.457	48706.42
570.819	48810.37
571.18	48910.03
571.542	49145.05
571.903	49136.69
572.265	49389.11
572.626	49360.41
572.987	49273.63
573.349	49656.9
573.71	49676.11
574.071	49793.39
574.432	49920.85
574.794	50102.09
575.155	50087.62
575.516	49912.94
575.877	50114.52
576.238	50217.56
576.599	50391.12
576.96	50370.78
577.32	50453.26
577.681	50467.05
578.042	50569.87
578.403	50622.98
578.763	50665.46
579.124	50759.02
579.485	50873.82
579.845	50982.52
580.206	50958.56
580.566	50927.15
580.927	50920.14
581.287	51202.4
581.648	50956.53
582.008	51207.14
582.368	51047.15
582.728	51136.86
583.089	51119.91
583.449	51131.89
583.809	51167.14
584.169	51184.77
584.529	51032.68
584.889	51424.09
585.249	51134.15
585.609	51111.33
585.969	51279.68
586.329	51205.56
586.688	51293.02
587.048	51182.06
587.408	51181.83
587.768	51237.2
588.127	51134.15
588.487	51139.8
588.846	51441.71
589.206	51195.62
589.565	51162.4
589.925	51417.76
590.284	51239.46
590.643	51239.68
591.003	51382.5
591.362	51522.39
591.721	51450.75
592.08	51522.39
592.44	51486.68
592.799	51538.21
593.158	51496.85
593.517	51437.64
593.876	51572.1
594.235	51533.01
594.593	51448.04
594.952	51589.96
595.311	51474.93
595.67	51443.29
596.029	51724.64
596.387	51676.28
596.746	51761.03
597.104	51622.5
597.463	51601.26
597.822	51775.26
598.18	51636.51
598.538	51667.7
598.897	51826.79
599.255	51491.43
599.613	52130.51
599.972	51856.84
600.33	51920.34
600.688	51747.02
601.046	51928.71
601.404	51962.15
601.762	51963.73
602.12	52098.42
602.478	52055.03
602.836	52164.63
603.194	52036.72
603.552	52082.37
603.91	51978.2
604.268	52147.46
604.625	52075.82
604.983	52224.52
605.341	52036.5
605.698	52280.79
606.056	52326.66
606.413	52242.14
606.771	52334.8
607.128	52325.76
607.485	52304.51
607.843	52291.63
608.2	52488.01
608.557	52523.04
608.914	52393.1
609.272	52554.23
609.629	52672.64
609.986	52736.82
610.343	52622.47
610.7	52806.42
611.057	52767.55
611.414	52754.9
611.771	52749.02
612.127	52888.91
612.484	52841.22
612.841	52879.87
613.198	52819.53
613.554	52809.13
613.911	53005.97
614.267	53053.87
614.624	53024.27
614.98	53083.25
615.337	53171.38
615.693	53150.37
616.05	53111.72
616.406	53322.11
616.762	53125.96
617.118	53218.16
617.475	53175.45
617.831	53217.26
618.187	53265.85
618.543	53384.71
618.899	53542.45
619.255	53389.23
619.611	53368.89
619.967	53508.32
620.323	53547.42
620.678	53422.45
621.034	53406.18
621.39	53331.83
621.746	53326.86
622.101	53738.83
622.457	53491.38
622.812	53479.62
623.168	53557.36
623.523	53602.56
623.879	53682.11
624.234	53456.8
624.589	53495.44
624.945	53602.79
625.3	53701.31
625.655	53572.28
626.01	53555.78
626.365	53558.27
626.72	53522.34
627.075	53528.89
627.43	53517.14
627.785	53430.59
628.14	53534.31
628.495	53573.86
628.85	53503.13
629.205	53373.86
629.559	53531.37
629.914	53405.95
630.269	53357.59
630.623	53311.95
630.978	53285.51
631.332	53386.07
631.687	53470.13
632.041	53335.22
632.396	53378.84
632.75	53256.13
633.104	53171.84
633.459	53071.5
633.813	53129.8
634.167	53103.82
634.521	53099.75
634.875	53133.19
635.229	53104.95
635.583	52887.1
635.937	52862.69
636.291	52889.13
636.645	52892.3
636.999	52815.24
637.352	52835.57
637.706	52553.55
638.06	52773.2
638.413	52697.95
638.767	52656.82
639.121	52691.4
639.474	52475.81
639.828	52554.9
640.181	52506.54
640.534	52505.87
640.888	52346.32
641.241	52327.56
641.594	52381.12
641.947	52343.61
642.301	52345.87
642.654	52289.37
643.007	52355.36
643.36	52241.01
643.713	52145.65
644.066	52253.67
644.419	52041.24
644.771	51836.73
645.124	51560.81
645.477	51584.76
645.83	51261.83
646.182	51106.58
646.535	51006.24
646.888	51039.46
647.24	50925.34
647.593	51017.09
647.945	50998.79
648.298	50897.32
648.65	50917.21
649.002	50667.95
649.355	50781.84
649.707	50693.71
650.059	50907.72
650.411	51155.17
650.763	51233.81
651.115	51592.22
651.467	51520.81
651.819	51403.75
652.171	51304.77
652.523	51292.34
652.875	51289.4
653.227	51030.42
653.578	51336.86
653.93	51211.66
654.282	51041.27
654.633	51063.87
654.985	50995.62
655.337	51072.46
655.688	50980.71
656.039	51175.5
656.391	50831.56
656.742	50869.98
657.094	50882.86
657.445	50991.78
657.796	51005.79
658.147	50879.92
658.498	50837.89
658.849	50994.94
659.2	50773.71
659.551	50718.12
659.902	50823.42
660.253	50810.99
660.604	50788.17
660.955	50623.2
661.306	50903.2
661.656	50659.81
662.007	50729.41
662.358	50769.64
662.708	50702.75
663.059	50585.69
663.409	50415.3
663.76	50660.72
664.11	50652.58
664.461	50694.61
664.811	50552.92
665.161	50445.35
665.511	50476.99
665.862	50533.04
666.212	50651.45
666.562	50563.54
666.912	50479.03
667.262	50391.34
667.612	50497.33
667.962	50420.5
668.312	50404
668.662	50535.52
669.011	50470.89
669.361	50319.03
669.711	50371.01
670.06	50359.03
670.41	50242.2
670.76	50300.95
671.109	50468.63
671.459	50329.43
671.808	50195.64
672.157	50258.01
672.507	50047.17
672.856	49898.02
673.205	50183.21
673.554	50197
673.904	50084.01
674.253	50254.62
674.602	50020.05
674.951	49505.72
675.3	49325.84
675.649	49925.14
675.998	49813.28
676.346	49777.8
676.695	49924.24
677.044	49756.33
677.393	49687.63
677.741	49880.4
678.09	49673.62
678.438	49612.61
678.787	49746.62
679.135	49557.02
679.484	49428.66
679.832	49499.16
680.181	49428.88
680.529	49527.86
680.877	49465.95
681.225	49263.01
681.573	49610.57
681.922	49151.6
682.27	49195.67
682.618	49207.42
682.966	49086.07
683.314	49106.86
683.661	49031.15
684.009	48867.32
684.357	48804.04
684.705	48726.76
685.053	48698.51
685.4	48508
685.748	48375.58
686.095	48483.6
686.443	48348.01
686.79	48267.56
687.138	48322.25
687.485	48246.54
687.832	48199.54
688.18	48212.19
688.527	47980.79
688.874	47995.02
689.221	47895.59
689.568	47768.36
689.915	47605.43
690.262	47668.25
690.609	47615.37
690.956	47463.29
691.303	47413.8
691.65	47205.44
691.997	47214.48
692.344	46883.87
692.69	46927.71
693.037	46936.52
693.383	46499.47
693.73	46837.77
694.077	46512.58
694.423	46489.07
694.769	46478.23
695.116	46166.14
695.462	46169.31
695.808	46150.33
696.155	46096.32
696.501	45835.31
696.847	45786.95
697.193	45425.15
697.539	45735.2
697.885	45383.57
698.231	45193.97
698.577	45179.96
698.923	45203.23
699.269	44924.82
699.614	44811.15
699.96	44749.23
700.306	44680.08
700.651	44584.94
700.997	44463.14
701.342	44373.88
701.688	44251.39
702.033	44158.74
702.379	44193.77
702.724	43911.74
703.069	44069.93
703.415	43589.49
703.76	43533.9
704.105	43591.98
704.45	43524.18
704.795	43238.09
705.14	43096.4
705.485	43141.59
705.83	42987.02
706.175	43032.22
706.52	42790.19
706.865	42699.12
707.209	42689.85
707.554	42516.07
707.899	42590.19
708.243	42391.33
708.588	42380.71
708.932	41936.2
709.277	42007.38
709.621	42045.58
709.966	41881.51
710.31	41738.69
710.654	41571.92
710.998	41661.18
711.342	41697.79
711.687	41467.96
712.031	41287.63
712.375	41135.32
712.719	41142.1
713.063	41121.31
713.407	41206.28
713.75	40879.28
714.094	40840.18
714.438	40678.15
714.782	40776
715.125	40589.34
715.469	40602.22
715.812	40446.97
716.156	40253.08
716.499	40223.93
716.843	40227.77
717.186	40051.5
717.53	40187.32
717.873	40188.9
718.216	40133.08
718.559	39802.92
718.902	39718.4
719.246	39806.76
719.589	39527.22
719.932	39343.73
720.275	39465.98
720.617	39499.43
720.96	39335.36
721.303	39364.06
721.646	39344.4
721.989	39050.85
722.331	39209.94
722.674	39005.88
723.016	39093.11
723.359	38811.54
723.701	38940.35
724.044	38637.53
724.386	38502.84
724.729	38609.96
725.071	38478.89
725.413	38503.75
725.755	38480.47
726.097	38264.43
726.439	38014.27
726.782	38032.8
727.124	38284.09
727.465	37878.68
727.807	37951.9
728.149	37912.35
728.491	37728.85
728.833	37823.31
729.175	37701.96
729.516	37634.39
729.858	37677.1
730.199	37519.82
730.541	37485.24
730.882	37300.39
731.224	37561.85
731.565	37172.71
731.906	37320.5
732.248	37244.12
732.589	37205.25
732.93	37000.96
733.271	36885.03
733.612	37045.93
733.953	36948.08
734.294	37005.71
734.635	36711.48
734.976	36881.64
735.317	36609.11
735.658	36678.48
735.999	36611.14
736.339	36546.06
736.68	36509.9
737.021	36476.23
737.361	36303.81
737.702	36511.48
738.042	36224.49
738.383	36227.88
738.723	36321.66
739.063	36094.55
739.404	36151.04
739.744	36010.71
740.084	35950.59
740.424	35969.12
740.764	35985.17
741.104	36015.45
741.444	35617.5
741.784	35531.62
742.124	35657.27
742.464	35505.86
742.804	35438.29
743.143	35396.94
743.483	35435.13
743.823	35211.86
744.162	35097.28
744.502	35169.82
744.841	35024.52
745.181	35226.32
745.52	34949.94
745.86	34955.82
746.199	34881.7
746.538	34842.15
746.877	35045.76
747.216	34818.42
747.556	34848.48
747.895	34776.61
748.234	34516.73
748.573	34514.47
748.911	34402.16
749.25	34357.19
749.589	34141.15
749.928	34258.44
750.267	34231.54
750.605	34198.32
750.944	34067.93
751.283	33928.5
751.621	33875.17
751.96	33780.71
752.298	33753.82
752.636	33763.31
752.975	33576.19
