Data from breadboard_black_back_FLMS001491_00082.txt Node
Date: Wed Feb 08 10:51:02 GMT 2017
User: dcchb
Spectrometer: FLMS00149
Trigger mode: 0
Integration Time (sec): 2.000000E-2
Scans to average: 10
Electric dark correction enabled: true
Nonlinearity correction enabled: false
Boxcar width: 0
XAxis mode: Wavelengths
Number of Pixels in Spectrum: 2048
>>>>>Begin Spectral Data<<<<<
341.393	-21.48
341.776	-21.48
342.16	-21.48
342.543	-43.18
342.927	-72.78
343.31	-63.52
343.693	-72.1
344.077	-73.91
344.46	-58.54
344.843	-25.55
345.226	-55.15
345.61	-16.28
345.993	-11.77
346.376	-18.09
346.759	7.22
347.142	-4.31
347.525	44.05
347.908	60.1
348.291	98.51
348.674	88.12
349.057	101.23
349.44	116.59
349.823	146.87
350.206	152.75
350.588	207.66
350.971	211.96
351.354	242.01
351.737	236.59
352.119	260.77
352.502	269.58
352.884	283.37
353.267	307.32
353.65	303.93
354.032	306.64
354.414	290.83
354.797	318.62
355.179	339.86
355.562	341.45
355.944	322.92
356.326	338.51
356.709	336.02
357.091	342.8
357.473	330.37
357.855	352.52
358.238	336.25
358.62	345.29
359.002	363.59
359.384	368.79
359.766	359.98
360.148	357.04
360.53	343.48
360.912	361.11
361.294	367.66
361.676	337.6
362.057	365.17
362.439	347.77
362.821	338.73
363.203	326.53
363.584	334.21
363.966	344.38
364.348	341.45
364.729	336.7
365.111	338.51
365.493	322.24
365.874	325.85
366.256	340.99
366.637	351.84
367.019	326.76
367.4	330.15
367.781	345.29
368.163	336.93
368.544	339.19
368.925	341.67
369.306	347.32
369.688	347.32
370.069	315.91
370.45	337.6
370.831	368.34
371.212	356.36
371.593	372.18
371.974	334.44
372.355	347.77
372.736	360.65
373.117	356.36
373.498	338.51
373.879	342.8
374.26	351.16
374.641	339.19
375.021	323.37
375.402	376.02
375.783	360.65
376.163	372.18
376.544	377.15
376.925	357.04
377.305	366.53
377.686	371.5
378.066	360.2
378.447	377.38
378.827	370.37
379.208	379.86
379.588	385.74
379.968	381.67
380.349	375.57
380.729	399.07
381.109	397.04
381.489	398.85
381.87	417.38
382.25	403.37
382.63	397.04
383.01	412.4
383.39	410.37
383.77	416.25
384.15	424.16
384.53	428.9
384.91	418.73
385.29	429.81
385.67	449.01
386.049	442.23
386.429	436.58
386.809	442.01
387.189	412.86
387.568	452.18
387.948	452.18
388.328	452.4
388.707	449.47
389.087	443.14
389.466	463.7
389.846	460.31
390.225	458.5
390.605	479.07
390.984	483.59
391.363	480.43
391.743	491.05
392.122	475.23
392.501	500.76
392.881	492.63
393.26	505.06
393.639	515
394.018	503.25
394.397	506.19
394.776	517.03
395.155	526.75
395.534	523.36
395.913	513.19
396.292	528.56
396.671	515.45
397.05	536.47
397.429	525.62
397.808	526.98
398.186	551.38
398.565	556.81
398.944	544.6
399.323	544.83
399.701	569.24
400.08	554.32
400.458	581.89
400.837	556.81
401.215	580.08
401.594	603.36
401.972	579.63
402.351	593.64
402.729	609.91
403.107	618.05
403.486	609.24
403.864	607.43
404.242	593.19
404.62	640.42
404.999	629.35
405.377	646.07
405.755	633.87
406.133	665.51
406.511	665.73
406.889	687.43
407.267	691.04
407.645	674.09
408.023	680.42
408.401	681.32
408.779	696.01
409.156	713.41
409.534	701.89
409.912	730.59
410.29	730.59
410.667	732.17
411.045	749.57
411.422	741.21
411.8	758.16
412.178	748.21
412.555	761.1
412.933	772.39
413.31	806.07
413.687	810.81
414.065	802
414.442	821.21
414.819	839.06
415.197	834.54
415.574	844.94
415.951	862.11
416.328	868.89
416.705	868.89
417.082	866.63
417.46	877.25
417.837	912.28
418.214	892.39
418.591	897.59
418.967	902.11
419.344	900.75
419.721	968.77
420.098	948.44
420.475	971.71
420.852	944.14
421.228	966.97
421.605	969.45
421.982	986.63
422.358	988.66
422.735	1013.07
423.111	1022.11
423.488	1040.41
423.864	1006.29
424.241	1055.78
424.617	1051.26
424.994	1057.59
425.37	1063.91
425.746	1086.74
426.123	1110.92
426.499	1105.95
426.875	1096.91
427.251	1139.16
427.627	1148.66
428.003	1173.51
428.379	1167.64
428.756	1193.63
429.132	1222.33
429.507	1193.63
429.883	1221.2
430.259	1263.68
430.635	1260.52
431.011	1283.34
431.387	1282.89
431.763	1297.8
432.138	1311.14
432.514	1321.31
432.89	1342.78
433.265	1361.98
433.641	1367.18
434.016	1384.58
434.392	1424.13
434.767	1435.43
435.143	1431.13
435.518	1484.47
435.894	1499.38
436.269	1487.63
436.644	1531.7
437.02	1525.14
437.395	1510.45
437.77	1559.04
438.145	1551.13
438.52	1573.5
438.895	1611.24
439.271	1614.18
439.646	1626.38
440.021	1628.64
440.395	1653.5
440.77	1637.91
441.145	1654.41
441.52	1715.87
441.895	1709.55
442.27	1724.91
442.645	1734.4
443.019	1741.86
443.394	1764.91
443.769	1778.24
444.143	1795.87
444.518	1811.01
444.892	1824.34
445.267	1833.61
445.641	1841.52
446.016	1860.95
446.39	1849.2
446.764	1855.53
447.139	1856.89
447.513	1887.17
447.887	1905.02
448.262	1914.29
448.636	1895.98
449.01	1920.16
449.384	1956.09
449.758	1991.8
450.132	1961.74
450.506	1966.94
450.88	2017.11
451.254	2012.81
451.628	2075.19
452.002	2062.3
452.376	2097.33
452.75	2133.26
453.123	2153.6
453.497	2159.25
453.871	2214.84
454.244	2222.3
454.618	2250.1
454.992	2273.82
455.365	2263.88
455.739	2319.92
456.112	2365.8
456.486	2367.38
456.859	2421.39
457.232	2452.58
457.606	2422.3
457.979	2471.33
458.352	2518.79
458.725	2565.79
459.099	2582.06
459.472	2644.89
459.845	2638.33
460.218	2662.06
460.591	2700.93
460.964	2686.69
461.337	2785.9
461.71	2781.38
462.083	2823.64
462.456	2827.48
462.829	2875.39
463.201	2903.64
463.574	2973.02
463.947	2975.95
464.32	3075.84
464.692	3072.45
465.065	3103.86
465.438	3148.83
465.81	3169.39
466.183	3233.57
466.555	3277.41
466.928	3307.24
467.3	3321.48
467.672	3343.63
468.045	3437.41
468.417	3462.95
468.789	3484.19
469.161	3480.57
469.534	3602.6
469.906	3608.03
470.278	3696.61
470.65	3721.47
471.022	3791.98
471.394	3917.17
471.766	3940.67
472.138	3958.07
472.51	4040.11
472.882	4094.79
473.253	4181.12
473.625	4174.11
473.997	4335.01
474.369	4320.78
474.74	4361.68
475.112	4422.02
475.484	4542.01
475.855	4627.43
476.227	4644.38
476.598	4802.57
476.97	4804.38
477.341	4886.41
477.713	4939.97
478.084	5000.08
478.455	5102.68
478.827	5191.26
479.198	5363.46
479.569	5302.45
479.94	5508.09
480.311	5501.08
480.682	5619.73
481.053	5768.87
481.424	5861.75
481.795	5940.39
482.166	5989.21
482.537	6110.11
482.908	6209.99
483.279	6279.37
483.65	6373.38
484.021	6487.05
484.391	6576.99
484.762	6633.26
485.133	6751.67
485.503	6820.37
485.874	6897.43
486.244	7039.35
486.615	7125.9
486.985	7259.46
487.356	7366.57
487.726	7396.4
488.097	7593.91
488.467	7604.08
488.837	7767.47
489.207	7855.6
489.578	8016.5
489.948	8073.22
490.318	8094.91
490.688	8266.66
491.058	8333.55
491.428	8431.4
491.798	8524.73
492.168	8710.72
492.538	8803.14
492.908	8797.95
493.278	8926.53
493.648	8985.29
494.017	9124.49
494.387	9152.06
494.757	9220.53
495.126	9419.4
495.496	9497.59
495.866	9495.1
496.235	9595.21
496.605	9746.4
496.974	9720.41
497.344	9797.24
497.713	9914.08
498.082	10002.66
498.452	10056.44
498.821	10198.36
499.19	10227.06
499.559	10262.09
499.928	10413.72
500.298	10511.57
500.667	10568.97
501.036	10580.27
501.405	10695.52
501.774	10668.18
502.143	10810.78
502.512	10880.6
502.88	10908.4
503.249	10937.78
503.618	11070.66
503.987	11124.44
504.356	11222.29
504.724	11311.1
505.093	11308.84
505.462	11433.36
505.83	11428.39
506.199	11598.55
506.567	11751.32
506.936	11796.29
507.304	11889.16
507.672	11913.8
508.041	12044.64
508.409	12107.01
508.777	12186.78
509.145	12376.84
509.514	12349.04
509.882	12397.63
510.25	12388.81
510.618	12555.36
510.986	12632.65
511.354	12765.3
511.722	12935.01
512.09	12942.02
512.458	12991.96
512.826	13106.53
513.193	13183.82
513.561	13262.91
513.929	13333.19
514.297	13488.44
514.664	13603.02
515.032	13671.04
515.4	13785.84
515.767	13890.47
516.135	13994.42
516.502	13906.51
516.869	14094.53
517.237	14209.33
517.604	14233.96
517.972	14368.2
518.339	14515.08
518.706	14607.74
519.073	14637.79
519.44	14774.74
519.808	14891.35
520.175	14892.93
520.542	15132.02
520.909	15207.04
521.276	15203.2
521.643	15367.49
522.009	15552.35
522.376	15655.62
522.743	15779.23
523.11	15951.43
523.477	16050.64
523.843	16225.1
524.21	16276.39
524.577	16373.79
524.943	16628.48
525.31	16618.08
525.676	16873.44
526.043	16876.15
526.409	17010.39
526.776	17155.69
527.142	17252.19
527.508	17372.86
527.874	17437.49
528.241	17578.96
528.607	17711.38
528.973	17858.73
529.339	17935.11
529.705	17958.84
530.071	18163.12
530.437	18337.13
530.803	18413.96
531.169	18512.04
531.535	18560.4
531.901	18579.61
532.267	18748.87
532.632	18813.5
532.998	18884.24
533.364	19038.58
533.73	19104.79
534.095	19245.13
534.461	19246.49
534.826	19378.69
535.192	19455.75
535.557	19595.85
535.923	19678.79
536.288	19740.94
536.653	19901.38
537.019	19775.29
537.384	19890.99
537.749	20038.56
538.114	20135.28
538.479	20173.69
538.845	20204.65
539.21	20228.61
539.575	20420.69
539.94	20492.33
540.305	20600.12
540.67	20553.57
541.034	20639.9
541.399	20732.1
541.764	20786.56
542.129	20846.22
542.494	20935.93
542.858	20979.32
543.223	21118.98
543.587	21259.09
543.952	21288.47
544.316	21344.51
544.681	21454.79
545.045	21488.91
545.41	21633.32
545.774	21648
546.138	21658.85
546.503	21758.74
546.867	21835.57
547.231	21976.13
547.595	21997.83
547.959	22125.28
548.324	22014.32
548.688	22107.88
549.052	22368.44
549.416	22308.55
549.779	22374.76
550.143	22447.98
550.507	22660.18
550.871	22692.04
551.235	22558.71
551.599	22844.13
551.962	22951.7
552.326	22906.05
552.689	23089.1
553.053	23094.75
553.417	23114.41
553.78	23499.25
554.143	23297.45
554.507	23448.63
554.87	23577.22
555.234	23866.03
555.597	23620.61
555.96	23809.98
556.323	23831
556.686	24048.85
557.05	24178.33
557.413	24208.61
557.776	24323.19
558.139	24534.03
558.502	24498.32
558.865	24590.53
559.228	24727.47
559.59	24914.13
559.953	24863.74
560.316	25216.72
560.679	25238.19
561.041	25308.47
561.404	25346.66
561.767	25553.44
562.129	25586.43
562.492	25836.82
562.854	25840.89
563.217	25805.86
563.579	25963.82
563.941	26082.92
564.304	26295.57
564.666	26378.73
565.028	26483.81
565.39	26593.41
565.753	26699.85
566.115	26787.08
566.477	26943.46
566.839	26982.55
567.201	27159.5
567.563	27227.74
567.925	27498.25
568.287	27426.84
568.648	27370.11
569.01	27705.92
569.372	27812.81
569.734	27810.1
570.095	27923.32
570.457	28019.81
570.819	28072.92
571.18	28162.64
571.542	28281.73
571.903	28491.67
572.265	28524.21
572.626	28484.21
572.987	28570.99
573.349	28738.21
573.71	28653.47
574.071	28766.69
574.432	28878.55
574.794	29121.25
575.155	29159.45
575.516	29069.05
575.877	29179.78
576.238	29270.4
576.599	29284.64
576.96	29468.36
577.32	29469.04
577.681	29587.68
578.042	29515.14
578.403	29489.83
578.763	29684.4
579.124	29718.75
579.485	29785.19
579.845	29863.38
580.206	29814.8
580.566	29780.9
580.927	29847.56
581.287	29973.66
581.648	29828.58
582.008	30110.83
582.368	29989.03
582.728	30049.37
583.089	29972.98
583.449	29973.66
583.809	30045.52
584.169	30049.14
584.529	30080.1
584.889	30285.52
585.249	30072.64
585.609	30027.9
585.969	30322.58
586.329	30115.8
586.688	30364.39
587.048	30098.86
587.408	30158.51
587.768	30156.03
588.127	30176.14
588.487	30216.82
588.846	30313.77
589.206	30116.03
589.565	30126.43
589.925	30344.72
590.284	30153.32
590.643	30154.9
591.003	30349.47
591.362	30569.13
591.721	30349.24
592.08	30410.71
592.44	30480.31
592.799	30479.64
593.158	30338.62
593.517	30381.33
593.876	30383.82
594.235	30361.9
594.593	30387.21
594.952	30509.01
595.311	30388.57
595.67	30592.63
596.029	30716.92
596.387	30695.68
596.746	30832.17
597.104	30687.09
597.463	30663.59
597.822	30681.44
598.18	30607.77
598.538	30585.4
598.897	30791.27
599.255	30524.38
599.613	30942
599.972	30722.57
600.33	30813.86
600.688	30791.72
601.046	30977.48
601.404	30909.91
601.762	30844.37
602.12	31032.16
602.478	30957.36
602.836	31034.2
603.194	30905.39
603.552	31065.16
603.91	30857.93
604.268	31055.67
604.625	30977.25
604.983	31062.22
605.341	31002.11
605.698	31183.57
606.056	31232.38
606.413	31141.77
606.771	31396.67
607.128	31310.12
607.485	31201.88
607.843	31236.23
608.2	31435.77
608.557	31572.26
608.914	31407.07
609.272	31593.05
609.629	31732.71
609.986	31746.95
610.343	31642.09
610.7	31728.42
611.057	31709.21
611.414	31640.96
611.771	31806.16
612.127	31948.75
612.484	31931.58
612.841	31992.82
613.198	31915.76
613.554	31769.32
613.911	32111.91
614.267	32080.5
614.624	31974.06
614.98	31995.08
615.337	32136.09
615.693	32160.5
616.05	32100.84
616.406	32284.11
616.762	32247.73
617.118	32242.3
617.475	32208.86
617.831	32271.23
618.187	32264.22
618.543	32475.74
618.899	32539.92
619.255	32475.74
619.611	32494.05
619.967	32557.77
620.323	32598.45
620.678	32425.8
621.034	32434.39
621.39	32404.56
621.746	32351
622.101	32770.88
622.457	32471.9
622.812	32562.07
623.168	32658.56
623.523	32530.88
623.879	32712.35
624.234	32436.42
624.589	32599.81
624.945	32536.98
625.3	32702.18
625.655	32546.02
626.01	32639.35
626.365	32685.91
626.72	32628.05
627.075	32566.36
627.43	32496.53
627.785	32454.95
628.14	32541.73
628.495	32615.17
628.85	32467.83
629.205	32427.16
629.559	32531.33
629.914	32494.72
630.269	32400.49
630.623	32406.37
630.978	32432.81
631.332	32488.85
631.687	32515.52
632.041	32259.25
632.396	32360.94
632.75	32422.18
633.104	32288.4
633.459	32231.45
633.813	32165.69
634.167	32137.45
634.521	32154.39
634.875	32150.33
635.229	32113.49
635.583	31911.46
635.937	31916.21
636.291	31901.75
636.645	31902.2
636.999	31857.91
637.352	31923.89
637.706	31674.86
638.06	31875.31
638.413	31815.42
638.767	31722.54
639.121	31834.4
639.474	31590.79
639.828	31575.2
640.181	31620.4
640.534	31513.51
640.888	31355.32
641.241	31287.07
641.594	31264.02
641.947	31377.24
642.301	31332.72
642.654	31382.66
643.007	31421.98
643.36	31237.81
643.713	31213.18
644.066	31216.11
644.419	31060.19
644.771	30909.46
645.124	30694.77
645.477	30569.13
645.83	30458.62
646.182	30262.69
646.535	30280.55
646.888	30232.64
647.24	29946.77
647.593	30239.64
647.945	30047.78
648.298	29940.44
648.65	29863.38
649.002	29755.36
649.355	29983.38
649.707	29808.69
650.059	29958.07
650.411	30370.49
650.763	30308.79
651.115	30629.24
651.467	30492.74
651.819	30478.96
652.171	30365.74
652.523	30394.21
652.875	30393.99
653.227	30323.03
653.578	30498.84
653.93	30373.88
654.282	30158.51
654.633	30077.84
654.985	30164.62
655.337	30167.1
655.688	30261.34
656.039	30250.94
656.391	29959.2
656.742	30112.64
657.094	30047.11
657.445	30189.02
657.796	30092.53
658.147	30055.92
658.498	30042.81
658.849	30058.86
659.2	29921.23
659.551	29960.55
659.902	30066.09
660.253	29947.67
660.604	30034.9
660.955	29824.06
661.306	29898.18
661.656	29937.05
662.007	29924.62
662.358	29808.24
662.708	29890.73
663.059	29772.76
663.409	29709.04
663.76	29747.9
664.11	29759.66
664.461	29766.43
664.811	29739.32
665.161	29749.94
665.511	29806.89
665.862	29722.37
666.212	29792.87
666.562	29787.45
666.912	29732.09
667.262	29578.87
667.612	29708.58
667.962	29725.98
668.312	29597.63
668.662	29740.9
669.011	29716.94
669.361	29559.66
669.711	29636.04
670.06	29583.84
670.41	29528.02
670.76	29426.56
671.109	29501.36
671.459	29494.35
671.808	29405.77
672.157	29495.26
672.507	29284.19
672.856	29393.79
673.205	29414.58
673.554	29465.65
673.904	29230.4
674.253	29473.11
674.602	29353.56
674.951	28947.7
675.3	28706.35
675.649	29171.42
675.998	29164.19
676.346	29043.06
676.695	29216.39
677.044	29082.61
677.393	29030.18
677.741	29158.77
678.09	28983.63
678.438	29041.26
678.787	29111.31
679.135	29019.56
679.484	28798.78
679.832	29011.43
680.181	28707.48
680.529	28906.57
680.877	28798.55
681.225	28700.93
681.573	28867.7
681.922	28737.54
682.27	28628.84
682.618	28540.48
682.966	28522.4
683.314	28594.49
683.661	28404.21
684.009	28298.9
684.357	28235.85
684.705	28277.89
685.053	28235.4
685.4	28219.58
685.748	27962.19
686.095	28134.16
686.443	27900.27
686.79	27876.99
687.138	27884.22
687.485	27883.09
687.832	27836.77
688.18	27773.04
688.527	27657.11
688.874	27618.47
689.221	27539.15
689.568	27675.64
689.915	27559.71
690.262	27479.04
690.609	27369.21
690.956	27250.79
691.303	27246.95
691.65	27134.41
691.997	27197.69
692.344	26973.97
692.69	26937.81
693.037	27084.92
693.383	26825.72
693.73	26945.72
694.077	26639.96
694.423	26651.71
694.769	26439.52
695.116	26503.24
695.462	26500.08
695.808	26382.57
696.155	26433.19
696.501	26244.27
696.847	26224.61
697.193	26051.28
697.539	26075.23
697.885	25886.76
698.231	25945.52
698.577	25877.5
698.923	25848.57
699.269	25591.86
699.614	25618.97
699.96	25512.99
700.306	25520.22
700.651	25546.66
700.997	25389.15
701.342	25383.05
701.688	25276.38
702.033	25194.8
702.379	25174.92
702.724	25085.2
703.069	25226.67
703.415	24829.16
703.76	24938.54
704.105	24877.52
704.45	24809.5
704.795	24667.81
705.14	24672.33
705.485	24618.77
705.83	24477.53
706.175	24522.96
706.52	24444.77
706.865	24386.01
707.209	24314.83
707.554	24208.39
707.899	24192.12
708.243	24111.89
708.588	24080.71
708.932	23958
709.277	23964.55
709.621	23908.51
709.966	23724.79
710.31	23806.82
710.654	23628.52
710.998	23804.56
711.342	23651.12
711.687	23614.05
712.031	23498.35
712.375	23413.61
712.719	23439.37
713.063	23464.23
713.407	23470.1
713.75	23304.01
714.094	23157.8
714.438	23094.75
714.782	23263.33
715.125	23133.84
715.469	23026.27
715.812	22954.86
716.156	22809.1
716.499	22906.5
716.843	22924.13
717.186	22808.88
717.53	22925.48
717.873	22911.93
718.216	22795.09
718.559	22573.63
718.902	22554.65
719.246	22595.1
719.589	22616.11
719.932	22404.14
720.275	22455.21
720.617	22495.89
720.96	22461.32
721.303	22440.3
721.646	22338.38
721.989	22225.16
722.331	22275.56
722.674	22129.57
723.016	22139.29
723.359	22106.3
723.701	22132.51
724.044	21991.72
724.386	21895.91
724.729	21930.48
725.071	21906.75
725.413	21835.34
725.755	21832.41
726.097	21746.08
726.439	21642.58
726.782	21717.15
727.124	21789.24
727.465	21650.04
727.807	21544.05
728.149	21532.08
728.491	21578.85
728.833	21605.29
729.175	21411.63
729.516	21413.43
729.858	21436.03
730.199	21462.47
730.541	21375.7
730.882	21310.39
731.224	21320.33
731.565	21102.03
731.906	21184.29
732.248	21133.89
732.589	21103.16
732.93	21104.97
733.271	21044.4
733.612	21125.53
733.953	21020.22
734.294	20963.5
734.635	20980
734.976	20817.29
735.317	20824.75
735.658	20872.66
735.999	20816.39
736.339	20816.84
736.68	20669.95
737.021	20676.5
737.361	20630.63
737.702	20760.34
738.042	20708.82
738.383	20545.43
738.723	20645.54
739.063	20552.89
739.404	20460.01
739.744	20442.16
740.084	20432.22
740.424	20431.77
740.764	20333.91
741.104	20435.38
741.444	20293.46
741.784	20185.22
742.124	20298.21
742.464	20271.54
742.804	20224.54
743.143	20212.56
743.483	20204.65
743.823	19965.34
744.162	20067.48
744.502	20109.51
744.841	19999.46
745.181	20147.7
745.52	19928.28
745.86	19999.23
746.199	19977.31
746.538	19758.11
746.877	19930.76
747.216	19868.84
747.556	19639.7
747.895	19640.83
748.234	19599.7
748.573	19632.01
748.911	19649.19
749.25	19593.59
749.589	19507.5
749.928	19557.21
750.267	19531.22
750.605	19352.92
750.944	19344.11
751.283	19314.05
751.621	19361.74
751.96	19274.28
752.298	19250.33
752.636	19282.87
752.975	19149.31
753.313	19055.98
753.651	19078.35
753.989	18970.11
754.327	18933.95
