Data from breadboard_white_FLMS001491_00021.txt Node
Date: Wed Feb 08 10:47:28 GMT 2017
User: dcchb
Spectrometer: FLMS00149
Trigger mode: 0
Integration Time (sec): 2.000000E-2
Scans to average: 10
Electric dark correction enabled: true
Nonlinearity correction enabled: false
Boxcar width: 0
XAxis mode: Wavelengths
Number of Pixels in Spectrum: 2048
>>>>>Begin Spectral Data<<<<<
341.393	-7.26
341.776	-7.26
342.16	-7.26
342.543	-57.43
342.927	-56.3
343.31	-85
343.693	-61.72
344.077	-43.64
344.46	-73.02
344.843	-60.59
345.226	-30.76
345.61	-27.15
345.993	-21.72
346.376	-24.43
346.759	9.01
347.142	14.66
347.525	53.3
347.908	58.28
348.291	92.17
348.674	111.38
349.057	89.23
349.44	122.91
349.823	158.84
350.206	158.39
350.588	194.32
350.971	226.18
351.354	247.42
351.737	238.16
352.119	280.64
352.502	300.3
352.884	292.39
353.267	299.17
353.65	306.4
354.032	321.32
354.414	310.25
354.797	341.43
355.179	340.98
355.562	338.49
355.944	358.61
356.326	368.55
356.709	353.41
357.091	367.42
357.473	372.39
357.855	361.32
358.238	354.99
358.62	378.04
359.002	373.52
359.384	385.72
359.766	366.74
360.148	373.97
360.53	392.28
360.912	368.1
361.294	360.41
361.676	374.88
362.057	372.39
362.439	366.74
362.821	370.13
363.203	365.16
363.584	350.7
363.966	342.11
364.348	352.73
364.729	364.03
365.111	363.58
365.493	367.87
365.874	362
366.256	350.7
366.637	380.98
367.019	371.94
367.4	386.18
367.781	363.58
368.163	358.15
368.544	337.82
368.925	364.26
369.306	362.22
369.688	366.29
370.069	364.71
370.45	371.04
370.831	372.62
371.212	359.74
371.593	353.63
371.974	364.26
372.355	380.75
372.736	388.21
373.117	390.47
373.498	388.66
373.879	369.23
374.26	378.72
374.641	363.8
375.021	369
375.402	385.72
375.783	409.9
376.163	414.42
376.544	427.98
376.925	400.19
377.305	391.37
377.686	397.02
378.066	411.03
378.447	415.55
378.827	434.31
379.208	410.13
379.588	436.8
379.968	415.33
380.349	410.36
380.729	413.97
381.109	407.64
381.489	443.12
381.87	404.93
382.25	430.92
382.63	434.54
383.01	438.15
383.39	416.68
383.77	444.25
384.15	438.6
384.53	426.18
384.91	458.72
385.29	467.3
385.67	481.99
386.049	479.96
386.429	465.72
386.809	467.76
387.189	457.81
387.568	503.24
387.948	498.26
388.328	488.32
388.707	490.35
389.087	494.42
389.466	514.08
389.846	512.5
390.225	524.03
390.605	498.49
390.984	550.24
391.363	541.88
391.743	556.34
392.122	552.27
392.501	541.2
392.881	564.7
393.26	560.18
393.639	601.54
394.018	585.27
394.397	595.44
394.776	586.62
395.155	606.51
395.534	604.93
395.913	618.49
396.292	624.14
396.671	620.07
397.05	652.16
397.429	653.97
397.808	655.55
398.186	683.12
398.565	690.12
398.944	690.58
399.323	696.9
399.701	708.65
400.08	714.76
400.458	740.74
400.837	768.31
401.215	788.2
401.594	767.86
401.972	777.8
402.351	784.58
402.729	807.86
403.107	813.28
403.486	847.18
403.864	833.17
404.242	851.93
404.62	876.11
404.999	891.25
405.377	895.32
405.755	929.89
406.133	944.13
406.511	948.2
406.889	996.78
407.267	987.06
407.645	995.65
408.023	1013.96
408.401	1014.63
408.779	1074.97
409.156	1097.12
409.534	1116.33
409.912	1153.61
410.29	1150.45
410.667	1179.83
411.045	1187.29
411.422	1240.17
411.8	1251.01
412.178	1265.25
412.555	1282.2
412.933	1326.72
413.31	1356.32
413.687	1366.04
414.065	1384.12
414.442	1418.47
414.819	1448.3
415.197	1484.9
415.574	1476.32
415.951	1493.49
416.328	1536.43
416.705	1550.89
417.082	1573.72
417.46	1576.65
417.837	1595.64
418.214	1653.49
418.591	1635.41
418.967	1659.59
419.344	1687.16
419.721	1698.01
420.098	1718.8
420.475	1766.25
420.852	1763.32
421.228	1825.01
421.605	1817.33
421.982	1853.48
422.358	1884.89
422.735	1911.33
423.111	1908.4
423.488	1921.96
423.864	1945.01
424.241	1991.11
424.617	2004.66
424.994	2051.22
425.37	2048.73
425.746	2049.86
426.123	2125.79
426.499	2146.36
426.875	2143.42
427.251	2215.51
427.627	2245.34
428.003	2258.9
428.379	2294.83
428.756	2349.97
429.132	2408.95
429.507	2413.24
429.883	2457.53
430.259	2512.9
430.635	2516.06
431.011	2542.05
431.387	2605.55
431.763	2644.65
432.138	2644.42
432.514	2690.3
432.89	2696.62
433.265	2791.54
433.641	2826.11
434.016	2829.95
434.392	2895.04
434.767	2976.84
435.143	2946.56
435.518	2977.07
435.894	3017.97
436.269	3081.47
436.644	3149.72
437.02	3138.42
437.395	3158.53
437.77	3224.52
438.145	3266.55
438.52	3307.68
438.895	3346.32
439.271	3364.18
439.646	3459.54
440.021	3453.89
440.395	3494.12
440.77	3442.14
441.145	3492.99
441.52	3578.63
441.895	3582.25
442.27	3658.41
442.645	3612.31
443.019	3651.4
443.394	3670.61
443.769	3768.46
444.143	3734.34
444.518	3842.13
444.892	3764.62
445.267	3832.64
445.641	3836.26
446.016	3902.24
446.39	3918.96
446.764	3957.16
447.139	3975.01
447.513	3992.86
447.887	4043.93
448.262	4065.63
448.636	4102.01
449.01	4120.09
449.384	4208.67
449.758	4161.44
450.132	4233.76
450.506	4265.85
450.88	4348.33
451.254	4329.58
451.628	4411.38
452.002	4470.36
452.376	4462.68
452.75	4543.58
453.123	4555.78
453.497	4687.76
453.871	4738.15
454.244	4798.04
454.618	4841.65
454.992	4916
455.365	4914.87
455.739	5013.17
456.112	5048.2
456.486	5130.68
456.859	5167.75
457.232	5297.91
457.606	5256.33
457.979	5344.01
458.352	5462.88
458.725	5545.14
459.099	5501.75
459.472	5712.59
459.845	5713.95
460.218	5830.55
460.591	5861.51
460.964	5907.61
461.337	5997.78
461.71	6117.55
462.083	6249.75
462.456	6240.49
462.829	6280.03
463.201	6399.8
463.574	6404.78
463.947	6502.85
464.32	6628.95
464.692	6747.82
465.065	6749.85
465.438	6866.23
465.81	6954.14
466.183	7057.64
466.555	7223.96
466.928	7252.44
467.3	7196.84
467.672	7356.61
468.045	7583.95
468.417	7604.29
468.789	7685.19
469.161	7814
469.534	7898.3
469.906	8044.51
470.278	8185.29
470.65	8256.25
471.022	8420.54
471.394	8543.25
471.766	8674.09
472.138	8778.72
472.51	8973.07
472.882	9077.47
473.253	9235.44
473.625	9396.56
473.997	9560.4
474.369	9613.96
474.74	9748.42
475.112	9956.09
475.484	10126.94
475.855	10269.98
476.227	10332.81
476.598	10659.13
476.97	10752.91
477.341	11032.22
477.713	11156.29
478.084	11201.26
478.455	11568.93
478.827	11658.65
479.198	12000.33
479.569	12026.55
479.94	12470.15
480.311	12521.68
480.682	12808.9
481.053	13044.15
481.424	13285.05
481.795	13414.08
482.166	13653.4
482.537	13873.51
482.908	14141.07
483.279	14307.39
483.65	14507.39
484.021	14828.28
484.391	14909.41
484.762	15078.9
485.133	15261.04
485.503	15567.47
485.874	15788.26
486.244	16034.13
486.615	16266.21
486.985	16475.47
487.356	16919.98
487.726	17049.01
488.097	17336.47
488.467	17418.27
488.837	17738.49
489.207	17963.12
489.578	18259.6
489.948	18377.57
490.318	18692.59
490.688	18758.12
491.058	19054.84
491.428	19309.07
491.798	19526.24
492.168	19864.31
492.538	20073.34
492.908	20205.54
493.278	20394.92
493.648	20509.49
494.017	20857.28
494.387	21040.77
494.757	21227.66
495.126	21417.26
495.496	21543.13
495.866	21632.62
496.235	21848.66
496.605	22099.73
496.974	22235.32
497.344	22450.45
497.713	22551.7
498.082	22832.59
498.452	23039.59
498.821	23212.69
499.19	23297.89
499.559	23515.51
499.928	23582.63
500.298	23891.55
500.667	24061.49
501.036	24038.89
501.405	24400.91
501.774	24343.51
502.143	24644.52
502.512	24787.79
502.88	25054.45
503.249	24978.52
503.618	25339.42
503.987	25476.14
504.356	25601.56
504.724	25709.58
505.093	25844.72
505.462	26012.4
505.83	26248.1
506.199	26418.26
506.567	26792.94
506.936	26754.97
507.304	27033.84
507.672	27212.14
508.041	27373.26
508.409	27631.34
508.777	27843.53
509.145	27899.35
509.514	28118.33
509.882	28232.68
510.25	28499.34
510.618	28528.71
510.986	28763.74
511.354	29034.46
511.722	29314.91
512.09	29589.02
512.458	29606.42
512.826	29880.99
513.193	30117.15
513.561	30197.82
513.929	30391.04
514.297	30700.41
514.664	30936.33
515.032	31081.64
515.4	31488.64
515.767	31507.84
516.135	31682.08
516.502	31728.63
516.869	32133.59
517.237	32322.51
517.604	32292
517.972	32754.59
518.339	32960.91
518.706	32959.78
519.073	33263.96
519.44	33502.14
519.808	33874.34
520.175	33824.85
520.542	34328.56
520.909	34584.37
521.276	34667.99
521.643	35026.85
522.009	35180.52
522.376	35546.61
522.743	35770.1
523.11	36104.56
523.477	36490.09
523.843	36477.66
524.21	36963.52
524.577	37155.38
524.943	37508.14
525.31	37635.82
525.676	37976.37
526.043	38241
526.409	38387.21
526.776	38816.58
527.142	38974.54
527.508	39100.41
527.874	39500.85
528.241	39647.97
528.607	39799.6
528.973	40241.4
529.339	40209.99
529.705	40565.01
530.071	40917.99
530.437	41087.03
530.803	41323.63
531.169	41722.26
531.535	41705.54
531.901	41840.23
532.267	42117.28
532.632	42366.09
532.998	42430.27
533.364	42643.82
533.73	42739.64
534.095	43123.81
534.461	43304.14
534.826	43350.47
535.192	43497.36
535.557	43929.44
535.923	43825.03
536.288	44150
536.653	44181.63
537.019	44258.7
537.384	44494.17
537.749	44695.29
538.114	44816.65
538.479	44981.84
538.845	45335.28
539.21	45173.47
539.575	45427.93
539.94	45650.97
540.305	45843.96
540.67	45623.18
541.034	45921.48
541.399	46097.06
541.764	46197.18
542.129	46350.84
542.494	46461.8
542.858	46488.24
543.223	46633.77
543.587	46895.91
543.952	46923.26
544.316	47130.71
544.681	47068.79
545.045	47352.4
545.41	47582
545.774	47683.69
546.138	47708.1
546.503	47894.53
546.867	47903.57
547.231	48245.93
547.595	48243.9
547.959	48424.01
548.324	48391.47
548.688	48526.38
549.052	48754.4
549.416	48836.43
549.779	48932.7
550.143	48999.14
550.507	49260.37
550.871	49242.74
551.235	49458.78
551.599	49644.32
551.962	49724.77
552.326	49833.69
552.689	50056.96
553.053	49899.22
553.417	49984.65
553.78	50550.51
554.143	50395.26
554.507	50604.29
554.87	50694.23
555.234	51042.02
555.597	50879.31
555.96	51040.89
556.323	51230.49
556.686	51329.92
557.05	51465.06
557.413	51684.94
557.776	51646.3
558.139	51980.07
558.502	51949.57
558.865	52045.38
559.228	52373.96
559.59	52407.18
559.953	52484.47
560.316	52772.37
560.679	52805.14
561.041	52959.71
561.404	53157.67
561.767	53317.67
562.129	53226.14
562.492	53576.19
562.854	53550.43
563.217	53672.46
563.579	53728.28
563.941	53972.56
564.304	54033.58
564.666	54151.09
565.028	54284.19
565.39	54368.26
565.753	54573.68
566.115	54599.21
566.477	54763.28
566.839	54869.26
567.201	55041.24
567.563	55009.15
567.925	55263.15
568.287	55283.04
568.648	55306.99
569.01	55499.08
569.372	55646.42
569.734	55576.14
570.095	55780.2
570.457	55857.26
570.819	55901.55
571.18	55936.58
571.542	56079.4
571.903	56123.47
572.265	56292.05
572.626	56321.2
572.987	56377.25
573.349	56447.75
573.71	56614.3
574.071	56617.01
574.432	56657.24
574.794	56885.03
575.155	56815.88
575.516	56822.66
575.877	56988.3
576.238	56988.08
576.599	57028.75
576.96	57051.8
577.32	57118.7
577.681	57204.8
578.042	57291.35
578.403	57287.5
578.763	57330.67
579.124	57296.32
579.485	57436.2
579.845	57496.09
580.206	57424.45
580.566	57464.9
580.927	57470.55
581.287	57534.73
581.648	57498.57
582.008	57654.5
582.368	57539.7
582.728	57466.71
583.089	57539.02
583.449	57606.82
583.809	57562.75
584.169	57604.56
584.529	57598.23
584.889	57800.03
585.249	57607.72
585.609	57677.55
585.969	57759.13
586.329	57656.31
586.688	57678
587.048	57663.31
587.408	57712.13
587.768	57656.53
588.127	57637.33
588.487	57585.35
588.846	57809.07
589.206	57634.39
589.565	57646.37
589.925	57835.97
590.284	57722.97
590.643	57792.8
591.003	57715.97
591.362	57815.4
591.721	57838.45
592.08	57798
592.44	57910.99
592.799	57871.22
593.158	57862.18
593.517	57836.19
593.876	57841.16
594.235	57744.44
594.593	57825.12
594.952	57829.19
595.311	57844.78
595.67	57903.53
596.029	58012.91
596.387	57979.46
596.746	58066.69
597.104	57880.48
597.463	57861.28
597.822	57993.93
598.18	57934.04
598.538	57934.04
598.897	58064.89
599.255	57882.74
599.613	58209.29
599.972	58039.58
600.33	58121.38
600.688	58062.17
601.046	58134.26
601.404	58195.5
601.762	58151.66
602.12	58275.95
602.478	58316.63
602.836	58306.69
603.194	58213.36
603.552	58242.51
603.91	58195.96
604.268	58393.69
604.625	58235.5
604.983	58333.13
605.341	58302.62
605.698	58392.79
606.056	58432.79
606.413	58401.37
606.771	58390.53
607.128	58508.72
607.485	58370.19
607.843	58393.69
608.2	58556.4
608.557	58687.69
608.914	58528.15
609.272	58657.19
609.629	58648.15
609.986	58749.16
610.343	58649.05
610.7	58829.84
611.057	58752.33
611.414	58758.88
611.771	58795.49
612.127	58868.25
612.484	58843.62
612.841	58893.34
613.198	58888.37
613.554	58907.58
613.911	58987.35
614.267	58978.76
614.624	58963.62
614.98	59002.04
615.337	59179.66
615.693	59017.4
616.05	59090.85
616.406	59192.99
616.762	59122.94
617.118	59115.93
617.475	59089.04
617.831	59212.2
618.187	59218.53
618.543	59311.18
618.899	59286.77
619.255	59256.49
619.611	59282.25
619.967	59312.31
620.323	59305.98
620.678	59263.5
621.034	59183.05
621.39	59244.06
621.746	59283.61
622.101	59516.37
622.457	59272.31
622.812	59322.71
623.168	59395.47
623.523	59456.71
623.879	59490.38
624.234	59259.43
624.589	59379.2
624.945	59432.53
625.3	59428.24
625.655	59347.56
626.01	59397.05
626.365	59392.76
626.72	59391.63
627.075	59340.56
627.43	59402.48
627.785	59282.93
628.14	59301.46
628.495	59335.36
628.85	59227.57
629.205	59197.29
629.559	59356.6
629.914	59219.66
630.269	59214.69
630.623	59172.65
630.978	59136.95
631.332	59258.75
631.687	59221.24
632.041	59167.46
632.396	59196.61
632.75	59006.1
633.104	59139.66
633.459	58948.7
633.813	58995.48
634.167	58932.66
634.521	58955.26
634.875	58941.02
635.229	58878.42
635.583	58763.62
635.937	58788.93
636.291	58741.03
636.645	58766.34
636.999	58706.22
637.352	58736.73
637.706	58600.46
638.06	58744.64
638.413	58712.33
638.767	58629.62
639.121	58609.96
639.474	58457.64
639.828	58524.08
640.181	58544.42
640.534	58454.25
640.888	58393.46
641.241	58320.25
641.594	58361.83
641.947	58365.67
642.301	58266.01
642.654	58327.48
643.007	58325.44
643.36	58251.77
643.713	58162.96
644.066	58276.18
644.419	58117.09
644.771	57999.12
645.124	57772.01
645.477	57720.26
645.83	57533.6
646.182	57415.64
646.535	57330.44
646.888	57336.09
647.24	57207.06
647.593	57346.26
647.945	57257
648.298	57110.33
648.65	57112.82
649.002	57029.66
649.355	57169.99
649.707	57114.4
650.059	57195.53
650.411	57544.9
650.763	57452.25
651.115	57745.8
651.467	57662.41
651.819	57657.89
652.171	57547.61
652.523	57510.32
652.875	57515.75
653.227	57379.03
653.578	57566.14
653.93	57492.25
654.282	57352.14
654.633	57250.22
654.985	57292.93
655.337	57293.61
655.688	57265.58
656.039	57406.6
656.391	57187.17
656.742	57213.16
657.094	57177.45
657.445	57317.79
657.796	57233.95
658.147	57155.98
658.498	57149.66
658.849	57220.16
659.2	57153.05
659.551	57069.88
659.902	57169.99
660.253	57106.72
660.604	57131.58
660.955	56979.49
661.306	57080.05
661.656	57013.84
662.007	57096.32
662.358	57039.6
662.708	56998.47
663.059	56933.16
663.409	56807.29
663.76	56966.16
664.11	56991.47
664.461	56941.07
664.811	57022.43
665.161	56998.93
665.511	56908.08
665.862	56970.68
666.212	56954.63
666.562	56970.68
666.912	56864.01
667.262	56908.76
667.612	56868.76
667.962	56843.22
668.312	56818.82
668.662	56919.15
669.011	56805.94
669.361	56721.64
669.711	56663.79
670.06	56740.17
670.41	56704.24
670.76	56564.59
671.109	56751.7
671.459	56707.18
671.808	56695.66
672.157	56697.01
672.507	56445.95
672.856	56504.7
673.205	56504.93
673.554	56602.33
673.904	56451.59
674.253	56524.59
674.602	56521.2
674.951	56132.73
675.3	56031.49
675.649	56455.66
675.998	56375.21
676.346	56369.11
676.695	56442.78
677.044	56222
677.393	56349.9
677.741	56350.13
678.09	56275.1
678.438	56158.04
678.787	56277.81
679.135	56253.41
679.484	56015
679.832	56184.48
680.181	55934.09
680.529	56025.62
680.877	55945.39
681.225	55865.4
681.573	56101.1
681.922	55885.51
682.27	55729.13
682.618	55763.93
682.966	55707.21
683.314	55767.77
683.661	55739.98
684.009	55587.89
684.357	55558.28
684.705	55424.73
685.053	55390.15
685.4	55463.6
685.748	55294.79
686.095	55277.16
686.443	55114.68
686.79	55092.99
687.138	55138.86
687.485	55155.13
687.832	55032.2
688.18	55006.89
688.527	54883.73
688.874	54809.15
689.221	54749.94
689.568	54718.08
689.915	54682.83
690.262	54645.54
690.609	54609.16
690.956	54475.83
691.303	54443.96
691.65	54251.43
691.997	54302.72
692.344	54149.96
692.69	54137.31
693.037	54025.67
693.383	53838.1
693.73	53914.26
694.077	53793.13
694.423	53793.81
694.769	53583.42
695.116	53572.35
695.462	53524.44
695.808	53477.21
696.155	53459.81
696.501	53238.35
696.847	53277.67
697.193	53057.11
697.539	53152.47
697.885	52865.25
698.231	52741.86
698.577	52803.33
698.923	52697.57
699.269	52518.36
699.614	52451.25
699.96	52404.92
700.306	52342.55
700.651	52312.04
700.997	52179.16
701.342	52156.34
701.688	51969.68
702.033	51948.21
702.379	51852.39
702.724	51778.05
703.069	51794.99
703.415	51411.28
703.76	51312.75
704.105	51480.43
704.45	51289.47
704.795	51239.08
705.14	51084.05
705.485	50959.54
705.83	50923.38
706.175	50815.36
706.52	50778.98
706.865	50700.11
707.209	50686.32
707.554	50437.52
707.899	50615.36
708.243	50371.75
708.588	50237.29
708.932	50166.11
709.277	50106.22
709.621	50073.46
709.966	49871.2
710.31	49872.33
710.654	49544.66
710.998	49650.87
711.342	49580.59
711.687	49551.44
712.031	49476.18
712.375	49085.91
712.719	49327.26
713.063	49099.47
713.407	49277.77
713.75	48965.01
714.094	49174.27
714.438	48914.62
714.782	48890.89
715.125	48681.63
715.469	48701.97
715.812	48558.92
716.156	48339.72
716.499	48482.54
716.843	48372.03
717.186	48245.93
717.53	48289.32
717.873	48368.87
718.216	48255.65
718.559	48003.68
718.902	47720.75
719.246	47846.62
719.589	47748.77
719.932	47561.21
720.275	47654.09
720.617	47431.94
720.96	47532.28
721.303	47470.36
721.646	47596.01
721.989	47227.2
722.331	47223.36
722.674	47017.72
723.016	47097.49
723.359	47015.68
723.701	46998.06
724.044	46689.82
724.386	46509.48
724.729	46613.44
725.071	46664.06
725.413	46459.54
725.755	46503.61
726.097	46183.39
726.439	46068.59
726.782	46220.45
727.124	46284.63
727.465	45993.11
727.807	46052.77
728.149	45857.07
728.491	45903.62
728.833	45836.05
729.175	45753.57
729.516	45644.2
729.858	45476.74
730.199	45573.01
730.541	45550.19
730.882	45330.76
731.224	45424.31
731.565	45140.25
731.906	45243.75
732.248	45310.19
732.589	45039.92
732.93	44919.92
733.271	44891.22
733.612	44906.36
733.953	44995.17
734.294	44732.35
734.635	44662.98
734.976	44688.74
735.317	44538.24
735.658	44550.44
735.999	44444.23
736.339	44321.97
736.68	44431.12
737.021	44222.31
737.361	44039.72
737.702	44174.63
738.042	43928.08
738.383	44045.59
738.723	43911.36
739.063	43912.26
739.404	43928.31
739.744	43656.68
740.084	43594.98
740.424	43703.23
740.764	43491.48
741.104	43573.52
741.444	43417.14
741.784	43260.3
742.124	43333.97
742.464	43312.96
742.804	43261.21
743.143	43090.14
743.483	43064.38
743.823	42844.49
744.162	42808.56
744.502	42926.98
744.841	42671.39
745.181	42728.79
745.52	42657.61
745.86	42730.37
746.199	42456.26
746.538	42398.63
746.877	42549.81
747.216	42360.89
747.556	42303.72
747.895	42340.33
748.234	42105.98
748.573	42038.64
748.911	41887.91
749.25	41879.55
749.589	41671.87
749.928	41753.45
750.267	41662.38
750.605	41478.66
750.944	41452.22
751.283	41291.32
751.621	41292.67
751.96	41175.61
752.298	41117.31
752.636	41136.52
