Data from breadboard_black_back_FLMS001491_00080.txt Node
Date: Wed Feb 08 10:50:54 GMT 2017
User: dcchb
Spectrometer: FLMS00149
Trigger mode: 0
Integration Time (sec): 2.000000E-2
Scans to average: 10
Electric dark correction enabled: true
Nonlinearity correction enabled: false
Boxcar width: 0
XAxis mode: Wavelengths
Number of Pixels in Spectrum: 2048
>>>>>Begin Spectral Data<<<<<
341.393	-6.05
341.776	-6.05
342.16	-6.05
342.543	-53.05
342.927	-67.29
343.31	-79.94
343.693	-54.63
344.077	-77.23
344.46	-63.9
344.843	-38.13
345.226	-60.05
345.61	-27.51
345.993	-22.99
346.376	3.67
346.759	0.28
347.142	19.72
347.525	36.21
347.908	64.01
348.291	83.44
348.674	95.87
349.057	121.18
349.44	129.77
349.823	151.24
350.206	167.74
350.588	198.92
350.971	214.06
351.354	222.42
351.737	228.98
352.119	243.67
352.502	287.28
352.884	286.15
353.267	287.51
353.65	309.43
354.032	280.73
354.414	305.13
354.797	291.35
355.179	296.55
355.562	318.24
355.944	335.64
356.326	363.66
356.709	334.28
357.091	357.34
357.473	347.62
357.855	337.22
358.238	364.79
358.62	357.79
359.002	332.93
359.384	349.2
359.766	360.05
360.148	333.16
360.53	349.88
360.912	348.97
361.294	360.27
361.676	353.27
362.057	338.8
362.439	348.3
362.821	360.05
363.203	353.72
363.584	337
363.966	338.8
364.348	350.1
364.729	332.7
365.111	339.48
365.493	335.19
365.874	362.08
366.256	334.06
366.637	324.57
367.019	330.44
367.4	338.58
367.781	328.64
368.163	336.09
368.544	352.59
368.925	341.74
369.306	324.12
369.688	334.74
370.069	358.01
370.45	343.55
370.831	339.48
371.212	322.53
371.593	338.35
371.974	337.9
372.355	362.76
372.736	351.46
373.117	354.85
373.498	346.26
373.879	338.8
374.26	344.23
374.641	337.9
375.021	357.11
375.402	362.76
375.783	342.87
376.163	388.52
376.544	374.28
376.925	387.16
377.305	393.04
377.686	372.93
378.066	382.87
378.447	379.03
378.827	388.97
379.208	381.52
379.588	374.74
379.968	384.23
380.349	380.16
380.729	396.66
381.109	389.88
381.489	368.41
381.87	397.79
382.25	398.92
382.63	407.73
383.01	409.09
383.39	403.66
383.77	412.02
384.15	413.38
384.53	423.55
384.91	426.71
385.29	435.98
385.67	412.02
386.049	421.06
386.429	444.34
386.809	427.84
387.189	439.82
387.568	445.02
387.948	434.85
388.328	450.67
388.707	445.02
389.087	436.66
389.466	446.6
389.846	469.87
390.225	463.77
390.605	475.75
390.984	482.08
391.363	488.86
391.743	469.2
392.122	481.85
392.501	491.79
392.881	499.7
393.26	504
393.639	501.96
394.018	494.51
394.397	490.44
394.776	511.23
395.155	518.23
395.534	502.64
395.913	535.64
396.292	503.09
396.671	526.82
397.05	528.63
397.429	535.41
397.808	553.04
398.186	539.93
398.565	539.93
398.944	564.11
399.323	556.65
399.701	545.13
400.08	546.48
400.458	565.01
400.837	566.82
401.215	579.02
401.594	552.13
401.972	592.58
402.351	592.13
402.729	605.46
403.107	618.35
403.486	613.83
403.864	627.16
404.242	605.46
404.62	616.99
404.999	656.31
405.377	633.71
405.755	652.69
406.133	648.85
406.511	642.98
406.889	652.47
407.267	685.69
407.645	680.94
408.023	685.69
408.401	687.27
408.779	696.54
409.156	682.3
409.534	703.54
409.912	716.42
410.29	738.34
410.667	717.1
411.045	752.81
411.422	735.18
411.8	779.47
412.178	767.72
412.555	796.42
412.933	783.09
413.31	804.56
413.687	795.97
414.065	800.71
414.442	812.69
414.819	803.65
415.197	833.03
415.574	847.94
415.951	838.23
416.328	859.24
416.705	861.95
417.082	899.02
417.46	876.42
417.837	900.6
418.214	883.88
418.591	892.91
418.967	857.66
419.344	912.57
419.721	908.28
420.098	935.85
420.475	944.44
420.852	954.16
421.228	984.66
421.605	968.62
421.982	956.64
422.358	978.79
422.735	1013.14
423.111	1004.55
423.488	1018.33
423.864	1020.37
424.241	1051.78
424.617	1056.07
424.994	1033.93
425.37	1081.61
425.746	1085
426.123	1082.97
426.499	1067.6
426.875	1106.92
427.251	1098.11
427.627	1136.75
428.003	1172.23
428.379	1166.81
428.756	1184.21
429.132	1176.97
429.507	1193.02
429.883	1221.27
430.259	1247.03
430.635	1254.94
431.011	1247.03
431.387	1295.62
431.763	1313.02
432.138	1322.73
432.514	1298.1
432.89	1349.63
433.265	1366.57
433.641	1412.22
434.016	1383.75
434.392	1407.48
434.767	1445.67
435.143	1422.39
435.518	1448.15
435.894	1489.96
436.269	1506.46
436.644	1482.28
437.02	1504.42
437.395	1533.58
437.77	1543.74
438.145	1579
438.52	1556.85
438.895	1593.01
439.271	1587.59
439.646	1647.47
440.021	1651.09
440.395	1643.86
440.77	1633.91
441.145	1652.67
441.52	1691.09
441.895	1700.8
442.27	1714.36
442.645	1714.81
443.019	1746.23
443.394	1741.93
443.769	1760.69
444.143	1747.58
444.518	1787.81
444.892	1796.62
445.267	1823.06
445.641	1822.16
446.016	1818.54
446.39	1838.43
446.764	1872.55
447.139	1880.01
447.513	1861.02
447.887	1886.56
448.262	1901.02
448.636	1924.53
449.01	1941.93
449.384	1971.98
449.758	1978.31
450.132	2000.68
450.506	2015.37
450.88	2005.88
451.254	1999.1
451.628	2046.33
452.002	2078.65
452.376	2076.16
452.75	2115.26
453.123	2151.86
453.497	2172.88
453.871	2196.38
454.244	2218.76
454.618	2229.38
454.992	2263.05
455.365	2298.53
455.739	2336.94
456.112	2345.53
456.486	2400.45
456.859	2403.16
457.232	2422.59
457.606	2454
457.979	2488.35
458.352	2528.58
458.725	2552.53
459.099	2543.94
459.472	2627.33
459.845	2660.78
460.218	2670.95
460.591	2715.01
460.964	2679.76
461.337	2765.86
461.71	2823.71
462.083	2859.64
462.456	2868.46
462.829	2871.17
463.201	2913.88
463.574	2941.9
463.947	2990.49
464.32	3028.68
464.692	3076.59
465.065	3057.6
465.438	3111.39
465.81	3189.58
466.183	3218.95
466.555	3297.6
466.928	3327.65
467.3	3292.4
467.672	3376.69
468.045	3467.54
468.417	3484.48
468.789	3503.47
469.161	3540.08
469.534	3579.85
469.906	3669.56
470.278	3702.33
470.65	3723.57
471.022	3796.79
471.394	3866.85
471.766	3895.55
472.138	3915.21
472.51	4030.91
472.882	4093.28
473.253	4154.98
473.625	4215.76
473.997	4271.81
474.369	4308.87
474.74	4364.01
475.112	4464.57
475.484	4474.97
475.855	4626.15
476.227	4629.09
476.598	4715.64
476.97	4803.55
477.341	4921.51
477.713	4926.71
478.084	5031.79
478.455	5190.65
478.827	5192.01
479.198	5365.34
479.569	5353.81
479.94	5510.87
480.311	5562.17
480.682	5682.84
481.053	5762.16
481.424	5880.13
481.795	5985.66
482.166	6020.01
482.537	6045.55
482.908	6248.71
483.279	6360.57
483.65	6407.57
484.021	6545.2
484.391	6621.13
484.762	6724.4
485.133	6695.47
485.503	6783.83
485.874	6971.85
486.244	7012.08
486.615	7169.59
486.985	7211.84
487.356	7388.11
487.726	7459.07
488.097	7612.96
488.467	7636.01
488.837	7820.19
489.207	7944.48
489.578	7984.03
489.948	8047.98
490.318	8207.75
490.688	8231.03
491.058	8402.77
491.428	8481.19
491.798	8578.59
492.168	8750.79
492.538	8758.7
492.908	8841.18
493.278	8986.94
493.648	9000.27
494.017	9186.26
494.387	9200.72
494.757	9336.31
495.126	9404.33
495.496	9469.41
495.866	9551.9
496.235	9659.92
496.605	9681.61
496.974	9812.91
497.344	9868.72
497.713	9959.79
498.082	10032.56
498.452	10116.85
498.821	10168.83
499.19	10301.03
499.559	10373.8
499.928	10375.6
500.298	10480.91
500.667	10565.43
501.036	10634.58
501.405	10691.3
501.774	10718.87
502.143	10834.57
502.512	10863.73
502.88	11028.02
503.249	11010.39
503.618	11045.64
503.987	11141.23
504.356	11331.74
504.724	11350.72
505.093	11348.01
505.462	11449.47
505.83	11505.74
506.199	11619.41
506.567	11801.1
506.936	11785.51
507.304	11909.12
507.672	12002.9
508.041	12033.19
508.409	12207.87
508.777	12220.53
509.145	12452.38
509.514	12361.77
509.882	12499.16
510.25	12520.86
510.618	12631.59
510.986	12732.6
511.354	12911.58
511.722	12918.59
512.09	13090.79
512.458	13030.45
512.826	13171.01
513.193	13214.17
513.561	13292.81
513.929	13457.1
514.297	13606.48
514.664	13706.59
515.032	13734.16
515.4	13794.72
515.767	13959.01
516.135	14079.46
516.502	13986.36
516.869	14230.19
517.237	14319.23
517.604	14284.88
517.972	14532.56
518.339	14612.1
518.706	14614.14
519.073	14779.78
519.44	14886.9
519.808	15027.23
520.175	15046.89
520.542	15237.85
520.909	15330.73
521.276	15342.25
521.643	15545.86
522.009	15696.59
522.376	15838.96
522.743	15882.58
523.11	16045.96
523.477	16201.66
523.843	16272.62
524.21	16439.62
524.577	16590.58
524.943	16706.28
525.31	16776.56
525.676	16930.23
526.043	16966.16
526.409	17175.88
526.776	17293.16
527.142	17305.14
527.508	17541.97
527.874	17612.02
528.241	17780.15
528.607	17811.57
528.973	18085.46
529.339	18006.81
529.705	18259.46
530.071	18358.9
530.437	18394.83
530.803	18575.16
531.169	18674.14
531.535	18619.23
531.901	18752.78
532.267	18909.16
532.632	19031.87
532.998	19062.15
533.364	19124.53
533.73	19200.91
534.095	19400
534.461	19487
534.826	19599.77
535.192	19604.74
535.557	19784.62
535.923	19839.53
536.288	19964.96
536.653	20025.29
537.019	19985.97
537.384	19982.36
537.749	20254.21
538.114	20260.99
538.479	20325.85
538.845	20492.17
539.21	20340.31
539.575	20605.16
539.94	20655.11
540.305	20687.65
540.67	20687.2
541.034	20842.45
541.399	20921.99
541.764	21101.2
542.129	21056.68
542.494	21215.54
542.858	21141.65
543.223	21255.32
543.587	21422.32
543.952	21319.72
544.316	21518.36
544.681	21592.71
545.045	21679.71
545.41	21749.09
545.774	21820.5
546.138	21856.2
546.503	21940.95
546.867	21987.27
547.231	22188.4
547.595	22218.91
547.959	22187.5
548.324	22340.26
548.688	22336.19
549.052	22440.14
549.416	22505.23
549.779	22548.39
550.143	22547.94
550.507	22832.9
550.871	22842.85
551.235	22775.5
551.599	22996.97
551.962	23067.7
552.326	23235.38
552.689	23316.73
553.053	23254.59
553.417	23328.71
553.78	23649.83
554.143	23648.25
554.507	23652.32
554.87	23878.52
555.234	24066.54
555.597	23854.12
555.96	24024.96
556.323	24176.37
556.686	24248.91
557.05	24405.52
557.413	24530.26
557.776	24469.02
558.139	24679.18
558.502	24776.13
558.865	24798.95
559.228	25026.29
559.59	25043.24
559.953	25077.36
560.316	25378.82
560.679	25437.13
561.041	25609.78
561.404	25738.59
561.767	25776.33
562.129	25689.55
562.492	26023.1
562.854	25977.9
563.217	26143.1
563.579	26224
563.941	26357.56
564.304	26467.38
564.666	26738.79
565.028	26643.2
565.39	26731.33
565.753	26797.32
566.115	27083.64
566.477	27068.5
566.839	27157.99
567.201	27451.76
567.563	27388.49
567.925	27599.1
568.287	27637.52
568.648	27707.8
569.01	27894.24
569.372	27926.33
569.734	27943.73
570.095	28138.07
570.457	28235.25
570.819	28416.71
571.18	28327
571.542	28434.11
571.903	28495.35
572.265	28625.29
572.626	28778.73
572.987	28756.59
573.349	28950.93
573.71	28946.64
574.071	29023.93
574.432	29168.78
574.794	29336.01
575.155	29395.44
575.516	29259.63
575.877	29415.55
576.238	29552.95
576.599	29597.92
576.96	29680.86
577.32	29694.87
577.681	29717.92
578.042	29772.83
578.403	29755.21
578.763	29801.31
579.124	29927.18
579.485	30143.22
579.845	30076.33
580.206	30079.94
580.566	30113.61
580.927	30143.67
581.287	30262.76
581.648	30159.72
582.008	30388.86
582.368	30291.01
582.728	30390.22
583.089	30162.2
583.449	30206.49
583.809	30310.9
584.169	30376.21
584.529	30349.09
584.889	30606.48
585.249	30273.84
585.609	30366.26
585.969	30454.4
586.329	30477
586.688	30391.57
587.048	30432.25
587.408	30474.74
587.768	30375.75
588.127	30425.7
588.487	30440.39
588.846	30618.69
589.206	30451.23
589.565	30446.94
589.925	30516.77
590.284	30402.87
590.643	30533.26
591.003	30620.72
591.362	30708.63
591.721	30528.52
592.08	30577.33
592.44	30750.43
592.799	30667.95
593.158	30660.49
593.517	30708.63
593.876	30808.74
594.235	30687.16
594.593	30799.47
594.952	30804.9
595.311	30700.04
595.67	30799.02
596.029	31042.86
596.387	30996.08
596.746	31027.04
597.104	30915.85
597.463	30931.22
597.822	30892.35
598.18	30845.12
598.538	30876.31
598.897	31165.56
599.255	30933.48
599.613	31251.21
599.972	30969.86
600.33	31144.55
600.688	31067.26
601.046	31190.87
601.404	31220.48
601.762	31142.29
602.12	31325.56
602.478	31328.72
602.836	31375.05
603.194	31331.66
603.552	31260.48
603.91	31187.03
604.268	31446.24
604.625	31309.97
604.983	31393.81
605.341	31245.79
605.698	31542.05
606.056	31505.67
606.413	31462.28
606.771	31524.65
607.128	31637.64
607.485	31548.61
607.843	31594.03
608.2	31723.74
608.557	31822.72
608.914	31780.69
609.272	31967.8
609.629	31860.69
609.986	32014.36
610.343	31922.38
610.7	31998.54
611.057	32067.91
611.414	32048.25
611.771	32003.06
612.127	32235.14
612.484	32129.38
612.841	32235.14
613.198	32131.64
613.554	32174.58
613.911	32381.58
614.267	32299.55
614.624	32317.4
614.98	32347.45
615.337	32473.55
615.693	32360.79
616.05	32448.47
616.406	32607.11
616.762	32535.02
617.118	32470.39
617.475	32532.76
617.831	32529.6
618.187	32523.95
618.543	32764.62
618.899	32904.5
619.255	32678.97
619.611	32690.5
619.967	32958.06
620.323	32907.21
620.678	32789.7
621.034	32693.66
621.39	32826.09
621.746	32611.4
622.101	33012.97
622.457	32901.56
622.812	32853.88
623.168	33029.47
623.523	32946.76
623.879	33101.11
624.234	32822.24
624.589	32903.15
624.945	32929.36
625.3	32996.25
625.655	32906.08
626.01	32965.07
626.365	32932.3
626.72	32987.66
627.075	32786.77
627.43	32824.73
627.785	32812.75
628.14	32886.2
628.495	32989.02
628.85	32825.63
629.205	32769.36
629.559	32963.26
629.914	32769.82
630.269	32783.6
630.623	32721.91
630.978	32676.71
631.332	32834.67
631.687	32867.67
632.041	32594.45
632.396	32761.68
632.75	32653.44
633.104	32668.35
633.459	32533.44
633.813	32570.73
634.167	32437.17
634.521	32526.66
634.875	32462.93
635.229	32532.31
635.583	32294.57
635.937	32250.73
636.291	32110.4
636.645	32277.17
636.999	32176.39
637.352	32215.93
637.706	32142.49
638.06	32224.75
638.413	32086.22
638.767	32052.32
639.121	32091.19
639.474	31962.15
639.828	31932.1
640.181	32070.17
640.534	31979.55
640.888	31703.63
641.241	31683.07
641.594	31679.9
641.947	31837.86
642.301	31678.55
642.654	31693.69
643.007	31762.39
643.36	31622.73
643.713	31488.95
644.066	31614.59
644.419	31442.39
644.771	31401.26
645.124	31181.16
645.477	31052.57
645.83	30742.07
646.182	30615.97
646.535	30480.16
646.888	30429.09
647.24	30397
647.593	30539.59
647.945	30326.49
648.298	30360.39
648.65	30364
649.002	30128.08
649.355	30280.62
649.707	30251.69
650.059	30421.63
650.411	30728.29
650.763	30796.76
651.115	31058.22
651.467	30974.84
651.819	30857.32
652.171	30723.54
652.523	30866.82
652.875	30744.33
653.227	30582.3
653.578	30906.81
653.93	30613.49
654.282	30553.83
654.633	30519.48
654.985	30551.12
655.337	30594.51
655.688	30674.73
656.039	30769.19
656.391	30460.72
656.742	30461.85
657.094	30505.02
657.445	30542.98
657.796	30476.54
658.147	30483.32
658.498	30283.33
658.849	30413.27
659.2	30357.68
659.551	30394.51
659.902	30449.88
660.253	30279.71
660.604	30449.2
660.955	30132.6
661.306	30352.7
661.656	30256.44
662.007	30297.34
662.358	30330.78
662.708	30200.17
663.059	30205.14
663.409	30037.68
663.76	30210.34
664.11	30248.98
664.461	30196.55
664.811	30133.95
665.161	30084.46
665.511	30029.55
665.862	30097.57
666.212	30091.92
666.562	30099.83
666.912	30043.33
667.262	30069.55
667.612	29943.9
667.962	30059.38
668.312	29911.81
668.662	30088.53
669.011	29997.01
669.361	30064.35
669.711	29987.06
670.06	29938.25
670.41	29879.5
670.76	29854.86
671.109	29870.01
671.459	29870.91
671.808	29801.08
672.157	29846.5
672.507	29748.65
672.856	29684.47
673.205	29683.34
673.554	29738.03
673.904	29683.34
674.253	29772.83
674.602	29678.15
674.951	29207.42
675.3	29187.31
675.649	29560.86
675.998	29559.73
676.346	29592.72
676.695	29643.34
677.044	29361.09
677.393	29536
677.741	29444.03
678.09	29430.47
678.438	29295.11
678.787	29401.54
679.135	29381.2
679.484	29212.62
679.832	29285.84
680.181	29203.36
680.529	29197.71
680.877	29092.85
681.225	29195.22
681.573	29278.83
681.922	28992.97
682.27	28952.06
682.618	28990.25
682.966	28911.84
683.314	28983.25
683.661	28838.17
684.009	28682.47
684.357	28754.1
684.705	28567.89
685.053	28766.76
685.4	28441.12
685.748	28426.88
686.095	28513.88
686.443	28224.17
686.79	28365.19
687.138	28242.93
687.485	28367.9
687.832	28160.67
688.18	28284.74
688.527	28132.88
688.874	27987.8
689.221	28082.03
689.568	27886.55
689.915	27884.75
690.262	27905.31
690.609	27795.48
690.956	27737.41
691.303	27641.36
691.65	27488.6
691.997	27554.81
692.344	27338.77
692.69	27310.98
693.037	27247.7
693.383	27146.69
693.73	27159.57
694.077	27024.2
694.423	26988.73
694.769	26960.25
695.116	26929.74
695.462	26895.62
695.808	26734.27
696.155	26820.37
696.501	26532.69
696.847	26600.04
697.193	26319.59
697.539	26425.35
697.885	26286.6
698.231	26154.85
698.577	26166.83
698.923	26222.87
699.269	26085.92
699.614	25948.53
699.96	25842.99
700.306	25801.64
700.651	25734.52
700.997	25717.12
701.342	25789.89
701.688	25643.22
702.033	25588.99
702.379	25485.26
702.724	25459.05
703.069	25426.05
703.415	25165.27
703.76	25180.64
704.105	25136.8
704.45	25136.34
704.795	24965.05
705.14	24854.09
705.485	25012.28
705.83	24840.53
706.175	24800.08
706.52	24673.53
706.865	24606.87
707.209	24557.38
707.554	24530.03
707.899	24572.74
708.243	24451.84
708.588	24395.35
708.932	24339.53
709.277	24214.79
709.621	24249.81
709.966	24163.71
710.31	24102.02
710.654	24001.69
710.998	24028.58
711.342	23981.12
711.687	23878.52
712.031	23752.88
712.375	23694.57
712.719	23766.66
713.063	23691.18
713.407	23849.82
713.75	23534.8
714.094	23633.79
714.438	23551.75
714.782	23464.07
715.125	23455.71
715.469	23363.06
715.812	23232.89
716.156	23206.9
716.499	23248.03
716.843	23149.28
717.186	23159.9
717.53	23115.61
717.873	23209.39
718.216	23135.95
718.559	22972.33
718.902	22866.8
719.246	22933.69
719.589	22765.33
719.932	22717.43
720.275	22737.54
720.617	22694.6
720.96	22653.92
721.303	22655.51
721.646	22676.75
721.989	22435.17
722.331	22594.26
722.674	22482.86
723.016	22456.42
723.359	22319.02
723.701	22416.19
724.044	22236.31
724.386	22253.26
724.729	22267.27
725.071	22227.04
725.413	22144.33
725.755	22234.73
726.097	22095.97
726.439	22030.44
726.782	22014.84
727.124	22094.62
727.465	21966.48
727.807	22019.14
728.149	21811.01
728.491	21805.58
728.833	21835.87
729.175	21732.37
729.516	21787.73
729.858	21699.82
730.199	21680.16
730.541	21681.97
730.882	21631.35
731.224	21598.13
731.565	21547.29
731.906	21386.16
732.248	21527.17
732.589	21539.83
732.93	21370.12
733.271	21390.45
733.612	21394.07
733.953	21346.61
734.294	21216.22
734.635	21213.28
734.976	21316.11
735.317	21048.54
735.658	21166.51
735.999	21155.43
736.339	21023.23
736.68	21089.45
737.021	20933.29
737.361	21004.93
737.702	20981.65
738.042	20932.61
738.383	20921.54
738.723	20936.91
739.063	20756.35
739.404	20844.71
739.744	20754.54
740.084	20745.27
740.424	20757.02
740.764	20696.91
741.104	20750.7
741.444	20590.93
741.784	20519.74
742.124	20595.9
742.464	20490.82
742.804	20486.52
743.143	20413.98
743.483	20477.71
743.823	20342.8
744.162	20332.63
744.502	20344.38
744.841	20298.28
745.181	20308.22
745.52	20230.49
745.86	20214.21
746.199	20179.64
746.538	20241.56
746.877	20283.59
747.216	20224.61
747.556	20116.59
747.895	20086.99
748.234	20056.48
748.573	20013.32
748.911	19955.69
749.25	19858.74
749.589	19778.52
749.928	19865.3
750.267	19788.01
750.605	19728.35
750.944	19760.67
751.283	19646.32
751.621	19592.08
751.96	19640.44
752.298	19561.58
752.636	19486.78
752.975	19389.6
753.313	19301.92
753.651	19467.12
753.989	19235.71
754.327	19315.71
