Data from breadboard_white_FLMS001491_00008.txt Node
Date: Wed Feb 08 10:47:10 GMT 2017
User: dcchb
Spectrometer: FLMS00149
Trigger mode: 0
Integration Time (sec): 2.000000E-2
Scans to average: 10
Electric dark correction enabled: true
Nonlinearity correction enabled: false
Boxcar width: 0
XAxis mode: Wavelengths
Number of Pixels in Spectrum: 2048
>>>>>Begin Spectral Data<<<<<
341.393	-1.24
341.776	-1.24
342.16	-1.24
342.543	-51.19
342.927	-69.49
343.31	-68.81
343.693	-68.13
344.077	-76.95
344.46	-53.67
344.843	-34.91
345.226	-41.47
345.61	-8.02
345.993	-27.23
346.376	-13.22
346.759	15.71
347.142	17.29
347.525	56.16
347.908	36.72
348.291	78.3
348.674	76.95
349.057	111.3
349.44	113.33
349.823	126.89
350.206	178.41
350.588	209.82
350.971	238.3
351.354	246.43
351.737	246.89
352.119	243.27
352.502	299.77
352.884	275.81
353.267	313.33
353.65	315.58
354.032	317.17
354.414	334.34
354.797	329.6
355.179	324.62
355.562	335.92
355.944	342.25
356.326	340.89
356.709	347.45
357.091	375.02
357.473	351.52
357.855	365.3
358.238	366.21
358.62	382.93
359.002	359.43
359.384	377.5
359.766	368.01
360.148	360.56
360.53	363.27
360.912	388.58
361.294	371.4
361.676	343.38
362.057	363.27
362.439	365.75
362.821	341.8
363.203	370.95
363.584	371.18
363.966	354.91
364.348	345.19
364.729	349.26
365.111	343.61
365.493	343.15
365.874	343.61
366.256	371.18
366.637	358.97
367.019	343.15
367.4	336.15
367.781	360.1
368.163	361.91
368.544	346.32
368.925	363.95
369.306	354.91
369.688	353.78
370.069	360.1
370.45	349.26
370.831	362.59
371.212	354.45
371.593	341.12
371.974	376.37
372.355	356.49
372.736	374.11
373.117	361.69
373.498	373.66
373.879	368.46
374.26	376.6
374.641	365.53
375.021	372.31
375.402	363.27
375.783	357.17
376.163	392.42
376.544	369.82
376.925	364.4
377.305	365.3
377.686	379.76
378.066	384.74
378.447	399.65
378.827	406.88
379.208	393.77
379.588	402.81
379.968	406.66
380.349	406.88
380.729	399.2
381.109	390.84
381.489	423.15
381.87	390.39
382.25	397.39
382.63	409.82
383.01	427.9
383.39	423.15
383.77	409.59
384.15	434
384.53	429.03
384.91	437.16
385.29	430.61
385.67	444.17
386.049	443.27
386.429	450.5
386.809	445.98
387.189	413.44
387.568	442.36
387.948	471.29
388.328	458.86
388.707	459.08
389.087	449.59
389.466	493.89
389.846	478.52
390.225	485.07
390.605	495.92
390.984	501.34
391.363	500.21
391.743	491.17
392.122	501.79
392.501	497.73
392.881	538.18
393.26	513.32
393.639	531.62
394.018	551.96
394.397	547.9
394.776	552.64
395.155	544.51
395.534	568.01
395.913	563.49
396.292	574.79
396.671	583.6
397.05	595.13
397.429	607.33
397.808	596.71
398.186	612.75
398.565	610.72
398.944	633.77
399.323	649.14
399.701	638.74
400.08	673.99
400.458	643.94
400.837	664.95
401.215	697.27
401.594	688
401.972	713.99
402.351	712.41
402.729	725.07
403.107	766.19
403.486	757.61
403.864	796.93
404.242	795.8
404.62	775.91
404.999	799.64
405.377	810.26
405.755	816.14
406.133	845.06
406.511	864.95
406.889	888.23
407.267	904.72
407.645	923.48
408.023	943.59
408.401	960.77
408.779	970.03
409.156	1006.41
409.534	996.24
409.912	1031.05
410.29	1049.12
410.667	1077.6
411.045	1103.59
411.422	1112.4
411.8	1125.73
412.178	1146.52
412.555	1175.22
412.933	1179.29
413.31	1223.81
413.687	1265.84
414.065	1234.66
414.442	1271.49
414.819	1303.36
415.197	1307.65
415.574	1365.73
415.951	1366.4
416.328	1395.33
416.705	1422.22
417.082	1422.67
417.46	1476.46
417.837	1497.47
418.214	1490.92
418.591	1519.17
418.967	1529.79
419.344	1541.32
419.721	1585.38
420.098	1581.54
420.475	1610.24
420.852	1636.45
421.228	1640.3
421.605	1661.31
421.982	1711.25
422.358	1742.44
422.735	1747.86
423.111	1760.74
423.488	1767.3
423.864	1798.94
424.241	1811.59
424.617	1853.4
424.994	1860.18
425.37	1894.3
425.746	1868.09
426.123	1904.24
426.499	1918.93
426.875	1928.65
427.251	2023.56
427.627	2044.35
428.003	2061.98
428.379	2109.89
428.756	2112.6
429.132	2168.42
429.507	2167.51
429.883	2177
430.259	2250.45
430.635	2246.61
431.011	2269.43
431.387	2334.06
431.763	2368.64
432.138	2395.3
432.514	2433.5
432.89	2465.13
433.265	2499.48
433.641	2529.09
434.016	2566.37
434.392	2624.68
434.767	2641.4
435.143	2637.11
435.518	2680.95
435.894	2725.92
436.269	2713.94
436.644	2784.9
437.02	2840.94
437.395	2854.73
437.77	2885.91
438.145	2920.26
438.52	2956.87
438.895	3000.03
439.271	3009.75
439.646	3060.15
440.021	3080.03
440.395	3096.53
440.77	3058.79
441.145	3118.68
441.52	3181.05
441.895	3162.06
442.27	3231.89
442.645	3249.07
443.019	3266.92
443.394	3258.78
443.769	3364.09
444.143	3290.2
444.518	3355.73
444.892	3382.85
445.267	3405.22
445.641	3449.06
446.016	3449.51
446.39	3482.96
446.764	3542.84
447.139	3490.64
447.513	3591.21
447.887	3597.76
448.262	3603.86
448.636	3626.91
449.01	3691.54
449.384	3689.06
449.758	3758.88
450.132	3737.87
450.506	3799.34
450.88	3826
451.254	3870.97
451.628	3870.75
452.002	3952.1
452.376	3983.29
452.75	4033.45
453.123	4039.33
453.497	4113.45
453.871	4153.22
454.244	4208.36
454.618	4229.38
454.992	4348.93
455.365	4313.45
455.739	4459.2
456.112	4456.04
456.486	4484.06
456.859	4565.64
457.232	4616.04
457.606	4605.19
457.979	4672.76
458.352	4793.21
458.725	4852.64
459.099	4826.2
459.472	4953.2
459.845	5028.91
460.218	5112.52
460.591	5104.16
460.964	5148.68
461.337	5304.15
461.71	5371.5
462.083	5448.33
462.456	5435.68
462.829	5486.07
463.201	5588.89
463.574	5594.54
463.947	5693.07
464.32	5792.73
464.692	5872.95
465.065	5883.35
465.438	5983.46
465.81	6063
466.183	6071.14
466.555	6278.59
466.928	6295.54
467.3	6280.17
467.672	6404.24
468.045	6597.68
468.417	6608.3
468.789	6707.51
469.161	6810.56
469.534	6853.49
469.906	7033.15
470.278	7025.24
470.65	7123.32
471.022	7320.6
471.394	7419.35
471.766	7530.76
472.138	7604.21
472.51	7762.85
472.882	7829.74
473.253	7938.21
473.625	8074.7
473.997	8220.91
474.369	8239.44
474.74	8375.71
475.112	8524.63
475.484	8652.99
475.855	8798.75
476.227	8884.85
476.598	9201.45
476.97	9247.1
477.341	9497.94
477.713	9591.73
478.084	9622.46
478.455	9914.65
478.827	10069.23
479.198	10315.1
479.569	10315.1
479.94	10604.58
480.311	10737.01
480.682	10946.94
481.053	11139.26
481.424	11305.35
481.795	11408.4
482.166	11664.44
482.537	11828.95
482.908	12060.59
483.279	12171.32
483.65	12476.85
484.021	12626.9
484.391	12747.12
484.762	12842.71
485.133	13060.33
485.503	13207
485.874	13534.67
486.244	13682.01
486.615	13883.82
486.985	13989.8
487.356	14266.4
487.726	14451.48
488.097	14683.57
488.467	14740.52
488.837	15105.48
489.207	15237
489.578	15557.22
489.948	15576.43
490.318	15835.85
490.688	15947.26
491.058	16168.05
491.428	16329.63
491.798	16536.63
492.168	16891.19
492.538	16995.6
492.908	17139.55
493.278	17460.67
493.648	17389.94
494.017	17636.49
494.387	17825.18
494.757	17877.61
495.126	18182.01
495.496	18225.85
495.866	18327.54
496.235	18508.33
496.605	18696.34
496.974	18889.33
497.344	18970.46
497.713	19002.78
498.082	19293.84
498.452	19467.85
498.821	19494.06
499.19	19671.23
499.559	19823.77
499.928	20029.64
500.298	20040.49
500.667	20250.43
501.036	20320.71
501.405	20581.49
501.774	20546.01
502.143	20810.87
502.512	20914.37
502.88	21001.82
503.249	21234.58
503.618	21304.86
503.987	21446.78
504.356	21597.06
504.724	21751.63
505.093	21752.54
505.462	21823.72
505.83	22063.94
506.199	22275.46
506.567	22556.81
506.936	22480.2
507.304	22752.74
507.672	22829.34
508.041	22922.22
508.409	23275.66
508.777	23362.44
509.145	23543.67
509.514	23568.53
509.882	23780.96
510.25	23816.44
510.618	24102.53
510.986	24190.66
511.354	24399.47
511.722	24596.75
512.09	24792.68
512.458	24796.07
512.826	25035.84
513.193	25248.71
513.561	25339.11
513.929	25432.44
514.297	25747.01
514.664	25890.28
515.032	25973.44
515.4	26275.81
515.767	26375.69
516.135	26533.88
516.502	26518.06
516.869	26977.03
517.237	27008.44
517.604	27004.37
517.972	27335.67
518.339	27513.51
518.706	27608.88
519.073	27899.94
519.44	28049.32
519.808	28288.18
520.175	28234.17
520.542	28729.3
520.909	28814.72
521.276	28878.22
521.643	29223.75
522.009	29501.71
522.376	29679.78
522.743	29800.91
523.11	30144.18
523.477	30455.58
523.843	30538.29
524.21	30782.81
524.577	31023.25
524.943	31277.93
525.31	31373.98
525.676	31669.56
526.043	31944.58
526.409	31996.11
526.776	32424.57
527.142	32503.21
527.508	32708.86
527.874	32945.91
528.241	33112.46
528.607	33147.72
528.973	33396.52
529.339	33578.21
529.705	34008.48
530.071	34129.61
530.437	34205.32
530.803	34395.37
531.169	34596.27
531.535	34703.38
531.901	34857.95
532.267	35029.02
532.632	35204.84
532.998	35270.6
533.364	35566.41
533.73	35654.09
534.095	35950.13
534.461	36099.95
534.826	36333.17
535.192	36335.2
535.557	36672.37
535.923	36465.59
536.288	36711.24
536.653	37036.2
537.019	36873.04
537.384	37030.1
537.749	37206.37
538.114	37424.44
538.479	37547.15
538.845	37563.65
539.21	37626.24
539.575	37906.23
539.94	37959.34
540.305	38201.59
540.67	38179.45
541.034	38381.25
541.399	38368.6
541.764	38577.4
542.129	38737.63
542.494	38721.35
542.858	38856.94
543.223	38966.09
543.587	39272.3
543.952	39173.55
544.316	39301.9
544.681	39325.86
545.045	39655.57
545.41	39814.66
545.774	39946.63
546.138	39837.94
546.503	40101.43
546.867	40013.52
547.231	40486.73
547.595	40373.29
547.959	40620.97
548.324	40552.49
548.688	40704.13
549.052	40965.36
549.416	41017.34
549.779	40965.82
550.143	41165.58
550.507	41555.18
550.871	41487.38
551.235	41468.85
551.599	41906.58
551.962	41885.11
552.326	42043.08
552.689	42301.83
553.053	42176.18
553.417	42367.81
553.78	42896.61
554.143	42541.37
554.507	42832.43
554.87	42964.63
555.234	43395.58
555.597	43063.39
555.96	43306.77
556.323	43613.43
556.686	43604.62
557.05	43920.54
557.413	44004.38
557.776	44144.71
558.139	44409.11
558.502	44343.58
558.865	44644.14
559.228	44833.51
559.59	45056.56
559.953	45171.58
560.316	45466.49
560.679	45587.16
561.041	45689.08
561.404	45955.06
561.767	46148.28
562.129	45955.74
562.492	46459.23
562.854	46473.02
563.217	46449.74
563.579	46677.08
563.941	46973.12
564.304	47129.04
564.666	47461.92
565.028	47444.06
565.39	47465.31
565.753	47784.39
566.115	48001.79
566.477	47950.49
566.839	48092.63
567.201	48304.61
567.563	48443.58
567.925	48655.33
568.287	48692.62
568.648	48838.83
569.01	49077.47
569.372	49179.16
569.734	49042.44
570.095	49383.45
570.457	49519.71
570.819	49524.23
571.18	49672.25
571.542	49778.01
571.903	49789.54
572.265	49983.66
572.626	49992.47
572.987	50268.4
573.349	50286.47
573.71	50368.05
574.071	50397.21
574.432	50562.4
574.794	50780.92
575.155	50803.97
575.516	50648.95
575.877	50845.56
576.238	50800.13
576.599	51034.25
576.96	51012.33
577.32	51055.04
577.681	51136.4
578.042	51160.12
578.403	51191.99
578.763	51330.97
579.124	51250.06
579.485	51403.51
579.845	51500.45
580.206	51501.81
580.566	51434.24
580.927	51575.71
581.287	51630.62
581.648	51511.75
582.008	51707.91
582.368	51549.04
582.728	51664.74
583.089	51677.17
583.449	51726.66
583.809	51739.54
584.169	51817.06
584.529	51634.91
584.889	51899.09
585.249	51718.75
585.609	51629.72
585.969	51916.26
586.329	51612.99
586.688	51742.48
587.048	51681.69
587.408	51722.82
587.768	51705.19
588.127	51679.43
588.487	51653.67
588.846	51887.56
589.206	51752.2
589.565	51579.32
589.925	51828.35
590.284	51637.63
590.643	51798.07
591.003	51834.91
591.362	51829.48
591.721	51842.37
592.08	51863.61
592.44	51828.13
592.799	51880.56
593.158	51834.23
593.517	51847.79
593.876	51977.73
594.235	51847.56
594.593	51883.04
594.952	51907.22
595.311	51744.06
595.67	51817.06
596.029	52005.75
596.387	52143.15
596.746	52161
597.104	52010.72
597.463	51895.7
597.822	52128.69
598.18	51987.9
598.538	51933.89
598.897	52119.87
599.255	51861.8
599.613	52351.05
599.972	52079.65
600.33	52158.97
600.688	52071.96
601.046	52144.96
601.404	52232.86
601.762	52178.85
602.12	52341.79
602.478	52397.15
602.836	52418.4
603.194	52162.58
603.552	52250.72
603.91	52155.35
604.268	52371.84
604.625	52253.88
604.983	52452.75
605.341	52279.87
605.698	52422.24
606.056	52510.82
606.413	52548.34
606.771	52446.19
607.128	52496.59
607.485	52448.68
607.843	52384.05
608.2	52673.98
608.557	52699.74
608.914	52679.41
609.272	52765.28
609.629	52868.78
609.986	52845.73
610.343	52737.26
610.7	52932.28
611.057	52871.04
611.414	52955.78
611.771	52958.95
612.127	52973.41
612.484	52975.67
612.841	53167.75
613.198	52935.22
613.554	52938.83
613.911	53078.04
614.267	53143.35
614.624	53121.2
614.98	53104.25
615.337	53305.38
615.693	53265.61
616.05	53209.56
616.406	53345.6
616.762	53266.96
617.118	53271.25
617.475	53309.67
617.831	53333.17
618.187	53434.41
618.543	53378.6
618.899	53585.37
619.255	53425.6
619.611	53441.65
619.967	53539.04
620.323	53513.06
620.678	53423.12
621.034	53290.01
621.39	53377.24
621.746	53329.78
622.101	53623.11
622.457	53385.83
622.812	53498.59
623.168	53567.97
623.523	53555.31
623.879	53595.31
624.234	53401.42
624.589	53618.82
624.945	53545.37
625.3	53606.39
625.655	53552.6
626.01	53575.43
626.365	53445.04
626.72	53518.93
627.075	53506.05
627.43	53538.59
627.785	53325.72
628.14	53444.58
628.495	53437.13
628.85	53403.23
629.205	53330.69
629.559	53346.05
629.914	53242.78
630.269	53275.77
630.623	53202.78
630.978	53063.35
631.332	53189
631.687	53212.5
632.041	53158.04
632.396	53135.44
632.75	53095.67
633.104	53066.29
633.459	52953.75
633.813	52925.28
634.167	52984.71
634.521	52846.63
634.875	53000.3
635.229	52809.35
635.583	52714.66
635.937	52699.52
636.291	52739.52
636.645	52694.32
636.999	52432.41
637.352	52642.8
637.706	52402.58
638.06	52593.08
638.413	52486.64
638.767	52466.76
639.121	52387.21
639.474	52314.67
639.828	52307.89
640.181	52258.17
640.534	52247.78
640.888	52105.18
641.241	51973.21
641.594	52047.78
641.947	52223.82
642.301	52107.44
642.654	52099.76
643.007	52091.62
643.36	52000.78
643.713	51945.87
644.066	51998.29
644.419	51762.59
644.771	51571.86
645.124	51159.67
645.477	51157.19
645.83	50885.55
646.182	50805.56
646.535	50724.43
646.888	50808.72
647.24	50635.17
647.593	50754.94
647.945	50635.17
648.298	50436.53
648.65	50470.65
649.002	50309.3
649.355	50414.61
649.707	50337.32
650.059	50517.43
650.411	50766.46
650.763	50867.48
651.115	51308.37
651.467	51063.63
651.819	50956.06
652.171	50850.98
652.523	50909.51
652.875	50961.03
653.227	50656.86
653.578	50972.78
653.93	50815.5
654.282	50731.43
654.633	50493.47
654.985	50728.95
655.337	50688.5
655.688	50603.75
656.039	50819.12
656.391	50486.24
656.742	50486.7
657.094	50556.52
657.445	50689.63
657.796	50519.46
658.147	50503.64
658.498	50385
658.849	50367.83
659.2	50412.35
659.551	50322.63
659.902	50328.06
660.253	50315.85
660.604	50333.03
660.955	50229.75
661.306	50446.02
661.656	50163.99
662.007	50123.31
662.358	50178.23
662.708	50149.75
663.059	50065.46
663.409	49799.26
663.76	50158.79
664.11	50154.73
664.461	50099.81
664.811	50077.67
665.161	50051.45
665.511	49866.37
665.862	49929.42
666.212	50085.35
666.562	50027.27
666.912	49898.24
667.262	49776.66
667.612	49800.16
667.962	49818.01
668.312	49716.55
668.662	50055.75
669.011	49856.2
669.361	49690.78
669.711	49762.87
670.06	49728.97
670.41	49633.61
670.76	49639.71
671.109	49721.74
671.459	49610.33
671.808	49547.28
672.157	49625.7
672.507	49318.14
672.856	49408.53
673.205	49526.04
673.554	49540.73
673.904	49241.98
674.253	49525.36
674.602	49421.41
674.951	48849.68
675.3	48675.44
675.649	49290.12
675.998	49143.45
676.346	49184.36
676.695	49275.2
677.044	48938.71
677.393	49102.32
677.741	49118.82
678.09	48939.39
678.438	48867.08
678.787	49080.63
679.135	48935.32
679.484	48685.84
679.832	48797.47
680.181	48725.16
680.529	48517.03
680.877	48507.76
681.225	48528.1
681.573	48663.24
681.922	48528.55
682.27	48258.51
682.618	48339.86
682.966	48228
683.314	48232.97
683.661	48208.34
684.009	47970.15
684.357	47852.64
684.705	47805.64
685.053	47864.62
685.4	47764.96
685.748	47654.45
686.095	47681.12
686.443	47279.32
686.79	47356.38
687.138	47443.61
687.485	47416.72
687.832	47250.17
688.18	47294.69
688.527	47096.05
688.874	47007.01
689.221	46979.67
689.568	46834.36
689.915	46766.79
690.262	46754.14
690.609	46627.81
690.956	46466.24
691.303	46408.16
691.65	46118.67
691.997	46077.55
692.344	45959.36
692.69	45825.8
693.037	45883.43
693.383	45523.89
693.73	45758.68
694.077	45363.44
694.423	45441.63
694.769	45225.59
695.116	45237.57
695.462	45154.41
695.808	44887.07
696.155	44988.31
696.501	44708.32
696.847	44642.78
697.193	44397.82
697.539	44374.99
697.885	44291.6
698.231	44056.58
698.577	44182.68
698.923	43907.21
699.269	43821.79
699.614	43643.49
699.96	43524.17
700.306	43572.07
700.651	43376.15
700.997	43244.17
701.342	43142.03
701.688	43203.95
702.033	42881.02
702.379	42917.4
702.724	42841.02
703.069	42842.83
703.415	42401.94
703.76	42502.5
704.105	42545.66
704.45	42301.37
704.795	42041.95
705.14	41917.2
705.485	41838.79
705.83	41810.77
706.175	41716.08
706.52	41696.19
706.865	41514.05
707.209	41299.14
707.554	41301.63
707.899	41358.57
708.243	41136.66
708.588	41037.68
708.932	40833.84
709.277	40789.77
709.621	40865.93
709.966	40525.38
710.31	40581.42
710.654	40313.63
710.998	40320.41
711.342	40235.67
711.687	40204.25
712.031	39864.38
712.375	39908.44
712.719	39844.04
713.063	39734.21
713.407	39887.43
713.75	39682.46
714.094	39606.3
714.438	39404.73
714.782	39482.01
715.125	39281.57
715.469	39254.9
715.812	39137.16
716.156	38994.57
716.499	38940.33
716.843	38997.51
717.186	38678.64
717.53	38835.7
717.873	38687.23
718.216	38734.24
718.559	38597.97
718.902	38338.31
719.246	38298.09
719.589	38262.84
719.932	38184.19
720.275	38035.05
720.617	38019.23
720.96	38051.99
721.303	37903.3
721.646	38008.38
721.989	37663.53
722.331	37732.45
722.674	37602.74
723.016	37734.26
723.359	37578.11
723.701	37665.34
724.044	37263.99
724.386	36893.83
724.729	37293.37
725.071	37160.27
725.413	37141.28
725.755	37110.78
726.097	36907.84
726.439	36744.23
726.782	36711.69
727.124	36906.26
727.465	36642.99
727.807	36485.71
728.149	36507.85
728.491	36478.25
728.833	36332.27
729.175	36211.82
729.516	36217.47
729.858	36234.41
730.199	36114.87
730.541	36195.77
730.882	35942.67
731.224	36064.7
731.565	35823.35
731.906	35903.12
732.248	35803.24
732.589	35785.39
732.93	35475.79
733.271	35576.35
733.612	35600.98
733.953	35687.76
734.294	35377.49
734.635	35304.04
734.976	35417.71
735.317	35252.29
735.658	35182.92
735.999	35278.28
736.339	34925.3
736.68	35208.45
737.021	34950.38
737.361	34908.57
737.702	34985.86
738.042	34930.04
738.383	34754
738.723	34879.87
739.063	34629.94
739.404	34720.1
739.744	34569.6
740.084	34549.94
740.424	34392.43
740.764	34252.09
741.104	34446.44
741.444	34163.96
741.784	34011.2
742.124	34222.72
742.464	34069.27
742.804	33914.48
743.143	33810.07
743.483	33797.19
743.823	33694.59
744.162	33621.38
744.502	33709.51
744.841	33506.35
745.181	33634.03
745.52	33506.8
745.86	33610.3
746.199	33371.44
746.538	33296.64
746.877	33399.23
747.216	33366.02
747.556	33267.71
747.895	33111.78
748.234	33064.1
748.573	33013.26
748.911	32905.01
749.25	32829.31
749.589	32808.97
749.928	32779.36
750.267	32760.61
750.605	32568.97
750.944	32521.07
751.283	32519.48
751.621	32425.93
751.96	32194.75
752.298	32158.36
752.636	32116.1
752.975	31972.61
