Data from breadboard_black_back_FLMS001491_00086.txt Node
Date: Wed Feb 08 10:51:03 GMT 2017
User: dcchb
Spectrometer: FLMS00149
Trigger mode: 0
Integration Time (sec): 2.000000E-2
Scans to average: 10
Electric dark correction enabled: true
Nonlinearity correction enabled: false
Boxcar width: 0
XAxis mode: Wavelengths
Number of Pixels in Spectrum: 2048
>>>>>Begin Spectral Data<<<<<
341.393	-12.63
341.776	-12.63
342.16	-12.63
342.543	-57.6
342.927	-69.12
343.31	-71.61
343.693	-59.18
344.077	-86.3
344.46	-64.15
344.843	-46.3
345.226	-46.3
345.61	-20.08
345.993	-12.17
346.376	4.77
346.759	2.29
347.142	39.12
347.525	33.47
347.908	59.01
348.291	78.9
348.674	81.38
349.057	107.14
349.44	148.27
349.823	142.4
350.206	168.84
350.588	203.41
350.971	222.62
351.354	233.47
351.737	276.18
352.119	239.8
352.502	283.41
352.884	268.72
353.267	304.43
353.65	314.37
354.032	313.92
354.414	311.21
354.797	318.66
355.179	332.9
355.562	337.87
355.944	334.26
356.326	332
356.709	356.18
357.091	364.76
357.473	355.95
357.855	353.24
358.238	349.4
358.62	359.11
359.002	376.52
359.384	355.5
359.766	348.49
360.148	359.34
360.53	346.23
360.912	345.56
361.294	360.92
361.676	345.33
362.057	348.27
362.439	341.71
362.821	334.93
363.203	333.35
363.584	335.39
363.966	334.93
364.348	345.56
364.729	337.19
365.111	342.39
365.493	341.04
365.874	327.7
366.256	335.61
366.637	331.77
367.019	317.76
367.4	336.97
367.781	336.52
368.163	343.75
368.544	351.66
368.925	332.9
369.306	339.23
369.688	360.92
370.069	353.01
370.45	331.32
370.831	342.39
371.212	335.84
371.593	334.93
371.974	361.6
372.355	348.95
372.736	355.73
373.117	331.77
373.498	340.58
373.879	359.34
374.26	353.47
374.641	352.56
375.021	352.34
375.402	365.67
375.783	348.49
376.163	407.02
376.544	404.31
376.925	383.52
377.305	372
377.686	359.79
378.066	370.87
378.447	374.48
378.827	372.22
379.208	399.57
379.588	372
379.968	379.68
380.349	382.62
380.729	364.76
381.109	386.46
381.489	368.83
381.87	407.02
382.25	409.51
382.63	423.52
383.01	426.46
383.39	411.99
383.77	425.33
384.15	410.41
384.53	412.67
384.91	419.23
385.29	403.41
385.67	441.37
386.049	439.56
386.429	424.42
386.809	446.34
387.189	428.72
387.568	443.63
387.948	421.94
388.328	432.79
388.707	448.15
389.087	466.91
389.466	484.08
389.846	475.27
390.225	472.11
390.605	466.91
390.984	484.08
391.363	478.66
391.743	489.73
392.122	487.25
392.501	491.99
392.881	501.94
393.26	506.46
393.639	485.67
394.018	505.1
394.397	511.65
394.776	521.37
395.155	508.04
395.534	515.72
395.913	526.34
396.292	536.51
396.671	541.93
397.05	560.92
397.429	554.36
397.808	574.7
398.186	552.33
398.565	548.49
398.944	555.95
399.323	556.62
399.701	551.2
400.08	562.95
400.458	567.7
400.837	591.43
401.215	588.49
401.594	562.05
401.972	616.96
402.351	582.16
402.729	596.85
403.107	606.57
403.486	597.3
403.864	614.7
404.242	639.56
404.62	627.36
404.999	668.03
405.377	620.35
405.755	636.62
406.133	651.08
406.511	654.02
406.889	672.55
407.267	674.59
407.645	706.22
408.023	690.18
408.401	689.5
408.779	719.33
409.156	729.95
409.534	705.32
409.912	711.2
410.29	731.53
410.667	738.54
411.045	750.74
411.422	758.43
411.8	761.36
412.178	775.38
412.555	781.48
412.933	796.62
413.31	806.33
413.687	810.18
414.065	807.01
414.442	805.66
414.819	821.93
415.197	826.9
415.574	862.38
415.951	855.82
416.328	870.97
416.705	848.82
417.082	879.55
417.46	907.12
417.837	904.41
418.214	887.69
418.591	917.74
418.967	931.3
419.344	913.68
419.721	928.59
420.098	926.78
420.475	945.31
420.852	982.15
421.228	962.71
421.605	983.28
421.982	991.41
422.358	1014.24
422.735	1008.59
423.111	1010.62
423.488	1029.61
423.864	1010.4
424.241	1068.47
424.617	1040.23
424.994	1065.76
425.37	1065.08
425.746	1099.66
426.123	1096.95
426.499	1102.37
426.875	1108.02
427.251	1148.7
427.627	1136.5
428.003	1157.06
428.379	1197.28
428.756	1173.33
429.132	1207
429.507	1225.53
429.883	1252.88
430.259	1242.71
430.635	1270.5
431.011	1265.98
431.387	1308.69
431.763	1321.58
432.138	1340.11
432.514	1343.72
432.89	1364.29
433.265	1395.02
433.641	1372.42
434.016	1403.61
434.392	1432.31
434.767	1451.97
435.143	1454.23
435.518	1497.16
435.894	1456.94
436.269	1481.35
436.644	1536.49
437.02	1518.86
437.395	1501.23
437.77	1575.35
438.145	1554.34
438.52	1604.51
438.895	1593.88
439.271	1568.8
439.646	1636.14
440.021	1657.84
440.395	1665.07
440.77	1651.28
441.145	1678.4
441.52	1692.87
441.895	1694.67
442.27	1731.06
442.645	1728.57
443.019	1774.9
443.394	1741.9
443.769	1765.63
444.143	1764.5
444.518	1849.92
444.892	1783.94
445.267	1812.41
445.641	1820.09
446.016	1840.88
446.39	1883.59
446.764	1882.69
447.139	1856.25
447.513	1883.37
447.887	1906.42
448.262	1917.49
448.636	1897.83
449.01	1920.66
449.384	1972.18
449.758	1989.81
450.132	1984.16
450.506	2020.99
450.88	2042.46
451.254	2024.16
451.628	2067.32
452.002	2062.8
452.376	2101.22
452.75	2098.05
453.123	2179.63
453.497	2197.48
453.871	2190.25
454.244	2207.88
454.618	2251.95
454.992	2287.65
455.365	2275.67
455.739	2339.63
456.112	2385.28
456.486	2407.87
456.859	2380.08
457.232	2481.54
457.606	2457.82
457.979	2476.57
458.352	2505.05
458.725	2552.73
459.099	2592.73
459.472	2625.72
459.845	2611.26
460.218	2672.5
460.591	2718.37
460.964	2732.61
461.337	2763.57
461.71	2799.95
462.083	2887.18
462.456	2841.76
462.829	2901.42
463.201	2928.99
463.574	2941.42
463.947	3007.86
464.32	3109.55
464.692	3063.68
465.065	3092.6
465.438	3119.95
465.81	3199.72
466.183	3197.91
466.555	3310.22
466.928	3312.48
467.3	3306.61
467.672	3347.74
468.045	3443.78
468.417	3460.5
468.789	3518.58
469.161	3494.4
469.534	3581.18
469.906	3637.67
470.278	3691.68
470.65	3739.14
471.022	3825.24
471.394	3876.76
471.766	3910.21
472.138	3976.65
472.51	4005.57
472.882	4085.57
473.253	4148.39
473.625	4187.94
473.997	4297.77
474.369	4276.98
474.74	4412.57
475.112	4450.31
475.484	4549.29
475.855	4610.53
476.227	4615.73
476.598	4780.69
476.97	4829.28
477.341	4899.33
477.713	4985.21
478.084	4998.09
478.455	5153.11
478.827	5196.95
479.198	5335.48
479.569	5333.9
479.94	5485.31
480.311	5522.59
480.682	5656.83
481.053	5782.93
481.424	5832.19
481.795	5947.22
482.166	6029.02
482.537	6125.74
482.908	6210.49
483.279	6344.04
483.65	6397.83
484.021	6485.73
484.391	6607.31
484.762	6622.68
485.133	6689.57
485.503	6771.6
485.874	6971.82
486.244	7039.17
486.615	7165.26
486.985	7290.91
487.356	7384.47
487.726	7410
488.097	7574.07
488.467	7689.32
488.837	7810.22
489.207	7880.27
489.578	8047.27
489.948	8095.41
490.318	8190.32
490.688	8212.02
491.058	8359.36
491.428	8400.26
491.798	8581.05
492.168	8703.53
492.538	8757.09
492.908	8836.18
493.278	8996.85
493.648	8967.7
494.017	9076.17
494.387	9202.27
494.757	9229.16
495.126	9362.49
495.496	9392.32
495.866	9488.82
496.235	9619.44
496.605	9669.6
496.974	9728.81
497.344	9848.13
497.713	9850.62
498.082	9954.57
498.452	10091.97
498.821	10064.62
499.19	10180.55
499.559	10318.18
499.928	10372.86
500.298	10452.86
500.667	10511.62
501.036	10563.59
501.405	10679.52
501.774	10690.37
502.143	10797.48
502.512	10859.63
502.88	10957.71
503.249	10952.28
503.618	11101.88
503.987	11094.65
504.356	11240.64
504.724	11251.94
505.093	11333.52
505.462	11406.73
505.83	11502.32
506.199	11544.36
506.567	11713.39
506.936	11738.7
507.304	11899.83
507.672	11905.03
508.041	11982.09
508.409	12124.68
508.777	12222.08
509.145	12327.39
509.514	12333.49
509.882	12404.9
510.25	12531.45
510.618	12597.44
510.986	12610.54
511.354	12803.53
511.722	12823.65
512.09	13038.33
512.458	12986.81
512.826	13083.98
513.193	13198.55
513.561	13247.36
513.929	13395.38
514.297	13511.31
514.664	13583.17
515.032	13597.41
515.4	13785.65
515.767	13897.06
516.135	13924.41
516.502	13791.53
516.869	14174.34
517.237	14143.84
517.604	14224.74
517.972	14428.8
518.339	14532.75
518.706	14584.05
519.073	14630.6
519.44	14723.26
519.808	14873.54
520.175	14876.25
520.542	15090.93
520.909	15243.47
521.276	15225.16
521.643	15453.41
522.009	15551.26
522.376	15653.4
522.743	15776.34
523.11	15959.38
523.477	16075.99
523.843	16168.87
524.21	16387.17
524.577	16408.64
524.943	16586.48
525.31	16657.44
525.676	16856.76
526.043	16913.03
526.409	16979.24
526.776	17226.24
527.142	17270.31
527.508	17346.24
527.874	17475.05
528.241	17560.47
528.607	17678.89
528.973	17885.43
529.339	17937.18
529.705	18056.05
530.071	18217.85
530.437	18188.7
530.803	18355.48
531.169	18567.22
531.535	18507.56
531.901	18621.23
532.267	18700.78
532.632	18800.89
532.998	18929.25
533.364	19086.98
533.73	19128.79
534.095	19338.05
534.461	19419.18
534.826	19416.24
535.192	19422.12
535.557	19682.67
535.923	19596.12
536.288	19759.96
536.653	19930.8
537.019	19836.79
537.384	19918.37
537.749	20051.25
538.114	20172.38
538.479	20239.27
538.845	20265.48
539.21	20335.76
539.575	20345.93
539.94	20451.47
540.305	20678.58
540.67	20542.76
541.034	20666.38
541.399	20845.36
541.764	20813.72
542.129	20902.3
542.494	20988.85
542.858	21091
543.223	21061.17
543.587	21222.97
543.952	21245.57
544.316	21370.54
544.681	21296.19
545.045	21437.88
545.41	21567.14
545.774	21640.36
546.138	21737.54
546.503	21735.5
546.867	21740.47
547.231	21994.25
547.595	21972.33
547.959	22059.34
548.324	22175.94
548.688	22164.19
549.052	22311.53
549.416	22328.48
549.779	22422.26
550.143	22518.76
550.507	22585.88
550.871	22712.88
551.235	22629.26
551.599	22893.44
551.962	22965.3
552.326	22977.73
552.689	23173.2
553.053	22981.8
553.417	23150.61
553.78	23506.98
554.143	23324.61
554.507	23632.18
554.87	23594.21
555.234	23839.4
555.597	23577.71
555.96	23911.94
556.323	23968.66
556.686	23995.56
557.05	24152.16
557.413	24241.42
557.776	24305.83
558.139	24508.99
558.502	24352.61
558.865	24526.39
559.228	24787.85
559.59	24860.62
559.953	24856.1
560.316	25145.13
560.679	25202.98
561.041	25341.96
561.404	25355.97
561.767	25524.55
562.129	25642.07
562.492	25750.54
562.854	25760.25
563.217	25795.06
563.579	26045.22
563.941	26092.9
564.304	26244.76
564.666	26399.56
565.028	26540.57
565.39	26656.73
565.753	26762.49
566.115	26811.75
566.477	26980.56
566.839	27071.41
567.201	27181.23
567.563	27245.41
567.925	27454.45
568.287	27339.2
568.648	27445.41
569.01	27689.7
569.372	27858.5
569.734	27797.04
570.095	27976.24
570.457	28122.23
570.819	28216.01
571.18	28123.81
571.542	28312.96
571.903	28257.36
572.265	28477.47
572.626	28532.16
572.987	28577.13
573.349	28574.87
573.71	28758.59
574.071	28778.03
574.432	28915.65
574.794	29040.39
575.155	29175.08
575.516	29121.52
575.877	29240.16
576.238	29407.39
576.599	29302.99
576.96	29451.23
577.32	29423.89
577.681	29608.29
578.042	29603.32
578.403	29504.56
578.763	29700.49
579.124	29625.24
579.485	29793.14
579.845	29831.79
580.206	29867.94
580.566	29871.33
580.927	29853.93
581.287	29971.9
581.648	29876.76
582.008	30031.1
582.368	30082.4
582.728	30160.82
583.089	30072.68
583.449	29945.68
583.809	30065.23
584.169	30161.04
584.529	30007.6
584.889	30348.61
585.249	30066.36
585.609	29954.27
585.969	30192
586.329	30175.28
586.688	30259.12
587.048	30110.2
587.408	30126.47
587.768	30180.25
588.127	30161.5
588.487	30082.4
588.846	30373.92
589.206	30114.49
589.565	30187.26
589.925	30326.46
590.284	30311.77
590.643	30356.97
591.003	30387.48
591.362	30432.9
591.721	30389.51
592.08	30375.5
592.44	30354.48
592.799	30496.85
593.158	30306.8
593.517	30422.28
593.876	30493.01
594.235	30274.49
594.593	30422.96
594.952	30576.4
595.311	30405.56
595.67	30461.83
596.029	30536.4
596.387	30724.42
596.746	30723.97
597.104	30557.87
597.463	30529.4
597.822	30754.47
598.18	30545.44
598.538	30643.52
598.897	30730.52
599.255	30543.86
599.613	30989.04
599.972	30756.51
600.33	30879.89
600.688	30811.2
601.046	30756.28
601.404	30989.95
601.762	30909.27
602.12	30986.11
602.478	31020.91
602.836	31050.74
603.194	30804.64
603.552	30967.8
603.91	30982.94
604.268	31120.79
604.625	31045.99
604.983	31297.51
605.341	31058.42
605.698	31211.64
606.056	31281.69
606.413	31239.66
606.771	31331.18
607.128	31457.05
607.485	31127.57
607.843	31351.29
608.2	31499.99
608.557	31510.84
608.914	31443.95
609.272	31611.17
609.629	31651.63
609.986	31801.45
610.343	31616.15
610.7	31793.54
611.057	31641
611.414	31765.75
611.771	31833.77
612.127	32051.39
612.484	31878.06
612.841	31841.45
613.198	31785.86
613.554	31839.42
613.911	32052.52
614.267	31988.34
614.624	32153.53
614.98	31916.03
615.337	32150.14
615.693	32053.65
616.05	32050.71
616.406	32361.21
616.762	32247.32
617.118	32231.05
617.475	32317.6
617.831	32335.45
618.187	32372.51
618.543	32504.03
618.899	32639.17
619.255	32481.89
619.611	32461.1
619.967	32739.96
620.323	32701.32
620.678	32448.44
621.034	32365.5
621.39	32374.54
621.746	32408.67
622.101	32707.87
622.457	32589.45
622.812	32590.81
623.168	32608.89
623.523	32511.72
623.879	32763.01
624.234	32463.36
624.589	32568.89
624.945	32580.87
625.3	32725.72
625.655	32688.89
626.01	32581.77
626.365	32580.19
626.72	32553.75
627.075	32494.54
627.43	32559.62
627.785	32504.94
628.14	32563.01
628.495	32634.2
628.85	32454.54
629.205	32431.72
629.559	32635.1
629.914	32453.64
630.269	32505.61
630.623	32367.09
630.978	32307.88
631.332	32513.98
631.687	32454.32
632.041	32338.61
632.396	32506.97
632.75	32221.1
633.104	32296.81
633.459	32174.32
633.813	32157.83
634.167	32145.62
634.521	32064.72
634.875	32290.25
635.229	32065.4
635.583	31891.62
635.937	31893.65
636.291	31890.26
636.645	31902.24
636.999	31826.76
637.352	31950.37
637.706	31818.85
638.06	31917.61
638.413	31933.65
638.767	31717.84
639.121	31608.01
639.474	31583.38
639.828	31684.17
640.181	31584.96
640.534	31591.51
640.888	31382.48
641.241	31338.87
641.594	31483.04
641.947	31388.36
642.301	31303.39
642.654	31352.42
643.007	31297.96
643.36	31360.11
643.713	31285.76
644.066	31265.42
644.419	31002.83
644.771	30868.82
645.124	30589.96
645.477	30608.26
645.83	30380.25
646.182	30322.39
646.535	30143.64
646.888	30172.79
647.24	29950.43
647.593	30182.96
647.945	30049.41
648.298	29963.53
648.65	29806.48
649.002	29707.95
649.355	29928.73
649.707	29901.16
650.059	30024.32
650.411	30319.23
650.763	30481.03
651.115	30686
651.467	30559
651.819	30466.57
652.171	30474.93
652.523	30488.04
652.875	30339.34
653.227	30349.96
653.578	30418.21
653.93	30424.99
654.282	30208.5
654.633	30196.3
654.985	30120.82
655.337	30327.82
655.688	30208.05
656.039	30336.86
656.391	30030.88
656.742	30074.94
657.094	30123.98
657.445	30161.27
657.796	30086.47
658.147	30127.15
658.498	29980.71
658.849	29959.01
659.2	29988.17
659.551	29957.21
659.902	29965.34
660.253	29965.79
660.604	29966.02
660.955	29933.03
661.306	29913.59
661.656	29870.2
662.007	29865.91
662.358	29897.55
662.708	29813.48
663.059	29779.13
663.409	29643.09
663.76	29777.32
664.11	29798.57
664.461	29705.69
664.811	29817.1
665.161	29696.65
665.511	29763.54
665.862	29796.31
666.212	29794.73
666.562	29707.27
666.912	29738.68
667.262	29752.47
667.612	29633.15
667.962	29679.93
668.312	29688.97
668.662	29851.22
669.011	29588.18
669.361	29611.45
669.711	29653.26
670.06	29582.75
670.41	29480.61
670.76	29415.75
671.109	29592.02
671.459	29486.26
671.808	29401.74
672.157	29464.34
672.507	29415.3
672.856	29302.08
673.205	29317.68
673.554	29342.53
673.904	29263.89
674.253	29335.98
674.602	29429.54
674.951	29072.48
675.3	28754.98
675.649	29219.15
675.998	29117.68
676.346	29204.91
676.695	29337.56
677.044	29094.18
677.393	29122.88
677.741	29129.66
678.09	29081.52
678.438	28971.24
678.787	29038.59
679.135	29103.22
679.484	28824.58
679.832	28967.18
680.181	28646.05
680.529	28938.7
680.877	28750.68
681.225	28836.33
681.573	29023.67
681.922	28742.1
682.27	28526.96
682.618	28674.75
682.966	28534.19
683.314	28491.71
683.661	28459.39
684.009	28366.51
684.357	28456.68
684.705	28198.61
685.053	28389.11
685.4	28141.66
685.748	28116.35
686.095	28159.97
686.443	27947.54
686.79	27919.75
687.138	27917.71
687.485	27969.46
687.832	27956.13
688.18	27896.02
688.527	27702.35
688.874	27702.35
689.221	27563.6
689.568	27522.47
689.915	27547.55
690.262	27471.85
690.609	27411.74
690.956	27292.87
691.303	27208.13
691.65	27151.4
691.997	27171.07
692.344	26948.02
692.69	26901.02
693.037	26933.11
693.383	26691.76
693.73	26976.95
694.077	26758.42
694.423	26657.86
694.769	26547.58
695.116	26421.71
695.462	26472.33
695.808	26340.13
696.155	26420.12
696.501	26205.21
696.847	26236.85
697.193	25981.27
697.539	26234.59
697.885	25956.86
698.231	25832.57
698.577	25840.03
698.923	25852.68
699.269	25893.13
699.614	25644.33
699.96	25568.4
700.306	25570.88
700.651	25472.13
700.997	25401.85
701.342	25322.3
701.688	25329.31
702.033	25116.2
702.379	25207.95
702.724	25146.03
703.069	25215.41
703.415	24808.42
703.76	24896.32
704.105	24935.42
704.45	24762.99
704.795	24681.87
705.14	24529.55
705.485	24641.87
705.83	24421.53
706.175	24554.86
706.52	24428.99
706.865	24350.57
707.209	24172.95
707.554	24239.84
707.899	24350.12
708.243	24114.65
708.588	24100.41
708.932	23877.82
709.277	23936.12
709.621	23983.58
709.966	23758.5
710.31	23865.84
710.654	23640.31
710.998	23676.24
711.342	23599.63
711.687	23518.73
712.031	23503.82
712.375	23419.3
712.719	23358.06
713.063	23361.67
713.407	23341.79
713.75	23367.55
714.094	23222.47
714.438	23216.14
714.782	23095.92
715.125	23133.66
715.469	23118.52
715.812	22950.39
716.156	22779.77
716.499	22983.38
716.843	22869.03
717.186	22771.18
717.53	22929.14
717.873	22906.77
718.216	22724.18
718.559	22682.37
718.902	22536.84
719.246	22589.72
719.589	22550.17
719.932	22480.34
720.275	22417.29
720.617	22373.45
720.96	22362.15
721.303	22311.76
721.646	22387.24
721.989	22168.94
722.331	22259.33
722.674	22116.73
723.016	22110.63
723.359	22118.32
723.701	22129.16
724.044	21915.38
724.386	21832.22
724.729	21976.85
725.071	21942.95
725.413	21988.38
725.755	21869.28
726.097	21877.42
726.439	21740.7
726.782	21664.32
727.124	21724.43
727.465	21674.94
727.807	21537.32
728.149	21586.81
728.491	21567.14
728.833	21528.28
729.175	21441.5
729.516	21396.3
729.858	21381.16
730.199	21422.52
730.541	21388.84
730.882	21344.1
731.224	21323.54
731.565	21118.12
731.906	21124.9
732.248	21248.28
732.589	21084.22
732.93	21022.07
733.271	21040.38
733.612	21011.45
733.953	21121.28
734.294	20955.64
734.635	20844.45
734.976	21021.62
735.317	20831.12
735.658	20761.29
735.999	20797.45
736.339	20737.11
736.68	20696.66
737.021	20694.17
737.361	20674.51
737.702	20701.86
738.042	20634.29
738.383	20558.13
738.723	20594.29
739.063	20547.28
739.404	20541.86
739.744	20520.84
740.084	20380.51
740.424	20443.56
740.764	20385.93
741.104	20469.09
741.444	20235.65
741.784	20301.19
742.124	20302.09
742.464	20256.44
742.804	20283.56
743.143	20140.06
743.483	20176.67
743.823	20077.24
744.162	20051.48
744.502	20100.52
744.841	19963.57
745.181	19983.91
745.52	19991.59
745.86	19920.18
746.199	19887.41
746.538	19819.39
746.877	19862.56
747.216	19881.31
747.556	19703.92
747.895	19832.5
748.234	19569.01
748.573	19633.86
748.911	19617.14
749.25	19659.85
749.589	19518.84
749.928	19508.67
750.267	19504.15
750.605	19414.88
750.944	19355.68
751.283	19253.99
751.621	19377.6
751.96	19179.41
752.298	19194.33
752.636	19292.85
752.975	19093.31
753.313	19004.73
753.651	19188.45
753.989	18997.95
754.327	18881.57
