Data from breadboard_white_FLMS001491_00005.txt Node
Date: Wed Feb 08 10:47:09 GMT 2017
User: dcchb
Spectrometer: FLMS00149
Trigger mode: 0
Integration Time (sec): 2.000000E-2
Scans to average: 10
Electric dark correction enabled: true
Nonlinearity correction enabled: false
Boxcar width: 0
XAxis mode: Wavelengths
Number of Pixels in Spectrum: 2048
>>>>>Begin Spectral Data<<<<<
341.393	7.3
341.776	7.3
342.16	7.3
342.543	-54.39
342.927	-54.62
343.31	-77.44
343.693	-75.18
344.077	-85.35
344.46	-59.59
344.843	-53.26
345.226	-22.08
345.61	-10.55
345.993	-30.89
346.376	1.65
346.759	4.36
347.142	27.87
347.525	39.17
347.908	61.54
348.291	72.84
348.674	97.47
349.057	109.45
349.44	118.71
349.823	148.77
350.206	159.16
350.588	221.31
350.971	247.75
351.354	267.63
351.737	258.82
352.119	277.8
352.502	282.32
352.884	293.85
353.267	307.41
353.65	308.54
354.032	320.51
354.414	318.71
354.797	334.07
355.179	350.57
355.562	354.19
355.944	362.32
356.326	359.38
356.709	368.87
357.091	380.85
357.473	368.2
357.855	350.34
358.238	364.35
358.62	375.43
359.002	357.35
359.384	360.06
359.766	366.39
360.148	360.51
360.53	377.91
360.912	374.3
361.294	381.08
361.676	365.71
362.057	355.99
362.439	339.27
362.821	354.64
363.203	361.19
363.584	351.25
363.966	348.99
364.348	367.07
364.729	357.58
365.111	354.86
365.493	358.71
365.874	332.27
366.256	356.9
366.637	360.74
367.019	354.64
367.4	353.51
367.781	378.82
368.163	364.13
368.544	351.93
368.925	338.14
369.306	334.07
369.688	365.26
370.069	368.2
370.45	339.95
370.831	347.18
371.212	348.99
371.593	332.72
371.974	360.29
372.355	343.56
372.736	337.91
373.117	381.76
373.498	342.89
373.879	379.72
374.26	372.26
374.641	365.71
375.021	352.6
375.402	364.81
375.783	365.26
376.163	380.4
376.544	403
376.925	394.18
377.305	371.36
377.686	383.79
378.066	380.63
378.447	385.6
378.827	388.99
379.208	381.76
379.588	378.37
379.968	376.33
380.349	402.09
380.729	402.55
381.109	396.44
381.489	400.51
381.87	394.64
382.25	416.33
382.63	403
383.01	423.11
383.39	419.72
383.77	418.14
384.15	424.24
384.53	428.53
384.91	428.08
385.29	441.87
385.67	433.73
386.049	431.25
386.429	432.38
386.809	469.21
387.189	438.48
387.568	447.97
387.948	447.29
388.328	468.98
388.707	475.76
389.087	480.51
389.466	478.25
389.846	479.15
390.225	447.52
390.605	468.08
390.984	472.83
391.363	503.79
391.743	500.85
392.122	510.34
392.501	498.14
392.881	522.09
393.26	527.29
393.639	514.63
394.018	537.46
394.397	528.64
394.776	577.46
395.155	570.9
395.534	563.45
395.913	552.82
396.292	567.74
396.671	590.34
397.05	609.32
397.429	607.96
397.808	593.05
398.186	603.44
398.565	636.66
398.944	635.08
399.323	629.88
399.701	655.42
400.08	659.49
400.458	670.56
400.837	678.02
401.215	691.8
401.594	709.2
401.972	696.55
402.351	714.85
402.729	731.12
403.107	762.76
403.486	737.9
403.864	761.41
404.242	780.62
404.62	767.73
404.999	818.13
405.377	832.82
405.755	852.25
406.133	859.48
406.511	862.19
406.889	890.89
407.267	882.08
407.645	914.85
408.023	949.65
408.401	936.32
408.779	973.83
409.156	976.54
409.534	999.37
409.912	1014.73
410.29	1039.37
410.667	1060.61
411.045	1093.83
411.422	1082.53
411.8	1116.2
412.178	1158.23
412.555	1184.22
412.933	1207.95
413.31	1233.94
413.687	1231.22
414.065	1267.16
414.442	1314.39
414.819	1318.68
415.197	1311.22
415.574	1342.18
415.951	1382.18
416.328	1383.76
416.705	1394.61
417.082	1416.08
417.46	1456.76
417.837	1467.6
418.214	1486.59
418.591	1493.14
418.967	1506.02
419.344	1548.28
419.721	1582.4
420.098	1574.04
420.475	1612.68
420.852	1630.99
421.228	1642.29
421.605	1656.07
421.982	1682.06
422.358	1697.43
422.735	1724.09
423.111	1736.07
423.488	1743.75
423.864	1812.9
424.241	1821.04
424.617	1844.09
424.994	1846.58
425.37	1865.11
425.746	1887.48
426.123	1932.22
426.499	1951.88
426.875	1965.22
427.251	1981.26
427.627	2059.68
428.003	2067.36
428.379	2112.11
428.756	2164.08
429.132	2148.71
429.507	2199.56
429.883	2190.52
430.259	2252.89
430.635	2291.76
431.011	2272.55
431.387	2327.69
431.763	2398.2
432.138	2392.78
432.514	2459.89
432.89	2462.6
433.265	2509.84
433.641	2513.45
434.016	2588.25
434.392	2610.62
434.767	2656.95
435.143	2664.18
435.518	2704.18
435.894	2726.78
436.269	2760.9
436.644	2779.66
437.02	2844.52
437.395	2862.14
437.77	2890.39
438.145	2946.89
438.52	2956.83
438.895	3006.32
439.271	3005.64
439.646	3085.19
440.021	3072.98
440.395	3086.77
440.77	3105.07
441.145	3134
441.52	3194.79
441.895	3194.11
442.27	3212.42
442.645	3256.26
443.019	3279.53
443.394	3314.11
443.769	3357.04
444.143	3355.01
444.518	3364.73
444.892	3384.61
445.267	3407.44
445.641	3415.35
446.016	3469.58
446.39	3490.15
446.764	3519.07
447.139	3510.03
447.513	3521.56
447.887	3524.27
448.262	3577.38
448.636	3604.5
449.01	3639.52
449.384	3711.39
449.758	3668.9
450.132	3774.66
450.506	3794.77
450.88	3841.1
451.254	3820.76
451.628	3861.89
452.002	3960.42
452.376	3956.8
452.75	4025.5
453.123	4053.98
453.497	4134.88
453.871	4135.33
454.244	4249.68
454.618	4234.31
454.992	4286.06
455.365	4348.43
455.739	4456.9
456.112	4509.78
456.486	4513.62
456.859	4563.57
457.232	4598.59
457.606	4624.13
457.979	4688.76
458.352	4772.6
458.725	4857.8
459.099	4888.3
459.472	4952.03
459.845	5053.5
460.218	5063.67
460.591	5127.39
460.964	5182.99
461.337	5220.95
461.71	5315.86
462.083	5427.05
462.456	5421.62
462.829	5437.44
463.201	5556.08
463.574	5618
463.947	5671.79
464.32	5801.27
464.692	5869.29
465.065	5859.13
465.438	5974.6
465.81	6039.23
466.183	6178.21
466.555	6288.04
466.928	6311.09
467.3	6320.36
467.672	6426.79
468.045	6584.53
468.417	6617.52
468.789	6644.64
469.161	6670.18
469.534	6878.31
469.906	7038.3
470.278	7087.12
470.65	7167.11
471.022	7266.09
471.394	7404.17
471.766	7478.74
472.138	7525.3
472.51	7754.44
472.882	7835.57
473.253	7953.31
473.625	8048.67
473.997	8160.53
474.369	8267.2
474.74	8373.18
475.112	8543.12
475.484	8661.54
475.855	8871.48
476.227	8894.53
476.598	9178.13
476.97	9257
477.341	9425.36
477.713	9567.5
478.084	9656.09
478.455	9894.95
478.827	10013.59
479.198	10263.53
479.569	10327.93
479.94	10579.23
480.311	10689.96
480.682	10938.31
481.053	11155.48
481.424	11373.56
481.795	11470.28
482.166	11571.52
482.537	11758.41
482.908	12039.3
483.279	12168.34
483.65	12331.95
484.021	12682.67
484.391	12769.9
484.762	12900.75
485.133	13059.39
485.503	13268.42
485.874	13506.61
486.244	13661.41
486.615	13872.47
486.985	14101.17
487.356	14283.76
487.726	14429.3
488.097	14712.9
488.467	14691.21
488.837	15111.54
489.207	15371.64
489.578	15450.96
489.948	15593.11
490.318	15848.69
490.688	15916.04
491.058	16210.04
491.428	16407.77
491.798	16469.02
492.168	16914.43
492.538	16869.91
492.908	17112.84
493.278	17322.55
493.648	17341.76
494.017	17581.98
494.387	17777.91
494.757	17873.95
495.126	18100.84
495.496	18216.31
495.866	18325.69
496.235	18501.73
496.605	18668.51
496.974	18703.31
497.344	19029.17
497.713	19070.98
498.082	19283.18
498.452	19473.46
498.821	19680.68
499.19	19651.31
499.559	19862.83
499.928	19961.13
500.298	20101.24
500.667	20317.28
501.036	20311.4
501.405	20598.63
501.774	20606.31
502.143	20725.63
502.512	20793.65
502.88	21196.35
503.249	21098.5
503.618	21272.96
503.987	21281.32
504.356	21540.52
504.724	21632.04
505.093	21768.54
505.462	21888.99
505.83	22046.5
506.199	22212.59
506.567	22535.75
506.936	22489.2
507.304	22768.29
507.672	22837.89
508.041	23094.6
508.409	23250.08
508.777	23347.25
509.145	23523.75
509.514	23420.92
509.882	23742.72
510.25	23922.61
510.618	24144.97
510.986	24225.42
511.354	24387.9
511.722	24615.02
512.09	24819.53
512.458	24833.54
512.826	24987.44
513.193	25138.17
513.561	25332.96
513.929	25431.04
514.297	25701.99
514.664	25953.51
515.032	25979.95
515.4	26214.52
515.767	26381.3
516.135	26618.58
516.502	26419.94
516.869	27015.18
517.237	26960.27
517.604	26952.81
517.972	27346.92
518.339	27485
518.706	27719.79
519.073	27861.26
519.44	28040.46
519.808	28339.44
520.175	28364.97
520.542	28585.76
520.909	28832.53
521.276	28893.1
521.643	29171.06
522.009	29400.88
522.376	29687.88
522.743	29844.03
523.11	30073.4
523.477	30309.1
523.843	30514.52
524.21	30853.72
524.577	31059.59
524.943	31305.46
525.31	31454.38
525.676	31661.39
526.043	32017.08
526.409	31988.16
526.776	32303.63
527.142	32457.75
527.508	32693.22
527.874	32808.93
528.241	33069.03
528.607	33164.85
528.973	33550.6
529.339	33459.98
529.705	33907.65
530.071	34206.18
530.437	34271.26
530.803	34423.8
531.169	34713.96
531.535	34527.98
531.901	34803.22
532.267	34993.95
532.632	35233.95
532.998	35418.57
533.364	35573.15
533.73	35614.5
534.095	35997.32
534.461	35961.38
534.826	36310.75
535.192	36329.74
535.557	36631.2
535.923	36585.1
536.288	36722.72
536.653	36851.98
537.019	36825.54
537.384	37096.72
537.749	37178.75
538.114	37326.09
538.479	37373.33
538.845	37670.72
539.21	37620.78
539.575	37841.56
539.94	37929.47
540.305	38173.98
540.67	38134.44
541.034	38293.3
541.399	38420.3
541.764	38459.85
542.129	38719.96
542.494	38907.3
542.858	38827.07
543.223	38972.15
543.587	39219.6
543.952	39119.72
544.316	39449.43
544.681	39247.85
545.045	39734.39
545.41	39719.7
545.774	39874.95
546.138	39871.11
546.503	40020.94
546.867	40122.41
547.231	40408.27
547.595	40466.13
547.959	40633.58
548.324	40516.29
548.688	40806.91
549.052	40768.04
549.416	40943.4
549.779	41029.27
550.143	41253
550.507	41326.44
550.871	41407.34
551.235	41540
551.599	41852.76
551.962	41865.64
552.326	42024.5
552.689	42250.71
553.053	42116.7
553.417	42326.42
553.78	42704.94
554.143	42700.87
554.507	42967.08
554.87	42963.01
555.234	43488.19
555.597	43150.8
555.96	43396.22
556.323	43465.82
556.686	43683.22
557.05	43936.09
557.413	43967.05
557.776	44184.9
558.139	44437.09
558.502	44502.86
558.865	44639.35
559.228	44979.9
559.59	44985.55
559.953	45131.31
560.316	45434.58
560.679	45499.44
561.041	45850.16
561.404	45740.56
561.767	46023.04
562.129	45970.39
562.492	46349.13
562.854	46420.77
563.217	46421.22
563.579	46653.31
563.941	46906.86
564.304	47112.5
564.666	47397.92
565.028	47419.39
565.39	47483.34
565.753	47724.24
566.115	47852.82
566.477	48021.86
566.839	48092.82
567.201	48432.92
567.563	48376.43
567.925	48692.12
568.287	48641.28
568.648	48940.03
569.01	49089.4
569.372	49125.33
569.734	49091.66
570.095	49327.81
570.457	49417.53
570.819	49592.66
571.18	49524.19
571.542	49760.34
571.903	49872.66
572.265	49936.84
572.626	50099.54
572.987	50187
573.349	50272.65
573.71	50367.79
574.071	50480.33
574.432	50528.91
574.794	50724.16
575.155	50705.63
575.516	50638.29
575.877	50833.31
576.238	50931.84
576.599	51026.75
576.96	51100.87
577.32	51030.37
577.681	51268.78
578.042	51238.05
578.403	51205.96
578.763	51248.44
579.124	51289.57
579.485	51524.14
579.845	51456.34
580.206	51407.31
580.566	51517.81
580.927	51576.57
581.287	51645.94
581.648	51580.64
582.008	51748.99
582.368	51678.94
582.728	51661.99
583.089	51601.88
583.449	51669.45
583.809	51680.52
584.169	51694.53
584.529	51680.97
584.889	51902.66
585.249	51674.42
585.609	51677.81
585.969	51751.03
586.329	51680.07
586.688	51678.94
587.048	51714.19
587.408	51761.65
587.768	51621.99
588.127	51750.57
588.487	51595.78
588.846	51817.69
589.206	51616.57
589.565	51697.02
589.925	51783.12
590.284	51683.01
590.643	51684.36
591.003	51757.81
591.362	51876.9
591.721	51869.22
592.08	51786.05
592.44	51981.98
592.799	51856.33
593.158	51801.65
593.517	51870.12
593.876	51971.13
594.235	51873.96
594.593	51831.02
594.952	51829.22
595.311	51800.74
595.67	51852.49
596.029	51917.35
596.387	52066.27
596.746	52078.02
597.104	52010.91
597.463	52042.77
597.822	52085.48
598.18	51989.89
598.538	51894.98
598.897	52189.66
599.255	51920.74
599.613	52274.18
599.972	52154.63
600.33	52170.9
600.688	52092.71
601.046	52142.43
601.404	52271.24
601.762	52229.43
602.12	52344.68
602.478	52353.5
602.836	52354.63
603.194	52200.96
603.552	52322.31
603.91	52244.35
604.268	52366.6
604.625	52322.54
604.983	52443.66
605.341	52285.93
605.698	52411.35
606.056	52466.49
606.413	52467.17
606.771	52551.91
607.128	52588.74
607.485	52451.35
607.843	52485.47
608.2	52695.63
608.557	52699.25
608.914	52673.26
609.272	52804.33
609.629	52821.73
609.986	52959.13
610.343	52741.51
610.7	52925.46
611.057	52980.6
611.414	52945.8
611.771	52844.1
612.127	52985.34
612.484	52915.74
612.841	52994.61
613.198	52914.39
613.554	52977.66
613.911	53138.56
614.267	53169.97
614.624	53024.44
614.98	53101.05
615.337	53273.02
615.693	53191.21
616.05	53204.1
616.406	53395.73
616.762	53176.53
617.118	53315.28
617.475	53267.14
617.831	53399.34
618.187	53368.84
618.543	53308.95
618.899	53511.88
619.255	53526.57
619.611	53439.8
619.967	53536.74
620.323	53510.98
620.678	53415.84
621.034	53331.78
621.39	53368.38
621.746	53330.19
622.101	53637.53
622.457	53446.35
622.812	53517.53
623.168	53602.5
623.523	53526.57
623.879	53651.32
624.234	53387.14
624.589	53595.5
624.945	53596.63
625.3	53579.23
625.655	53563.63
626.01	53431.89
626.365	53534.03
626.72	53479.57
627.075	53501.26
627.43	53495.61
627.785	53318.22
628.14	53330.19
628.495	53478.21
628.85	53427.37
629.205	53290.87
629.559	53486.12
629.914	53242.96
630.269	53251.1
630.623	53120.93
630.978	53096.08
631.332	53255.62
631.687	53244.55
632.041	53148.5
632.396	53164.77
632.75	53016.76
633.104	53133.81
633.459	52959.58
633.813	52917.1
634.167	52874.84
634.521	52924.55
634.875	52874.16
635.229	52777.21
635.583	52617.22
635.937	52684.79
636.291	52665.8
636.645	52682.08
636.999	52506.94
637.352	52644.56
637.706	52479.37
638.06	52606.82
638.413	52430.1
638.767	52276.44
639.121	52446.83
639.474	52256.32
639.828	52283.22
640.181	52268.75
640.534	52266.94
640.888	52189.88
641.241	51998.03
641.594	52031.24
641.947	52163.44
642.301	52099.49
642.654	52030.57
643.007	52033.28
643.36	51958.25
643.713	51848.42
644.066	52044.8
644.419	51767.3
644.771	51532.27
645.124	51118.05
645.477	51200.08
645.83	50975.68
646.182	50802.35
646.535	50700.43
646.888	50899.3
647.24	50491.85
647.593	50810.26
647.945	50585.63
648.298	50364.85
648.65	50402.36
649.002	50266.09
649.355	50456.15
649.707	50401.91
650.059	50653.65
650.411	50901.78
650.763	50896.59
651.115	51217.71
651.467	50988.33
651.819	51067.2
652.171	50931.16
652.523	50947.43
652.875	50872.86
653.227	50832.86
653.578	51020.2
653.93	50829.02
654.282	50668.57
654.633	50483.94
654.985	50713.54
655.337	50690.94
655.688	50595.58
656.039	50665.18
656.391	50473.32
656.742	50483.49
657.094	50497.95
657.445	50690.04
657.796	50549.7
658.147	50455.47
658.498	50422.7
658.849	50398.07
659.2	50345.87
659.551	50247.79
659.902	50452.76
660.253	50285.75
660.604	50364.62
660.955	50232.87
661.306	50288.24
661.656	50218.64
662.007	50222.03
662.358	50173.67
662.708	50211.18
663.059	50115.82
663.409	49849.83
663.76	50040.56
664.11	50018.64
664.461	50168.47
664.811	50080.79
665.161	49977.51
665.511	49891.64
665.862	49980
666.212	50028.13
666.562	49990.17
666.912	49893
667.262	49752.66
667.612	49920.79
667.962	49832.21
668.312	49818.42
668.662	49936.84
669.011	49715.37
669.361	49697.07
669.711	49709.72
670.06	49754.24
670.41	49657.52
670.76	49589.5
671.109	49788.59
671.459	49671.53
671.808	49538.88
672.157	49620.23
672.507	49407.36
672.856	49406.46
673.205	49441.48
673.554	49559.22
673.904	49374.82
674.253	49551.99
674.602	49404.87
674.951	48906.36
675.3	48622.97
675.649	49244.88
675.998	49212.79
676.346	49168.95
676.695	49300.47
677.044	49006.24
677.393	49098.89
677.741	49126.69
678.09	48974.15
678.438	48866.36
678.787	49001.49
679.135	49028.61
679.484	48676.08
679.832	48863.42
680.181	48626.59
680.529	48658
680.877	48528.51
681.225	48569.87
681.573	48754.72
681.922	48342.3
682.27	48211.23
682.618	48346.82
682.966	48286.26
683.314	48322.64
683.661	48228.63
684.009	47958.36
684.357	47801.98
684.705	47804.69
685.053	47828.19
685.4	47778.7
685.748	47594.07
686.095	47465.04
686.443	47404.7
686.79	47375.55
687.138	47507.3
687.485	47403.12
687.832	47182.56
688.18	47275.89
688.527	47039.96
688.874	47022.11
689.221	46968.1
689.568	46736.69
689.915	46741.89
690.262	46675.45
690.609	46620.99
690.956	46461.67
691.303	46343.71
691.65	46115.02
691.997	46177.61
692.344	45876.15
692.69	45898.75
693.037	45837.51
693.383	45607.68
693.73	45681.58
694.077	45403.62
694.423	45262.16
694.769	45320.91
695.116	45155.04
695.462	45119.56
695.808	44918.89
696.155	45120.69
696.501	44664.88
696.847	44630.08
697.193	44375.63
697.539	44650.42
697.885	44154.39
698.231	44094.96
698.577	44039.82
698.923	44032.13
699.269	43780.61
699.614	43590.34
699.96	43553.28
700.306	43490.45
700.651	43403.68
700.997	43308.54
701.342	43210.23
701.688	43012.05
702.033	42923.69
702.379	43002.1
702.724	42812.73
703.069	42861.77
703.415	42304.04
703.76	42380.65
704.105	42348.56
704.45	42220.2
704.795	41964.62
705.14	41953.54
705.485	41955.58
705.83	41670.61
706.175	41773.66
706.52	41631.52
706.865	41339.55
707.209	41519.88
707.554	41233.79
707.899	41444.63
708.243	41123.28
708.588	41076.05
708.932	40821.37
709.277	40814.82
709.621	40772.78
709.966	40361.04
710.31	40578.21
710.654	40195.4
710.998	40212.35
711.342	40250.54
711.687	40211.44
712.031	39888.74
712.375	39831.34
712.719	39802.19
713.063	39755.86
713.407	39890.55
713.75	39714.96
714.094	39519.26
714.438	39373.05
714.782	39276.78
715.125	39227.74
715.469	39325.59
715.812	38981.19
716.156	38870.24
716.499	38937.13
716.843	38876.34
717.186	38823.68
717.53	38771.48
717.873	38791.82
718.216	38577.59
718.559	38436.8
718.902	38373.52
719.246	38450.59
719.589	38165.17
719.932	38140.99
720.275	38201.1
720.617	38046.3
720.96	37973.08
721.303	37971.73
721.646	37905.51
721.989	37678.85
722.331	37830.04
722.674	37602.92
723.016	37493.55
723.359	37480.44
723.701	37549.59
724.044	37169.26
724.386	37215.14
724.729	37294.23
725.071	37219.43
725.413	36962.49
725.755	37101.92
726.097	36851.08
726.439	36683.85
726.782	36763.62
727.124	36879.78
727.465	36609.73
727.807	36510.98
728.149	36437.76
728.491	36351.66
728.833	36469.62
729.175	36291.09
729.516	36272.79
729.858	36147.82
730.199	36198.89
730.541	36239.34
730.882	36033.47
731.224	36211.32
731.565	35776.31
731.906	35859.24
732.248	35880.94
732.589	35769.3
732.93	35621.05
733.271	35552.58
733.612	35690.21
733.953	35516.88
734.294	35378.12
734.635	35301.29
734.976	35468.74
735.317	35184
735.658	35179.03
735.999	35178.58
736.339	35152.14
736.68	35155.76
737.021	34970.45
737.361	34726.16
737.702	34980.62
738.042	34696.79
738.383	34694.53
738.723	34829.89
739.063	34602.1
739.404	34721.87
739.744	34631.7
740.084	34433.52
740.424	34507.86
740.764	34236.01
741.104	34444.14
741.444	34140.64
741.784	33920.76
742.124	34111.26
742.464	33897.94
742.804	33807.54
743.143	33871.27
743.483	33909.91
743.823	33725.74
744.162	33597.83
744.502	33686.42
744.841	33517.83
745.181	33622.69
745.52	33540.43
745.86	33422.69
746.199	33306.31
746.538	33398.51
746.877	33430.6
747.216	33377.72
747.556	33179.99
747.895	33138.63
748.234	32932.99
748.573	32972.31
748.911	33011.63
749.25	32832.2
749.589	32641.47
749.928	32715.82
750.267	32711.53
750.605	32558.54
750.944	32520.35
751.283	32357.86
751.621	32468.14
751.96	32284.87
752.298	32244.87
752.636	32221.37
752.975	31973.69
753.313	31945.9
