Data from breadboard_white_FLMS001491_00047.txt Node
Date: Wed Feb 08 10:47:47 GMT 2017
User: dcchb
Spectrometer: FLMS00149
Trigger mode: 0
Integration Time (sec): 2.000000E-2
Scans to average: 10
Electric dark correction enabled: true
Nonlinearity correction enabled: false
Boxcar width: 0
XAxis mode: Wavelengths
Number of Pixels in Spectrum: 2048
>>>>>Begin Spectral Data<<<<<
341.393	2.1
341.776	2.1
342.16	2.1
342.543	-59.36
342.927	-44.45
343.31	-85.58
343.693	-75.41
344.077	-76.76
344.46	-57.55
344.843	-44.67
345.226	-49.87
345.61	-33.6
345.993	-17.1
346.376	-5.13
346.759	15.66
347.142	16.12
347.525	56.79
347.908	45.72
348.291	90.92
348.674	99.5
349.057	120.97
349.44	102.21
349.823	146.73
350.206	155.09
350.588	193.96
350.971	226.28
351.354	240.97
351.737	249.56
352.119	262.21
352.502	263.11
352.884	281.42
353.267	301.31
353.65	307.86
354.032	312.6
354.414	331.59
354.797	326.16
355.179	326.62
355.562	342.66
355.944	338.37
356.326	339.5
356.709	343.56
357.091	358.48
357.473	370.68
357.855	360.06
358.238	355.77
358.62	356.67
359.002	376.33
359.384	388.08
359.766	365.48
360.148	341.98
360.53	367.97
360.912	362.77
361.294	355.77
361.676	348.54
362.057	363.68
362.439	365.94
362.821	341.08
363.203	357.12
363.584	355.99
363.966	348.54
364.348	342.43
364.729	343.56
365.111	341.53
365.493	335.88
365.874	341.98
366.256	336.33
366.637	329.78
367.019	346.5
367.4	357.35
367.781	339.04
368.163	343.11
368.544	328.88
368.925	328.65
369.306	362.77
369.688	345.82
370.069	344.24
370.45	332.49
370.831	349.89
371.212	350.8
371.593	352.6
371.974	351.93
372.355	324.13
372.736	330.91
373.117	348.99
373.498	355.32
373.879	341.76
374.26	365.26
374.641	351.25
375.021	365.71
375.402	352.38
375.783	350.8
376.163	362.55
376.544	370.23
376.925	372.72
377.305	373.62
377.686	377.91
378.066	370.23
378.447	358.03
378.827	384.47
379.208	383.56
379.588	374.3
379.968	368.87
380.349	381.98
380.729	378.59
381.109	377.69
381.489	390.57
381.87	381.3
382.25	381.3
382.63	417.01
383.01	404.35
383.39	408.87
383.77	386.5
384.15	401.64
384.53	418.36
384.91	389.21
385.29	418.14
385.67	412.26
386.049	409.33
386.429	426.73
386.809	437.57
387.189	436.67
387.568	452.04
387.948	434.18
388.328	410.91
388.707	441.19
389.087	426.73
389.466	461.53
389.846	459.04
390.225	462.21
390.605	471.24
390.984	488.19
391.363	482.09
391.743	492.04
392.122	482.32
392.501	515.54
392.881	498.81
393.26	515.54
393.639	532.49
394.018	522.99
394.397	528.87
394.776	541.3
395.155	543.11
395.534	542.88
395.913	543.11
396.292	537.91
396.671	572.94
397.05	566.16
397.429	573.61
397.808	598.7
398.186	588.08
398.565	604.8
398.944	611.58
399.323	623.78
399.701	594.63
400.08	638.47
400.458	646.61
400.837	655.19
401.215	674.18
401.594	660.39
401.972	676.21
402.351	681.63
402.729	692.93
403.107	703.78
403.486	710.11
403.864	715.76
404.242	725.7
404.62	769.32
404.999	775.19
405.377	764.57
405.755	806.15
406.133	800.73
406.511	795.53
406.889	829.2
407.267	837.56
407.645	855.42
408.023	893.15
408.401	901.29
408.779	928.41
409.156	942.19
409.534	953.94
409.912	944.23
410.29	995.75
410.667	1019.25
411.045	1040.27
411.422	1024.45
411.8	1016.32
412.178	1080.27
412.555	1102.87
412.933	1136.09
413.31	1156.65
413.687	1153.71
414.065	1196.88
414.442	1210.43
414.819	1215.41
415.197	1230.09
415.574	1247.95
415.951	1261.96
416.328	1283.65
416.705	1291.11
417.082	1328.85
417.46	1338.34
417.837	1366.81
418.214	1392.35
418.591	1380.37
418.967	1417.43
419.344	1431.9
419.721	1468.05
420.098	1446.81
420.475	1508.28
420.852	1501.95
421.228	1499.01
421.605	1528.84
421.982	1603.19
422.358	1553.93
422.735	1586.7
423.111	1592.8
423.488	1647.03
423.864	1658.56
424.241	1687.94
424.617	1701.27
424.994	1735.17
425.37	1731.32
425.746	1748.5
426.123	1761.38
426.499	1776.75
426.875	1793.24
427.251	1862.85
427.627	1888.38
428.003	1911.66
428.379	1943.75
428.756	1960.02
429.132	2002.05
429.507	2032.11
429.883	2048.38
430.259	2073.46
430.635	2089.06
431.011	2119.11
431.387	2180.58
431.763	2190.97
432.138	2206.79
432.514	2223.74
432.89	2264.19
433.265	2333.57
433.641	2354.13
434.016	2363.85
434.392	2402.04
434.767	2457.86
435.143	2480.68
435.518	2535.6
435.894	2499.67
436.269	2557.52
436.644	2562.94
437.02	2631.41
437.395	2640.68
437.77	2691.53
438.145	2718.64
438.52	2743.73
438.895	2756.83
439.271	2762.03
439.646	2840.45
440.021	2863.72
440.395	2843.16
440.77	2908.47
441.145	2919.09
441.52	2987.56
441.895	2979.88
442.27	3038.63
442.645	3019.65
443.019	3064.85
443.394	3065.75
443.769	3084.74
444.143	3033.21
444.518	3171.74
444.892	3195.47
445.267	3174.22
445.641	3184.39
446.016	3222.13
446.39	3249.93
446.764	3280.21
447.139	3272.75
447.513	3317.27
447.887	3323.15
448.262	3331.51
448.636	3387.1
449.01	3404.73
449.384	3450.38
449.758	3463.03
450.132	3562.69
450.506	3543.93
450.88	3536.02
451.254	3562.69
451.628	3626.42
452.002	3663.93
452.376	3697.83
452.75	3753.64
453.123	3810.37
453.497	3884.04
453.871	3842.46
454.244	3980.3
454.618	3967.88
454.992	4035.44
455.365	4008.78
455.739	4122.22
456.112	4133.97
456.486	4227.08
456.859	4225.5
457.232	4341.65
457.606	4371.26
457.979	4372.16
458.352	4507.07
458.725	4552.95
459.099	4567.63
459.472	4708.87
459.845	4761.98
460.218	4767.18
460.591	4831.36
460.964	4807.63
461.337	4951.13
461.71	4987.28
462.083	5103.21
462.456	5100.28
462.829	5175.53
463.201	5259.37
463.574	5241.74
463.947	5370.78
464.32	5483.99
464.692	5528.29
465.065	5530.77
465.438	5602.64
465.81	5753.37
466.183	5769.86
466.555	5904.32
466.928	5989.74
467.3	5954.72
467.672	6050.98
468.045	6187.48
468.417	6242.62
468.789	6288.94
469.161	6341.82
469.534	6480.58
469.906	6604.87
470.278	6639.67
470.65	6754.92
471.022	6820.68
471.394	6967.12
471.766	7094.8
472.138	7165.76
472.51	7282.82
472.882	7481.23
473.253	7511.06
473.625	7607.55
473.997	7774.56
474.369	7851.84
474.74	7892.74
475.112	8062.01
475.484	8237.82
475.855	8397.14
476.227	8416.12
476.598	8703.34
476.97	8746.06
477.341	8934.07
477.713	9107.18
478.084	9154.41
478.455	9444.57
478.827	9466.26
479.198	9736.76
479.569	9790.1
479.94	10105.79
480.311	10129.07
480.682	10460.81
481.053	10589.4
481.424	10796.4
481.795	10863.06
482.166	11073.9
482.537	11236.16
482.908	11468.47
483.279	11578.75
483.65	11812.87
484.021	12058.74
484.391	12128.11
484.762	12354.32
485.133	12417.15
485.503	12639.51
485.874	12783.46
486.244	12958.83
486.615	13214.19
486.985	13302.32
487.356	13642.2
487.726	13791.35
488.097	14011.23
488.467	14108.4
488.837	14412.12
489.207	14572.57
489.578	14775.28
489.948	14864.54
490.318	15058.88
490.688	15187.69
491.058	15460
491.428	15734.57
491.798	15848.92
492.168	16128.23
492.538	16208.91
492.908	16431.05
493.278	16621.78
493.648	16678.95
494.017	16932.05
494.387	17011.15
494.757	17098.38
495.126	17388.77
495.496	17536.11
495.866	17570.46
496.235	17769.55
496.605	17998.69
496.974	18080.05
497.344	18273.26
497.713	18320.94
498.082	18537.21
498.452	18728.84
498.821	18815.4
499.19	18922.96
499.559	19084.99
499.928	19212.45
500.298	19349.17
500.667	19614.02
501.036	19612.44
501.405	19806.33
501.774	19799.1
502.143	20074.57
502.512	20049.26
502.88	20329.25
503.249	20328.12
503.618	20565.86
503.987	20786.87
504.356	20750.26
504.724	20941.44
505.093	21036.81
505.462	21091.49
505.83	21291.49
506.199	21439.05
506.567	21781.42
506.936	21728.99
507.304	22034.75
507.672	22165.14
508.041	22206.49
508.409	22483.32
508.777	22643.54
509.145	22716.08
509.514	22841.05
509.882	23091.44
510.25	23112.23
510.618	23306.58
510.986	23427.93
511.354	23604.65
511.722	23877.63
512.09	24116.05
512.458	24056.16
512.826	24460.67
513.193	24435.36
513.561	24536.15
513.929	24789.02
514.297	24977.72
514.664	25155.57
515.032	25229.01
515.4	25599.17
515.767	25754.65
516.135	25752.61
516.502	25789.67
516.869	26244.8
517.237	26343.33
517.604	26380.39
517.972	26702.42
518.339	26922.3
518.706	27007.5
519.073	27110.32
519.44	27361.16
519.808	27663.07
520.175	27637.76
520.542	28021.71
520.909	28211.98
521.276	28132.66
521.643	28581.69
522.009	28764.51
522.376	29041.34
522.743	29155.01
523.11	29512.06
523.477	29726.52
523.843	29834.77
524.21	30247.41
524.577	30513.62
524.943	30528.08
525.31	30752.48
525.676	30996.09
526.043	31228.18
526.409	31374.39
526.776	31841.04
527.142	31908.38
527.508	32116.51
527.874	32422.27
528.241	32499.78
528.607	32647.35
528.973	32905.87
529.339	32935.93
529.705	33281.68
530.071	33527.32
530.437	33718.05
530.803	33993.75
531.169	33981.78
531.535	34111.49
531.901	34342.44
532.267	34519.61
532.632	34805.94
532.998	34959.83
533.364	35084.35
533.73	35122.76
534.095	35447.05
534.461	35612.02
534.826	35849.07
535.192	35876.87
535.557	36125
535.923	36278.21
536.288	36259.46
536.653	36499
537.019	36393.01
537.384	36694.02
537.749	36815.37
538.114	36950.74
538.479	37125.42
538.845	37055.82
539.21	37369.94
539.575	37405.19
539.94	37663.26
540.305	37791.85
540.67	37802.01
541.034	37981.67
541.399	38155.45
541.764	38310.7
542.129	38364.49
542.494	38475.44
542.858	38558.83
543.223	38609.9
543.587	38958.37
543.952	38933.74
544.316	39017.35
544.681	39159.27
545.045	39286.5
545.41	39474.74
545.774	39603.78
546.138	39685.58
546.503	39716.09
546.867	39802.64
547.231	40276.53
547.595	40172.8
547.959	40374.83
548.324	40495.28
548.688	40388.84
549.052	40721.71
549.416	40783.63
549.779	40853.23
550.143	41053.23
550.507	41414.8
550.871	41211.42
551.235	41380.45
551.599	41657.28
551.962	41809.59
552.326	41909.03
552.689	42016.14
553.053	42055.46
553.417	42064.28
553.78	42620.87
554.143	42537.03
554.507	42714.65
554.87	42875.1
555.234	43242.32
555.597	43157.81
555.96	43248.88
556.323	43505.14
556.686	43544.46
557.05	43909.88
557.413	44022.19
557.776	44140.38
558.139	44426.02
558.502	44543.98
558.865	44544.89
559.228	44852.45
559.59	44897.42
559.953	45037.53
560.316	45393.23
560.679	45449.95
561.041	45646.1
561.404	45930.61
561.767	46028.92
562.129	46157.5
562.492	46382.35
562.854	46515.01
563.217	46416.03
563.579	46691.27
563.941	46955.9
564.304	47175.33
564.666	47311.82
565.028	47420.29
565.39	47483.34
565.753	47624.13
566.115	47990
566.477	48084.23
566.839	48145.92
567.201	48430.89
567.563	48516.99
567.925	48709.07
568.287	48822.29
568.648	48862.06
569.01	49071.77
569.372	49271.77
569.734	49220.25
570.095	49418.88
570.457	49435.15
570.819	49662.49
571.18	49729.16
571.542	49913.79
571.903	49966.67
572.265	50184.74
572.626	50242.59
572.987	50261.8
573.349	50287.11
573.71	50503.83
574.071	50508.57
574.432	50778.4
574.794	50938.84
575.155	50909.47
575.516	50762.58
575.877	51058.39
576.238	51078.73
576.599	51122.79
576.96	51149.91
577.32	51176.13
577.681	51410.7
578.042	51413.63
578.403	51444.14
578.763	51493.86
579.124	51482.56
579.485	51665.83
579.845	51635.55
580.206	51691.59
580.566	51756
580.927	51572.73
581.287	51836.45
581.648	51745.38
582.008	51857.01
582.368	51805.94
582.728	51916.9
583.089	51854.3
583.449	51828.09
583.809	51998.7
584.169	51866.73
584.529	51828.09
584.889	52109.43
585.249	51932.72
585.609	51876.45
585.969	52077.8
586.329	52048.65
586.688	52045.93
587.048	52046.61
587.408	51986.5
587.768	51986.05
588.127	52095.88
588.487	51840.06
588.846	52142.2
589.206	52013.62
589.565	52051.13
589.925	52130
590.284	51988.76
590.643	52156.89
591.003	52124.58
591.362	52252.93
591.721	52189.66
592.08	52089.55
592.44	52208.19
592.799	52180.62
593.158	52251.13
593.517	52197.34
593.876	52317.11
594.235	52145.14
594.593	52251.58
594.952	52215.87
595.311	52175.42
595.67	52245.48
596.029	52553.49
596.387	52421.52
596.746	52446.6
597.104	52294.97
597.463	52329.77
597.822	52375.42
598.18	52388.52
598.538	52368.64
598.897	52495.19
599.255	52247.74
599.613	52777.44
599.972	52540.16
600.33	52597.78
600.688	52493.38
601.046	52609.76
601.404	52684.11
601.762	52572.02
602.12	52766.14
602.478	52743.77
602.836	52721.62
603.194	52684.56
603.552	52714.62
603.91	52667.39
604.268	52771.11
604.625	52621.74
604.983	52887.95
605.341	52655.64
605.698	52931.11
606.056	52986.93
606.413	52922.29
606.771	53038
607.128	53018.34
607.485	52848.85
607.843	52998
608.2	53135.4
608.557	53315.73
608.914	53115.74
609.272	53284.32
609.629	53334.49
609.986	53403.19
610.343	53295.17
610.7	53538.32
611.057	53425.56
611.414	53368.61
611.771	53448.38
612.127	53542.17
612.484	53490.19
612.841	53634.59
613.198	53416.97
613.554	53496.97
613.911	53684.76
614.267	53711.88
614.624	53645.21
614.98	53715.27
615.337	53853.57
615.693	53797.07
616.05	53710.52
616.406	53992.55
616.762	53804.76
617.118	53823.29
617.475	53880.24
617.831	53933.34
618.187	53916.17
618.543	54001.14
618.899	54147.35
619.255	54074.13
619.611	54104.18
619.967	54117.29
620.323	54146.67
620.678	54077.97
621.034	54132.21
621.39	54090.63
621.746	54015.15
622.101	54365.65
622.457	54148.93
622.812	54171.75
623.168	54213.79
623.523	54238.87
623.879	54324.07
624.234	54103.05
624.589	54279.55
624.945	54183.5
625.3	54240
625.655	54200.68
626.01	54212.88
626.365	54143.28
626.72	54215.14
627.075	54203.84
627.43	54060.8
627.785	54120.68
628.14	54129.27
628.495	54143.96
628.85	54117.74
629.205	53925.66
629.559	54149.38
629.914	53987.8
630.269	54035.03
630.623	53975.6
630.978	53851.99
631.332	53974.47
631.687	54029.16
632.041	53895.83
632.396	53904.87
632.75	53865.55
633.104	53822.61
633.459	53759.11
633.813	53805.89
634.167	53757.98
634.521	53676.63
634.875	53717.3
635.229	53612.22
635.583	53538.78
635.937	53527.93
636.291	53576.29
636.645	53424.65
636.999	53384.88
637.352	53486.35
637.706	53298.56
638.06	53442.51
638.413	53377.2
638.767	53277.77
639.121	53236.86
639.474	53124.55
639.828	53118
640.181	53086.36
640.534	53084.55
640.888	52967.94
641.241	52916.65
641.594	53055.62
641.947	53045.68
642.301	52997.55
642.654	52879.36
643.007	52913.93
643.36	52954.38
643.713	52834.61
644.066	52871.9
644.419	52795.97
644.771	52620.16
645.124	52356.43
645.477	52299.03
645.83	52001.87
646.182	51720.74
646.535	51671.71
646.888	51734.08
647.24	51532.5
647.593	51725.26
647.945	51600.3
648.298	51534.08
648.65	51348.55
649.002	51415.67
649.355	51361.21
649.707	51295.67
650.059	51578.6
650.411	51868.76
650.763	51920.97
651.115	52227.4
651.467	52127.29
651.819	52093.84
652.171	51972.94
652.523	51900.17
652.875	51928.2
653.227	51711.25
653.578	51946.05
653.93	51934.98
654.282	51809.1
654.633	51732.04
654.985	51664.25
655.337	51809.33
655.688	51782.44
656.039	51875.77
656.391	51559.39
656.742	51622.22
657.094	51693.17
657.445	51720.52
657.796	51614.98
658.147	51575.89
658.498	51594.19
658.849	51570.24
659.2	51584.48
659.551	51499.28
659.902	51578.15
660.253	51487.53
660.604	51562.1
660.955	51455.67
661.306	51529.11
661.656	51476.01
662.007	51342.9
662.358	51276.91
662.708	51372.51
663.059	51208.22
663.409	51158.05
663.76	51395.56
664.11	51247.31
664.461	51235.33
664.811	51357.14
665.161	51316.69
665.511	51147.43
665.862	51110.14
666.212	51201.44
666.562	51209.35
666.912	51184.04
667.262	51113.53
667.612	51125.51
667.962	51096.58
668.312	50995.11
668.662	51217.48
669.011	51132.51
669.361	51054.55
669.711	51015.23
670.06	51000.54
670.41	51020.88
670.76	50999.63
671.109	50951.73
671.459	50916.47
671.808	50783.82
672.157	50940.88
672.507	50706.31
672.856	50711.96
673.205	50805.97
673.554	50835.34
673.904	50740.21
674.253	50847.32
674.602	50848.45
674.951	50260.9
675.3	50005.99
675.649	50610.27
675.998	50600.1
676.346	50516.26
676.695	50684.84
677.044	50431.29
677.393	50451.17
677.741	50502.92
678.09	50392.42
678.438	50376.15
678.787	50388.58
679.135	50406.65
679.484	50066.55
679.832	50157.62
680.181	50057.29
680.529	50271.07
680.877	50047.12
681.225	50123.5
681.573	50206.66
681.922	49940.45
682.27	49748.14
682.618	49911.07
682.966	49795.82
683.314	49831.3
683.661	49674.24
684.009	49531.2
684.357	49463.85
684.705	49479.9
685.053	49400.13
685.4	49239.45
685.748	49166.01
686.095	49078.78
686.443	49053.02
686.79	48930.31
687.138	49108.61
687.485	48922.85
687.832	48901.61
688.18	48935.73
688.527	48605.8
688.874	48660.49
689.221	48564.67
689.568	48440.6
689.915	48265.02
690.262	48276.99
690.609	48144.12
690.956	48089.88
691.303	48026.6
691.65	47969.43
691.997	47783
692.344	47570.57
692.69	47569.67
693.037	47535.54
693.383	47383.23
693.73	47492.83
694.077	47215.55
694.423	47119.74
694.769	47065.27
695.116	46968.1
695.462	46882.45
695.808	46786.19
696.155	46850.36
696.501	46382.13
696.847	46470.94
697.193	46079.76
697.539	46361.56
697.885	45972.2
698.231	45854.01
698.577	45909.37
698.923	45806.55
699.269	45566.33
699.614	45464.86
699.96	45385.32
700.306	45408.14
700.651	45150.07
700.997	45037.08
701.342	44950.53
701.688	44798.21
702.033	44788.27
702.379	44750.31
702.724	44598.22
703.069	44794.15
703.415	44336.98
703.76	44367.72
704.105	44181.28
704.45	44156.2
704.795	43933.6
705.14	43789.2
705.485	43816.32
705.83	43621.07
706.175	43746.26
706.52	43574.52
706.865	43302.89
707.209	43383.34
707.554	43150.35
707.899	43177.01
708.243	43116.23
708.588	42968.43
708.932	42702.22
709.277	42772.28
709.621	42619.51
709.966	42431.27
710.31	42434.21
710.654	42259.07
710.998	42123.71
711.342	42268.11
711.687	42162.8
712.031	41825.19
712.375	41600.78
712.719	41884.17
713.063	41637.17
713.407	41974.56
713.75	41614.57
714.094	41559.88
714.438	41337.97
714.782	41455.48
715.125	41371.64
715.469	41312.43
715.812	41020.23
716.156	40764.2
716.499	40887.13
716.843	40961.93
717.186	40734.59
717.53	40913.35
717.873	40872.44
718.216	40674.71
718.559	40584.31
718.902	40267.03
719.246	40343.64
719.589	40342.96
719.932	40052.8
720.275	40130.99
720.617	40065.68
720.96	39894.84
721.303	39947.04
721.646	39978.91
721.989	39580.5
722.331	39790.44
722.674	39674.96
723.016	39599.93
723.359	39482.65
723.701	39528.3
724.044	39220.96
724.386	39082.21
724.729	39294.86
725.071	39131.92
725.413	39124.69
725.755	39063.45
726.097	38926.28
726.439	38710.47
726.782	38679.28
727.124	38879.73
727.465	38645.16
727.807	38628.21
728.149	38590.69
728.491	38462.79
728.833	38514.09
729.175	38326.97
729.516	38230.93
729.858	38245.84
730.199	38284.71
730.541	38168.33
730.882	37998.39
731.224	38061.44
731.565	37929.47
731.906	37892.18
732.248	37881.11
732.589	37803.6
732.93	37657.16
733.271	37558.18
733.612	37619.19
733.953	37566.99
734.294	37357.05
734.635	37211.07
734.976	37416.49
735.317	37138.3
735.658	37124.52
735.999	37171.97
736.339	36953.68
736.68	37263.72
737.021	37017.18
737.361	36753.91
737.702	36948.7
738.042	36797.3
738.383	36678.43
738.723	36837.75
739.063	36595.27
739.404	36715.72
739.744	36603.18
740.084	36516.17
740.424	36613.57
740.764	36268.95
741.104	36433.69
741.444	36206.12
741.784	36104.66
742.124	36080.25
742.464	36216.29
742.804	35989.86
743.143	36027.15
743.483	35888.17
743.823	35787.6
744.162	35724.56
744.502	35725.68
744.841	35507.16
745.181	35724.1
745.52	35632.13
745.86	35502.19
746.199	35445.01
746.538	35433.49
746.877	35457.22
747.216	35341.29
747.556	35291.57
747.895	35262.65
748.234	35044.12
748.573	35065.82
748.911	34918.02
749.25	34851.13
749.589	34680.51
749.928	34617.47
750.267	34823.79
750.605	34625.15
750.944	34537.69
751.283	34409.56
751.621	34588.09
751.96	34290.24
752.298	34202.11
752.636	34240.75
752.975	34146.74
