Data from breadboard_white_FLMS001491_00080.txt Node
Date: Wed Feb 08 10:48:15 GMT 2017
User: dcchb
Spectrometer: FLMS00149
Trigger mode: 0
Integration Time (sec): 2.000000E-2
Scans to average: 10
Electric dark correction enabled: true
Nonlinearity correction enabled: false
Boxcar width: 0
XAxis mode: Wavelengths
Number of Pixels in Spectrum: 2048
>>>>>Begin Spectral Data<<<<<
341.393	-9.27
341.776	-9.27
342.16	-9.27
342.543	-52.2
342.927	-58.08
343.31	-57.4
343.693	-82.94
344.077	-73.67
344.46	-65.76
344.843	-43.84
345.226	-28.25
345.61	-19.21
345.993	-16.04
346.376	-25.76
346.759	0.9
347.142	26.67
347.525	55.59
347.908	52.43
348.291	76.38
348.674	89.49
349.057	111.41
349.44	112.31
349.823	145.31
350.206	165.65
350.588	218.53
350.971	224.4
351.354	221.46
351.737	257.62
352.119	262.82
352.502	290.61
352.884	299.65
353.267	314.12
353.65	286.09
354.032	303.49
354.414	323.16
354.797	332.65
355.179	322.25
355.562	334.91
355.944	349.6
356.326	337.84
356.709	353.66
357.091	356.83
357.473	360.22
357.855	362.48
358.238	372.42
358.62	368.13
359.002	382.59
359.384	358.18
359.766	354.79
360.148	359.76
360.53	359.99
360.912	374.91
361.294	343.27
361.676	364.28
362.057	359.54
362.439	339.43
362.821	343.27
363.203	341.91
363.584	340.78
363.966	354.11
364.348	369.26
364.729	349.37
365.111	342.59
365.493	347.79
365.874	358.41
366.256	338.97
366.637	341.69
367.019	343.49
367.4	329.03
367.781	341.69
368.163	343.49
368.544	340.33
368.925	317.05
369.306	340.33
369.688	360.22
370.069	339.43
370.45	338.75
370.831	373.78
371.212	352.08
371.593	350.5
371.974	350.05
372.355	353.21
372.736	348.47
373.117	360.44
373.498	353.89
373.879	357.96
374.26	350.5
374.641	352.31
375.021	338.97
375.402	366.77
375.783	362.25
376.163	395.7
376.544	371.74
376.925	369.03
377.305	374.23
377.686	395.7
378.066	362.25
378.447	372.87
378.827	361.57
379.208	381.68
379.588	383.49
379.968	378.52
380.349	378.75
380.729	395.92
381.109	383.72
381.489	387.11
381.87	412.19
382.25	398.41
382.63	401.12
383.01	404.06
383.39	411.06
383.77	412.42
384.15	403.38
384.53	419.42
384.91	418.29
385.29	422.81
385.67	428.01
386.049	433.66
386.429	425.07
386.809	417.84
387.189	448.8
387.568	455.36
387.948	451.97
388.328	458.29
388.707	451.06
389.087	475.92
389.466	457.84
389.846	466.43
390.225	460.78
390.605	498.52
390.984	440.89
391.363	505.98
391.743	476.15
392.122	496.94
392.501	491.74
392.881	521.57
393.26	511.4
393.639	520.89
394.018	525.41
394.397	531.74
394.776	525.41
395.155	517.5
395.534	545.07
395.913	562.47
396.292	541.45
396.671	554.34
397.05	557.27
397.429	579.19
397.808	563.83
398.186	565.18
398.565	588.01
398.944	612.64
399.323	625.52
399.701	604.96
400.08	608.8
400.458	635.24
400.837	632.3
401.215	634.56
401.594	654.22
401.972	678.85
402.351	681.11
402.729	677.72
403.107	680.89
403.486	711.85
403.864	713.2
404.242	699.87
404.62	723.82
404.999	754.78
405.377	768.79
405.755	753.43
406.133	792.07
406.511	821.22
406.889	814.44
407.267	819.64
407.645	856.02
408.023	836.14
408.401	863.71
408.779	870.94
409.156	890.37
409.534	926.3
409.912	915.46
410.29	943.48
410.667	958.84
411.045	984.15
411.422	979.41
411.8	1022.12
412.178	1026.87
412.555	1051.5
412.933	1076.58
413.31	1081.33
413.687	1090.59
414.065	1137.15
414.442	1123.13
414.819	1146.41
415.197	1169.46
415.574	1187.54
415.951	1195.22
416.328	1227.76
416.705	1232.96
417.082	1249.91
417.46	1276.12
417.837	1293.98
418.214	1311.6
418.591	1320.64
418.967	1343.92
419.344	1337.59
419.721	1424.14
420.098	1397.25
420.475	1413.3
420.852	1437.25
421.228	1431.83
421.605	1456.68
421.982	1496.46
422.358	1482.22
422.735	1524.48
423.111	1519.06
423.488	1543.46
423.864	1568.32
424.241	1588.43
424.617	1609.22
424.994	1610.35
425.37	1659.39
425.746	1648.54
426.123	1684.25
426.499	1709.79
426.875	1712.95
427.251	1760.41
427.627	1780.74
428.003	1795.88
428.379	1824.81
428.756	1843.57
429.132	1876.33
429.507	1916.79
429.883	1908.42
430.259	1960.85
430.635	1989.1
431.011	2007.4
431.387	2040.4
431.763	2073.17
432.138	2079.72
432.514	2144.12
432.89	2145.03
433.265	2192.71
433.641	2234.74
434.016	2234.74
434.392	2305.48
434.767	2305.48
435.143	2315.87
435.518	2336.21
435.894	2397.45
436.269	2404.46
436.644	2440.61
437.02	2463.89
437.395	2473.38
437.77	2544.11
438.145	2571.23
438.52	2574.62
438.895	2635.18
439.271	2629.31
439.646	2679.48
440.021	2697.56
440.395	2747.27
440.77	2714.96
441.145	2743.2
441.52	2791.11
441.895	2801.73
442.27	2830.21
442.645	2818.01
443.019	2869.53
443.394	2888.51
443.769	2914.5
444.143	2895.74
444.518	2965.57
444.892	2966.93
445.267	3045.12
445.641	3021.39
446.016	3042.86
446.39	3081.5
446.764	3089.41
447.139	3105
447.513	3125.79
447.887	3165.34
448.262	3187.03
448.636	3199.69
449.01	3191.33
449.384	3296.86
449.758	3284.21
450.132	3346.58
450.506	3350.42
450.88	3400.14
451.254	3372.79
451.628	3430.19
452.002	3459.34
452.376	3551.32
452.75	3586.35
453.123	3571.21
453.497	3666.34
453.871	3661.82
454.244	3737.98
454.618	3734.59
454.992	3844.87
455.365	3863.4
455.739	3924.19
456.112	3972.55
456.486	4002.61
456.859	3999.89
457.232	4148.59
457.606	4149.72
457.979	4184.52
458.352	4303.16
458.725	4333.45
459.099	4331.19
459.472	4441.69
459.845	4498.86
460.218	4511.75
460.591	4537.51
460.964	4612.76
461.337	4698.18
461.71	4808.46
462.083	4834.45
462.456	4837.61
462.829	4888.69
463.201	5010.26
463.574	4988.34
463.947	5078.28
464.32	5208.9
464.692	5236.25
465.065	5259.97
465.438	5362.12
465.81	5386.98
466.183	5524.83
466.555	5601.89
466.928	5680.75
467.3	5671.26
467.672	5779.74
468.045	5923.69
468.417	5935.21
468.789	5960.3
469.161	6071.03
469.534	6137.69
469.906	6292.72
470.278	6335.65
470.65	6437.34
471.022	6589.66
471.394	6654.97
471.766	6729.31
472.138	6785.81
472.51	6954.85
472.882	7047.5
473.253	7100.6
473.625	7251.11
473.997	7414.95
474.369	7463.98
474.74	7537.88
475.112	7668.27
475.484	7825.1
475.855	7976.29
476.227	8067.58
476.598	8207.47
476.97	8311.65
477.341	8558.19
477.713	8665.76
478.084	8753.22
478.455	8999.09
478.827	9018.29
479.198	9290.38
479.569	9334.9
479.94	9632.06
480.311	9700.31
480.682	9886.75
481.053	10106.63
481.424	10304.36
481.795	10326.06
482.166	10545.03
482.537	10676.1
482.908	10901.86
483.279	10948.41
483.65	11247.84
484.021	11498.23
484.391	11648.96
484.762	11683.08
485.133	11812.8
485.503	12041.27
485.874	12224.54
486.244	12416.62
486.615	12653.23
486.985	12829.72
487.356	13046.89
487.726	13158.3
488.097	13454.34
488.467	13441.68
488.837	13749.92
489.207	13848.45
489.578	14062.46
489.948	14237.59
490.318	14443.69
490.688	14484.14
491.058	14770.46
491.428	14984.46
491.798	15057.01
492.168	15394.85
492.538	15465.13
492.908	15677.1
493.278	15814.5
493.648	15884.1
494.017	16134.49
494.387	16312.57
494.757	16393.02
495.126	16675.04
495.496	16773.34
495.866	16754.81
496.235	17107.57
496.605	17179.21
496.974	17270.28
497.344	17492.2
497.713	17504.62
498.082	17655.35
498.452	17837.05
498.821	18065.29
499.19	18073.42
499.559	18307.77
499.928	18483.13
500.298	18608.78
500.667	18847.41
501.036	18730.58
501.405	18934.19
501.774	18984.13
502.143	19249.89
502.512	19258.02
502.88	19418.92
503.249	19499.83
503.618	19643.33
503.987	19750.44
504.356	19813.04
504.724	20040.38
505.093	20168.06
505.462	20300.71
505.83	20457.09
506.199	20606.69
506.567	20815.5
506.936	20893.91
507.304	21081.71
507.672	21108.15
508.041	21317.86
508.409	21522.15
508.777	21709.94
509.145	21843.04
509.514	21850.5
509.882	22151.28
510.25	22211.17
510.618	22444.61
510.986	22504.49
511.354	22734.09
511.722	22897.48
512.09	23043.01
512.458	23063.12
512.826	23309.22
513.193	23489.33
513.561	23546.73
513.929	23836.44
514.297	24025.58
514.664	24130.21
515.032	24353.26
515.4	24511.22
515.767	24593.25
516.135	24741.27
516.502	24721.16
516.869	25117.53
517.237	25256.51
517.604	25248.6
517.972	25622.83
518.339	25820.34
518.706	25872.77
519.073	26066.21
519.44	26217.39
519.808	26583.93
520.175	26542.58
520.542	26992.96
520.909	27094.2
521.276	27129.23
521.643	27411.03
522.009	27635.43
522.376	27736.22
522.743	28022.54
523.11	28284
523.477	28424.11
523.843	28850.31
524.21	29011.21
524.577	29329.4
524.943	29415.5
525.31	29475.61
525.676	29848.48
526.043	29996.27
526.409	30193.1
526.776	30591.06
527.142	30611.85
527.508	30764.84
527.874	30902.24
528.241	31190.82
528.607	31299.29
528.973	31736.79
529.339	31540.19
529.705	31960.06
530.071	32141.98
530.437	32339.71
530.803	32585.58
531.169	32736.09
531.535	32706.71
531.901	32955.07
532.267	33151.44
532.632	33430.31
532.998	33549.4
533.364	33692.67
533.73	33840.01
534.095	34069.39
534.461	34011.76
534.826	34442.26
535.192	34478.42
535.557	34775.36
535.923	34699.65
536.288	34882.47
536.653	35224.84
537.019	35139.42
537.384	35290.6
537.749	35438.84
538.114	35503.7
538.479	35553.64
538.845	35860.98
539.21	35784.37
539.575	35948.66
539.94	36055.1
540.305	36231.14
540.67	36368.08
541.034	36450.79
541.399	36651.24
541.764	36828.41
542.129	36903.89
542.494	37051.91
542.858	37068.86
543.223	37168.06
543.587	37373.93
543.952	37437.21
544.316	37469.98
544.681	37659.12
545.045	37822.06
545.41	37931.43
545.774	38003.52
546.138	38120.81
546.503	38089.62
546.867	38221.59
547.231	38550.17
547.595	38529.83
547.959	38699.1
548.324	38866.77
548.688	38953.78
549.052	39124.39
549.416	39220.21
549.779	39319.64
550.143	39283.49
550.507	39612.07
550.871	39810.25
551.235	39726.87
551.599	40111.04
551.962	40060.64
552.326	40197.59
552.689	40363.46
553.053	40196.46
553.417	40427.19
553.78	40950.56
554.143	40750.34
554.507	41006.61
554.87	41101.29
555.234	41590.09
555.597	41308.52
555.96	41580.83
556.323	41731.33
556.686	41721.61
557.05	42203.41
557.413	42231.43
557.776	42384.87
558.139	42682.04
558.502	42723.62
558.865	42779.44
559.228	43156.61
559.59	43167.9
559.953	43261.01
560.316	43632.75
560.679	43714.1
561.041	43797.27
561.404	44182.57
561.767	44372.39
562.129	44222.11
562.492	44596.57
562.854	44619.84
563.217	44753.4
563.579	45029.55
563.941	45229.32
564.304	45389.09
564.666	45609.87
565.028	45578.46
565.39	45811.22
565.753	45986.59
566.115	46215.96
566.477	46371.89
566.839	46537.76
567.201	46733.46
567.563	46700.47
567.925	47175.26
568.287	47004.41
568.648	47142.26
569.01	47307.68
569.372	47575.25
569.734	47242.6
570.095	47706.54
570.457	47847.1
570.819	47889.36
571.18	47865.41
571.542	48086.65
571.903	48297.94
572.265	48343.59
572.626	48470.82
572.987	48551.04
573.349	48573.41
573.71	48796.91
574.071	48858.38
574.432	49086.17
574.794	49240.29
575.155	49156
575.516	49135.66
575.877	49316.67
576.238	49523.67
576.599	49508.3
576.96	49589.43
577.32	49630.11
577.681	49617.9
578.042	49813.83
578.403	49801.63
578.763	49790.1
579.124	49842.31
579.485	50055.86
579.845	50112.35
580.206	50127.27
580.566	50038.23
580.927	50203.2
581.287	50313.71
581.648	50142.41
582.008	50368.62
582.368	50377.43
582.728	50383.08
583.089	50322.74
583.449	50344.44
583.809	50390.77
584.169	50424.44
584.529	50163.2
584.889	50544.21
585.249	50315.06
585.609	50204.33
585.969	50387.38
586.329	50377.88
586.688	50419.24
587.048	50241.62
587.408	50287.94
587.768	50277.32
588.127	50414.49
588.487	50277.77
588.846	50561.16
589.206	50379.69
589.565	50338.56
589.925	50546.24
590.284	50388.96
590.643	50467.83
591.003	50467.37
591.362	50478.45
591.721	50462.18
592.08	50496.07
592.44	50561.16
592.799	50610.19
593.158	50615.39
593.517	50498.33
593.876	50626.24
594.235	50603.19
594.593	50597.99
594.952	50732.23
595.311	50567.03
595.67	50642.96
596.029	50815.84
596.387	50875.5
596.746	50904.65
597.104	50730.64
597.463	50777.87
597.822	50916.85
598.18	50701.94
598.538	50789.85
598.897	50986.68
599.255	50634.83
599.613	51099.22
599.972	50880.92
600.33	50958.43
600.688	50880.47
601.046	51020.35
601.404	51121.59
601.762	51025.55
602.12	51241.82
602.478	51136.28
602.836	51203.17
603.194	51060.13
603.552	51134.02
603.91	51010.86
604.268	51242.04
604.625	51123.4
604.983	51257.41
605.341	51009.96
605.698	51296.5
606.056	51317.52
606.413	51396.61
606.771	51484.75
607.128	51543.05
607.485	51316.16
607.843	51381.02
608.2	51634.57
608.557	51635.03
608.914	51473.9
609.272	51574.01
609.629	51742.59
609.986	51861.91
610.343	51731.97
610.7	51951.4
611.057	51861.01
611.414	51844.29
611.771	51859.88
612.127	51967
612.484	51989.14
612.841	52049.25
613.198	51910.5
613.554	52029.59
613.911	52159.76
614.267	52142.36
614.624	52181.23
614.98	52161.57
615.337	52335.12
615.693	52258.96
616.05	52270.72
616.406	52392.75
616.762	52384.16
617.118	52369.47
617.475	52272.3
617.831	52336.25
618.187	52472.29
618.543	52448.56
618.899	52646.53
619.255	52573.08
619.611	52395.01
619.967	52596.13
620.323	52678.39
620.678	52585.96
621.034	52412.41
621.39	52538.28
621.746	52424.84
622.101	52852.62
622.457	52530.14
622.812	52690.37
623.168	52730.82
623.523	52778.05
623.879	52825.73
624.234	52577.6
624.589	52670.03
624.945	52686.52
625.3	52694.66
625.655	52618.5
626.01	52667.99
626.365	52651.95
626.72	52657.15
627.075	52698.05
627.43	52532.86
627.785	52455.57
628.14	52540.77
628.495	52630.48
628.85	52504.38
629.205	52399.3
629.559	52647.2
629.914	52476.59
630.269	52447.66
630.623	52329.47
630.978	52328.57
631.332	52451.5
631.687	52500.77
632.041	52353.65
632.396	52325.18
632.75	52272.3
633.104	52355.01
633.459	52163.83
633.813	52158.85
634.167	52130.61
634.521	52151.4
634.875	52232.75
635.229	51988.24
635.583	51874.12
635.937	51920.22
636.291	51884.51
636.645	51868.69
636.999	51754.35
637.352	51932.42
637.706	51737.4
638.06	51808.13
638.413	51765.19
638.767	51659.66
639.121	51612.65
639.474	51458.76
639.828	51540.79
640.181	51460.79
640.534	51414.24
640.888	51437.07
641.241	51241.36
641.594	51306
641.947	51441.36
642.301	51318.88
642.654	51309.84
643.007	51220.57
643.36	51270.52
643.713	51003.4
644.066	51270.52
644.419	51018.55
644.771	50924.99
645.124	50657.88
645.477	50582.17
645.83	50420.6
646.182	50036.88
646.535	49897.22
646.888	49873.49
647.24	49581.75
647.593	49968.18
647.945	49794.17
648.298	49581.97
648.65	49533.61
649.002	49462.2
649.355	49622.2
649.707	49600.05
650.059	49876.2
650.411	50270.77
650.763	50296.98
651.115	50513.25
651.467	50398
651.819	50371.56
652.171	50206.14
652.523	50116.2
652.875	50220.15
653.227	50045.24
653.578	50316.64
653.93	50065.35
654.282	49990.1
654.633	49888.86
654.985	49955.07
655.337	49925.69
655.688	49961.17
656.039	50000.95
656.391	49706.26
656.742	49928.18
657.094	49815.41
657.445	49900.83
657.796	49865.58
658.147	49691.57
658.498	49693.83
658.849	49817.9
659.2	49699.94
659.551	49485.48
659.902	49765.47
660.253	49600.96
660.604	49730.9
660.955	49476.89
661.306	49617.23
661.656	49535.42
662.007	49478.7
662.358	49506.49
662.708	49517.12
663.059	49481.18
663.409	49226.95
663.76	49473.5
664.11	49444.58
664.461	49463.33
664.811	49400.28
665.161	49298.59
665.511	49243.9
665.862	49383.33
666.212	49423.56
666.562	49471.69
666.912	49272.83
667.262	49213.85
667.612	49214.3
667.962	49262.66
668.312	49203.45
668.662	49212.27
669.011	49243.68
669.361	49090.69
669.711	49129.33
670.06	49092.72
670.41	49113.74
670.76	49031.48
671.109	49053.63
671.459	49114.19
671.808	49049.78
672.157	48953.97
672.507	48880.75
672.856	48812.5
673.205	48898.15
673.554	48928.88
673.904	48763.92
674.253	49030.35
674.602	48928.43
674.951	48300.88
675.3	48100.43
675.649	48624.26
675.998	48619.51
676.346	48641.88
676.695	48753.29
677.044	48443.47
677.393	48574.09
677.741	48622.22
678.09	48582
678.438	48380.65
678.787	48510.36
679.135	48492.06
679.484	48209.81
679.832	48261.33
680.181	48140.66
680.529	48247.54
680.877	48001.9
681.225	47911.51
681.573	48318.28
681.922	47962.13
682.27	47846.65
682.618	47830.61
682.966	47692.76
683.314	47843.94
683.661	47702.47
684.009	47612.99
684.357	47334.35
684.705	47353.78
685.053	47409.6
685.4	47302.03
685.748	47178.87
686.095	47071.53
686.443	46865.21
686.79	46851.88
687.138	46887.13
687.485	46824.76
687.832	46792.89
688.18	46661.82
688.527	46575.27
688.874	46514.71
689.221	46500.02
689.568	46313.13
689.915	46239.69
690.262	46281.95
690.609	46104.78
690.956	45961.96
691.303	45908.4
691.65	45626.82
691.997	45861.39
692.344	45474.51
692.69	45507.28
693.037	45502.53
693.383	45081.07
693.73	45352.71
694.077	45102.09
694.423	44982.32
694.769	44833.4
695.116	44848.99
695.462	44650.13
695.808	44618.04
696.155	44656.68
696.501	44360.87
696.847	44262.56
697.193	44093.53
697.539	44128.56
697.885	43904.83
698.231	43856.7
698.577	43869.13
698.923	43625.07
699.269	43452.87
699.614	43307.79
699.96	43226.21
700.306	43350.27
700.651	43069.83
700.997	42915.93
701.342	42825.77
701.688	42800
702.033	42678.2
702.379	42701.02
702.724	42518.43
703.069	42550.97
703.415	42002.96
703.76	42187.37
704.105	42132
704.45	42131.77
704.795	41802.52
705.14	41752.35
705.485	41654.5
705.83	41528.63
706.175	41690.88
706.52	41308.97
706.865	41335.86
707.209	41131.35
707.554	41024.91
707.899	41247.05
708.243	40910.11
708.588	40953.05
708.932	40612.72
709.277	40665.82
709.621	40621.08
709.966	40356.23
710.31	40344.02
710.654	40073.07
710.998	40004.82
711.342	40133.18
711.687	39918.72
712.031	39834.66
712.375	39737.71
712.719	39838.27
713.063	39567.1
713.407	39736.58
713.75	39475.35
714.094	39449.36
714.438	39278.97
714.782	39331.17
715.125	39032.65
715.469	39276.26
715.812	38897.96
716.156	38735.48
716.499	38744.74
716.843	38798.98
717.186	38632.66
717.53	38663.84
717.873	38678.98
718.216	38518.31
718.559	38432.44
718.902	38189.28
719.246	38295.04
719.589	38096.17
719.932	38112.22
720.275	38043.97
720.617	37937.31
720.96	37899.57
721.303	37837.88
721.646	37836.75
721.989	37550.2
722.331	37812.57
722.674	37454.61
723.016	37608.28
723.359	37509.52
723.701	37491.9
724.044	37093.04
724.386	37021.63
724.729	37285.8
725.071	37024.34
725.413	36849.65
725.755	37004.9
726.097	36753.61
726.439	36636.32
726.782	36668.19
727.124	36844.45
727.465	36700.05
727.807	36611.92
728.149	36498.93
728.491	36394.98
728.833	36388.42
729.175	36309.1
729.516	36231.59
729.858	36205.83
730.199	36324.02
730.541	36157.24
730.882	36128.32
731.224	35967.42
731.565	35793.64
731.906	35762.68
732.248	35945.5
732.589	35753.86
732.93	35720.19
733.271	35525.39
733.612	35672.96
733.953	35723.13
734.294	35360.2
734.635	35323.14
734.976	35478.62
735.317	35331.5
735.658	35345.06
735.999	35180.77
736.339	35127.66
736.68	35163.6
737.021	34974.45
737.361	34844.06
737.702	34999.53
738.042	34902.59
738.383	34613.78
738.723	34873.43
739.063	34635.02
739.404	34755.47
739.744	34728.13
740.084	34607.23
740.424	34550.73
740.764	34365.65
741.104	34562.93
741.444	34287.91
741.784	34155.94
742.124	34340.11
742.464	34096.05
742.804	34171.76
743.143	34000.91
743.483	34054.47
743.823	33859.22
744.162	33819.22
744.502	34040.23
744.841	33768.6
745.181	33854.25
745.52	33777.42
745.86	33710.3
746.199	33620.13
746.538	33616.07
746.877	33544.88
747.216	33527.25
747.556	33387.6
747.895	33368.39
748.234	33283.87
748.573	33160.94
748.911	33073.48
749.25	32975.18
749.589	33019.02
749.928	33101.95
750.267	33022.18
750.605	32918.91
750.944	32702.19
751.283	32536.09
751.621	32726.6
751.96	32380.62
752.298	32504
752.636	32403.22
752.975	32236.44
753.313	32151.7
