Data from breadboard_white_FLMS001491_00089.txt Node
Date: Wed Feb 08 10:48:24 GMT 2017
User: dcchb
Spectrometer: FLMS00149
Trigger mode: 0
Integration Time (sec): 2.000000E-2
Scans to average: 10
Electric dark correction enabled: true
Nonlinearity correction enabled: false
Boxcar width: 0
XAxis mode: Wavelengths
Number of Pixels in Spectrum: 2048
>>>>>Begin Spectral Data<<<<<
341.393	-31.89
341.776	-31.89
342.16	-31.89
342.543	-51.78
342.927	-63.76
343.31	-73.25
343.693	-67.6
344.077	-64.43
344.46	-40.48
344.843	-61.27
345.226	-43.19
345.61	-11.78
345.993	-26.69
346.376	-21.72
346.759	6.07
347.142	35.68
347.525	32.29
347.908	48.78
348.291	72.29
348.674	108.67
349.057	106.64
349.44	113.64
349.823	128.56
350.206	173.53
350.588	198.84
350.971	234.54
351.354	239.29
351.737	243.13
352.119	263.47
352.502	278.61
352.884	285.39
353.267	294.2
353.65	314.54
354.032	312.51
354.414	331.49
354.797	321.55
355.179	353.63
355.562	320.87
355.944	335.56
356.326	336.91
356.709	343.47
357.091	346.63
357.473	367.42
357.855	363.13
358.238	359.28
358.62	358.83
359.002	367.19
359.384	349.12
359.766	354.99
360.148	377.36
360.53	363.8
360.912	348.89
361.294	355.89
361.676	349.79
362.057	341.43
362.439	346.18
362.821	359.51
363.203	336.46
363.584	355.67
363.966	360.87
364.348	359.28
364.729	346.18
365.111	371.94
365.493	355.44
365.874	369.45
366.256	349.12
366.637	351.6
367.019	348.89
367.4	327.19
367.781	343.24
368.163	348.21
368.544	337.82
368.925	326.97
369.306	370.81
369.688	357.7
370.069	341.66
370.45	334.65
370.831	360.87
371.212	365.39
371.593	338.04
371.974	363.35
372.355	362.9
372.736	343.69
373.117	352.05
373.498	348.21
373.879	361.32
374.26	346.4
374.641	352.73
375.021	359.06
375.402	370.81
375.783	380.75
376.163	398.83
376.544	404.71
376.925	374.88
377.305	371.49
377.686	366.06
378.066	391.83
378.447	397.02
378.827	386.85
379.208	386.4
379.588	390.7
379.968	386.18
380.349	404.71
380.729	411.94
381.109	421.88
381.489	409
381.87	425.05
382.25	404.93
382.63	413.29
383.01	421.66
383.39	421.66
383.77	416.68
384.15	399.51
384.53	426.63
384.91	431.15
385.29	439.73
385.67	432.73
386.049	451.26
386.429	440.41
386.809	467.08
387.189	449.23
387.568	446.97
387.948	455.55
388.328	441.77
388.707	464.82
389.087	466.4
389.466	475.89
389.846	490.58
390.225	470.47
390.605	500.07
390.984	489.68
391.363	496.46
391.743	513.86
392.122	511.82
392.501	528.32
392.881	525.16
393.26	536.45
393.639	520.64
394.018	513.18
394.397	539.39
394.776	552.5
395.155	564.02
395.534	548.88
395.913	551.14
396.292	571.93
396.671	578.26
397.05	575.1
397.429	587.98
397.808	609.9
398.186	589.33
398.565	611.93
398.944	615.77
399.323	626.85
399.701	616.23
400.08	632.95
400.458	634.98
400.837	666.39
401.215	670.24
401.594	663.23
401.972	678.37
402.351	688.54
402.729	698.48
403.107	726.05
403.486	732.38
403.864	744.81
404.242	742.1
404.62	785.26
404.999	778.71
405.377	801.31
405.755	791.59
406.133	808.09
406.511	827.29
406.889	856.45
407.267	840.18
407.645	863.68
408.023	891.47
408.401	902.55
408.779	923.34
409.156	912.49
409.534	964.69
409.912	967.4
410.29	972.83
410.667	1018.48
411.045	1014.63
411.422	1053.73
411.8	1068.42
412.178	1074.52
412.555	1101.64
412.933	1122.2
413.31	1141.18
413.687	1133.05
414.065	1179.6
414.442	1174.63
414.819	1206.04
415.197	1210.56
415.574	1233.39
415.951	1291.92
416.328	1297.79
416.705	1284.01
417.082	1340.5
417.46	1327.17
417.837	1330.78
418.214	1369.65
418.591	1385.02
418.967	1391.12
419.344	1413.95
419.721	1428.63
420.098	1451.91
420.475	1472.25
420.852	1486.94
421.228	1512.7
421.605	1512.02
421.982	1536.43
422.358	1566.48
422.735	1597.22
423.111	1578.46
423.488	1633.15
423.864	1612.58
424.241	1672.7
424.617	1661.4
424.994	1716.08
425.37	1715.86
425.746	1712.47
426.123	1739.81
426.499	1765.12
426.875	1776.2
427.251	1818.91
427.627	1838.12
428.003	1871.33
428.379	1896.65
428.756	1923.09
429.132	1942.97
429.507	1987.49
429.883	2028.84
430.259	2062.52
430.635	2046.47
431.011	2101.39
431.387	2107.94
431.763	2131.22
432.138	2191.55
432.514	2241.95
432.89	2244.66
433.265	2262.96
433.641	2308.84
434.016	2327.59
434.392	2406.01
434.767	2419.34
435.143	2426.12
435.518	2458.21
435.894	2490.53
436.269	2539.79
436.644	2541.37
437.02	2581.6
437.395	2576.85
437.77	2608.72
438.145	2651.65
438.52	2692.56
438.895	2735.04
439.271	2710.63
439.646	2803.29
440.021	2807.81
440.395	2827.24
440.77	2803.74
441.145	2835.15
441.52	2919.22
441.895	2902.95
442.27	2923.96
442.645	2920.8
443.019	2988.59
443.394	2989.72
443.769	3029.72
444.143	3001.7
444.518	3100.23
444.892	3099.1
445.267	3094.35
445.641	3146.1
446.016	3189.04
446.39	3222.03
446.764	3193.56
447.139	3220.45
447.513	3269.26
447.887	3275.37
448.262	3291.64
448.636	3287.57
449.01	3340.9
449.384	3403.05
449.758	3408.02
450.132	3467.68
450.506	3484.85
450.88	3483.04
451.254	3491.63
451.628	3546.32
452.002	3619.31
452.376	3627.45
452.75	3663.83
453.123	3672.87
453.497	3764.84
453.871	3766.43
454.244	3848.46
454.618	3896.59
454.992	3950.6
455.365	3915.12
455.739	4036.25
456.112	4127.32
456.486	4155.57
456.859	4155.12
457.232	4280.99
457.606	4272.18
457.979	4313.76
458.352	4385.62
458.725	4458.61
459.099	4520.98
459.472	4621.32
459.845	4596.46
460.218	4665.84
460.591	4716.46
460.964	4717.14
461.337	4846.62
461.71	4898.37
462.083	4987.41
462.456	4968.65
462.829	5084.36
463.201	5118.26
463.574	5159.84
463.947	5198.93
464.32	5337.23
464.692	5405.48
465.065	5427.63
465.438	5471.92
465.81	5558.24
466.183	5626.94
466.555	5753.72
466.928	5795.3
467.3	5800.72
467.672	5899.7
468.045	6064.9
468.417	6091.34
468.789	6126.59
469.161	6228.51
469.534	6317.55
469.906	6476.41
470.278	6481.61
470.65	6611.32
471.022	6742.17
471.394	6802.28
471.766	6885.67
472.138	6993.01
472.51	7153.91
472.882	7170.63
473.253	7294.7
473.625	7460.57
473.997	7587.12
474.369	7634.12
474.74	7695.36
475.112	7855.36
475.484	8003.15
475.855	8165.63
476.227	8228.23
476.598	8461.67
476.97	8480.65
477.341	8770.36
477.713	8818.04
478.084	8944.37
478.455	9164.93
478.827	9206.96
479.198	9515.65
479.569	9479.27
479.94	9770.11
480.311	9888.07
480.682	10120.38
481.053	10290.55
481.424	10521.5
481.795	10545.46
482.166	10761.95
482.537	10953.36
482.908	11116.74
483.279	11250.98
483.65	11478.77
484.021	11749.04
484.391	11831.07
484.762	11926.21
485.133	12040.79
485.503	12245.75
485.874	12515.57
486.244	12665.4
486.615	12885.96
486.985	13013.64
487.356	13295.44
487.726	13432.61
488.097	13659.27
488.467	13784.02
488.837	13919.83
489.207	14142.2
489.578	14327.5
489.948	14526.82
490.318	14656.31
490.688	14758.23
491.058	15019.69
491.428	15195.5
491.798	15388.72
492.168	15708.03
492.538	15715.94
492.908	16018.99
493.278	16136.27
493.648	16091.07
494.017	16356.15
494.387	16489.93
494.757	16713.88
495.126	16912.07
495.496	16965.4
495.866	17102.12
496.235	17180.31
496.605	17486.07
496.974	17547.53
497.344	17661.65
497.713	17898.94
498.082	18001.31
498.452	18222.54
498.821	18283.33
499.19	18423.67
499.559	18507.06
499.928	18724
500.298	18877.67
500.667	18941.62
501.036	18946.59
501.405	19206.92
501.774	19203.99
502.143	19466.13
502.512	19552.68
502.88	19778.43
503.249	19771.2
503.618	19900.92
503.987	20067.24
504.356	20120.8
504.724	20314.92
505.093	20423.62
505.462	20568.02
505.83	20744.06
506.199	20847.79
506.567	21084.16
506.936	21093.43
507.304	21474.44
507.672	21588.33
508.041	21553.76
508.409	21718.04
508.777	21934.99
509.145	22225.15
509.514	22199.39
509.882	22414.98
510.25	22429.44
510.618	22657.91
510.986	22736.1
511.354	22916.88
511.722	23187.84
512.09	23398.68
512.458	23320.71
512.826	23581.27
513.193	23759.57
513.561	23890.64
513.929	23986.46
514.297	24275.27
514.664	24395.71
515.032	24619.89
515.4	24798.64
515.767	24942.37
516.135	25035.47
516.502	24998.64
516.869	25415.35
517.237	25566.53
517.604	25562.24
517.972	25919.74
518.339	26064.82
518.706	26190.24
519.073	26276.12
519.44	26649.89
519.808	26857.34
520.175	26880.62
520.542	27321.06
520.909	27368.52
521.276	27438.12
521.643	27772.8
522.009	27996.3
522.376	28099.57
522.743	28345.22
523.11	28562.61
523.477	28859.78
523.843	28978.87
524.21	29321.46
524.577	29441.68
524.943	29758.96
525.31	29847.77
525.676	30255.9
526.043	30280.31
526.409	30459.06
526.776	30889.33
527.142	31040.29
527.508	31214.74
527.874	31455.42
528.241	31662.64
528.607	31722.53
528.973	31985.57
529.339	32081.61
529.705	32492.45
530.071	32607.48
530.437	32764.53
530.803	32962.49
531.169	33148.93
531.535	33123.17
531.901	33460.33
532.267	33558.86
532.632	33631.86
532.998	33757.28
533.364	34056.25
533.73	34206.76
534.095	34427.32
534.461	34595.45
534.826	34777.59
535.192	34937.58
535.557	35147.52
535.923	35370.12
536.288	35314.3
536.653	35432.49
537.019	35480.62
537.384	35726.04
537.749	35880.38
538.114	35966.03
538.479	36051.91
538.845	36274.72
539.21	36285.12
539.575	36311.56
539.94	36640.59
540.305	36748.84
540.67	36750.87
541.034	36959.9
541.399	37080.35
541.764	37198.54
542.129	37386.33
542.494	37308.82
542.858	37598.98
543.223	37654.12
543.587	37954.45
543.952	37991.29
544.316	37987
544.681	38081
545.045	38330.94
545.41	38537.72
545.774	38588.34
546.138	38635.79
546.503	38756.92
546.867	38849.35
547.231	39139.73
547.595	39088.44
547.959	39200.07
548.324	39465.6
548.688	39486.39
549.052	39605.03
549.416	39656.1
549.779	39888.41
550.143	39864.46
550.507	40209.31
550.871	40437.33
551.235	40426.25
551.599	40757.09
551.962	40667.83
552.326	40939.23
552.689	41122.05
553.053	41029.63
553.417	41138.55
553.78	41771.75
554.143	41659.67
554.507	41737.63
554.87	41933.56
555.234	42206.32
555.597	42021.69
555.96	42130.84
556.323	42341.01
556.686	42501.23
557.05	42845.85
557.413	42960.88
557.776	43074.77
558.139	43252.62
558.502	43379.17
558.865	43494.65
559.228	43879.5
559.59	43957.23
559.953	44034.97
560.316	44409.65
560.679	44382.31
561.041	44787.27
561.404	44837.66
561.767	45208.05
562.129	45014.83
562.492	45397.42
562.854	45546.34
563.217	45499.57
563.579	45708.83
563.941	45956.96
564.304	46192.2
564.666	46524.85
565.028	46593.1
565.39	46605.07
565.753	46935.69
566.115	47022.46
566.477	47249.58
566.839	47257.49
567.201	47599.17
567.563	47568.44
567.925	47838.04
568.287	47795.78
568.648	47862.89
569.01	48181.08
569.372	48422.2
569.734	48227.86
570.095	48587.85
570.457	48689.09
570.819	48835.52
571.18	48952.13
571.542	48946.03
571.903	49131.11
572.265	49204.78
572.626	49375.17
572.987	49360.26
573.349	49557.31
573.71	49625.33
574.071	49753.69
574.432	49823.29
574.794	50065.55
575.155	50075.04
575.516	50010.63
575.877	50271.87
576.238	50287.01
576.599	50403.84
576.96	50393.22
577.32	50474.58
577.681	50617.17
578.042	50634.12
578.403	50614.91
578.763	50611.75
579.124	50690.62
579.485	50897.39
579.845	50996.14
580.206	50800.9
580.566	50962.02
580.927	50986.2
581.287	51089.25
581.648	51053.77
582.008	51164.95
582.368	51064.17
582.728	51157.5
583.089	51115.01
583.449	51007.67
583.809	51067.33
584.169	51232.07
584.529	51049.02
584.889	51266.19
585.249	51144.84
585.609	51036.82
585.969	51349.58
586.329	51128.8
586.688	51269.58
587.048	51182.35
587.408	51216.7
587.768	51126.54
588.127	51347.32
588.487	51133.09
588.846	51517.71
589.206	51135.8
589.565	51249.7
589.925	51305.97
590.284	51268.91
590.643	51396.81
591.003	51457.38
591.362	51484.27
591.721	51351.62
592.08	51420.99
592.44	51497.6
592.799	51472.52
593.158	51489.24
593.517	51529.92
593.876	51629.57
594.235	51434.78
594.593	51477.49
594.952	51501.89
595.311	51441.56
595.67	51527.43
596.029	51717.48
596.387	51739.18
596.746	51776.92
597.104	51654.66
597.463	51661.44
597.822	51759.74
598.18	51720.42
598.538	51534.66
598.897	51843.13
599.255	51594.32
599.613	52037.47
599.972	51876.8
600.33	51916.12
600.688	51761.55
601.046	51994.99
601.404	52032.73
601.762	51935.1
602.12	52105.04
602.478	52096.23
602.836	52081.09
603.194	52042.45
603.552	52044.93
603.91	51976.01
604.268	52124.93
604.625	52154.53
604.983	52235.89
605.341	52013.07
605.698	52201.09
606.056	52219.39
606.413	52212.16
606.771	52271.82
607.128	52382.32
607.485	52284.47
607.843	52331.93
608.2	52522.43
608.557	52554.75
608.914	52382.1
609.272	52568.98
609.629	52601.98
609.986	52692.15
610.343	52622.09
610.7	52850.11
611.057	52735.99
611.414	52811.46
611.771	52759.49
612.127	52861.63
612.484	52840.84
612.841	52897.11
613.198	52815.08
613.554	52903.89
613.911	53018.46
614.267	53069.08
614.624	52986.83
614.98	53020.27
615.337	53133.49
615.693	53177.33
616.05	53155.18
616.406	53291.68
616.762	53113.6
617.118	53105.92
617.475	53182.08
617.831	53303.88
618.187	53335.29
618.543	53372.13
618.899	53500.94
619.255	53444.89
619.611	53457.78
619.967	53532.12
620.323	53575.51
620.678	53468.17
621.034	53394.73
621.39	53420.26
621.746	53290.55
622.101	53686.7
622.457	53446.48
622.812	53486.02
623.168	53609.64
623.523	53585.68
623.879	53709.97
624.234	53532.58
624.589	53504.55
624.945	53577.32
625.3	53594.72
625.655	53484.22
626.01	53558.56
626.365	53611.9
626.72	53564.67
627.075	53528.28
627.43	53519.69
627.785	53464.78
628.14	53575.51
628.495	53558.34
628.85	53456.65
629.205	53393.6
629.559	53558.79
629.914	53359.92
630.269	53478.79
630.623	53309.98
630.978	53270.21
631.332	53371.22
631.687	53412.58
632.041	53275.18
632.396	53304.11
632.75	53162.64
633.104	53246.26
633.459	53070.67
633.813	53130.55
634.167	53127.61
634.521	53053.04
634.875	53180.04
635.229	52978.47
635.583	52802.65
635.937	52952.48
636.291	52799.71
636.645	52861.86
636.999	52807.85
637.352	52850.11
637.706	52679.26
638.06	52867.96
638.413	52739.6
638.767	52597.23
639.121	52710.9
639.474	52531.92
639.828	52462.77
640.181	52541.64
640.534	52482.21
640.888	52424.36
641.241	52328.77
641.594	52412.15
641.947	52391.14
642.301	52368.31
642.654	52320.63
643.007	52324.92
643.36	52133.74
643.713	52185.49
644.066	52268.65
644.419	52030.69
644.771	51882
645.124	51597.49
645.477	51461.22
645.83	51341.9
646.182	51117.5
646.535	51008.57
646.888	51038.86
647.24	50920.44
647.593	51142.81
647.945	51021.23
648.298	50839.76
648.65	50734.46
649.002	50590.28
649.355	50795.02
649.707	50738.75
650.059	50767.22
650.411	51336.25
650.763	51238.62
651.115	51560.2
651.467	51436.36
651.819	51472.29
652.171	51251.05
652.523	51303.71
652.875	51303.48
653.227	51055.8
653.578	51383.93
653.93	51245.18
654.282	51151.4
654.633	50997.27
654.985	51069.36
655.337	51061.68
655.688	50979.87
656.039	51033.43
656.391	50909.14
656.742	50934
657.094	50889.48
657.445	51031.62
657.796	50896.49
658.147	50899.2
658.498	50950.95
658.849	50956.6
659.2	50786.66
659.551	50757.96
659.902	51013.77
660.253	50818.75
660.604	50901.46
660.955	50631.86
661.306	50868.01
661.656	50758.86
662.007	50747.79
662.358	50725.19
662.708	50623.73
663.059	50633.44
663.409	50440.45
663.76	50592.77
664.11	50688.13
664.461	50628.47
664.811	50533.11
665.161	50640.45
665.511	50539.66
665.862	50609.94
666.212	50684.51
666.562	50605.65
666.912	50467.8
667.262	50476.84
667.612	50435.48
667.962	50463.28
668.312	50341.92
668.662	50483.16
669.011	50431.64
669.361	50414.69
669.711	50371.75
670.06	50230.52
670.41	50274.36
670.76	50140.57
671.109	50353.45
671.459	50314.36
671.808	50197.97
672.157	50191.65
672.507	50001.37
672.856	49997.98
673.205	50072.1
673.554	50097.19
673.904	50100.12
674.253	50308.25
674.602	50043.18
674.951	49587.59
675.3	49320.48
675.649	49783.07
675.998	49887.25
676.346	49765.22
676.695	49903.29
677.044	49663.75
677.393	49828.04
677.741	49761.83
678.09	49679.8
678.438	49588.95
678.787	49696.74
679.135	49677.99
679.484	49390.76
679.832	49658.33
680.181	49423.98
680.529	49405.9
680.877	49386.47
681.225	49434.15
681.573	49633.02
681.922	49290.65
682.27	49060.15
682.618	49104.67
682.966	49089.98
683.314	49124.33
683.661	49008.85
684.009	48842.08
684.357	48711.01
684.705	48673.72
685.053	48729.54
685.4	48634.17
685.748	48419.72
686.095	48384.69
686.443	48259.04
686.79	48132.04
687.138	48324.8
687.485	48300.62
687.832	48093.62
688.18	48173.85
688.527	47954.64
688.874	47994.42
689.221	47883.23
689.568	47931.82
689.915	47644.59
690.262	47680.98
690.609	47525.05
690.956	47402.12
691.303	47391.72
691.65	47141.11
691.997	47067.43
692.344	46882.13
692.69	46886.87
693.037	46950.15
693.383	46511.29
693.73	46742.25
694.077	46488.24
694.423	46502.03
694.769	46376.38
695.116	46301.13
695.462	46153.79
695.808	46046.22
696.155	46102.94
696.501	45647.81
696.847	45827.92
697.193	45496.4
697.539	45597.87
697.885	45319.23
698.231	45262.06
698.577	45247.37
698.923	45263.87
699.269	45064.32
699.614	44772.35
699.96	44756.99
700.306	44694.16
700.651	44553.15
700.997	44304.12
701.342	44347.28
701.688	44243.33
702.033	44109.77
702.379	44209.66
702.724	43963.56
703.069	44129.66
703.415	43649.67
703.76	43582.78
704.105	43519.51
704.45	43465.04
704.795	43279.74
705.14	43028.67
705.485	43188.67
705.83	43059.86
706.175	43057.6
706.52	42811.73
706.865	42704.61
707.209	42596.82
707.554	42486.76
707.899	42565.63
708.243	42364.06
708.588	42329.71
708.932	42036.15
709.277	42051.97
709.621	42094.23
709.966	41872.09
710.31	41922.49
710.654	41586.67
710.998	41585.32
711.342	41636.62
711.687	41504.42
712.031	41314.37
712.375	41190.08
712.719	41324.08
713.063	41027.37
713.407	41236.63
713.75	40845
714.094	40816.07
714.438	40683.2
714.782	40912.12
715.125	40629.86
715.469	40630.54
715.812	40396.65
716.156	40166.83
716.499	40296.09
716.843	40228.74
717.186	40002.08
717.53	40198.69
717.873	40083.21
718.216	39947.85
718.559	39902.88
718.902	39699.04
719.246	39742.2
719.589	39658.36
719.932	39457.92
720.275	39430.8
720.617	39411.36
720.96	39370.69
721.303	39243.69
721.646	39318.94
721.989	39014.31
722.331	39176.57
722.674	39009.57
723.016	38895.9
723.359	38763.02
723.701	38842.57
724.044	38674.21
724.386	38380.66
724.729	38689.35
725.071	38423.59
725.413	38488
725.755	38433.76
726.097	38355.8
726.439	38031.97
726.782	38172.53
727.124	38354.22
727.465	38036.26
727.807	37998.97
728.149	37962.14
728.491	37816.83
728.833	37765.76
729.175	37751.52
729.516	37723.5
729.858	37650.73
730.199	37710.84
730.541	37394.69
730.882	37394.24
731.224	37449.61
731.565	37253
731.906	37241.03
732.248	37327.8
732.589	37182.95
732.93	37003.52
733.271	37161.71
733.612	37010.52
733.953	37020.02
734.294	36870.87
734.635	36806.91
734.976	36815.5
735.317	36638.56
735.658	36664.54
735.999	36566.47
736.339	36504.77
736.68	36534.15
737.021	36416.87
737.361	36264.1
737.702	36478.11
738.042	36237.44
738.383	36275.85
738.723	36209.64
739.063	36039.93
739.404	36130.55
739.744	36102.75
740.084	35898.24
740.424	36137.55
740.764	35747.51
741.104	35916.09
741.444	35720.84
741.784	35473.62
742.124	35613.27
742.464	35553.61
742.804	35635.19
743.143	35296.67
743.483	35425.48
743.823	35185.94
744.162	35292.83
744.502	35108.2
744.841	34994.08
745.181	35149.78
745.52	34930.13
745.86	35010.12
746.199	34860.07
746.538	34752.5
746.877	34891.48
747.216	34820.07
747.556	34853.07
747.895	34702.56
748.234	34614.2
748.573	34504.15
748.911	34465.51
749.25	34456.92
749.589	34155.01
749.928	34196.13
750.267	34260.09
750.605	34092.86
750.944	33895.35
751.283	33913.66
751.621	33931.51
751.96	33696.71
752.298	33743.04
752.636	33780.1
