Data from breadboard_white_FLMS001491_00053.txt Node
Date: Wed Feb 08 10:47:56 GMT 2017
User: dcchb
Spectrometer: FLMS00149
Trigger mode: 0
Integration Time (sec): 2.000000E-2
Scans to average: 10
Electric dark correction enabled: true
Nonlinearity correction enabled: false
Boxcar width: 0
XAxis mode: Wavelengths
Number of Pixels in Spectrum: 2048
>>>>>Begin Spectral Data<<<<<
341.393	-7.09
341.776	-7.09
342.16	-7.09
342.543	-71.04
342.927	-55.45
343.31	-60.42
343.693	-80.53
344.077	-63.13
344.46	-46.64
344.843	-49.8
345.226	-54.32
345.61	-44.15
345.993	-16.58
346.376	-7.32
346.759	17.77
347.142	20.93
347.525	28.84
347.908	66.81
348.291	74.72
348.674	90.76
349.057	123.08
349.44	135.5
349.823	163.75
350.206	174.15
350.588	218.67
350.971	228.16
351.354	257.31
351.737	277.42
352.119	269.06
352.502	276.74
352.884	290.08
353.267	317.42
353.65	316.29
354.032	335.27
354.414	344.76
354.797	324.65
355.179	351.32
355.562	343.64
355.944	354.48
356.326	355.61
356.709	351.32
357.091	367.59
357.473	354.26
357.855	376.85
358.238	357.87
358.62	381.6
359.002	375.72
359.384	390.41
359.766	361.26
360.148	372.56
360.53	380.47
360.912	392.9
361.294	377.98
361.676	364.88
362.057	362.39
362.439	365.33
362.821	369.62
363.203	366.01
363.584	352.45
363.966	371.43
364.348	357.65
364.729	367.36
365.111	334.14
365.493	373.01
365.874	365.33
366.256	369.17
366.637	366.46
367.019	368.72
367.4	361.94
367.781	354.48
368.163	368.04
368.544	344.09
368.925	337.31
369.306	357.19
369.688	341.38
370.069	354.26
370.45	366.46
370.831	382.5
371.212	361.49
371.593	359.45
371.974	342.96
372.355	358.1
372.736	358.78
373.117	366.23
373.498	390.87
373.879	402.84
374.26	359.23
374.641	357.42
375.021	386.8
375.402	394.03
375.783	370.3
376.163	391.32
376.544	407.14
376.925	387.25
377.305	377.08
377.686	406.91
378.066	403.75
378.447	406.23
378.827	421.15
379.208	403.75
379.588	415.95
379.968	390.41
380.349	419.34
380.729	397.64
381.109	426.57
381.489	428.83
381.87	432.9
382.25	405.33
382.63	440.13
383.01	433.58
383.39	426.12
383.77	446.68
384.15	451.43
384.53	435.38
384.91	458.43
385.29	450.07
385.67	458.66
386.049	476.29
386.429	467.25
386.809	491.65
387.189	468.15
387.568	463.86
387.948	479
388.328	482.84
388.707	489.85
389.087	503.4
389.466	494.59
389.846	495.95
390.225	510.41
390.605	512.67
390.984	529.39
391.363	511.54
391.743	500.47
392.122	548.15
392.501	557.19
392.881	578.88
393.26	549.28
393.639	549.28
394.018	559.45
394.397	589.73
394.776	592.67
395.155	584.98
395.534	604.87
395.913	603.74
396.292	610.75
396.671	620.01
397.05	629.96
397.429	613.46
397.808	625.66
398.186	646.68
398.565	667.02
398.944	671.76
399.323	673.12
399.701	689.61
400.08	702.04
400.458	714.47
400.837	716.96
401.215	735.72
401.594	737.97
401.972	733.46
402.351	758.09
402.729	775.04
403.107	777.07
403.486	801.7
403.864	822.94
404.242	791.76
404.62	836.73
404.999	844.64
405.377	869.72
405.755	890.06
406.133	888.03
406.511	897.29
406.889	912.43
407.267	928.03
407.645	944.98
408.023	957.86
408.401	1027.46
408.779	997.4
409.156	1041.7
409.534	1030.85
409.912	1084.41
410.29	1107.23
410.667	1093.67
411.045	1127.34
411.422	1141.13
411.8	1173.22
412.178	1211.86
412.555	1222.48
412.933	1227.91
413.31	1285.08
413.687	1268.58
414.065	1299.99
414.442	1332.54
414.819	1356.94
415.197	1388.81
415.574	1397.84
415.951	1429.03
416.328	1415.92
416.705	1452.76
417.082	1460.44
417.46	1472.87
417.837	1531.17
418.214	1551.06
418.591	1561.23
418.967	1591.96
419.344	1594.22
419.721	1605.97
420.098	1617.73
420.475	1679.65
420.852	1643.94
421.228	1678.29
421.605	1712.64
421.982	1746.08
422.358	1755.35
422.735	1776.37
423.111	1766.65
423.488	1833.99
423.864	1828.57
424.241	1906.76
424.617	1889.36
424.994	1913.54
425.37	1926.64
425.746	1947.21
426.123	1968.68
426.499	1972.29
426.875	2017.49
427.251	2074.44
427.627	2069.01
428.003	2105.4
428.379	2146.98
428.756	2184.04
429.132	2220.2
429.507	2256.35
429.883	2261.32
430.259	2310.59
430.635	2362.79
431.011	2371.6
431.387	2424.26
431.763	2468.78
432.138	2464.03
432.514	2526.18
432.89	2499.74
433.265	2590.81
433.641	2616.12
434.016	2657.7
434.392	2720.52
434.767	2747.19
435.143	2723.01
435.518	2816.34
435.894	2817.69
436.269	2891.59
436.644	2896.56
437.02	2953.51
437.395	2962.32
437.77	2984.92
438.145	3050
438.52	3079.38
438.895	3080.96
439.271	3155.76
439.646	3228.3
440.021	3177.68
440.395	3217.46
440.77	3225.14
441.145	3214.29
441.52	3316.89
441.895	3358.7
442.27	3382.43
442.645	3356.44
443.019	3390.33
443.394	3399.15
443.769	3489.77
444.143	3489.77
444.518	3580.61
444.892	3545.58
445.267	3556.43
445.641	3597.56
446.016	3590.33
446.39	3635.98
446.764	3700.38
447.139	3675.3
447.513	3733.83
447.887	3774.28
448.262	3771.79
448.636	3802.75
449.01	3884.78
449.384	3874.84
449.758	3906.03
450.132	3973.6
450.506	3991.9
450.88	4032.35
451.254	3996.87
451.628	4094.5
452.002	4156.42
452.376	4146.02
452.75	4222.63
453.123	4238
453.497	4339.24
453.871	4355.05
454.244	4436.18
454.618	4489.06
454.992	4562.51
455.365	4548.72
455.739	4676.4
456.112	4734.25
456.486	4790.3
456.859	4805.21
457.232	4902.84
457.606	4905.77
457.979	4954.36
458.352	5079.56
458.725	5154.36
459.099	5190.74
459.472	5349.38
459.845	5411.98
460.218	5367.91
460.591	5430.96
460.964	5491.3
461.337	5646.32
461.71	5682.93
462.083	5807.9
462.456	5780.1
462.829	5790.5
463.201	5948.01
463.574	5949.82
463.947	6046.76
464.32	6187.1
464.692	6248.79
465.065	6297.38
465.438	6422.12
465.81	6448.56
466.183	6573.98
466.555	6728.55
466.928	6708.21
467.3	6723.13
467.672	6875.44
468.045	7044.48
468.417	7104.59
468.789	7151.37
469.161	7223.23
469.534	7334.19
469.906	7490.34
470.278	7586.16
470.65	7675.42
471.022	7904.11
471.394	7971.01
471.766	8022.3
472.138	8134.16
472.51	8270.21
472.882	8437.66
473.253	8495.06
473.625	8681.95
473.997	8789.51
474.369	8936.86
474.74	9042.62
475.112	9194.7
475.484	9422.72
475.855	9568.25
476.227	9585.43
476.598	9931.18
476.97	9998.3
477.341	10240.55
477.713	10404.84
478.084	10437.38
478.455	10704.94
478.827	10837.37
479.198	11120.98
479.569	11124.14
479.94	11485.71
480.311	11570.01
480.682	11857.91
481.053	12090.22
481.424	12344
481.795	12451.34
482.166	12683.42
482.537	12860.59
482.908	13081.38
483.279	13182.85
483.65	13478.66
484.021	13763.85
484.391	13838.65
484.762	13964.97
485.133	14134.68
485.503	14319.09
485.874	14676.82
486.244	14799.98
486.615	15063.47
486.985	15234.09
487.356	15493.75
487.726	15688.99
488.097	16089.89
488.467	16130.11
488.837	16386.83
489.207	16601.51
489.578	16850.55
489.948	16975.06
490.318	17342.28
490.688	17370.53
491.058	17760.13
491.428	17944.53
491.798	18044.19
492.168	18477.4
492.538	18502.25
492.908	18712.42
493.278	19028.12
493.648	19051.84
494.017	19307.66
494.387	19382.23
494.757	19626.29
495.126	19897.92
495.496	19990.58
495.866	19968.43
496.235	20256.56
496.605	20433.5
496.974	20638.69
497.344	20867.84
497.713	20916.2
498.082	21204.33
498.452	21341.5
498.821	21495.4
499.19	21525
499.559	21779.23
499.928	21936.51
500.298	22122.95
500.667	22386.45
501.036	22400.23
501.405	22557.51
501.774	22577.63
502.143	22978.07
502.512	22966.99
502.88	23206.76
503.249	23214.9
503.618	23417.83
503.987	23524.04
504.356	23742.12
504.724	23917.25
505.093	24056.46
505.462	24201.31
505.83	24378.26
506.199	24670.9
506.567	24896.66
506.936	24856.66
507.304	25225.92
507.672	25282.41
508.041	25440.83
508.409	25628.39
508.777	25808.05
509.145	26030.64
509.514	26010.53
509.882	26369.17
510.25	26404.64
510.618	26712.21
510.986	26760.57
511.354	27147
511.722	27273.32
512.09	27486.88
512.458	27509.7
512.826	27789.24
513.193	27967.32
513.561	28068.56
513.929	28344.71
514.297	28593.06
514.664	28817.24
515.032	28927.06
515.4	29255.87
515.767	29429.2
516.135	29576.09
516.502	29402.98
516.869	29982.63
517.237	30175.62
517.604	29914.61
517.972	30531.54
518.339	30696.96
518.706	30687.92
519.073	31011.3
519.44	31303.95
519.808	31560.67
520.175	31591.63
520.542	32100.77
520.909	32239.97
521.276	32117.26
521.643	32639.06
522.009	32886.51
522.376	33039.5
522.743	33262.32
523.11	33666.83
523.477	33930.77
523.843	34069.75
524.21	34469.29
524.577	34728.49
524.943	34869.96
525.31	35036.73
525.676	35397.63
526.043	35559.66
526.409	35869.71
526.776	36287.55
527.142	36270.15
527.508	36469.24
527.874	36865.16
528.241	37191.48
528.607	37215.43
528.973	37631.69
529.339	37547.18
529.705	37913.72
530.071	38211.34
530.437	38436.42
530.803	38626.92
531.169	38763.64
531.535	38893.13
531.901	39019.91
532.267	39148.72
532.632	39545.32
532.998	39739.44
533.364	39799.09
533.73	39856.49
534.095	40381.9
534.461	40381
534.826	40621.45
535.192	40876.35
535.557	41108.89
535.923	41000.19
536.288	41249
536.653	41537.58
537.019	41460.29
537.384	41668.2
537.749	41786.16
538.114	42077.45
538.479	42144.34
538.845	42406.71
539.21	42271.57
539.575	42515.41
539.94	42598.57
540.305	43067.94
540.67	42936.41
541.034	43114.49
541.399	43288.49
541.764	43331.21
542.129	43584.76
542.494	43517.42
542.858	43841.02
543.223	43715.6
543.587	44139.77
543.952	44180.22
544.316	44302.48
544.681	44325.08
545.045	44690.49
545.41	44677.16
545.774	44910.15
546.138	44945.63
546.503	45106.98
546.867	45265.84
547.231	45503.8
547.595	45515.33
547.959	45546.29
548.324	45758.49
548.688	45722.1
549.052	45997.8
549.416	46037.35
549.779	46139.27
550.143	46209.77
550.507	46499.03
550.871	46706.26
551.235	46651.8
551.599	47184.44
551.962	47003.43
552.326	47180.6
552.689	47516.63
553.053	47414.04
553.417	47447.48
553.78	48085.88
554.143	47883.4
554.507	48022.38
554.87	48170.63
555.234	48602.71
555.597	48464.18
555.96	48510.73
556.323	48767.45
556.686	48754.34
557.05	49000.89
557.413	49093.54
557.776	49296.92
558.139	49517.03
558.502	49524.49
558.865	49681.32
559.228	49948.21
559.59	50186.62
559.953	50255.32
560.316	50568.76
560.679	50505.03
561.041	50724.01
561.404	50918.35
561.767	51114.96
562.129	51069.31
562.492	51274.27
562.854	51363.54
563.217	51339.13
563.579	51549.29
563.941	51750.42
564.304	51926.23
564.666	52057.53
565.028	52231.76
565.39	52262.04
565.753	52516.05
566.115	52547.46
566.477	52797.17
566.839	52783.16
567.201	53023.38
567.563	52991.29
567.925	53210.04
568.287	53230.83
568.648	53319.19
569.01	53556.7
569.372	53673.98
569.734	53599.41
570.095	53790.37
570.457	53901.32
570.819	54005.05
571.18	54044.37
571.542	54196
571.903	54228.32
572.265	54438.48
572.626	54367.75
572.987	54478.71
573.349	54627.41
573.71	54661.98
574.071	54715.31
574.432	54762.54
574.794	55033.72
575.155	55064.46
575.516	54996.89
575.877	55147.84
576.238	55132.25
576.599	55327.27
576.96	55325.69
577.32	55215.64
577.681	55406.59
578.042	55482.07
578.403	55483.88
578.763	55471.9
579.124	55548.06
579.485	55620.37
579.845	55661.5
580.206	55686.81
580.566	55609.53
580.927	55715.29
581.287	55729.75
581.648	55648.4
582.008	55749.86
582.368	55830.54
582.728	55759.35
583.089	55764.78
583.449	55774.72
583.809	55804.1
584.169	55878.9
584.529	55772.69
584.889	56003.41
585.249	55789.18
585.609	55713.25
585.969	55912.8
586.329	55833.48
586.688	55925.22
587.048	55867.15
587.408	55886.13
587.768	55903.53
588.127	55940.37
588.487	55835.51
588.846	56084.54
589.206	55924.09
589.565	55863.08
589.925	55971.32
590.284	55932.68
590.643	55971.78
591.003	56014.49
591.362	56052.23
591.721	56057.88
592.08	56089.74
592.44	56129.06
592.799	56087.71
593.158	56075.73
593.517	55967.26
593.876	56090.64
594.235	56081.83
594.593	56088.16
594.952	56124.32
595.311	56052.68
595.67	56139.23
596.029	56199.79
596.387	56299.68
596.746	56219.45
597.104	56152.34
597.463	56183.97
597.822	56270.53
598.18	56226.91
598.538	56172.45
598.897	56367.7
599.255	56093.81
599.613	56546.23
599.972	56324.76
600.33	56422.61
600.688	56320.47
601.046	56445.21
601.404	56503.51
601.762	56468.94
602.12	56579.67
602.478	56552.55
602.836	56633.91
603.194	56489.73
603.552	56520.24
603.91	56456.96
604.268	56557.07
604.625	56521.37
604.983	56600.23
605.341	56407.7
605.698	56660.35
606.056	56715.03
606.413	56636.62
606.771	56763.39
607.128	56816.05
607.485	56703.28
607.843	56692.44
608.2	56872.09
608.557	57004.07
608.914	56819.66
609.272	56960
609.629	56999.09
609.986	57070.05
610.343	56978.3
610.7	57121.8
611.057	57077.51
611.414	57092.65
611.771	57125.64
612.127	57230.27
612.484	57169.03
612.841	57357.73
613.198	57230.5
613.554	57183.5
613.911	57393.89
614.267	57283.83
614.624	57300.33
614.98	57366.54
615.337	57487.67
615.693	57393.43
616.05	57420.55
616.406	57631.39
616.762	57437.05
617.118	57433.89
617.475	57447.67
617.831	57560.21
618.187	57587.55
618.543	57653.54
618.899	57757.94
619.255	57690.83
619.611	57662.13
619.967	57749.58
620.323	57815.12
620.678	57633.2
621.034	57629.59
621.39	57668.23
621.746	57580.1
622.101	57880.65
622.457	57682.01
622.812	57677.04
623.168	57764.5
623.523	57770.37
623.879	57862.35
624.234	57665.97
624.589	57813.54
624.945	57718.17
625.3	57771.05
625.655	57741.22
626.01	57818.73
626.365	57804.05
626.72	57772.41
627.075	57763.82
627.43	57720.21
627.785	57704.61
628.14	57729.7
628.495	57760.43
628.85	57645.41
629.205	57554.33
629.559	57697.38
629.914	57630.04
630.269	57645.41
630.623	57553.2
630.978	57465.75
631.332	57616.93
631.687	57625.29
632.041	57534.9
632.396	57585.29
632.75	57404.73
633.104	57479.08
633.459	57346.88
633.813	57384.62
634.167	57339.65
634.521	57296.71
634.875	57324.96
635.229	57201.58
635.583	57176.49
635.937	57184.4
636.291	57171.07
636.645	57167
636.999	57116.38
637.352	57175.36
637.706	56997.96
638.06	57126.1
638.413	57053.1
638.767	57001.81
639.121	57019.66
639.474	56842.26
639.828	56822.6
640.181	56854.24
640.534	56885.43
640.888	56768.59
641.241	56659.22
641.594	56691.31
641.947	56831.87
642.301	56680.23
642.654	56597.07
643.007	56689.05
643.36	56616.96
643.713	56562.72
644.066	56661.02
644.419	56481.82
644.771	56344.2
645.124	56143.52
645.477	56163.64
645.83	55885
646.182	55753.93
646.535	55583.09
646.888	55593.03
647.24	55496.76
647.593	55614.27
647.945	55536.76
648.298	55371.11
648.65	55400.04
649.002	55358.46
649.355	55408.18
649.707	55328.4
650.059	55604.78
650.411	55824.44
650.763	55893.36
651.115	56093.13
651.467	55970.19
651.819	55920.03
652.171	55827.37
652.523	55809.52
652.875	55820.59
653.227	55720.26
653.578	55830.09
653.93	55796.19
654.282	55614.72
654.633	55664.21
654.985	55746.47
655.337	55678.68
655.688	55655.85
656.039	55785.79
656.391	55562.52
656.742	55536.99
657.094	55572.01
657.445	55689.75
657.796	55548.51
658.147	55513.71
658.498	55518.68
658.849	55552.8
659.2	55502.18
659.551	55464.45
659.902	55488.85
660.253	55512.58
660.604	55515.07
660.955	55359.14
661.306	55515.29
661.656	55384.9
662.007	55333.15
662.358	55315.75
662.708	55254.73
663.059	55347.16
663.409	55108.52
663.76	55401.17
664.11	55326.6
664.461	55400.72
664.811	55334.73
665.161	55247.73
665.511	55158.24
665.862	55231.68
666.212	55219.25
666.562	55310.1
666.912	55257.22
667.262	55114.17
667.612	55164.57
667.962	55196.88
668.312	55099.26
668.662	55200.95
669.011	55200.05
669.361	55086.15
669.711	55083.66
670.06	55096.77
670.41	55023.33
670.76	54973.16
671.109	55052.48
671.459	54972.71
671.808	55014.06
672.157	54986.04
672.507	54795.54
672.856	54888.42
673.205	54828.76
673.554	54922.99
673.904	54769.32
674.253	54867.85
674.602	54851.35
674.951	54463.12
675.3	54333.63
675.649	54764.13
675.998	54683
676.346	54688.19
676.695	54801.41
677.044	54552.38
677.393	54634.41
677.741	54671.02
678.09	54598.48
678.438	54552.15
678.787	54607.52
679.135	54535.66
679.484	54294.98
679.832	54456.56
680.181	54210.69
680.529	54293.85
680.877	54299.28
681.225	54154.65
681.573	54319.39
681.922	54102.9
682.27	54176.12
682.618	54109.68
682.966	54024.48
683.314	54159.17
683.661	53974.54
684.009	53856.13
684.357	53700.65
684.705	53706.3
685.053	53775.9
685.4	53715.11
685.748	53528.23
686.095	53553.99
686.443	53364.84
686.79	53367.78
687.138	53380.43
687.485	53440.09
687.832	53345.18
688.18	53420.43
688.527	53133.66
688.874	53123.26
689.221	53045.3
689.568	52927.34
689.915	52964.4
690.262	52869.71
690.609	52743.39
690.956	52652.54
691.303	52617.97
691.65	52510.17
691.997	52386.33
692.344	52248.94
692.69	52258.88
693.037	52241.93
693.383	51936.4
693.73	52254.59
694.077	51930.08
694.423	51835.16
694.769	51798.55
695.116	51644.66
695.462	51531.89
695.808	51497.32
696.155	51641.72
696.501	51327.15
696.847	51342.52
697.193	51065.69
697.539	51124.45
697.885	50880.84
698.231	50915.86
698.577	50837.22
698.923	50695.76
699.269	50634.74
699.614	50360.85
699.96	50435.65
700.306	50279.05
700.651	50188.43
700.997	50055.55
701.342	50065.49
701.688	50011.48
702.033	49883.12
702.379	49785.95
702.724	49747.31
703.069	49862.78
703.415	49411.5
703.76	49367.66
704.105	49432.06
704.45	49216.7
704.795	48959.08
705.14	48851.06
705.485	48967.67
705.83	48745.75
706.175	48747.56
706.52	48614.23
706.865	48428.25
707.209	48411.98
707.554	48206.56
707.899	48271.87
708.243	48160
708.588	48129.5
708.932	47911.42
709.277	47896.96
709.621	47814.25
709.966	47612.22
710.31	47723.86
710.654	47320.03
710.998	47282.74
711.342	47450.19
711.687	47263.53
712.031	47168.62
712.375	46876.2
712.719	47031.9
713.063	46971.56
713.407	47086.36
713.75	46779.93
714.094	46858.57
714.438	46418.58
714.782	46707.39
715.125	46337.45
715.469	46463.1
715.812	46184.46
716.156	46078.7
716.499	46043.9
716.843	46035.54
717.186	45897.47
717.53	46046.39
717.873	46009.78
718.216	45759.16
718.559	45590.81
718.902	45398.5
719.246	45395.56
719.589	45320.76
719.932	45310.14
720.275	45208.22
720.617	45337.71
720.96	45006.42
721.303	45063.59
721.646	45064.27
721.989	44797.83
722.331	44879.19
722.674	44782.24
723.016	44812.3
723.359	44654.79
723.701	44562.81
724.044	44380.67
724.386	44155.14
724.729	44336.15
725.071	44256.83
725.413	44180.22
725.755	44139.09
726.097	44013.9
726.439	43816.16
726.782	43713.57
727.124	44129.38
727.465	43698.65
727.807	43679.22
728.149	43629.5
728.491	43436.29
728.833	43550.63
729.175	43448.49
729.516	43199.68
729.858	43098.22
730.199	43378.44
730.541	43145.22
730.882	42969.18
731.224	43071.33
731.565	42785.91
731.906	42813.25
732.248	42982.29
732.589	42638.12
732.93	42537.1
733.271	42561.28
733.612	42643.31
733.953	42609.87
734.294	42301.63
734.635	42166.94
734.976	42425.24
735.317	42171.69
735.658	42106.6
735.999	42177.34
736.339	41972.14
736.68	42173.72
737.021	41924.24
737.361	41887.85
737.702	41830.45
738.042	41570.35
738.383	41734.41
738.723	41794.07
739.063	41485.6
739.404	41631.14
739.744	41400.63
740.084	41317.02
740.424	41386.17
740.764	41034.32
741.104	41349.34
741.444	41056.24
741.784	40899.18
742.124	41103.69
742.464	41037.93
742.804	40826.41
743.143	40806.53
743.483	40771.72
743.823	40529.02
744.162	40457.16
744.502	40673.42
744.841	40446.31
745.181	40538.06
745.52	40368.8
745.86	40405.18
746.199	40071.18
746.538	40199.99
746.877	40203.6
747.216	40017.39
747.556	40032.53
747.895	40084.96
748.234	39836.16
748.573	39815.82
748.911	39759.55
749.25	39690.4
749.589	39457.86
749.928	39381.48
750.267	39494.24
750.605	39305.1
750.944	39078.44
751.283	39031.88
751.621	39195.95
751.96	38953.47
752.298	38865.11
752.636	38812.23
752.975	38622.4
