Data from breadboard_black_back_FLMS001491_00032.txt Node
Date: Wed Feb 08 10:50:17 GMT 2017
User: dcchb
Spectrometer: FLMS00149
Trigger mode: 0
Integration Time (sec): 2.000000E-2
Scans to average: 10
Electric dark correction enabled: true
Nonlinearity correction enabled: false
Boxcar width: 0
XAxis mode: Wavelengths
Number of Pixels in Spectrum: 2048
>>>>>Begin Spectral Data<<<<<
341.393	-29.5
341.776	-29.5
342.16	-29.5
342.543	-64.08
342.927	-70.63
343.31	-86.45
343.693	-62.27
344.077	-70.18
344.46	-50.07
344.843	-41.93
345.226	-36.28
345.61	-10.07
345.993	-29.05
346.376	-3.52
346.759	22.25
347.142	5.97
347.525	35.13
347.908	47.56
348.291	85.07
348.674	95.24
349.057	98.63
349.44	118.51
349.823	135.24
350.206	175.69
350.588	208.45
350.971	227.66
351.354	215.01
351.737	226.31
352.119	237.38
352.502	271.28
352.884	281
353.267	288.45
353.65	289.36
354.032	295.01
354.414	312.18
354.797	318.51
355.179	312.63
355.562	322.12
355.944	336.14
356.326	343.14
356.709	366.19
357.091	352.63
357.473	351.28
357.855	361.22
358.238	351.5
358.62	346.08
359.002	340.43
359.384	346.53
359.766	357.15
360.148	343.82
360.53	364.61
360.912	369.58
361.294	320.99
361.676	349.92
362.057	357.6
362.439	349.02
362.821	337.94
363.203	348.79
363.584	364.84
363.966	344.04
364.348	325.06
364.729	332.07
365.111	338.85
365.493	360.09
365.874	350.37
366.256	335.01
366.637	349.24
367.019	321.67
367.4	330.03
367.781	332.29
368.163	345.17
368.544	325.74
368.925	349.92
369.306	346.08
369.688	338.4
370.069	323.03
370.45	337.94
370.831	338.17
371.212	345.63
371.593	358.73
371.974	356.7
372.355	342.01
372.736	354.67
373.117	359.64
373.498	355.12
373.879	355.12
374.26	354.67
374.641	356.47
375.021	344.04
375.402	348.79
375.783	338.62
376.163	385.85
376.544	377.94
376.925	375
377.305	389.24
377.686	377.49
378.066	366.19
378.447	387.66
378.827	384.72
379.208	387.66
379.588	376.13
379.968	390.15
380.349	369.35
380.729	411.84
381.109	402.35
381.489	381.78
381.87	393.76
382.25	399.64
382.63	422.23
383.01	426.3
383.39	425.62
383.77	403.7
384.15	406.19
384.53	424.27
384.91	411.61
385.29	441.9
385.67	428.79
386.049	427.21
386.429	443.25
386.809	432.4
387.189	415
387.568	434.21
387.948	425.62
388.328	447.09
388.707	461.33
389.087	468.34
389.466	473.76
389.846	468.11
390.225	479.63
390.605	486.41
390.984	473.08
391.363	492.74
391.743	492.06
392.122	476.92
392.501	492.97
392.881	500.88
393.26	511.05
393.639	509.01
394.018	513.08
394.397	504.27
394.776	517.15
395.155	519.86
395.534	536.58
395.913	533.42
396.292	532.97
396.671	553.3
397.05	562.8
397.429	533.19
397.808	535.68
398.186	569.58
398.565	549.24
398.944	548.33
399.323	568.67
399.701	571.84
400.08	580.65
400.458	550.82
400.837	580.2
401.215	567.09
401.594	604.15
401.972	609.12
402.351	590.37
402.729	612.96
403.107	606.18
403.486	607.54
403.864	638.05
404.242	607.54
404.62	618.39
404.999	654.09
405.377	634.66
405.755	649.8
406.133	660.42
406.511	658.16
406.889	674.21
407.267	694.77
407.645	697.93
408.023	698.39
408.401	679.63
408.779	720.76
409.156	718.05
409.534	728.67
409.912	720.08
410.29	739.51
410.667	765.95
411.045	776.8
411.422	750.14
411.8	757.14
412.178	781.32
412.555	797.82
412.933	807.31
413.31	792.62
413.687	837.59
414.065	799.4
414.442	810.93
414.819	847.99
415.197	844.82
415.574	835.78
415.951	861.55
416.328	878.04
416.705	865.84
417.082	865.39
417.46	875.33
417.837	925.5
418.214	917.81
418.591	905.16
418.967	936.35
419.344	960.75
419.721	924.14
420.098	949
420.475	977.7
420.852	955.33
421.228	982.67
421.605	965.95
421.982	992.16
422.358	998.26
422.735	999.17
423.111	1023.8
423.488	1013.63
423.864	1014.76
424.241	1043.69
424.617	1052.5
424.994	1081.43
425.37	1093.18
425.746	1094.76
426.123	1116.91
426.499	1136.34
426.875	1116.45
427.251	1119.62
427.627	1162.55
428.003	1173.85
428.379	1181.99
428.756	1191.71
429.132	1194.64
429.507	1222.44
429.883	1238.94
430.259	1225.15
430.635	1219.73
431.011	1279.84
431.387	1308.99
431.763	1318.48
432.138	1322.32
432.514	1346.96
432.89	1364.13
433.265	1395.54
433.641	1376.56
434.016	1403.23
434.392	1414.98
434.767	1458.82
435.143	1451.36
435.518	1476.67
435.894	1487.07
436.269	1492.94
436.644	1529.55
437.02	1563.22
437.395	1524.58
437.77	1577.23
438.145	1575.42
438.52	1598.47
438.895	1608.19
439.271	1600.73
439.646	1653.61
440.021	1651.81
440.395	1651.13
440.77	1655.2
441.145	1672.37
441.52	1721.64
441.895	1697.91
442.27	1740.39
442.645	1748.3
443.019	1773.16
443.394	1738.13
443.769	1769.32
444.143	1750.34
444.518	1809.77
444.892	1802.99
445.267	1829.88
445.641	1845.02
446.016	1849.32
446.39	1851.35
446.764	1887.28
447.139	1872.82
447.513	1867.62
447.887	1918.69
448.262	1898.58
448.636	1957.79
449.01	1962.31
449.384	1961.4
449.758	1999.14
450.132	2006.15
450.506	2035.07
450.88	2034.85
451.254	2035.07
451.628	2025.36
452.002	2098.35
452.376	2133.6
452.75	2154.84
453.123	2152.13
453.497	2175.86
453.871	2184
454.244	2233.03
454.618	2230.77
454.992	2294.95
455.365	2289.76
455.739	2354.39
456.112	2355.52
456.486	2352.13
456.859	2426.48
457.232	2438.68
457.606	2468.28
457.979	2490.65
458.352	2532.91
458.725	2565.91
459.099	2577.21
459.472	2661.27
459.845	2656.53
460.218	2641.61
460.591	2719.58
460.964	2738.78
461.337	2766.58
461.71	2845.9
462.083	2866.24
462.456	2873.24
462.829	2894.71
463.201	2930.42
463.574	2990.53
463.947	2985.11
464.32	3082.96
464.692	3104.65
465.065	3115.72
465.438	3160.24
465.81	3176.51
466.183	3254.25
466.555	3322.72
466.928	3300.35
467.3	3356.62
467.672	3372.21
468.045	3489.5
468.417	3473.68
468.789	3548.93
469.161	3556.16
469.534	3630.96
469.906	3691.08
470.278	3705.76
470.65	3747.34
471.022	3828.7
471.394	3867.57
471.766	3910.73
472.138	3976.04
472.51	4068.47
472.882	4129.93
473.253	4172.19
473.625	4230.04
473.997	4239.54
474.369	4325.18
474.74	4394.33
475.112	4464.16
475.484	4566.08
475.855	4612.18
476.227	4627.55
476.598	4788.67
476.97	4838.39
477.341	4930.82
477.713	5002
478.084	5018.5
478.455	5208.1
478.827	5215.1
479.198	5342.56
479.569	5403.35
479.94	5483.57
480.311	5596.34
480.682	5691.47
481.053	5796.1
481.424	5895.54
481.795	5931.92
482.166	6038.58
482.537	6121.29
482.908	6278.13
483.279	6352.93
483.65	6450.1
484.021	6605.12
484.391	6621.62
484.762	6679.02
485.133	6781.16
485.503	6807.6
485.874	6992.91
486.244	7017.99
486.615	7143.19
486.985	7307.25
487.356	7440.36
487.726	7442.16
488.097	7663.63
488.467	7697.75
488.837	7826.11
489.207	7950.4
489.578	8092.09
489.948	8093.45
490.318	8240.56
490.688	8260.9
491.058	8392.65
491.428	8503.15
491.798	8638.29
492.168	8778.85
492.538	8796.48
492.908	8921.67
493.278	9005.74
493.648	9050.48
494.017	9177.48
494.387	9317.37
494.757	9337.93
495.126	9416.57
495.496	9471.71
495.866	9573.86
496.235	9662.9
496.605	9797.58
496.974	9771.82
497.344	9927.3
497.713	9966.62
498.082	10032.15
498.452	10210.9
498.821	10225.59
499.19	10279.15
499.559	10313.5
499.928	10392.14
500.298	10445.7
500.667	10629.88
501.036	10596.43
501.405	10684.11
501.774	10685.02
502.143	10851.34
502.512	10903.99
502.88	11015.4
503.249	11045.23
503.618	11072.58
503.987	11147.83
504.356	11296.07
504.724	11316.86
505.093	11410.87
505.462	11414.94
505.83	11502.17
506.199	11628.27
506.567	11850.41
506.936	11701.03
507.304	11948.94
507.672	12004.75
508.041	12171.76
508.409	12106.67
508.777	12300.79
509.145	12365.88
509.514	12298.76
509.882	12475.25
510.25	12537.62
510.618	12701.46
510.986	12667.79
511.354	12854
511.722	12928.12
512.09	13129.25
512.458	13052.86
512.826	13212.63
513.193	13291.5
513.561	13325.85
513.929	13469.58
514.297	13572.62
514.664	13628.89
515.032	13760.64
515.4	13900.07
515.767	13902.33
516.135	14032.5
516.502	13990.69
516.869	14191.82
517.237	14295.54
517.604	14337.35
517.972	14484.24
518.339	14543.9
518.706	14576.44
519.073	14637.91
519.44	14845.36
519.808	15041.29
520.175	15051.91
520.542	15293.26
520.909	15313.37
521.276	15312.69
521.643	15496.64
522.009	15631.1
522.376	15766.92
522.743	15805.56
523.11	15995.61
523.477	16167.13
523.843	16334.58
524.21	16446.45
524.577	16528.25
524.943	16666.55
525.31	16749.94
525.676	16928.02
526.043	16958.75
526.409	17117.61
526.776	17274.67
527.142	17362.81
527.508	17446.87
527.874	17682.12
528.241	17653.87
528.607	17787.65
528.973	17974.77
529.339	18024.94
529.705	18179.06
530.071	18325.94
530.437	18439.39
530.803	18515.54
531.169	18623.11
531.535	18685.03
531.901	18742.88
532.267	18824.24
532.632	19048.19
532.998	19055.19
533.364	19089.54
533.73	19117.11
534.095	19367.5
534.461	19342.64
534.826	19526.37
535.192	19637.55
535.557	19770.65
535.923	19759.35
536.288	19868.95
536.653	20019.01
537.019	19965
537.384	20048.39
537.749	20178.55
538.114	20260.36
538.479	20266.68
538.845	20361.82
539.21	20476.62
539.575	20530.41
539.94	20513.91
540.305	20751.64
540.67	20644.3
541.034	20816.73
541.399	20912.09
541.764	20948.93
542.129	21048.13
542.494	21104.18
542.858	21216.04
543.223	21192.08
543.587	21366.32
543.952	21447.9
544.316	21509.14
544.681	21490.38
545.045	21712.52
545.41	21720.21
545.774	21790.26
546.138	21706.42
546.503	21883.37
546.867	21973.53
547.231	22043.14
547.595	22162.45
547.959	22241.55
548.324	22263.24
548.688	22427.53
549.052	22532.84
549.416	22490.35
549.779	22540.98
550.143	22583.91
550.507	22777.35
550.871	22808.09
551.235	22782.1
551.599	23047.63
551.962	23157.46
552.326	23113.84
552.689	23312.71
553.053	23219.6
553.417	23259.6
553.78	23562.64
554.143	23524.23
554.507	23681.74
554.87	23771.9
555.234	23969.64
555.597	23756.08
555.96	24093.48
556.323	24128.73
556.686	24185.9
557.05	24316.07
557.413	24451.66
557.776	24473.58
558.139	24559
558.502	24607.36
558.865	24691.43
559.228	24989.5
559.59	24916.96
559.953	24976.62
560.316	25343.16
560.679	25303.61
561.041	25562.14
561.404	25650.72
561.767	25773.43
562.129	25646.43
562.492	25996.25
562.854	25984.05
563.217	26009.58
563.579	26056.14
563.941	26393.3
564.304	26463.13
564.666	26572.51
565.028	26637.82
565.39	26754.42
565.753	26886.4
566.115	27016.11
566.477	27043.23
566.839	27197.12
567.201	27365.93
567.563	27512.6
567.925	27484.12
568.287	27583.78
568.648	27765.02
569.01	27774.96
569.372	28084.11
569.734	27981.51
570.095	28065.12
570.457	28188.06
570.819	28200.49
571.18	28326.81
571.542	28585.34
571.903	28535.62
572.265	28668.05
572.626	28832.11
572.987	28814.26
573.349	28828.04
573.71	28926.57
574.071	29022.16
574.432	29092.22
574.794	29250.18
575.155	29343.06
575.516	29197.75
575.877	29426.67
576.238	29447.01
576.599	29638.87
576.96	29628.47
577.32	29600.68
577.681	29757.96
578.042	29723.61
578.403	29707.79
578.763	29828.24
579.124	29874.57
579.485	29853.78
579.845	30125.18
580.206	29922.93
580.566	30053.09
580.927	30111.62
581.287	30173.77
581.648	30060.33
582.008	30189.14
582.368	30210.6
582.728	30307.55
583.089	30191.85
583.449	30243.15
583.809	30303.26
584.169	30373.99
584.529	30279.08
584.889	30644.04
585.249	30313.88
585.609	30299.64
585.969	30374.67
586.329	30444.95
586.688	30533.31
587.048	30244.73
587.408	30399.75
587.768	30278.62
588.127	30264.16
588.487	30291.28
588.846	30454.89
589.206	30361.33
589.565	30398.85
589.925	30402.69
590.284	30442.01
590.643	30483.82
591.003	30660.99
591.362	30724.71
591.721	30576.24
592.08	30480.2
592.44	30731.72
592.799	30605.85
593.158	30626.64
593.517	30630.48
593.876	30610.37
594.235	30662.34
594.593	30572.85
594.952	30794.54
595.311	30630.71
595.67	30738.5
596.029	31039.28
596.387	30892.39
596.746	30899.17
597.104	30765.39
597.463	30709.8
597.822	30970.36
598.18	30744.38
598.538	30747.76
598.897	30994.31
599.255	30613.76
599.613	31119.05
599.972	30975.1
600.33	31136.68
600.688	30860.08
601.046	31094.42
601.404	31175.32
601.762	31029.79
602.12	31196.11
602.478	31186.85
602.836	31192.27
603.194	31064.59
603.552	31139.39
603.91	31066.17
604.268	31343.46
604.625	31303.91
604.983	31352.04
605.341	31314.98
605.698	31472.94
606.056	31381.65
606.413	31407.18
606.771	31451.93
607.128	31610.12
607.485	31422.32
607.843	31509.55
608.2	31559.95
608.557	31785.03
608.914	31641.75
609.272	31708.87
609.629	31778.47
609.986	31906.15
610.343	31836.78
610.7	31970.11
611.057	31922.88
611.414	31910.22
611.771	31940.5
612.127	32041.29
612.484	32038.13
612.841	32153.6
613.198	31989.77
613.554	32040.39
613.911	32161.74
614.267	32167.39
614.624	32192.02
614.98	32296.42
615.337	32421.62
615.693	32359.7
616.05	32332.36
616.406	32552.69
616.762	32462.3
617.118	32469.08
617.475	32399.47
617.831	32549.3
618.187	32568.28
618.543	32630.65
618.899	32723.31
619.255	32793.13
619.611	32611.9
619.967	32771.67
620.323	32846.24
620.678	32711.33
621.034	32502.75
621.39	32665
621.746	32520.37
622.101	32947.03
622.457	32695.06
622.812	32797.43
623.168	32722.63
623.523	32735.06
623.879	32930.98
624.234	32711.1
624.589	32753.14
624.945	32883.08
625.3	32800.14
625.655	32868.16
626.01	32823.42
626.365	32732.12
626.72	32739.13
627.075	32719.01
627.43	32759.69
627.785	32639.69
628.14	32693.25
628.495	32805.11
628.85	32675.85
629.205	32660.48
629.559	32783.64
629.914	32684.89
630.269	32676.53
630.623	32599.47
630.978	32490.77
631.332	32705.45
631.687	32710.88
632.041	32596.08
632.396	32552.92
632.75	32538.9
633.104	32475.63
633.459	32415.74
633.813	32342.75
634.167	32230.89
634.521	32241.29
634.875	32321.96
635.229	32255.07
635.583	32108.63
635.937	32044.45
636.291	32135.98
636.645	32140.27
636.999	32058.24
637.352	32125.58
637.706	31968.52
638.06	32273.83
638.413	31961.52
638.767	32055.98
639.121	31880.84
639.474	31848.98
639.828	31815.31
640.181	31733.73
640.534	31800.17
640.888	31658.25
641.241	31529.44
641.594	31595.65
641.947	31632.04
642.301	31546.84
642.654	31485.37
643.007	31474.3
643.36	31388.43
643.713	31436.11
644.066	31573.73
644.419	31136
644.771	31200.41
645.124	30867.54
645.477	30791.61
645.83	30499.64
646.182	30506.42
646.535	30306.87
646.888	30344.84
647.24	30203.6
647.593	30254.44
647.945	30266.2
648.298	30100.1
648.65	30020.33
649.002	29934.68
649.355	30148.23
649.707	30184.16
650.059	30227.78
650.411	30559.75
650.763	30701.21
651.115	30630.03
651.467	30790.25
651.819	30803.36
652.171	30639.07
652.523	30550.03
652.875	30571.27
653.227	30486.53
653.578	30674.32
653.93	30546.64
654.282	30455.12
654.633	30359.75
654.985	30487.88
655.337	30437.26
655.688	30402.92
656.039	30476.13
656.391	30086.99
656.742	30373.31
657.094	30384.61
657.445	30416.25
657.796	30352.97
658.147	30082.7
658.498	30195.46
658.849	30231.17
659.2	30131.28
659.551	30181.9
659.902	30288.12
660.253	30222.81
660.604	30116.14
660.955	30014.9
661.306	30261.45
661.656	30117.5
662.007	30077.27
662.358	30035.02
662.708	30014.22
663.059	29970.16
663.409	29802.03
663.76	30088.35
664.11	30049.93
664.461	30019.87
664.811	29956.6
665.161	29919.09
665.511	29951.85
665.862	29889.93
666.212	29942.14
666.562	30001.34
666.912	29824.63
667.262	29977.16
667.612	29844.74
667.962	29846.77
668.312	29784.4
668.662	29839.09
669.011	29792.08
669.361	29822.14
669.711	29625.99
670.06	29663.05
670.41	29576.5
670.76	29607.91
671.109	29767.23
671.459	29681.13
671.808	29550.73
672.157	29642.26
672.507	29402.04
672.856	29442.71
673.205	29608.59
673.554	29453.56
673.904	29416.73
674.253	29562.03
674.602	29483.84
674.951	29038.66
675.3	28827.14
675.649	29397.74
675.998	29380.34
676.346	29378.99
676.695	29435.26
677.044	29167.02
677.393	29271.87
677.741	29298.99
678.09	29157.07
678.438	28997.75
678.787	29164.76
679.135	29216.73
679.484	28863.75
679.832	29068.94
680.181	28905.33
680.529	29094.48
680.877	28781.94
681.225	28890.64
681.573	28985.78
681.922	28820.58
682.27	28776.29
682.618	28777.87
682.966	28734.26
683.314	28712.34
683.661	28594.6
684.009	28532.23
684.357	28436.41
684.705	28492.91
685.053	28492.46
685.4	28362.06
685.748	28213.59
686.095	28175.4
686.443	28026.48
686.79	27998.91
687.138	28132.01
687.485	28013.83
687.832	27985.35
688.18	27992.81
688.527	27772.93
688.874	27713.49
689.221	27718.47
689.568	27587.85
689.915	27691.12
690.262	27610.67
690.609	27550.56
690.956	27390.79
691.303	27492.94
691.65	27384.69
691.997	27312.15
692.344	27056.56
692.69	27073.74
693.037	27170.68
693.383	26866.74
693.73	26976.79
694.077	26888.21
694.423	26804.82
694.769	26690.02
695.116	26679.17
695.462	26630.81
695.808	26656.57
696.155	26564.37
696.501	26373.42
696.847	26361.89
697.193	26155.57
697.539	26319.18
697.885	26046.19
698.231	26037.61
698.577	26023.6
698.923	25989.25
699.269	25870.61
699.614	25746.31
699.96	25652.98
700.306	25661.8
700.651	25465.64
700.997	25555.13
701.342	25431.07
701.688	25432.65
702.033	25244.18
702.379	25376.38
702.724	25139.55
703.069	25220.23
703.415	24916.05
703.76	24989.72
704.105	24941.59
704.45	24855.94
704.795	24716.96
705.14	24760.13
705.485	24748.6
705.83	24599.23
706.175	24609.17
706.52	24573.01
706.865	24492.34
707.209	24415.5
707.554	24277.88
707.899	24337.54
708.243	24147.26
708.588	24134.83
708.932	24074.72
709.277	24069.97
709.621	24112.91
709.966	23888.74
710.31	23948.17
710.654	23652.81
710.998	23798.57
711.342	23759.25
711.687	23792.24
712.031	23561.06
712.375	23504.79
712.719	23537.79
713.063	23517.9
713.407	23512.02
713.75	23395.64
714.094	23409.43
714.438	23339.37
714.782	23353.38
715.125	23164.69
715.469	23283.78
715.812	23019.38
716.156	22938.48
716.499	23024.8
716.843	23075.65
717.186	22784.81
717.53	22980.51
717.873	22935.32
718.216	22885.82
718.559	22774.87
718.902	22501.65
719.246	22736.45
719.589	22572.39
719.932	22468.66
720.275	22585.27
720.617	22506.4
720.96	22493.07
721.303	22450.36
721.646	22463.24
721.989	22331.26
722.331	22436.35
722.674	22223.92
723.016	22352.51
723.359	22203.36
723.701	22263.69
724.044	22042.46
724.386	21997.94
724.729	22059.63
725.071	21978.73
725.413	22002.91
725.755	21891.27
726.097	21854.89
726.439	21719.08
726.782	21776.02
727.124	21926.3
727.465	21777.15
727.807	21742.58
728.149	21563.83
728.491	21565.63
728.833	21567.67
729.175	21475.47
729.516	21474.34
729.858	21453.09
730.199	21503.04
730.541	21383.49
730.882	21372.87
731.224	21322.93
731.565	21170.16
731.906	21337.62
732.248	21184.85
732.589	21229.82
732.93	21017.4
733.271	21133.33
733.612	21139.43
733.953	21100.11
734.294	20980.34
734.635	20945.08
734.976	20989.15
735.317	20964.52
735.658	20936.05
735.999	20908.48
736.339	20853.34
736.68	20862.6
737.021	20822.6
737.361	20741.47
737.702	20833.45
738.042	20739.44
738.383	20701.7
738.723	20709.38
739.063	20568.15
739.404	20586.68
739.744	20487.92
740.084	20430.75
740.424	20509.62
740.764	20455.61
741.104	20456.51
741.444	20385.55
741.784	20337.87
742.124	20354.82
742.464	20375.38
742.804	20207.03
743.143	20352.56
743.483	20170.64
743.823	20136.52
744.162	20087.48
744.502	20115.28
744.841	20125.45
745.181	20076.18
745.52	20033.92
745.86	19976.07
746.199	19979.46
746.538	19969.74
746.877	20061.27
747.216	19942.17
747.556	19877.99
747.895	19775.17
748.234	19834.38
748.573	19726.59
748.911	19673.93
749.25	19698.34
749.589	19512.35
749.928	19554.16
750.267	19555.97
750.605	19511.9
750.944	19457.21
751.283	19342.87
751.621	19452.47
751.96	19218.35
752.298	19296.54
752.636	19344.22
752.975	19216.32
753.313	19129.31
753.651	19199.14
753.989	19006.15
754.327	19048.41
