Data from breadboard_white_FLMS001491_00069.txt Node
Date: Wed Feb 08 10:48:06 GMT 2017
User: dcchb
Spectrometer: FLMS00149
Trigger mode: 0
Integration Time (sec): 2.000000E-2
Scans to average: 10
Electric dark correction enabled: true
Nonlinearity correction enabled: false
Boxcar width: 0
XAxis mode: Wavelengths
Number of Pixels in Spectrum: 2048
>>>>>Begin Spectral Data<<<<<
341.393	-3.06
341.776	-3.06
342.16	-3.06
342.543	-39.45
342.927	-73.8
343.31	-72.44
343.693	-67.47
344.077	-48.26
344.46	-70.63
344.843	-66.57
345.226	-68.6
345.61	-24.53
345.993	-26.57
346.376	-3.52
346.759	18.63
347.142	45.75
347.525	44.17
347.908	55.01
348.291	72.19
348.674	79.19
349.057	133.65
349.44	133.43
349.823	139.3
350.206	175.46
350.588	217.49
350.971	223.37
351.354	233.31
351.737	260.66
352.119	276.48
352.502	263.59
352.884	291.84
353.267	285.06
353.65	286.87
354.032	324.38
354.414	332.29
354.797	315.8
355.179	345.85
355.562	332.97
355.944	326.87
356.326	348.11
356.709	338.62
357.091	362.12
357.473	364.16
357.855	338.17
358.238	333.88
358.62	329.13
359.002	365.96
359.384	342.91
359.766	374.1
360.148	352.63
360.53	349.02
360.912	339.75
361.294	342.46
361.676	373.2
362.057	352.18
362.439	340.65
362.821	340.43
363.203	351.5
363.584	338.17
363.966	349.02
364.348	353.54
364.729	342.46
365.111	348.11
365.493	342.46
365.874	341.33
366.256	332.07
366.637	349.92
367.019	336.36
367.4	346.76
367.781	342.01
368.163	348.56
368.544	335.01
368.925	349.47
369.306	339.75
369.688	332.75
370.069	330.94
370.45	341.78
370.831	339.75
371.212	341.33
371.593	350.82
371.974	342.69
372.355	337.04
372.736	350.82
373.117	365.29
373.498	355.12
373.879	359.41
374.26	363.48
374.641	350.37
375.021	362.58
375.402	364.16
375.783	374.33
376.163	358.96
376.544	357.38
376.925	368.22
377.305	353.54
377.686	373.42
378.066	364.16
378.447	378.62
378.827	386.08
379.208	383.82
379.588	371.84
379.968	377.26
380.349	376.13
380.729	405.51
381.109	389.92
381.489	381.78
381.87	400.31
382.25	395.79
382.63	370.48
383.01	406.87
383.39	415.68
383.77	399.18
384.15	422.46
384.53	405.74
384.91	394.89
385.29	410.48
385.67	420.65
386.049	417.26
386.429	443.25
386.809	433.53
387.189	417.04
387.568	427.21
387.948	431.5
388.328	448
388.707	440.99
389.087	460.2
389.466	481.67
389.846	478.73
390.225	456.58
390.605	450.48
390.984	461.78
391.363	477.37
391.743	472.18
392.122	477.83
392.501	494.1
392.881	491.16
393.26	489.13
393.639	518.05
394.018	530.03
394.397	530.25
394.776	533.42
395.155	523.47
395.534	533.42
395.913	519.86
396.292	527.99
396.671	548.33
397.05	544.72
397.429	552.4
397.808	573.19
398.186	572.74
398.565	581.1
398.944	584.72
399.323	584.04
399.701	619.52
400.08	602.34
400.458	624.72
400.837	622.68
401.215	638.95
401.594	627.2
401.972	657.03
402.351	670.14
402.729	676.01
403.107	685.5
403.486	711.94
403.864	725.28
404.242	703.13
404.62	714.88
404.999	719.4
405.377	732.51
405.755	763.24
406.133	774.99
406.511	771.38
406.889	815.9
407.267	824.94
407.645	836.01
408.023	862.22
408.401	838.27
408.779	841.43
409.156	870.36
409.534	881.21
409.912	924.37
410.29	926.4
410.667	948.1
411.045	991.03
411.422	975.21
411.8	1003.46
412.178	1022.22
412.555	1002.78
412.933	1059.51
413.31	1074.65
413.687	1099.96
414.065	1116.23
414.442	1123.91
414.819	1144.25
415.197	1150.8
415.574	1181.08
415.951	1183.57
416.328	1202.78
416.705	1230.8
417.082	1223.8
417.46	1256.79
417.837	1258.6
418.214	1285.94
418.591	1284.81
418.967	1297.01
419.344	1317.13
419.721	1332.72
420.098	1333.85
420.475	1391.47
420.852	1399.61
421.228	1392.83
421.605	1440.29
421.982	1444.35
422.358	1492.04
422.735	1461.53
423.111	1495.43
423.488	1505.6
423.864	1549.89
424.241	1540.17
424.617	1563.67
424.994	1578.14
425.37	1585.82
425.746	1610.9
426.123	1612.26
426.499	1663.33
426.875	1695.2
427.251	1698.81
427.627	1727.74
428.003	1747.62
428.379	1754.63
428.756	1782.2
429.132	1810.45
429.507	1856.32
429.883	1868.3
430.259	1909.88
430.635	1925.47
431.011	1978.13
431.387	1977.22
431.763	2012.02
432.138	2029.42
432.514	2063.1
432.89	2042.53
433.265	2122.08
433.641	2162.53
434.016	2196.2
434.392	2211.11
434.767	2259.93
435.143	2261.73
435.518	2290.66
435.894	2324.56
436.269	2341.51
436.644	2367.49
437.02	2401.84
437.395	2388.06
437.77	2448.62
438.145	2489.07
438.52	2497.89
438.895	2512.8
439.271	2558.9
439.646	2595.06
440.021	2590.31
440.395	2614.72
440.77	2604.55
441.145	2644.55
441.52	2676.86
441.895	2695.85
442.27	2709.86
442.645	2735.62
443.019	2790.99
443.394	2780.82
443.769	2794.38
444.143	2830.98
444.518	2873.24
444.892	2807.93
445.267	2852.68
445.641	2934.03
446.016	2908.95
446.39	2953.92
446.764	2962.51
447.139	2991.43
447.513	2993.47
447.887	3029.4
448.262	3048.15
448.636	3068.49
449.01	3097.64
449.384	3134.71
449.758	3161.15
450.132	3238.21
450.506	3229.39
450.88	3231.43
451.254	3251.09
451.628	3297.87
452.002	3324.08
452.376	3413.79
452.75	3402.04
453.123	3470.97
453.497	3456.51
453.871	3483.4
454.244	3538.08
454.618	3567.24
454.992	3646.78
455.365	3645.65
455.739	3777.63
456.112	3757.97
456.486	3788.93
456.859	3850.62
457.232	3894.01
457.606	3934.01
457.979	3969.49
458.352	4049.48
458.725	4118.86
459.099	4150.05
459.472	4222.36
459.845	4255.35
460.218	4288.12
460.591	4299.42
460.964	4357.95
461.337	4453.99
461.71	4538.28
462.083	4588.68
462.456	4592.97
462.829	4639.75
463.201	4688.34
463.574	4751.84
463.947	4840.2
464.32	4915.45
464.692	4900.08
465.065	4967.2
465.438	5078.16
465.81	5129.23
466.183	5176.23
466.555	5266.63
466.928	5278.83
467.3	5309.79
467.672	5417.81
468.045	5588.88
468.417	5607.18
468.789	5613.96
469.161	5733.06
469.534	5753.85
469.906	5869.32
470.278	5918.14
470.65	6036.55
471.022	6166.26
471.394	6240.84
471.766	6301.85
472.138	6419.82
472.51	6520.61
472.882	6619.81
473.253	6713.37
473.625	6815.51
473.997	6932.12
474.369	6986.58
474.74	7073.59
475.112	7131.44
475.484	7278.55
475.855	7443.07
476.227	7573.01
476.598	7738.43
476.97	7786.33
477.341	7937.74
477.713	8118.3
478.084	8127.57
478.455	8402.59
478.827	8492.98
479.198	8744.95
479.569	8726.88
479.94	8946.08
480.311	9060.88
480.682	9280.53
481.053	9405.95
481.424	9594.42
481.795	9690.69
482.166	9891.14
482.537	10008.42
482.908	10191.7
483.279	10160.51
483.65	10510.33
484.021	10707.61
484.391	10800.94
484.762	10895.18
485.133	10952.58
485.503	11187.38
485.874	11407.71
486.244	11558.44
486.615	11716.85
486.985	11860.35
487.356	12130.63
487.726	12187.35
488.097	12437.29
488.467	12501.24
488.837	12780.1
489.207	12843.15
489.578	13145.97
489.948	13177.61
490.318	13349.8
490.688	13420.08
491.058	13741.66
491.428	13811.94
491.798	13990.24
492.168	14304.36
492.538	14295.54
492.908	14463
493.278	14719.03
493.648	14724.91
494.017	14959.03
494.387	15107.95
494.757	15254.84
495.126	15371.45
495.496	15383.42
495.866	15527.6
496.235	15741.15
496.605	15923.07
496.974	15944.09
497.344	16160.35
497.713	16265.43
498.082	16373.45
498.452	16594.24
498.821	16632.43
499.19	16642.15
499.559	16907.68
499.928	17011.18
500.298	17147.44
500.667	17238.74
501.036	17264.05
501.405	17516.02
501.774	17564.61
502.143	17666.08
502.512	17796.69
502.88	17981.1
503.249	17957.59
503.618	18203.01
503.987	18377.92
504.356	18394.87
504.724	18484.81
505.093	18634.64
505.462	18648.2
505.83	18821.3
506.199	18947.17
506.567	19287.95
506.936	19230.1
507.304	19457.21
507.672	19522.75
508.041	19614.27
508.409	19815.85
508.777	19964.32
509.145	20104.43
509.514	20164.09
509.882	20410.18
510.25	20357.98
510.618	20601.82
510.986	20658.54
511.354	20855.37
511.722	21054.69
512.09	21269.82
512.458	21225.3
512.826	21472.98
513.193	21677.49
513.561	21621.23
513.929	21883.82
514.297	22136.47
514.664	22291.04
515.032	22376.01
515.4	22558.15
515.767	22600.63
516.135	22816
516.502	22661.65
516.869	23044.69
517.237	23252.37
517.604	23244.23
517.972	23528.97
518.339	23664.34
518.706	23848.51
519.073	23895.06
519.44	24206.02
519.808	24343.64
520.175	24446.46
520.542	24796.74
520.909	24816.62
521.276	24876.05
521.643	25245.76
522.009	25453.67
522.376	25626.09
522.743	25694.11
523.11	26090.03
523.477	26173.2
523.843	26391.95
524.21	26686.85
524.577	26865.16
524.943	26944.48
525.31	27197.58
525.676	27473.05
526.043	27551.01
526.409	27739.03
526.776	28052.47
527.142	28112.13
527.508	28343.76
527.874	28473.02
528.241	28753.92
528.607	28819.45
528.973	29046.57
529.339	29132.44
529.705	29420.79
530.071	29668.47
530.437	29778.3
530.803	30050.16
531.169	30287.89
531.535	30241.56
531.901	30259.42
532.267	30472.52
532.632	30768.78
532.998	30906.4
533.364	30921.55
533.73	31111.37
534.095	31283.57
534.461	31359.05
534.826	31661.41
535.192	31672.94
535.557	32022.99
535.923	31919.71
536.288	32026.15
536.653	32354.5
537.019	32115.19
537.384	32354.5
537.749	32587.26
538.114	32665.23
538.479	32856.86
538.845	32845.79
539.21	32852.12
539.575	33168.27
539.94	33178.21
540.305	33420.24
540.67	33362.84
541.034	33583.4
541.399	33654.81
541.764	33820.9
542.129	33945.42
542.494	33941.58
542.858	34184.28
543.223	34243.27
543.587	34485.29
543.952	34555.12
544.316	34703.82
544.681	34690.26
545.045	34856.58
545.41	35015.22
545.774	35010.48
546.138	35156.01
546.503	35265.16
546.867	35157.37
547.231	35603.23
547.595	35603.46
547.959	35729.78
548.324	35829.44
548.688	35951.24
549.052	36051.13
549.416	36179.71
549.779	36120.73
550.143	36268.3
550.507	36521.62
550.871	36732.01
551.235	36697.67
551.599	36961.16
551.962	37121.83
552.326	37197.54
552.689	37281.38
553.053	37287.48
553.417	37391.43
553.78	37891.98
554.143	37759.11
554.507	38056.27
554.87	37927.92
555.234	38525.64
555.597	38240.45
555.96	38346.21
556.323	38643.15
556.686	38721.79
557.05	38878.4
557.413	39055.57
557.776	39172.18
558.139	39475.67
558.502	39474.32
558.865	39666.85
559.228	39789.56
559.59	40033.4
559.953	40103.9
560.316	40428.19
560.679	40582.08
561.041	40766.48
561.404	40817.33
561.767	41199.24
562.129	41125.35
562.492	41527.37
562.854	41485.56
563.217	41534.6
563.579	41659.57
563.941	42050.97
564.304	42248.25
564.666	42347.23
565.028	42445.54
565.39	42560.79
565.753	42715.36
566.115	42958.97
566.477	43209.81
566.839	43233.31
567.201	43434.44
567.563	43413.87
567.925	43938.6
568.287	43878.95
568.648	43848.66
569.01	44117.58
569.372	44398.25
569.734	44310.8
570.095	44669.43
570.457	44819.49
570.819	44860.84
571.18	44857.68
571.542	45207.05
571.903	45311.22
572.265	45427.83
572.626	45542.86
572.987	45678.67
573.349	45657.66
573.71	45904.88
574.071	45996.86
574.432	46101.26
574.794	46307.81
575.155	46211.99
575.516	46063.52
575.877	46445.88
576.238	46515.49
576.599	46544.19
576.96	46608.82
577.32	46622.38
577.681	46751.41
578.042	46969.49
578.403	46934.23
578.763	46992.08
579.124	47077.28
579.485	47054.68
579.845	47308.23
580.206	47106.66
580.566	47196.82
580.927	47237.5
581.287	47464.16
581.648	47289.93
582.008	47531.73
582.368	47366.99
582.728	47499.87
583.089	47428.68
583.449	47420.77
583.809	47361.11
584.169	47413.54
584.529	47351.17
584.889	47743.93
585.249	47609.24
585.609	47556.36
585.969	47728.79
586.329	47576.02
586.688	47583.48
587.048	47567.21
587.408	47579.86
587.768	47555.01
588.127	47554.33
588.487	47484.5
588.846	47826.19
589.206	47383.94
589.565	47503.71
589.925	47703.93
590.284	47618.51
590.643	47586.19
591.003	47727.43
591.362	47905.96
591.721	47620.32
592.08	47685.17
592.44	47766.3
592.799	47803.36
593.158	47652.86
593.517	47725.17
593.876	47844.26
594.235	47611.05
594.593	47773.98
594.952	47813.08
595.311	47753.87
595.67	47836.36
596.029	47927.43
596.387	47992.74
596.746	48037.48
597.104	47922.68
597.463	47898.5
597.822	48123.58
598.18	47883.81
598.538	48070.7
598.897	48179.85
599.255	47829.12
599.613	48445.38
599.972	48066.18
600.33	48261.65
600.688	48045.62
601.046	48205.84
601.404	48315.44
601.762	48298.49
602.12	48591.36
602.478	48454.19
602.836	48508.88
603.194	48334.87
603.552	48343.91
603.91	48184.82
604.268	48565.6
604.625	48334.87
604.983	48633.4
605.341	48365.38
605.698	48517.24
606.056	48465.94
606.413	48608.76
606.771	48776.67
607.128	48686.05
607.485	48656.22
607.843	48652.38
608.2	48856.44
608.557	49071.8
608.914	48855.09
609.272	49039.49
609.629	49150.44
609.986	49265.92
610.343	48864.58
610.7	49247.17
611.057	49218.69
611.414	49107.73
611.771	49262.31
612.127	49393.15
612.484	49285.81
612.841	49571.68
613.198	49373.49
613.554	49325.36
613.911	49528.29
614.267	49543.2
614.624	49606.7
614.98	49500.04
615.337	49754.5
615.693	49641.96
616.05	49599.92
616.406	49874.95
616.762	49751.56
617.118	49715.63
617.475	49709.75
617.831	49813.25
618.187	49819.13
618.543	49888.28
618.899	50062.51
619.255	50003.08
619.611	49955.4
619.967	50171.21
620.323	50099.8
620.678	50060.25
621.034	49903.42
621.39	49966.24
621.746	49882.4
622.101	50221.15
622.457	49948.62
622.812	50013.7
623.168	50123.53
623.523	50134.15
623.879	50274.26
624.234	49942.29
624.589	50234.71
624.945	50204.65
625.3	50155.62
625.655	50149.29
626.01	50234.94
626.365	50167.59
626.72	50139.35
627.075	50082.62
627.43	50004.21
627.785	49895.74
628.14	50020.7
628.495	50070.87
628.85	50027.71
629.205	49946.36
629.559	50084.21
629.914	49872.46
630.269	50002.17
630.623	49784.1
630.978	49787.94
631.332	49912.46
631.687	49934.61
632.041	49697.1
632.396	49870.43
632.75	49633.37
633.104	49683.54
633.459	49592.24
633.813	49507.27
634.167	49535.97
634.521	49533.03
634.875	49641.05
635.229	49463.66
635.583	49256.88
635.937	49293.04
636.291	49291.91
636.645	49161.52
636.999	49073.61
637.352	49143.21
637.706	48924.91
638.06	49145.47
638.413	49140.28
638.767	48940.96
639.121	48987.74
639.474	48738.03
639.828	48692.83
640.181	48801.75
640.534	48873.84
640.888	48616.9
641.241	48620.29
641.594	48533.74
641.947	48866.61
642.301	48508.88
642.654	48644.02
643.007	48606.5
643.36	48437.02
643.713	48338.04
644.066	48438.83
644.419	48352.95
644.771	48100.98
645.124	47854.43
645.477	47767.88
645.83	47392.98
646.182	47282.92
646.535	47054.68
646.888	47068.92
647.24	46838.87
647.593	47245.64
647.945	46946.21
648.298	46754.12
648.65	46692.43
649.002	46571.08
649.355	46732.88
649.707	46617.63
650.059	46780.34
650.411	47295.35
650.763	47378.74
651.115	47724.72
651.467	47609.47
651.819	47582.35
652.171	47383.03
652.523	47353.88
652.875	47336.48
653.227	47133.77
653.578	47372.41
653.93	47303.26
654.282	47078.86
654.633	46992.54
654.985	47212.42
655.337	47101.69
655.688	46983.27
656.039	47292.41
656.391	46871.41
656.742	47042.7
657.094	46948.24
657.445	47017.62
657.796	46979.43
658.147	46919.54
658.498	46964.06
658.849	46862.6
659.2	46747.12
659.551	46730.62
659.902	46910.73
660.253	46809.26
660.604	46892.2
660.955	46514.58
661.306	46704.18
661.656	46623.05
662.007	46697.63
662.358	46616.73
662.708	46622.83
663.059	46469.39
663.409	46333.8
663.76	46626.44
664.11	46551.19
664.461	46534.02
664.811	46441.82
665.161	46514.13
665.511	46419.44
665.862	46469.39
666.212	46509.16
666.562	46486.56
666.912	46400.23
667.262	46474.81
667.612	46303.97
667.962	46287.24
668.312	46223.06
668.662	46425.54
669.011	46361.82
669.361	46150.75
669.711	46138.32
670.06	46238.88
670.41	46068.04
670.76	46008.61
671.109	46205.66
671.459	46128.83
671.808	45962.05
672.157	46099.45
672.507	45818.1
672.856	45871.66
673.205	45802.74
673.554	45957.99
673.904	45861.72
674.253	45944.2
674.602	45857.65
674.951	45229.87
675.3	45074.85
675.649	45616.75
675.998	45643.42
676.346	45710.76
676.695	45710.31
677.044	45466.25
677.393	45485.46
677.741	45599.58
678.09	45492.01
678.438	45438.23
678.787	45403.65
679.135	45289.3
679.484	45156.65
679.832	45247.95
680.181	45207.95
680.529	45206.82
680.877	44968.41
681.225	44940.84
681.573	45273.26
681.922	44937
682.27	44749.88
682.618	44697.91
682.966	44694.97
683.314	44808.19
683.661	44662.2
684.009	44429.89
684.357	44436.67
684.705	44450.23
685.053	44396.67
685.4	44240.52
685.748	44143.34
686.095	44032.84
686.443	44064.03
686.79	43916.68
687.138	43894.31
687.485	43906.29
687.832	43723.92
688.18	43801.66
688.527	43460.2
688.874	43525.96
689.221	43433.76
689.568	43300.2
689.915	43136.59
690.262	43249.36
690.609	43132.98
690.956	42802.82
691.303	42761.69
691.65	42615.48
691.997	42635.14
692.344	42443.05
692.69	42402.15
693.037	42501.35
693.383	42178.2
693.73	42195.83
694.077	42074.92
694.423	41944.76
694.769	41894.59
695.116	41828.38
695.462	41775.27
695.808	41523.3
696.155	41744.76
696.501	41340.71
696.847	41390.87
697.193	41124.67
697.539	41326.02
697.885	40853.94
698.231	40808.29
698.577	40856.43
698.923	40730.55
699.269	40493.27
699.614	40420.96
699.96	40303.45
700.306	40358.59
700.651	40044.92
700.997	40030.46
701.342	39920.86
701.688	39928.54
702.033	39743.23
702.379	39627.98
702.724	39501.89
703.069	39544.14
703.415	39198.16
703.76	39181.67
704.105	39128.11
704.45	39184.38
704.795	38962.01
705.14	38710.04
705.485	38850.38
705.83	38630.27
706.175	38688.57
706.52	38604.06
706.865	38440.9
707.209	38360.22
707.554	38188.7
707.899	38236.16
708.243	38077.97
708.588	38108.25
708.932	37768.6
709.277	37774.92
709.621	37745.55
709.966	37556.85
710.31	37569.51
710.654	37162.51
710.998	37265.79
711.342	37310.3
711.687	37131.78
712.031	36819.47
712.375	36839.13
712.719	36939.01
713.063	36882.52
713.407	36951.67
713.75	36660.83
714.094	36694.95
714.438	36554.84
714.782	36602.53
715.125	36381.29
715.469	36552.13
715.812	36321.4
716.156	36062.2
716.499	35993.73
716.843	36137.91
717.186	35821.53
717.53	36008.19
717.873	36052.03
718.216	35912.15
718.559	35593.97
718.902	35391.26
719.246	35588.54
719.589	35507.41
719.932	35307.19
720.275	35316.68
720.617	35304.93
720.96	35130.25
721.303	35250.25
721.646	35070.59
721.989	34887.54
722.331	35184.03
722.674	34883.48
723.016	34913.76
723.359	34845.96
723.701	34894.77
724.044	34490.04
724.386	34465.86
724.729	34585.4
725.071	34424.73
725.413	34291.85
725.755	34487.33
726.097	34297.95
726.439	33958.75
726.782	33990.84
727.124	34200.78
727.465	34018.87
727.807	33907.46
728.149	33832.66
728.491	33747.01
728.833	33811.87
729.175	33768.7
729.516	33622.04
729.858	33581.59
730.199	33776.16
730.541	33501.82
730.882	33422.27
731.224	33521.25
731.565	33339.79
731.906	33359
732.248	33325.78
732.589	33124.2
732.93	33048.95
733.271	33135.72
733.612	33110.64
733.953	33062.51
734.294	32867.94
734.635	32867.71
734.976	32832.46
735.317	32850.31
735.658	32662.29
735.999	32660.94
736.339	32615.74
736.68	32480.6
737.021	32475.18
737.361	32418.23
737.702	32405.57
738.042	32439.7
738.383	32326.03
738.723	32513.82
739.063	32217.56
739.404	32215.97
739.744	32193.15
740.084	32010.33
740.424	32063.66
740.764	32014.62
741.104	32074.06
741.444	31856.66
741.784	31748.87
742.124	31852.37
742.464	31861.18
742.804	31751.35
743.143	31642.66
743.483	31538.25
743.823	31407.86
744.162	31472.94
744.502	31514.52
744.841	31246.06
745.181	31357.69
745.52	31172.16
745.86	31116.34
746.199	31089
746.538	31070.47
746.877	31063.69
747.216	31056.46
747.556	30946.63
747.895	30884.94
748.234	30784.6
748.573	30739.86
748.911	30695.11
749.25	30526.53
749.589	30438.62
749.928	30634.1
750.267	30791.61
750.605	30572.63
750.944	30294.9
751.283	30199.76
751.621	30345.97
751.96	30120.44
752.298	30113.43
752.636	30108.01
752.975	29966.77
