Data from breadboard_black_back_FLMS001491_00009.txt Node
Date: Wed Feb 08 10:49:52 GMT 2017
User: dcchb
Spectrometer: FLMS00149
Trigger mode: 0
Integration Time (sec): 2.000000E-2
Scans to average: 10
Electric dark correction enabled: true
Nonlinearity correction enabled: false
Boxcar width: 0
XAxis mode: Wavelengths
Number of Pixels in Spectrum: 2048
>>>>>Begin Spectral Data<<<<<
341.393	-7.8
341.776	-7.8
342.16	-7.8
342.543	-50.96
342.927	-75.82
343.31	-37.63
343.693	-89.6
344.077	-72.2
344.46	-52.99
344.843	-43.28
345.226	-41.02
345.61	-29.26
345.993	-19.55
346.376	-3.95
346.759	23.16
347.142	20.9
347.525	33.56
347.908	51.19
348.291	97.06
348.674	76.27
349.057	87.34
349.44	126.66
349.823	148.58
350.206	157.85
350.588	193.78
350.971	214.34
351.354	241.69
351.737	250.5
352.119	259.09
352.502	277.39
352.884	276.94
353.267	310.61
353.65	285.53
354.032	297.05
354.414	305.64
354.797	315.36
355.179	340.67
355.562	328.24
355.944	330.73
356.326	342.48
356.709	341.35
357.091	333.66
357.473	325.3
357.855	363.95
358.238	345.19
358.62	350.61
359.002	361.23
359.384	371.63
359.766	358.52
360.148	348.58
360.53	356.49
360.912	360.1
361.294	359.88
361.676	351.52
362.057	389.03
362.439	355.81
362.821	349.71
363.203	378.63
363.584	335.92
363.966	325.3
364.348	336.6
364.729	362.82
365.111	347
365.493	346.77
365.874	341.57
366.256	343.38
366.637	350.39
367.019	341.57
367.4	335.7
367.781	348.58
368.163	354.91
368.544	361.46
368.925	342.7
369.306	358.97
369.688	358.3
370.069	335.7
370.45	337.05
370.831	351.06
371.212	349.71
371.593	348.8
371.974	356.04
372.355	347.45
372.736	370.5
373.117	347.67
373.498	351.52
373.879	372.98
374.26	355.13
374.641	356.94
375.021	361.91
375.402	362.36
375.783	379.99
376.163	388.13
376.544	381.57
376.925	388.58
377.305	391.29
377.686	354.68
378.066	376.37
378.447	399.65
378.827	401.91
379.208	394.45
379.588	385.41
379.968	378.63
380.349	383.15
380.729	390.39
381.109	414.34
381.489	403.72
381.87	393.1
382.25	403.72
382.63	431.29
383.01	441.46
383.39	398.29
383.77	424.28
384.15	426.09
384.53	432.42
384.91	427.22
385.29	423.83
385.67	430.16
386.049	443.04
386.429	450.04
386.809	450.72
387.189	438.97
387.568	456.37
387.948	461.57
388.328	461.57
388.707	463.15
389.087	470.84
389.466	471.29
389.846	456.6
390.225	464.06
390.605	472.87
390.984	484.39
391.363	490.27
391.743	510.61
392.122	496.82
392.501	498.86
392.881	490.5
393.26	505.41
393.639	533.21
394.018	493.43
394.397	527.33
394.776	529.59
395.155	524.39
395.534	508.35
395.913	538.63
396.292	536.37
396.671	538.18
397.05	544.51
397.429	546.54
397.808	525.75
398.186	551.96
398.565	573.88
398.944	551.06
399.323	576.82
399.701	555.8
400.08	559.65
400.458	596.71
400.837	591.51
401.215	584.05
401.594	590.15
401.972	616.82
402.351	624.73
402.729	592.64
403.107	585.18
403.486	617.95
403.864	646.65
404.242	633.09
404.62	645.07
404.999	654.79
405.377	652.98
405.755	670.83
406.133	667.67
406.511	665.86
406.889	673.09
407.267	702.24
407.645	703.6
408.023	707.21
408.401	701.34
408.779	725.74
409.156	713.09
409.534	737.49
409.912	749.02
410.29	752.86
410.667	755.57
411.045	770.71
411.422	763.26
411.8	740.21
412.178	786.98
412.555	772.75
412.933	792.63
413.31	812.97
413.687	820.66
414.065	826.53
414.442	847.1
414.819	835.35
415.197	868.11
415.574	843.93
415.951	879.64
416.328	882.35
416.705	923.7
417.082	886.64
417.46	908.79
417.837	883.48
418.214	903.14
418.591	942.24
418.967	926.42
419.344	932.74
419.721	947.21
420.098	952.18
420.475	995.12
420.852	982.91
421.228	978.39
421.605	1003.02
421.982	1003.25
422.358	1005.96
422.735	1015.23
423.111	1021.56
423.488	1042.57
423.864	1024.94
424.241	1081.44
424.617	1070.37
424.994	1068.11
425.37	1090.25
425.746	1102
426.123	1108.11
426.499	1125.51
426.875	1138.84
427.251	1132.51
427.627	1172.06
428.003	1173.64
428.379	1182.68
428.756	1188.1
429.132	1227.43
429.507	1221.55
429.883	1231.27
430.259	1266.75
430.635	1264.03
431.011	1295.67
431.387	1333.41
431.763	1311.04
432.138	1345.61
432.514	1358.72
432.89	1350.13
433.265	1416.12
433.641	1419.28
434.016	1423.58
434.392	1425.16
434.767	1477.81
435.143	1487.53
435.518	1476.46
435.894	1497.7
436.269	1514.42
436.644	1562.78
437.02	1564.82
437.395	1550.58
437.77	1581.31
438.145	1589.68
438.52	1616.57
438.895	1624.7
439.271	1655.66
439.646	1669.67
440.021	1665.38
440.395	1699.05
440.77	1690.24
441.145	1678.71
441.52	1705.15
441.895	1697.92
442.27	1751.48
442.645	1763.91
443.019	1751.48
443.394	1807.98
443.769	1806.62
444.143	1811.36
444.518	1827.41
444.892	1813.62
445.267	1833.74
445.641	1878.26
446.016	1901.76
446.39	1869.22
446.764	1898.14
447.139	1922.55
447.513	1919.38
447.887	1936.79
448.262	1933.4
448.636	1952.38
449.01	1980.17
449.384	2000.96
449.758	2045.71
450.132	2024.24
450.506	2071.7
450.88	2056.33
451.254	2069.66
451.628	2088.42
452.002	2086.84
452.376	2155.08
452.75	2162.99
453.123	2158.7
453.497	2233.73
453.871	2234.63
454.244	2284.12
454.618	2273.5
454.992	2309.43
455.365	2348.75
455.739	2386.72
456.112	2403.21
456.486	2388.52
456.859	2476.21
457.232	2505.13
457.606	2489.99
457.979	2518.46
458.352	2582.19
458.725	2579.93
459.099	2659.48
459.472	2682.98
459.845	2691.79
460.218	2712.36
460.591	2736.99
460.964	2727.5
461.337	2831
461.71	2835.52
462.083	2885.91
462.456	2904.44
462.829	2956.19
463.201	2984.44
463.574	2992.8
463.947	3056.3
464.32	3122.29
464.692	3124.32
465.065	3163.19
465.438	3157.09
465.81	3259.69
466.183	3260.59
466.555	3356.86
466.928	3370.65
467.3	3326.35
467.672	3458.33
468.045	3489.74
468.417	3513.01
468.789	3557.99
469.161	3594.82
469.534	3639.79
469.906	3736.29
470.278	3753.69
470.65	3811.09
471.022	3902.61
471.394	3945.55
471.766	3953.46
472.138	4014.92
472.51	4096.05
472.882	4173.34
473.253	4208.36
473.625	4262.37
473.997	4369.72
474.369	4363.84
474.74	4423.73
475.112	4490.84
475.484	4603.83
475.855	4649.48
476.227	4733.1
476.598	4829.59
476.97	4889.02
477.341	4980.32
477.713	5041.79
478.084	5085.18
478.455	5221.67
478.827	5273.87
479.198	5397.71
479.569	5435.9
479.94	5632.28
480.311	5619.85
480.682	5795.89
481.053	5894.65
481.424	5994.31
481.795	6076.56
482.166	6131.03
482.537	6185.04
482.908	6373.96
483.279	6350.91
483.65	6506.83
484.021	6676.1
484.391	6719.26
484.762	6789.09
485.133	6817.33
485.503	6923.09
485.874	7062.53
486.244	7132.35
486.615	7278.34
486.985	7335.51
487.356	7537.09
487.726	7597.43
488.097	7794.48
488.467	7782.51
488.837	7957.87
489.207	8022.95
489.578	8157.19
489.948	8174.59
490.318	8330.52
490.688	8335.94
491.058	8516.27
491.428	8648.47
491.798	8706.1
492.168	8887.11
492.538	8922.14
492.908	9013.66
493.278	9128.01
493.648	9136.37
494.017	9298.63
494.387	9354.22
494.757	9465.4
495.126	9593.76
495.496	9590.82
495.866	9613.65
496.235	9774.32
496.605	9923.69
496.974	9943.81
497.344	9990.81
497.713	10075.55
498.082	10138.15
498.452	10285.94
498.821	10308.09
499.19	10325.49
499.559	10506.05
499.928	10568.2
500.298	10594.64
500.667	10732.49
501.036	10679.61
501.405	10867.85
501.774	10872.37
502.143	10996.43
502.512	11064.23
502.88	11082.99
503.249	11168.86
503.618	11153.72
503.987	11322.98
504.356	11433.94
504.724	11451.56
505.093	11532.92
505.462	11617.66
505.83	11714.83
506.199	11824.21
506.567	11965.22
506.936	11946.01
507.304	12087.93
507.672	12097.2
508.041	12190.98
508.409	12287.25
508.777	12357.98
509.145	12490.63
509.514	12565.66
509.882	12581.93
510.25	12734.02
510.618	12789.38
510.986	12777.4
511.354	12986.44
511.722	13123.61
512.09	13187.79
512.458	13188.01
512.826	13381.68
513.193	13452.87
513.561	13470.95
513.929	13633.65
514.297	13737.15
514.664	13823.7
515.032	13886.75
515.4	14054.88
515.767	14129.23
516.135	14231.38
516.502	14128.33
516.869	14356.57
517.237	14507.98
517.604	14499.84
517.972	14637.02
518.339	14753.62
518.706	14872.72
519.073	14955.2
519.44	14990.91
519.808	15152.26
520.175	15176.44
520.542	15379.82
520.909	15515.41
521.276	15550.89
521.643	15659.59
522.009	15898
522.376	15916.3
522.743	16024.55
523.11	16162.17
523.477	16398.55
523.843	16480.36
524.21	16631.99
524.577	16824.08
524.943	16871.31
525.31	16922.83
525.676	17071.08
526.043	17187.46
526.409	17339.32
526.776	17526.66
527.142	17516.26
527.508	17687.11
527.874	17833.32
528.241	17922.81
528.607	18001.9
528.973	18182.23
529.339	18275.79
529.705	18396.69
530.071	18506.29
530.437	18565.95
530.803	18825.38
531.169	18877.81
531.535	18852.72
531.901	18972.72
532.267	19103.79
532.632	19145.82
532.998	19280.28
533.364	19427.4
533.73	19469.43
534.095	19632.14
534.461	19645.7
534.826	19661.74
535.192	19855.86
535.557	19957.1
535.923	19984.67
536.288	19989.19
536.653	20176.76
537.019	20193.25
537.384	20255.17
537.749	20376.98
538.114	20425.56
538.479	20608.16
538.845	20566.8
539.21	20569.74
539.575	20707.37
539.94	20798.44
540.305	20922.27
540.67	21000.24
541.034	21000.69
541.399	21156.84
541.764	21176.28
542.129	21188.26
542.494	21301.47
542.858	21482.94
543.223	21486.33
543.587	21612.88
543.952	21579.21
544.316	21679.32
544.681	21734.91
545.045	21859.43
545.41	22004.05
545.774	21983.04
546.138	22101
546.503	22045.41
546.867	22115.46
547.231	22253.77
547.595	22326.76
547.959	22499.41
548.324	22439.97
548.688	22618.95
549.052	22546.41
549.416	22800.19
549.779	22731.27
550.143	22787.54
550.507	22960.19
550.871	23039.96
551.235	22999.28
551.599	23220.07
551.962	23269.78
552.326	23423.9
552.689	23638.59
553.053	23479.95
553.417	23509.1
553.78	23775.99
554.143	23759.94
554.507	23924.91
554.87	23950.44
555.234	24181.85
555.597	24073.15
555.96	24172.13
556.323	24406.02
556.686	24413.03
557.05	24551.11
557.413	24655.51
557.776	24662.06
558.139	24867.71
558.502	24929.85
558.865	25014.82
559.228	25160.58
559.59	25280.58
559.953	25218.43
560.316	25598.99
560.679	25558.99
561.041	25761.47
561.404	25979.54
561.767	25961.24
562.129	26026.55
562.492	26145.19
562.854	26254.56
563.217	26334.79
563.579	26418.18
563.941	26527.78
564.304	26773.87
564.666	26843.93
565.028	26897.03
565.39	26948.78
565.753	27138.61
566.115	27247.31
566.477	27408.43
566.839	27439.39
567.201	27673.74
567.563	27784.47
567.925	27858.82
568.287	27756.9
568.648	27841.41
569.01	28067.62
569.372	28269.88
569.734	28103.55
570.095	28340.16
570.457	28635.29
570.819	28461.51
571.18	28535.63
571.542	28715.06
571.903	28733.82
572.265	28902.86
572.626	28900.82
572.987	29082.51
573.349	29158.89
573.71	29220.81
574.071	29372.22
574.432	29319.34
574.794	29671.2
575.155	29654.47
575.516	29426.91
575.877	29684.98
576.238	29661.93
576.599	29809.72
576.96	29859.44
577.32	29876.62
577.681	30087.23
578.042	30155.03
578.403	30100.56
578.763	30065.99
579.124	30187.79
579.485	30378.07
579.845	30340.56
580.206	30321.12
580.566	30293.78
580.927	30349.6
581.287	30342.82
581.648	30467.79
582.008	30484.06
582.368	30530.61
582.728	30565.64
583.089	30429.6
583.449	30570.83
583.809	30513.66
584.169	30560.21
584.529	30579.87
584.889	30754.33
585.249	30503.94
585.609	30530.61
585.969	30661.68
586.329	30620.78
586.688	30667.56
587.048	30732.86
587.408	30643.15
587.768	30625.75
588.127	30476.83
588.487	30579.2
588.846	30815.8
589.206	30651.28
589.565	30618.74
589.925	30726.08
590.284	30744.62
590.643	30908.23
591.003	30888.34
591.362	30876.36
591.721	30732.19
592.08	30849.25
592.44	30837.49
592.799	30842.69
593.158	30784.39
593.517	30924.72
593.876	30979.41
594.235	30703.94
594.593	30910.71
594.952	30965.63
595.311	30815.12
595.67	31021.67
596.029	31137.83
596.387	31245.85
596.746	31118.84
597.104	31001.56
597.463	31096.7
597.822	31239.52
598.18	31003.59
598.538	30970.15
598.897	31199.52
599.255	31074.55
599.613	31478.16
599.972	31317.71
600.33	31319.74
600.688	31292.4
601.046	31434.31
601.404	31409.68
601.762	31391.38
602.12	31419.63
602.478	31531.26
602.836	31461.43
603.194	31312.06
603.552	31573.52
603.91	31401.55
604.268	31549.79
604.625	31546.63
604.983	31658.94
605.341	31388.44
605.698	31660.52
606.056	31632.73
606.413	31532.62
606.771	31911.14
607.128	31864.36
607.485	31727.87
607.843	31763.35
608.2	31946.84
608.557	31966.96
608.914	31912.27
609.272	32066.84
609.629	32061.87
609.986	32360.84
610.343	32034.3
610.7	32361.97
611.057	32205.59
611.414	32194.97
611.771	32155.2
612.127	32384.57
612.484	32282.2
612.841	32400.62
613.198	32278.81
613.554	32295.54
613.911	32351.58
614.267	32553.61
614.624	32557
614.98	32565.58
615.337	32727.61
615.693	32621.85
616.05	32498.24
616.406	32733.49
616.762	32749.08
617.118	32671.8
617.475	32758.35
617.831	32909.53
618.187	32860.49
618.543	32959.02
618.899	32939.81
619.255	32993.6
619.611	33028.4
619.967	32982.52
620.323	33061.62
620.678	32926.03
621.034	32982.07
621.39	32936.65
621.746	32869.76
622.101	33307.03
622.457	32902.75
622.812	32980.49
623.168	33162.4
623.523	33141.84
623.879	33213.93
624.234	32941.85
624.589	33054.16
624.945	33185.91
625.3	33091.9
625.655	33212.12
626.01	33034.27
626.365	33028.62
626.72	33054.39
627.075	33215.96
627.43	33174.38
627.785	32952.47
628.14	33044.22
628.495	33048.28
628.85	33039.02
629.205	32923.09
629.559	33132.8
629.914	32919.7
630.269	32978
630.623	32804.45
630.978	32771.45
631.332	32992.01
631.687	33025.69
632.041	32699.14
632.396	32888.06
632.75	32673.83
633.104	32794.05
633.459	32597.67
633.813	32525.81
634.167	32642.64
634.521	32532.82
634.875	32546.83
635.229	32454.85
635.583	32331.92
635.937	32494.85
636.291	32438.81
636.645	32354.97
636.999	32249.89
637.352	32453.27
637.706	32171.24
638.06	32385.25
638.413	32232.03
638.767	32244.46
639.121	32243.11
639.474	32030.46
639.828	32139.15
640.181	32097.57
640.534	32001.53
640.888	31890.12
641.241	31798.6
641.594	31865.94
641.947	31999.05
642.301	31920.18
642.654	31888.99
643.007	31834.76
643.36	31743.91
643.713	31641.09
644.066	31765.61
644.419	31508.66
644.771	31506.86
645.124	31183.7
645.477	31132.85
645.83	30929.47
646.182	30705.29
646.535	30598.86
646.888	30610.83
647.24	30534.68
647.593	30696.48
647.945	30456.94
648.298	30418.07
648.65	30345.3
649.002	30328.36
649.355	30446.09
649.707	30430.73
650.059	30542.36
650.411	30841.56
650.763	30837.72
651.115	31061.22
651.467	31012.63
651.819	30969.02
652.171	31042.46
652.523	30929.24
652.875	30789.36
653.227	30683.6
653.578	30865.74
653.93	30811.96
654.282	30613.55
654.633	30579.42
654.985	30628.01
655.337	30686.54
655.688	30614.9
656.039	30766.54
656.391	30432.99
656.742	30583.26
657.094	30563.6
657.445	30674.79
657.796	30575.13
658.147	30494
658.498	30503.27
658.849	30504.85
659.2	30548.01
659.551	30380.33
659.902	30532.19
660.253	30400.22
660.604	30474.79
660.955	30320.9
661.306	30398.41
661.656	30486.32
662.007	30390.5
662.358	30282.25
662.708	30291.52
663.059	30309.82
663.409	30161.58
663.76	30293.1
664.11	30165.87
664.461	30307.79
664.811	30219.21
665.161	30240.45
665.511	30115.25
665.862	30191.18
666.212	30303.5
666.562	30168.36
666.912	30194.12
667.262	30060.11
667.612	30200.9
667.962	30147.34
668.312	30088.59
668.662	30146.21
669.011	30093.11
669.361	29999.78
669.711	30040.68
670.06	29909.16
670.41	29900.57
670.76	29931.98
671.109	30044.29
671.459	29864.64
671.808	29842.49
672.157	29885.88
672.507	29767.47
672.856	29694.02
673.205	29813.34
673.554	29861.7
673.904	29718.65
674.253	29834.81
674.602	29828.03
674.951	29280.25
675.3	29262.85
675.649	29623.74
675.998	29584.65
676.346	29644.31
676.695	29602.72
677.044	29456.97
677.393	29506.68
677.741	29512.33
678.09	29482.28
678.438	29436.18
678.787	29477.53
679.135	29399.57
679.484	29329.29
679.832	29345.33
680.181	29184.2
680.529	29276.18
680.877	29296.52
681.225	29119.8
681.573	29273.02
681.922	29027.6
682.27	29062.85
682.618	29056.3
682.966	28962.97
683.314	29119.12
683.661	28877.55
684.009	28870.09
684.357	28733.37
684.705	28758.23
685.053	28664.22
685.4	28634.16
685.748	28364.79
686.095	28555.07
686.443	28225.59
686.79	28323.21
687.138	28437.78
687.485	28440.95
687.832	28246.6
688.18	28323.89
688.527	28062.43
688.874	28097.45
689.221	28026.72
689.568	27912.83
689.915	28033.95
690.262	27976.78
690.609	27861.75
690.956	27840.28
691.303	27808.2
691.65	27506.73
691.997	27696.11
692.344	27440.07
692.69	27420.41
693.037	27443.46
693.383	27148.33
693.73	27243.69
694.077	27008.89
694.423	27140.87
694.769	27056.58
695.116	26865.4
695.462	26878.95
695.808	26852.51
696.155	26840.09
696.501	26702.91
696.847	26649.81
697.193	26448.91
697.539	26551.73
697.885	26291.4
698.231	26217.05
698.577	26246.2
698.923	26256.82
699.269	26076.72
699.614	25973.44
699.96	25942.93
700.306	25967.11
700.651	25843.28
700.997	25630.63
701.342	25787.68
701.688	25656.39
702.033	25543.4
702.379	25612.77
702.724	25456.62
703.069	25612.09
703.415	25154.71
703.76	25265.21
704.105	25191.32
704.45	25170.52
704.795	25025.44
705.14	24940.02
705.485	24919.01
705.83	24891.89
706.175	24809.18
706.52	24744.77
706.865	24621.84
707.209	24661.61
707.554	24545.91
707.899	24583.42
708.243	24547.04
708.588	24442.63
708.932	24346.37
709.277	24191.12
709.621	24390.21
709.966	24002.42
710.31	24312.02
710.654	24086.94
710.998	24044.68
711.342	24032.93
711.687	23917.45
712.031	23811.24
712.375	23777.57
712.719	23886.26
713.063	23774.4
713.407	23940.73
713.75	23684.46
714.094	23634.75
714.438	23562.88
714.782	23553.39
715.125	23456.9
715.469	23426.16
715.812	23282.21
716.156	23201.76
716.499	23274.08
716.843	23403.79
717.186	23126.06
717.53	23301.42
717.873	23150.24
718.216	23053.74
718.559	22952.73
718.902	22815.33
719.246	22871.6
719.589	22847.87
719.932	22745.96
720.275	22767.2
720.617	22779.63
720.96	22741.89
721.303	22639.97
721.646	22718.39
721.989	22526.3
722.331	22739.63
722.674	22420.31
723.016	22596.58
723.359	22361.78
723.701	22535.11
724.044	22291.96
724.386	22260.54
724.729	22363.82
725.071	22192.98
725.413	22208.12
725.755	22189.59
726.097	22105.75
726.439	21997.5
726.782	22085.18
727.124	22106.88
727.465	22067.78
727.807	21939.2
728.149	21907.56
728.491	21756.15
728.833	21855.81
729.175	21784.4
729.516	21711.86
729.858	21809.71
730.199	21805.19
730.541	21641.13
730.882	21596.61
731.224	21639.09
731.565	21493.56
731.906	21402.26
732.248	21581.69
732.589	21465.09
732.93	21425.31
733.271	21374.01
733.612	21351.19
733.953	21347.57
734.294	21243.17
734.635	21195.04
734.976	21234.36
735.317	21132.44
735.658	21129.73
735.999	21169.73
736.339	21083.4
736.68	21186.9
737.021	21020.8
737.361	20943.07
737.702	21108.03
738.042	20967.25
738.383	20877.3
738.723	21042.27
739.063	20762.05
739.404	20802.05
739.744	20771.32
740.084	20735.61
740.424	20809.28
740.764	20686.57
741.104	20747.82
741.444	20554.83
741.784	20569.52
742.124	20630.08
742.464	20532.45
742.804	20452.68
743.143	20517.09
743.483	20506.92
743.823	20363.42
744.162	20380.59
744.502	20412.23
744.841	20189.41
745.181	20411.78
745.52	20314.16
745.86	20233.25
746.199	20226.93
746.538	20111.45
746.877	20263.08
747.216	20154.16
747.556	20110.77
747.895	20068.96
748.234	19956.65
748.573	20052.69
748.911	19899.48
749.25	19869.2
749.589	19798.91
749.928	19867.16
750.267	19762.76
750.605	19770.21
750.944	19736.54
751.283	19497
751.621	19630.11
751.96	19577
752.298	19557.34
752.636	19518.02
752.975	19395.99
753.313	19351.69
753.651	19375.2
753.989	19277.35
754.327	19181.76
