Data from breadboard_white_FLMS001491_00025.txt Node
Date: Wed Feb 08 10:47:29 GMT 2017
User: dcchb
Spectrometer: FLMS00149
Trigger mode: 0
Integration Time (sec): 2.000000E-2
Scans to average: 10
Electric dark correction enabled: true
Nonlinearity correction enabled: false
Boxcar width: 0
XAxis mode: Wavelengths
Number of Pixels in Spectrum: 2048
>>>>>Begin Spectral Data<<<<<
341.393	-20.13
341.776	-20.13
342.16	-20.13
342.543	-67.13
342.927	-59.22
343.31	-57.19
343.693	-65.32
344.077	-90.18
344.46	-51.31
344.843	-56.51
345.226	-39.56
345.61	-14.48
345.993	-26.68
346.376	-19.67
346.759	5.64
347.142	31.85
347.525	45.41
347.908	55.8
348.291	73.88
348.674	111.17
349.057	97.16
349.44	135.35
349.823	152.52
350.206	148.23
350.588	224.84
350.971	223.71
351.354	241.79
351.737	260.54
352.119	293.31
352.502	290.37
352.884	298.74
353.267	331.95
353.65	310.94
354.032	343.25
354.414	344.84
354.797	361.11
355.179	343.25
355.562	336.02
355.944	371.5
356.326	395.91
356.709	367.43
357.091	356.81
357.473	381.22
357.855	371.5
358.238	379.86
358.62	366.53
359.002	373.76
359.384	389.81
359.766	363.82
360.148	362.91
360.53	359.75
360.912	374.44
361.294	381.67
361.676	361.78
362.057	378.06
362.439	368.11
362.821	366.3
363.203	359.3
363.584	361.56
363.966	351.39
364.348	382.8
364.729	355.46
365.111	369.02
365.493	356.36
365.874	356.81
366.256	341.67
366.637	365.17
367.019	364.95
367.4	356.59
367.781	349.36
368.163	376.02
368.544	364.27
368.925	363.59
369.306	355
369.688	378.51
370.069	362.69
370.45	366.98
370.831	386.87
371.212	376.93
371.593	358.17
371.974	347.77
372.355	346.19
372.736	389.58
373.117	381.67
373.498	374.21
373.879	371.28
374.26	386.87
374.641	364.5
375.021	377.15
375.402	380.09
375.783	388.22
376.163	402.69
376.544	394.78
376.925	399.07
377.305	404.72
377.686	405.62
378.066	376.25
378.447	388.68
378.827	416.92
379.208	413.76
379.588	414.66
379.968	411.05
380.349	432.29
380.729	417.15
381.109	403.82
381.489	440.65
381.87	426.64
382.25	446.3
382.63	435.45
383.01	449.47
383.39	451.95
383.77	434.32
384.15	451.73
384.53	452.18
384.91	463.93
385.29	456.47
385.67	470.26
386.049	478.17
386.429	481.56
386.809	458.96
387.189	469.13
387.568	478.17
387.948	491.05
388.328	522.01
388.707	511.16
389.087	507.32
389.466	517.03
389.846	524.94
390.225	517.94
390.605	530.59
390.984	533.53
391.363	545.73
391.743	532.63
392.122	565.17
392.501	559.52
392.881	571.5
393.26	581.89
393.639	569.69
394.018	573.08
394.397	582.34
394.776	594.09
395.155	617.82
395.534	599.29
395.913	642.91
396.292	646.3
396.671	669.35
397.05	654.43
397.429	639.07
397.808	651.72
398.186	677.26
398.565	681.32
398.944	681.1
399.323	707.76
399.701	713.87
400.08	739.18
400.458	735.79
400.837	739.63
401.215	758.84
401.594	765.16
401.972	768.1
402.351	775.78
402.729	790.47
403.107	829.79
403.486	836.57
403.864	856.23
404.242	860.08
404.62	891.26
404.999	892.17
405.377	909.11
405.755	922.9
406.133	935.1
406.511	963.35
406.889	951.15
407.267	1015.55
407.645	1006.74
408.023	1057.13
408.401	1025.27
408.779	1062.56
409.156	1091.48
409.534	1103.91
409.912	1131.26
410.29	1113.18
410.667	1180.29
411.045	1189.11
411.422	1215.1
411.8	1244.47
412.178	1278.37
412.555	1298.03
412.933	1293.51
413.31	1375.99
413.687	1378.25
414.065	1381.64
414.442	1419.61
414.819	1449.44
415.197	1443.34
415.574	1510
415.951	1487.4
416.328	1533.73
416.705	1553.17
417.082	1563.11
417.46	1608.98
417.837	1622.09
418.214	1654.18
418.591	1659.6
418.967	1701.64
419.344	1676.33
419.721	1751.58
420.098	1740.05
420.475	1822.99
420.852	1795.42
421.228	1827.96
421.605	1843.55
421.982	1880.39
422.358	1840.84
422.735	1922.42
423.111	1924.68
423.488	1948.18
423.864	1994.96
424.241	2023.89
424.617	2019.82
424.994	2044.9
425.37	2031.34
425.746	2116.77
426.123	2114.51
426.499	2120.83
426.875	2167.61
427.251	2236.31
427.627	2246.25
428.003	2276.31
428.379	2304.56
428.756	2348.62
429.132	2357.44
429.507	2385.69
429.883	2438.57
430.259	2493.93
430.635	2495.51
431.011	2545.23
431.387	2596.98
431.763	2638.33
432.138	2668.16
432.514	2685.79
432.89	2715.17
433.265	2757.2
433.641	2829.97
434.016	2857.99
434.392	2914.71
434.767	2975.73
435.143	2970.98
435.518	3043.75
435.894	3036.52
436.269	3063.18
436.644	3137.08
437.02	3146.34
437.395	3187.02
437.77	3234.03
438.145	3284.42
438.52	3313.35
438.895	3329.62
439.271	3356.73
439.646	3485.54
440.021	3439.44
440.395	3476.05
440.77	3455.49
441.145	3507.69
441.52	3588.59
441.895	3560.57
442.27	3624.75
442.645	3618.65
443.019	3662.94
443.394	3690.74
443.769	3749.27
444.143	3742.03
444.518	3801.02
444.892	3788.13
445.267	3845.31
445.641	3870.17
446.016	3883.05
446.39	3921.92
446.764	3952.2
447.139	3968.92
447.513	3989.49
447.887	4054.12
448.262	4028.35
448.636	4061.8
449.01	4142.93
449.384	4183.38
449.758	4190.61
450.132	4281.23
450.506	4340.21
450.88	4336.37
451.254	4321
451.628	4459.98
452.002	4480.77
452.376	4491.62
452.75	4607.77
453.123	4572.97
453.497	4718.28
453.871	4679.64
454.244	4749.69
454.618	4845.28
454.992	4916.69
455.365	4944.04
455.739	5066.29
456.112	5074.43
456.486	5112.39
456.859	5134.77
457.232	5283.24
457.606	5280.3
457.979	5350.81
458.352	5461.99
458.725	5497.69
459.099	5578.82
459.472	5692.94
459.845	5774.3
460.218	5757.8
460.591	5886.16
460.964	5920.73
461.337	6044.12
461.71	6177.22
462.083	6226.26
462.456	6273.27
462.829	6288.18
463.201	6424.45
463.574	6445.92
463.947	6530.89
464.32	6704.89
464.692	6774.72
465.065	6834.83
465.438	6922.29
465.81	6958.67
466.183	7056.98
466.555	7179.68
466.928	7252.68
467.3	7266.01
467.672	7408.6
468.045	7637.3
468.417	7631.88
468.789	7712.1
469.161	7808.14
469.534	7934.01
469.906	8141.69
470.278	8188.7
470.65	8277.73
471.022	8402.7
471.394	8614.67
471.766	8668.68
472.138	8801.56
472.51	9002.01
472.882	9155.68
473.253	9181.44
473.625	9353.86
473.997	9572.16
474.369	9552.96
474.74	9717.92
475.112	9922.21
475.484	10095.77
475.855	10302.31
476.227	10391.58
476.598	10669.76
476.97	10766.03
477.341	11046.02
477.713	11195.4
478.084	11304.32
478.455	11549.51
478.827	11682.62
479.198	12020.69
479.569	12036.51
479.94	12454.8
480.311	12484.4
480.682	12751.74
481.053	13014.56
481.424	13296.59
481.795	13434.89
482.166	13619.74
482.537	13854.08
482.908	14153.06
483.279	14334.75
483.65	14550.56
484.021	14839.82
484.391	15027.61
484.762	15153.49
485.133	15250.21
485.503	15559.35
485.874	15854.94
486.244	15971.09
486.615	16282.5
486.985	16590.74
487.356	16801.8
487.726	17047
488.097	17430.71
488.467	17348.23
488.837	17806.3
489.207	18009.23
489.578	18272.05
489.948	18435.43
490.318	18666.61
490.688	18782.99
491.058	19093.27
491.428	19340.95
491.798	19486.03
492.168	19892.12
492.538	19903.64
492.908	20195.16
493.278	20474.93
493.648	20494.59
494.017	20786.78
494.387	20978.42
494.757	21227
495.126	21499.99
495.496	21510.83
495.866	21718.96
496.235	21876.7
496.605	22129.12
496.974	22285.05
497.344	22469.45
497.713	22546.29
498.082	22672.84
498.452	23112.82
498.821	23151.24
499.19	23284.57
499.559	23508.52
499.928	23709.87
500.298	23887.04
500.667	24106.47
501.036	24100.14
501.405	24404.09
501.774	24374.26
502.143	24578.32
502.512	24813.34
502.88	25016.96
503.249	25029.84
503.618	25221.92
503.987	25391.63
504.356	25654.23
504.724	25713.66
505.093	25949.36
505.462	26011.28
505.83	26319.75
506.199	26544.82
506.567	26781.43
506.936	26863.69
507.304	27075.66
507.672	27200.4
508.041	27413.95
508.409	27608.3
508.777	27789.54
509.145	28050.55
509.514	28158.34
509.882	28395.85
510.25	28468.84
510.618	28673.36
510.986	28795.16
511.354	29147.69
511.722	29365.99
512.09	29673.78
512.458	29660.9
512.826	29871.29
513.193	30045.75
513.561	30198.06
513.929	30417.72
514.297	30685.51
514.664	30973.18
515.032	31152.84
515.4	31451.14
515.767	31641.19
516.135	31773.84
516.502	31544.69
516.869	32110.55
517.237	32283.66
517.604	32386.93
517.972	32736.98
518.339	32859.91
518.706	33074.6
519.073	33235.95
519.44	33543.51
519.808	33917.06
520.175	33796.61
520.542	34311.63
520.909	34577.61
521.276	34561.34
521.643	34897.83
522.009	35256.01
522.376	35460.52
522.743	35707.52
523.11	36117.23
523.477	36272.93
523.843	36656.65
524.21	36942.29
524.577	37211.66
524.943	37529.62
525.31	37615.72
525.676	37937.29
526.043	38104.75
526.409	38588.35
526.776	38805.07
527.142	38978.4
527.508	39139.07
527.874	39518.95
528.241	39668.77
528.607	39803.01
528.973	40300.62
529.339	40209.1
529.705	40689.99
530.071	40958.91
530.437	41167.49
530.803	41460.82
531.169	41629.4
531.535	41661.04
531.901	41888.6
532.267	42068.26
532.632	42298.08
532.998	42475.48
533.364	42769.48
533.73	42799.54
534.095	43149.36
534.461	43171.28
534.826	43512.51
535.192	43650.82
535.557	43881.54
535.923	43823.24
536.288	44118.83
536.653	44255.09
537.019	44185.72
537.384	44470.45
537.749	44682.43
538.114	44811.69
538.479	44902.08
538.845	45233.82
539.21	45192.24
539.575	45341.17
539.94	45459.81
540.305	45834.26
540.67	45787.03
541.034	45987.7
541.399	46202.39
541.764	46230.86
542.129	46370.74
542.494	46411.87
542.858	46549.95
543.223	46616.39
543.587	46946.77
543.952	46924.63
544.316	47171.85
544.681	47099.99
545.045	47389.47
545.41	47630.82
545.774	47733.19
546.138	47733.42
546.503	47859.52
546.867	47847.77
547.231	48150.13
547.595	48310.35
547.959	48350.35
548.324	48407.53
548.688	48544.47
549.052	48777.91
549.416	48889.77
549.779	48964.57
550.143	49091.35
550.507	49315.53
550.871	49388.07
551.235	49331.34
551.599	49680.71
551.962	49682.75
552.326	49903.76
552.689	50061.95
553.053	50022.85
553.417	50101.04
553.78	50457.42
554.143	50496.29
554.507	50633.23
554.87	50706.68
555.234	51084.29
555.597	50879.78
555.96	51120.9
556.323	51195.25
556.686	51307.56
557.05	51500.55
557.413	51599.99
557.776	51730.38
558.139	51909.36
558.502	51904.61
558.865	52192.06
559.228	52329.91
559.59	52405.39
559.953	52439.29
560.316	52823.68
560.679	52767.19
561.041	53049.21
561.404	53182.09
561.767	53309.32
562.129	53303.22
562.492	53607.39
562.854	53508.86
563.217	53599.48
563.579	53742.53
563.941	53926.93
564.304	54071.11
564.666	54230.65
565.028	54263.87
565.39	54357.2
565.753	54595.84
566.115	54723.29
566.477	54842.84
566.839	54901.37
567.201	55128.25
567.563	55070.18
567.925	55265.43
568.287	55244.86
568.648	55328.47
569.01	55495.25
569.372	55686.66
569.734	55593.78
570.095	55742.25
570.457	55835.81
570.819	55948.57
571.18	55993.32
571.542	56146.31
571.903	56139.53
572.265	56241.9
572.626	56312.63
572.987	56402.8
573.349	56519.63
573.71	56590.14
574.071	56632.85
574.432	56771.15
574.794	56916
575.155	56844.14
575.516	56822.45
575.877	56948.32
576.238	56951.71
576.599	57124.59
576.96	57099.28
577.32	57166.62
577.681	57154.19
578.042	57323.9
578.403	57300.17
578.763	57208.88
579.124	57319.38
579.485	57407.74
579.845	57489.32
580.206	57383.79
580.566	57479.6
580.927	57482.54
581.287	57612.26
581.648	57496.78
582.008	57596.66
582.368	57579.71
582.728	57630.56
583.089	57667.85
583.449	57607.28
583.809	57671.46
584.169	57589.88
584.529	57584.69
584.889	57833.95
585.249	57668.75
585.609	57602.77
585.969	57752.14
586.329	57687.73
586.688	57745.36
587.048	57720.05
587.408	57645.02
587.768	57708.98
588.127	57634.4
588.487	57628.75
588.846	57847.5
589.206	57657.45
589.565	57720.05
589.925	57833.72
590.284	57687.96
590.643	57674.85
591.003	57829.2
591.362	57860.16
591.721	57849.54
592.08	57829.2
592.44	57908.97
592.799	57892.93
593.158	57863.55
593.517	57885.47
593.876	57852.93
594.235	57811.35
594.593	57864.45
594.952	57912.59
595.311	57835.08
595.67	57878.46
596.029	58030.78
596.387	58033.26
596.746	58034.84
597.104	57926.15
597.463	57955.07
597.822	58025.35
598.18	57958.01
598.538	58014.73
598.897	58058.57
599.255	57885.92
599.613	58212.92
599.972	58068.97
600.33	58150.77
600.688	58103.77
601.046	58147.61
601.404	58190.55
601.762	58264.89
602.12	58279.81
602.478	58263.54
602.836	58293.14
603.194	58161.85
603.552	58236.19
603.91	58191.22
604.268	58356.64
604.625	58266.93
604.983	58429.86
605.341	58257.44
605.698	58409.75
606.056	58520.26
606.413	58384.89
606.771	58514.38
607.128	58506.24
607.485	58407.26
607.843	58505.11
608.2	58561.16
608.557	58599.8
608.914	58510.09
609.272	58629.86
609.629	58780.59
609.986	58819.46
610.343	58613.36
610.7	58814.03
611.057	58770.87
611.414	58712.34
611.771	58782.85
612.127	58882.51
612.484	58848.61
612.841	58902.84
613.198	58870.98
613.554	58862.17
613.911	59030.3
614.267	59022.16
614.624	58977.64
614.98	58998.66
615.337	59108.26
615.693	59096.51
616.05	59115.95
616.406	59207.02
616.762	59172.22
617.118	59093.12
617.475	59169.05
617.831	59169.73
618.187	59214.47
618.543	59283.4
618.899	59361.81
619.255	59366.56
619.611	59321.36
619.967	59323.17
620.323	59340.12
620.678	59307.13
621.034	59267.81
621.39	59303.74
621.746	59266.68
622.101	59532.21
622.457	59299.9
622.812	59371.53
623.168	59451.3
623.523	59484.98
623.879	59492.88
624.234	59359.56
624.589	59434.13
624.945	59399.78
625.3	59430.74
625.655	59376.28
626.01	59379.44
626.365	59379.67
626.72	59399.55
627.075	59317.97
627.43	59334.02
627.785	59315.71
628.14	59353.68
628.495	59365.43
628.85	59293.57
629.205	59272.33
629.559	59406.11
629.914	59256.28
630.269	59276.39
630.623	59198.88
630.978	59141.93
631.332	59251.54
631.687	59284.08
632.041	59198.43
632.396	59234.81
632.75	59047.02
633.104	59155.27
633.459	59034.82
633.813	59014.48
634.167	58956.63
634.521	58986.68
634.875	58964.31
635.229	58946.68
635.583	58832.11
635.937	58823.75
636.291	58760.25
636.645	58849.96
636.999	58811.09
637.352	58809.74
637.706	58606.58
638.06	58783.07
638.413	58657.2
638.767	58614.49
639.121	58670.99
639.474	58520.26
639.828	58482.97
640.181	58529.07
640.534	58492.69
640.888	58419.47
641.241	58260.83
641.594	58351.45
641.947	58439.81
642.301	58290.2
642.654	58376.76
643.007	58398
643.36	58279.58
643.713	58210.88
644.066	58287.04
644.419	58122.98
644.771	58063.54
645.124	57808.86
645.477	57756.89
645.83	57576.78
646.182	57432.37
646.535	57332.04
646.888	57400.06
647.24	57231.48
647.593	57414.07
647.945	57293.39
648.298	57184.47
648.65	57086.62
649.002	57049.11
649.355	57156.22
649.707	57139.73
650.059	57204.36
650.411	57445.26
650.763	57507.4
651.115	57733.84
651.467	57656.77
651.819	57667.85
652.171	57562.54
652.523	57595.31
652.875	57497.68
653.227	57337.69
653.578	57629.66
653.93	57433.5
654.282	57366.61
654.633	57281.19
654.985	57393.96
655.337	57381.3
655.688	57340.4
656.039	57429.89
656.391	57242.1
656.742	57308.08
657.094	57270.12
657.445	57346.95
657.796	57307.18
658.147	57182.44
658.498	57153.06
658.849	57243.9
659.2	57179.05
659.551	57121.2
659.902	57212.04
660.253	57117.13
660.604	57146.73
660.955	57052.27
661.306	57123.46
661.656	56989.22
662.007	57078.71
662.358	57048.43
662.708	56993.97
663.059	57009.79
663.409	56852.73
663.76	57044.59
664.11	56945.83
664.461	57017.47
664.811	56966.85
665.161	56997.36
665.511	56919.62
665.862	56949
666.212	57012.27
666.562	56923.23
666.912	56877.36
667.262	56906.29
667.612	56829.9
667.962	56921.43
668.312	56808.21
668.662	56988.54
669.011	56847.76
669.361	56798.72
669.711	56796.46
670.06	56750.13
670.41	56784.71
670.76	56653.64
671.109	56778.15
671.459	56677.37
671.808	56623.81
672.157	56644.15
672.507	56542.23
672.856	56513.3
673.205	56600.76
673.554	56627.88
673.904	56474.89
674.253	56573.87
674.602	56553.75
674.951	56142.01
675.3	56049.36
675.649	56470.59
675.998	56342.46
676.346	56475.34
676.695	56497.94
677.044	56277.38
677.393	56352.85
677.741	56370.48
678.09	56224.04
678.438	56133.2
678.787	56290.03
679.135	56262.24
679.484	56096.14
679.832	56222.91
680.181	56014.78
680.529	56043.03
680.877	55958.29
681.225	55937.27
681.573	56077.61
681.922	55857.73
682.27	55791.51
682.618	55736.6
682.966	55745.64
683.314	55829.48
683.661	55727.11
684.009	55606.89
684.357	55503.84
684.705	55491.86
685.053	55466.55
685.4	55422.26
685.748	55359.43
686.095	55144.3
686.443	55095.49
686.79	55085.32
687.138	55140.23
687.485	55096.16
687.832	55055.94
688.18	55104.3
688.527	54917.19
688.874	54925.32
689.221	54839.9
689.568	54734.14
689.915	54699.34
690.262	54722.84
690.609	54654.37
690.956	54547.7
691.303	54466.8
691.65	54310.42
691.997	54356.75
692.344	54110.88
692.69	54165.57
693.037	54147.94
693.383	53863.43
693.73	53987.72
694.077	53792.02
694.423	53794.05
694.769	53752.7
695.116	53620.04
695.462	53609.88
695.808	53459.15
696.155	53465.25
696.501	53244.24
696.847	53265.03
697.193	52983.45
697.539	53157.91
697.885	52928.31
698.231	52859.39
698.577	52804.25
698.923	52747.75
699.269	52604.25
699.614	52353.64
699.96	52318.38
700.306	52501.43
700.651	52254.88
700.997	52177.37
701.342	52166.52
701.688	52035
702.033	51947.77
702.379	51840.43
702.724	51821.67
703.069	51812.18
703.415	51473.21
703.76	51528.8
704.105	51444.06
704.45	51481.34
704.795	51110.05
705.14	51059.43
705.485	51043.16
705.83	50844.98
706.175	50903.28
706.52	50686.79
706.865	50819.21
707.209	50642.27
707.554	50491.31
707.899	50557.53
708.243	50358.66
708.588	50320.47
708.932	50165.45
709.277	50094.26
709.621	50104.88
709.966	49864.21
710.31	49960.71
710.654	49602.3
710.998	49664.89
711.342	49644.78
711.687	49633.26
712.031	49374.96
712.375	49296.54
712.719	49359.14
713.063	49240.95
713.407	49453.83
713.75	49146.04
714.094	49167.73
714.438	48960.51
714.782	48927.29
715.125	48731.13
715.469	48805.48
715.812	48639.38
716.156	48416.34
716.499	48452.27
716.843	48442.55
717.186	48242.79
717.53	48441.42
717.873	48270.58
718.216	48252.73
718.559	48034.43
718.902	47739.3
719.246	47906.3
719.589	47811.38
719.932	47682.12
720.275	47619.3
720.617	47650.03
720.96	47519.19
721.303	47605.74
721.646	47505.18
721.989	47263.15
722.331	47367.33
722.674	47167.56
723.016	47240.33
723.359	47116.04
723.701	46998.75
724.044	46855.48
724.386	46695.03
724.729	46759.89
725.071	46716.95
725.413	46468.14
725.755	46486.9
726.097	46403.51
726.439	46134.14
726.782	46148.6
727.124	46327.13
727.465	46094.37
727.807	46074.25
728.149	45978.44
728.491	45980.02
728.833	45900.7
729.175	45710.65
729.516	45622.52
729.858	45617.54
730.199	45666.58
730.541	45401.5
730.882	45516.08
731.224	45508.62
731.565	45322.41
731.906	45298.46
732.248	45341.84
732.589	45178.68
732.93	44929.43
733.271	44888.3
733.612	44959.03
733.953	44929.88
734.294	44792.25
734.635	44541.64
734.976	44814.17
735.317	44571.24
735.658	44413.96
735.999	44425.48
736.339	44421.87
736.68	44458.25
737.021	44182.33
737.361	44056.45
737.702	44178.94
738.042	44038.6
738.383	44002.67
738.723	43985.95
739.063	43937.36
739.404	43972.84
739.744	43802.68
740.084	43635
740.424	43577.37
740.764	43484.72
741.104	43625.96
741.444	43550.03
741.784	43273.2
742.124	43334.67
742.464	43294.67
742.804	43209.7
743.143	43189.58
743.483	43207.44
743.823	42854.23
744.162	42758.18
744.502	42879.31
744.841	42697.39
745.181	42925.86
745.52	42698.07
745.86	42761.8
746.199	42496.5
746.538	42473.9
746.877	42427.8
747.216	42522.94
747.556	42286.78
747.895	42317.52
748.234	42138.31
748.573	42016.06
748.911	41979.22
749.25	41808.15
749.589	41788.04
749.928	41878.66
750.267	41712.56
750.605	41593.02
750.944	41551.44
751.283	41362.29
751.621	41388.05
751.96	41121.62
752.298	41141.05
