Data from breadboard_white_FLMS001491_00070.txt Node
Date: Wed Feb 08 10:48:06 GMT 2017
User: dcchb
Spectrometer: FLMS00149
Trigger mode: 0
Integration Time (sec): 2.000000E-2
Scans to average: 10
Electric dark correction enabled: true
Nonlinearity correction enabled: false
Boxcar width: 0
XAxis mode: Wavelengths
Number of Pixels in Spectrum: 2048
>>>>>Begin Spectral Data<<<<<
341.393	3.14
341.776	3.14
342.16	3.14
342.543	-72.12
342.927	-54.26
343.31	-89.97
343.693	-77.31
344.077	-77.09
344.46	-58.33
344.843	-57.88
345.226	-23.08
345.61	-25.56
345.993	-18.11
346.376	-18.78
346.759	23.25
347.142	21.44
347.525	54.66
347.908	80.87
348.291	54.66
348.674	97.82
349.057	113.42
349.44	123.81
349.823	141.44
350.206	161.55
350.588	205.62
350.971	212.17
351.354	210.81
351.737	262.79
352.119	264.6
352.502	273.64
352.884	278.83
353.267	300.98
353.65	301.21
354.032	305.73
354.414	320.87
354.797	318.38
355.179	352.96
355.562	342.34
355.944	339.62
356.326	355.44
356.709	328.78
357.091	356.8
357.473	339.85
357.855	363.35
358.238	358.61
358.62	372.62
359.002	357.02
359.384	353.63
359.766	349.79
360.148	338.27
360.53	342.56
360.912	349.34
361.294	344.14
361.676	359.06
362.057	336.69
362.439	330.58
362.821	349.34
363.203	323.58
363.584	356.35
363.966	348.21
364.348	329.45
364.729	350.47
365.111	351.6
365.493	349.34
365.874	329.23
366.256	334.2
366.637	347.08
367.019	328.32
367.4	333.07
367.781	359.74
368.163	345.5
368.544	343.69
368.925	348.21
369.306	341.66
369.688	329.91
370.069	343.24
370.45	333.52
370.831	334.88
371.212	346.86
371.593	343.47
371.974	344.82
372.355	332.84
372.736	358.83
373.117	346.63
373.498	358.61
373.879	347.99
374.26	331.71
374.641	338.27
375.021	341.66
375.402	351.15
375.783	342.34
376.163	364.26
376.544	369.68
376.925	370.36
377.305	372.62
377.686	368.1
378.066	366.29
378.447	364.26
378.827	373.3
379.208	368.32
379.588	383.24
379.968	371.49
380.349	371.49
380.729	386.85
381.109	374.65
381.489	380.07
381.87	367.87
382.25	390.92
382.63	396.35
383.01	422.56
383.39	404.93
383.77	414.88
384.15	397.25
384.53	411.71
384.91	416.23
385.29	422.11
385.67	427.76
386.049	418.27
386.429	437.47
386.809	435.89
387.189	435.89
387.568	439.51
387.948	449.68
388.328	439.28
388.707	447.42
389.087	458.72
389.466	461.43
389.846	465.04
390.225	474.08
390.605	476.8
390.984	478.15
391.363	493.97
391.743	495.78
392.122	469.11
392.501	498.94
392.881	487.64
393.26	504.82
393.639	503.46
394.018	522.67
394.397	529.45
394.776	521.99
395.155	521.54
395.534	544.14
395.913	526.29
396.292	553.4
396.671	575.1
397.05	570.13
397.429	555.89
397.808	578.49
398.186	589.33
398.565	597.02
398.944	602.44
399.323	600.63
399.701	617.36
400.08	623.23
400.458	624.14
400.837	634.53
401.215	642.67
401.594	627.3
401.972	655.32
402.351	668.65
402.729	675.89
403.107	671.14
403.486	698.48
403.864	701.2
404.242	704.36
404.62	735.55
404.999	743.23
405.377	726.73
405.755	757.24
406.133	787.07
406.511	778.03
406.889	787.3
407.267	801.76
407.645	834.3
408.023	828.42
408.401	859.61
408.779	855.99
409.156	886.28
409.534	872.27
409.912	939.16
410.29	930.12
410.667	932.15
411.045	961.98
411.422	986.61
411.8	985.71
412.178	1015.54
412.555	1038.81
412.933	1039.49
413.31	1062.54
413.687	1070
414.065	1112.26
414.442	1119.94
414.819	1131.47
415.197	1140.05
415.574	1193.84
415.951	1191.13
416.328	1199.49
416.705	1229.77
417.082	1229.77
417.46	1280.39
417.837	1255.98
418.214	1254.63
418.591	1300.73
418.967	1290.56
419.344	1323.1
419.721	1350.44
420.098	1354.74
420.475	1362.87
420.852	1403.1
421.228	1411.01
421.605	1420.5
421.982	1466.6
422.358	1469.76
422.735	1508.63
423.111	1473.38
423.488	1496.2
423.864	1536.88
424.241	1552.47
424.617	1568.97
424.994	1580.27
425.37	1599.25
425.746	1579.59
426.123	1653.71
426.499	1629.76
426.875	1692.13
427.251	1708.63
427.627	1729.42
428.003	1761.73
428.379	1755.86
428.756	1800.6
429.132	1836.53
429.507	1851.45
429.883	1891.67
430.259	1896.19
430.635	1934.84
431.011	1912.69
431.387	2010.31
431.763	2029.97
432.138	2011.9
432.514	2078.11
432.89	2090.31
433.265	2121.95
433.641	2152.91
434.016	2153.36
434.392	2206.24
434.767	2239.23
435.143	2229.52
435.518	2300.7
435.894	2308.39
436.269	2357.88
436.644	2354.49
437.02	2409.17
437.395	2405.56
437.77	2422.73
438.145	2469.74
438.52	2490.75
438.895	2537.53
439.271	2562.84
439.646	2619.79
440.021	2624.76
440.395	2605.33
440.77	2584.31
441.145	2675.83
441.52	2689.39
441.895	2696.62
442.27	2738.66
442.645	2751.31
443.019	2775.04
443.394	2759.45
443.769	2828.37
444.143	2812.1
444.518	2829.28
444.892	2813.46
445.267	2878.99
445.641	2928.48
446.016	2903.85
446.39	2934.13
446.764	2975.03
447.139	2948.14
447.513	3024.07
447.887	3043.28
448.262	3042.6
448.636	3067.91
449.01	3103.84
449.384	3138.42
449.758	3176.39
450.132	3208.7
450.506	3264.07
450.88	3223.84
451.254	3233.56
451.628	3307.91
452.002	3328.02
452.376	3350.84
452.75	3412.99
453.123	3404.18
453.497	3491.41
453.871	3525.08
454.244	3584.51
454.618	3596.71
454.992	3644.17
455.365	3669.48
455.739	3779.31
456.112	3767.56
456.486	3816.82
456.859	3829.48
457.232	3916.7
457.606	3932.98
457.979	3945.18
458.352	4054.1
458.725	4102.91
459.099	4134.55
459.472	4204.15
459.845	4287.77
460.218	4324.15
460.591	4311.04
460.964	4357.6
461.337	4482.34
461.71	4527.31
462.083	4578.38
462.456	4567.99
462.829	4632.62
463.201	4761.2
463.574	4766.85
463.947	4805.27
464.32	4901.09
464.692	4945.83
465.065	4965.26
465.438	5061.99
465.81	5107.63
466.183	5198.48
466.555	5311.02
466.928	5316.44
467.3	5258.14
467.672	5441.18
468.045	5553.27
468.417	5628.07
468.789	5610.45
469.161	5720.27
469.534	5814.51
469.906	5951.23
470.278	5952.58
470.65	6015.41
471.022	6110.09
471.394	6253.59
471.766	6313.03
472.138	6397.09
472.51	6485
472.882	6596.86
473.253	6646.58
473.625	6824.65
473.997	6973.35
474.369	6966.57
474.74	7050.18
475.112	7222.38
475.484	7324.52
475.855	7463.28
476.227	7589.83
476.598	7788.47
476.97	7821.91
477.341	7997.73
477.713	8133.32
478.084	8157.5
478.455	8391.62
478.827	8477.26
479.198	8733.98
479.569	8689.46
479.94	8958.15
480.311	9004.03
480.682	9220.07
481.053	9521.08
481.424	9521.08
481.795	9696.67
482.166	9860.96
482.537	9897.56
482.908	10157.44
483.279	10289.42
483.65	10446.7
484.021	10672.23
484.391	10828.61
484.762	10853.7
485.133	10971.66
485.503	11084.65
485.874	11393.57
486.244	11526.67
486.615	11708.82
486.985	11880.79
487.356	12106.09
487.726	12208.46
488.097	12490.94
488.467	12450.49
488.837	12696.14
489.207	12860.88
489.578	13131.83
489.948	13221.55
490.318	13316.68
490.688	13473.97
491.058	13701.98
491.428	13878.48
491.798	13954.41
492.168	14224.68
492.538	14303.78
492.908	14527.73
493.278	14670.09
493.648	14702.18
494.017	14952.12
494.387	15107.82
494.757	15175.62
495.126	15447.7
495.496	15404.76
495.866	15555.49
496.235	15755.49
496.605	15879.78
496.974	16015.37
497.344	16235.7
497.713	16270.96
498.082	16311.18
498.452	16647.44
498.821	16623.26
499.19	16718.63
499.559	16917.94
499.928	16981.67
500.298	17145.51
500.667	17268.67
501.036	17258.95
501.405	17489
501.774	17586.63
502.143	17738.71
502.512	17798.6
502.88	17962.21
503.249	17947.75
503.618	18159.49
503.987	18271.36
504.356	18397.68
504.724	18548.18
505.093	18530.78
505.462	18651.91
505.83	18791.12
506.199	18965.57
506.567	19301.61
506.936	19215.51
507.304	19470.42
507.672	19551.77
508.041	19669.96
508.409	19754.71
508.777	19969.62
509.145	20130.74
509.514	20231.76
509.882	20288.48
510.25	20415.93
510.618	20616.83
510.986	20746.09
511.354	20979.99
511.722	21110.15
512.09	21195.35
512.458	21230.37
512.826	21511.72
513.193	21717.82
513.561	21662.45
513.929	21939.96
514.297	22101.54
514.664	22209.78
515.032	22323.9
515.4	22584.24
515.767	22594.86
516.135	22817.22
516.502	22657.91
516.869	23167.95
517.237	23240.26
517.604	23224.45
517.972	23575.17
518.339	23751.66
518.706	23794.6
519.073	23861.72
519.44	24143.52
519.808	24450.63
520.175	24361.82
520.542	24784.4
520.909	24818.98
521.276	24905.53
521.643	25103.94
522.009	25451.28
522.376	25673.87
522.743	25686.53
523.11	26023.02
523.477	26338.71
523.843	26424.14
524.21	26857.34
524.577	26941.18
524.943	27161.29
525.31	27129.65
525.676	27480.15
526.043	27585.69
526.409	27736.87
526.776	28161.72
527.142	28196.74
527.508	28337.31
527.874	28564.87
528.241	28640.8
528.607	28875.14
528.973	29215.02
529.339	29121.92
529.705	29504.73
530.071	29680.1
530.437	29818.4
530.803	30066.07
531.169	30146.07
531.535	30099.52
531.901	30311.49
532.267	30561.43
532.632	30654.53
532.998	30814.53
533.364	31018.14
533.73	31114.41
534.095	31354.18
534.461	31505.36
534.826	31656.54
535.192	31757.78
535.557	32012.92
535.923	31993.71
536.288	31998
536.653	32094.04
537.019	32146.7
537.384	32377.65
537.749	32583.52
538.114	32722.73
538.479	32725.44
538.845	32974.02
539.21	32990.74
539.575	33188.25
539.94	33188.25
540.305	33487.45
540.67	33457.17
541.034	33686.32
541.399	33748.91
541.764	33824.39
542.129	33896.93
542.494	33944.39
542.858	34261.44
543.223	34223.25
543.587	34523.36
543.952	34534.66
544.316	34598.16
544.681	34721.09
545.045	34855.78
545.41	35059.39
545.774	35125.83
546.138	35178.93
546.503	35272.94
546.867	35290.8
547.231	35606.72
547.595	35623.44
547.959	35641.97
548.324	35613.5
548.688	35816.43
549.052	36079.02
549.416	36015.07
549.779	36168.29
550.143	36363.76
550.507	36527.15
550.871	36757.42
551.235	36690.98
551.599	36952.22
551.962	37079.45
552.326	37262.04
552.689	37375.49
553.053	37273.34
553.417	37405.32
553.78	38037.16
554.143	37806.89
554.507	37925.08
554.87	38116.48
555.234	38410.94
555.597	38241.45
555.96	38410.26
556.323	38590.6
556.686	38810.7
557.05	38944.03
557.413	39079.4
557.776	39161.2
558.139	39433.51
558.502	39683
558.865	39570.23
559.228	40001.63
559.59	39935.87
559.953	40149.65
560.316	40571.79
560.679	40481.85
561.041	40727.94
561.404	41019.91
561.767	41187.14
562.129	41076.18
562.492	41425.32
562.854	41474.81
563.217	41525.43
563.579	41729.04
563.941	42085.64
564.304	42208.81
564.666	42418.52
565.028	42361.34
565.39	42589.36
565.753	42808.11
566.115	43046.07
566.477	43105.96
566.839	43235.45
567.201	43487.64
567.563	43510.01
567.925	43723.12
568.287	43917.69
568.648	43995.65
569.01	44113.84
569.372	44291.01
569.734	44228.19
570.095	44607.84
570.457	44732.35
570.819	44840.15
571.18	44866.14
571.542	45220.48
571.903	45061.61
572.265	45457.76
572.626	45446.23
572.987	45619.11
573.349	45639
573.71	45824.76
574.071	45949.05
574.432	46113.56
574.794	46316.27
575.155	46334.12
575.516	46215.25
575.877	46416.83
576.238	46529.6
576.599	46589.26
576.96	46568.01
577.32	46692.08
577.681	46836.03
578.042	46870.6
578.403	46968
578.763	46927.55
579.124	47066.08
579.485	47136.36
579.845	47362.79
580.206	47116.92
580.566	47236.92
580.927	47241.44
581.287	47444.6
581.648	47226.53
582.008	47526.86
582.368	47314.43
582.728	47509.46
583.089	47470.81
583.449	47384.94
583.809	47559.17
584.169	47598.95
584.529	47522.11
584.889	47662.22
585.249	47366.64
585.609	47385.39
585.969	47595.33
586.329	47566.4
586.688	47690.24
587.048	47611.6
587.408	47498.61
587.768	47617.25
588.127	47537.93
588.487	47542.9
588.846	47813.63
589.206	47590.58
589.565	47577.48
589.925	47616.12
590.284	47587.87
590.643	47745.61
591.003	47752.84
591.362	47840.52
591.721	47779.96
592.08	47763.46
592.44	47765.72
592.799	47850.01
593.158	47766.4
593.517	47844.82
593.876	47676.91
594.235	47738.83
594.593	47901.76
594.952	47900.63
595.311	47627.19
595.67	47871.48
596.029	48029.9
596.387	47977.47
596.746	48054.53
597.104	47928.43
597.463	47937.47
597.822	48030.35
598.18	48038.48
598.538	47991.48
598.897	48066.73
599.255	47891.59
599.613	48407.74
599.972	48147.18
600.33	48236.67
600.688	48131.59
601.046	48290
601.404	48289.32
601.762	48279.83
602.12	48577.23
602.478	48379.72
602.836	48451.58
603.194	48316.89
603.552	48457.91
603.91	48303.79
604.268	48621.07
604.625	48443.9
604.983	48497.91
605.341	48406.16
605.698	48574.74
606.056	48632.59
606.413	48532.71
606.771	48877.56
607.128	48756.2
607.485	48610.67
607.843	48738.13
608.2	48809.31
608.557	48971.79
608.914	48880.49
609.272	49051.11
609.629	49099.7
609.986	49294.72
610.343	48982.64
610.7	49247.49
611.057	49212.24
611.414	49101.05
611.771	49322.06
612.127	49318.45
612.484	49324.32
612.841	49416.75
613.198	49264.89
613.554	49284.78
613.911	49576.07
614.267	49639.8
614.624	49522.29
614.98	49681.6
615.337	49744.88
615.693	49718.21
616.05	49744.88
616.406	49918.21
616.762	49683.64
617.118	49755.5
617.475	49757.31
617.831	49786.01
618.187	49877.76
618.543	49942.61
618.899	50158.88
619.255	50068.71
619.611	49963.86
619.967	50042.95
620.323	50165.88
620.678	50096.06
621.034	49980.8
621.39	50013.8
621.746	50011.99
622.101	50265.99
622.457	49934.7
622.812	50087.92
623.168	50101.93
623.523	50112.33
623.879	50283.4
624.234	49941.48
624.589	50101.03
624.945	50127.24
625.3	50318.65
625.655	50113.68
626.01	50138.54
626.365	50189.39
626.72	50037.53
627.075	50190.52
627.43	50048.83
627.785	49913.46
628.14	50090.86
628.495	50135.38
628.85	50115.04
629.205	49936.96
629.559	50276.62
629.914	49902.84
630.269	49973.8
630.623	49776.74
630.978	49840.02
631.332	49879.34
631.687	49929.28
632.041	49734.71
632.396	49842.28
632.75	49620.14
633.104	49810.41
633.459	49487.48
633.813	49644.77
634.167	49565.22
634.521	49513.02
634.875	49633.02
635.229	49565.22
635.583	49278
635.937	49374.72
636.291	49260.82
636.645	49317.09
636.999	49128.85
637.352	49310.54
637.706	49008.63
638.06	49068.74
638.413	49018.8
638.767	48914.39
639.121	48990.77
639.474	48825.58
639.828	48875.97
640.181	48977.67
640.534	48809.99
640.888	48705.36
641.241	48618.35
641.594	48706.26
641.947	48732.93
642.301	48627.62
642.654	48613.83
643.007	48675.3
643.36	48506.27
643.713	48446.38
644.066	48486.15
644.419	48491.58
644.771	48160.51
645.124	47884.36
645.477	47687.98
645.83	47400.31
646.182	47264.94
646.535	47088.68
646.888	47198.96
647.24	46912.86
647.593	47254.32
647.945	46951.96
648.298	46777.27
648.65	46779.53
649.002	46560.56
649.355	46799.42
649.707	46801
650.059	46882.58
650.411	47344.94
650.763	47342.23
651.115	47708.32
651.467	47693.86
651.819	47656.8
652.171	47485.05
652.523	47376.58
652.875	47431.27
653.227	47184.27
653.578	47393.08
653.93	47321.89
654.282	47068.11
654.633	47067.43
654.985	47139.52
655.337	47135.68
655.688	47166.42
656.039	47300.87
656.391	46919.64
656.742	47029.7
657.094	46996.25
657.445	46933.2
657.796	46987.44
658.147	46918.96
658.498	46859.08
658.849	46913.54
659.2	46722.81
659.551	46678.97
659.902	46782.02
660.253	46726.43
660.604	46839.42
660.955	46642.14
661.306	46797.16
661.656	46611.63
662.007	46772.08
662.358	46763.26
662.708	46702.7
663.059	46582.93
663.409	46357.17
663.76	46657.28
664.11	46448.02
664.461	46647.56
664.811	46496.83
665.161	46519.43
665.511	46469.03
665.862	46411.41
666.212	46530.73
666.562	46407.11
666.912	46538.41
667.262	46321.69
667.612	46296.61
667.962	46343.16
668.312	46176.38
668.662	46535.92
669.011	46210.06
669.361	46245.54
669.711	46354.69
670.06	46176.38
670.41	46140.45
670.76	46013.45
671.109	46211.41
671.459	46106.56
671.808	46133.22
672.157	46140
672.507	45797.64
672.856	45851.87
673.205	45871.31
673.554	45946.33
673.904	45813
674.253	45991.08
674.602	45921.93
674.951	45197.2
675.3	45063.42
675.649	45663.86
675.998	45654.59
676.346	45705.66
676.695	45734.14
677.044	45423.86
677.393	45548.6
677.741	45704.76
678.09	45510.41
678.438	45469.06
678.787	45483.3
679.135	45404.88
679.484	45282.4
679.832	45365.56
680.181	45201.72
680.529	45251.44
680.877	44967.15
681.225	44990.43
681.573	45254.38
681.922	44774.39
682.27	44753.6
682.618	44837.44
682.966	44779.59
683.314	44932.58
683.661	44742.3
684.009	44571.91
684.357	44396.32
684.705	44253.5
685.053	44409.88
685.4	44399.26
685.748	44138.25
686.095	44117.68
686.443	43946.84
686.79	43970.12
687.138	43964.01
687.485	43955.2
687.832	43836.33
688.18	43814.64
688.527	43663.68
688.874	43606.73
689.221	43411.94
689.568	43247.87
689.915	43227.76
690.262	43199.06
690.609	43057.14
690.956	42816.02
691.303	42807.21
691.65	42714.1
691.997	42875
692.344	42500.78
692.69	42380.1
693.037	42423.04
693.383	42197.73
693.73	42265.75
694.077	41939.66
694.423	41990.28
694.769	41804.52
695.116	41804.75
695.462	41823.5
695.808	41654.7
696.155	41723.62
696.501	41287.02
696.847	41344.87
697.193	41017.2
697.539	41216.29
697.885	41060.14
698.231	40778.56
698.577	40962.06
698.923	40814.72
699.269	40549.87
699.614	40409.53
699.96	40271.91
700.306	40234.85
700.651	40187.84
700.997	40019.03
701.342	40057.22
701.688	39946.72
702.033	39766.16
702.379	39581.08
702.724	39483.91
703.069	39642.32
703.415	39142.67
703.76	39108.77
704.105	39106.29
704.45	39140.86
704.795	38923.69
705.14	38773.87
705.485	38798.95
705.83	38594.21
706.175	38598.5
706.52	38669.24
706.865	38416.59
707.209	38524.38
707.554	38386.76
707.899	38277.38
708.243	38137.95
708.588	37991.97
708.932	37791.07
709.277	37788.58
709.621	37770.96
709.966	37499.78
710.31	37463.39
710.654	37188.15
710.998	37339.1
711.342	37252.33
711.687	37139.79
712.031	37133.01
712.375	36902.28
712.719	36937.98
713.063	36831.32
713.407	37019.11
713.75	36690.08
714.094	36663.87
714.438	36587.03
714.782	36559.91
715.125	36425.23
715.469	36573.47
715.812	36247.15
716.156	36095.07
716.499	36017.56
716.843	36065.92
717.186	35930.78
717.53	35995.18
717.873	35960.83
718.216	36026.82
718.559	35693.27
718.902	35638.36
719.246	35595.87
719.589	35570.11
719.932	35345.71
720.275	35423
720.617	35311.36
720.96	35230.01
721.303	35210.12
721.646	35191.14
721.989	34989.79
722.331	35102.78
722.674	34958.15
723.016	34952.73
723.359	34706.86
723.701	34806.97
724.044	34609.23
724.386	34393.19
724.729	34547.54
725.071	34385.73
725.413	34572.85
725.755	34485.17
726.097	34313.65
726.439	34160.2
726.782	34011.05
727.124	34311.61
727.465	34030.49
727.807	33904.39
728.149	33857.84
728.491	33832.3
728.833	33828.69
729.175	33711.63
729.516	33663.49
729.858	33550.95
730.199	33756.15
730.541	33526.32
730.882	33531.29
731.224	33650.39
731.565	33364.07
731.906	33374.91
732.248	33360.9
732.589	33143.28
732.93	33018.99
733.271	33087.01
733.612	32961.14
733.953	33103.73
734.294	32915.72
734.635	32825.55
734.976	32949.61
735.317	32823.97
735.658	32672.11
735.999	32610.41
736.339	32643.86
736.68	32680.47
737.021	32542.62
737.361	32344.21
737.702	32573.35
738.042	32507.82
738.383	32257.88
738.723	32326.81
739.063	32265.79
739.404	32248.16
739.744	32246.58
740.084	32148.5
740.424	32058.56
740.764	31886.59
741.104	32062.41
741.444	31814.5
741.784	31859.47
742.124	31888.85
742.464	31831.9
742.804	31722.53
743.143	31622.87
743.483	31569.09
743.823	31486.83
744.162	31446.6
744.502	31627.16
744.841	31204.57
745.181	31427.85
745.52	31205.03
745.86	31318.47
746.199	31084.58
746.538	31126.16
746.877	31113.96
747.216	31074.63
747.556	30954.86
747.895	30893.4
748.234	30711.25
748.573	30757.36
748.911	30716.9
749.25	30719.62
749.589	30600.75
749.928	30664.7
750.267	30546.97
750.605	30449.57
750.944	30386.74
751.283	30205.51
751.621	30355.78
751.96	30204.6
752.298	30093.42
752.636	30155.79
752.975	29966.19
753.313	29754.22
