Data from breadboard_black_back_FLMS001491_00010.txt Node
Date: Wed Feb 08 10:49:53 GMT 2017
User: dcchb
Spectrometer: FLMS00149
Trigger mode: 0
Integration Time (sec): 2.000000E-2
Scans to average: 10
Electric dark correction enabled: true
Nonlinearity correction enabled: false
Boxcar width: 0
XAxis mode: Wavelengths
Number of Pixels in Spectrum: 2048
>>>>>Begin Spectral Data<<<<<
341.393	-11.77
341.776	-11.77
342.16	-11.77
342.543	-33.91
342.927	-80.69
343.31	-58.54
343.693	-66.68
344.077	-54.02
344.46	-40.92
344.843	-56.74
345.226	-54.93
345.61	-20.58
345.993	-28.26
346.376	-1.82
346.759	17.84
347.142	7.44
347.525	44.28
347.908	47.22
348.291	58.52
348.674	86.09
349.057	121.11
349.44	102.58
349.823	133.77
350.206	163.37
350.588	199.08
350.971	233.65
351.354	221.45
351.737	235.01
352.119	246.53
352.502	236.36
352.884	279.3
353.267	294.22
353.65	296.93
354.032	304.61
354.414	311.39
354.797	327.43
355.179	312.75
355.562	336.25
355.944	340.32
356.326	355.68
356.709	336.7
357.091	359.98
357.473	360.88
357.855	332.41
358.238	354.55
358.62	340.54
359.002	340.99
359.384	354.78
359.766	337.83
360.148	371.73
360.53	344.16
360.912	365.17
361.294	342.58
361.676	353.65
362.057	347.1
362.439	342.12
362.821	352.52
363.203	336.02
363.584	326.76
363.966	358.39
364.348	322.01
364.729	343.03
365.111	326.3
365.493	351.84
365.874	323.37
366.256	328.79
366.637	344.38
367.019	321.33
367.4	329.47
367.781	345.51
368.163	341.22
368.544	333.54
368.925	340.99
369.306	343.71
369.688	357.26
370.069	357.04
370.45	331.73
370.831	360.2
371.212	344.16
371.593	338.28
371.974	374.21
372.355	356.59
372.736	345.29
373.117	359.75
373.498	338.06
373.879	341.22
374.26	343.71
374.641	340.09
375.021	337.83
375.402	362.24
375.783	356.36
376.163	366.3
376.544	391.84
376.925	357.94
377.305	377.83
377.686	392.97
378.066	363.59
378.447	371.28
378.827	402.91
379.208	377.6
379.588	375.34
379.968	398.85
380.349	405.85
380.729	388.45
381.109	392.97
381.489	423.48
381.87	403.59
382.25	419.41
382.63	426.87
383.01	405.62
383.39	416.92
383.77	408.11
384.15	396.36
384.53	413.99
384.91	405.62
385.29	421.44
385.67	428.22
386.049	430.03
386.429	432.74
386.809	443.14
387.189	453.31
387.568	444.72
387.948	439.75
388.328	456.47
388.707	436.36
389.087	470.93
389.466	471.84
389.846	467.77
390.225	467.09
390.605	477.04
390.984	480.2
391.363	477.49
391.743	482.01
392.122	482.01
392.501	494.66
392.881	510.93
393.26	500.99
393.639	507.77
394.018	499.63
394.397	492.63
394.776	493.08
395.155	530.14
395.534	525.85
395.913	526.3
396.292	552.06
396.671	533.31
397.05	541.67
397.429	537.37
397.808	558.16
398.186	553.42
398.565	553.87
398.944	565.62
399.323	574.21
399.701	566.75
400.08	565.39
400.458	587.09
400.837	568.56
401.215	609.69
401.594	591.16
401.972	609.24
402.351	584.83
402.729	605.39
403.107	581.89
403.486	605.85
403.864	596.81
404.242	644.26
404.62	644.71
404.999	621.21
405.377	646.75
405.755	642
406.133	648.1
406.511	664.38
406.889	679.06
407.267	666.41
407.645	677.93
408.023	688.1
408.401	696.69
408.779	696.69
409.156	723.13
409.534	740.76
409.912	722.23
410.29	710.02
410.667	745.28
411.045	759.51
411.422	770.81
411.8	769.46
412.178	777.82
412.555	786.86
412.933	787.76
413.31	790.93
413.687	835.9
414.065	815.78
414.442	836.35
414.819	840.64
415.197	837.48
415.574	880.19
415.951	860.53
416.328	884.03
416.705	883.13
417.082	885.16
417.46	900.08
417.837	919.51
418.214	912.28
418.591	926.06
418.967	944.14
419.344	928.55
419.721	947.53
420.098	938.49
420.475	971.94
420.852	980.98
421.228	973.75
421.605	979.4
421.982	999.51
422.358	1011.03
422.735	1008.09
423.111	1004.48
423.488	1028.21
423.864	1054.42
424.241	1037.7
424.617	1067.08
424.994	1077.25
425.37	1094.87
425.746	1089.9
426.123	1109.34
426.499	1109.11
426.875	1111.6
427.251	1169.45
427.627	1137.13
428.003	1156.34
428.379	1188.43
428.756	1190.01
429.132	1242.44
429.507	1204.47
429.883	1227.75
430.259	1275.88
430.635	1245.38
431.011	1301.87
431.387	1312.49
431.763	1326.96
432.138	1327.63
432.514	1366.5
432.89	1358.59
433.265	1381.42
433.641	1416.67
434.016	1415.32
434.392	1406.5
434.767	1439.72
435.143	1444.47
435.518	1467.97
435.894	1454.41
436.269	1520.85
436.644	1544.35
437.02	1526.73
437.395	1548.65
437.77	1578.48
438.145	1608.76
438.52	1626.16
438.895	1645.37
439.271	1629.32
439.646	1678.59
440.021	1645.37
440.395	1674.07
440.77	1675.2
441.145	1722.43
441.52	1729.66
441.895	1735.08
442.27	1734.4
442.645	1778.24
443.019	1770.33
443.394	1765.14
443.769	1769.88
444.143	1777.34
444.518	1817.79
444.892	1835.87
445.267	1827.73
445.641	1846.94
446.016	1848.3
446.39	1882.2
446.764	1918.81
447.139	1896.89
447.513	1908.41
447.887	1895.53
448.262	1917.68
448.636	1975.53
449.01	1998.35
449.384	1962.19
449.758	2007.62
450.132	2026.37
450.506	2049.88
450.88	2046.71
451.254	2040.61
451.628	2094.39
452.002	2119.48
452.376	2094.62
452.75	2148.4
453.123	2196.54
453.497	2208.97
453.871	2194.5
454.244	2246.03
454.618	2279.93
454.992	2320.38
455.365	2296.2
455.739	2356.08
456.112	2383.88
456.486	2421.62
456.859	2451.22
457.232	2455.29
457.606	2464.33
457.979	2522.41
458.352	2596.08
458.725	2599.24
459.099	2586.36
459.472	2651.44
459.845	2690.76
460.218	2745.68
460.591	2748.61
460.964	2787.94
461.337	2825
461.71	2869.97
462.083	2865.45
462.456	2890.53
462.829	2870.87
463.201	2945.22
463.574	2991.09
463.947	3051.43
464.32	3108.38
464.692	3112.45
465.065	3115.16
465.438	3201.71
465.81	3214.14
466.183	3266.57
466.555	3330.75
466.928	3351.08
467.3	3354.7
467.672	3444.64
468.045	3540.01
468.417	3532.77
468.789	3555.6
469.161	3554.24
469.534	3667.46
469.906	3712.2
470.278	3749.72
470.65	3779.32
471.022	3873.33
471.394	3903.84
471.766	4014.57
472.138	4010.95
472.51	4111.97
472.882	4179.54
473.253	4166.2
473.625	4257.73
473.997	4318.97
474.369	4337.5
474.74	4458.85
475.112	4508.79
475.484	4650.71
475.855	4688.68
476.227	4698.17
476.598	4835.11
476.97	4886.86
477.341	4961.89
477.713	5061.55
478.084	5124.14
478.455	5210.47
478.827	5286.4
479.198	5425.61
479.569	5465.6
479.94	5613.17
480.311	5597.35
480.682	5816.1
481.053	5883.22
481.424	5947.63
481.795	6023.56
482.166	6127.96
482.537	6171.12
482.908	6318.01
483.279	6364.56
483.65	6501.51
484.021	6615.18
484.391	6695.4
484.762	6780.37
485.133	6847.04
485.503	6935.17
485.874	7158.67
486.244	7174.49
486.615	7258.55
486.985	7405.21
487.356	7512.1
487.726	7612.22
488.097	7766.56
488.467	7756.62
488.837	7944.41
489.207	8027.57
489.578	8105.99
489.948	8190.5
490.318	8334.91
490.688	8345.3
491.058	8469.59
491.428	8607.44
491.798	8708.46
492.168	8810.38
492.538	8845.85
492.908	9032.06
493.278	9125.62
493.648	9182.34
494.017	9259.4
494.387	9308.89
494.757	9472.51
495.126	9557.93
495.496	9528.77
495.866	9680.86
496.235	9773.97
496.605	9844.25
496.974	9887.18
497.344	10008.54
497.713	10052.6
498.082	10136.89
498.452	10253.28
498.821	10311.81
499.19	10361.07
499.559	10467.51
499.928	10545.92
500.298	10645.58
500.667	10705.47
501.036	10752.25
501.405	10871.79
501.774	10903.88
502.143	10992.24
502.512	11071.11
502.88	11149.07
503.249	11185.45
503.618	11221.61
503.987	11313.13
504.356	11352.91
504.724	11488.95
505.093	11523.52
505.462	11618.21
505.83	11680.58
506.199	11759
506.567	11821.82
506.936	11881.93
507.304	12075.15
507.672	12084.64
508.041	12151.08
508.409	12336.16
508.777	12358.76
509.145	12485.76
509.514	12543.16
509.882	12640.11
510.25	12691.18
510.618	12776.6
510.986	12923.26
511.354	12931.85
511.722	13091.62
512.09	13246.19
512.458	13190.37
512.826	13371.16
513.193	13451.61
513.561	13566.18
513.929	13631.27
514.297	13716.69
514.664	13774.31
515.032	13838.04
515.4	14003.46
515.767	14154.42
516.135	14149.44
516.502	14166.17
516.869	14375.88
517.237	14554.86
517.604	14394.18
517.972	14696.32
518.339	14712.14
518.706	14867.62
519.073	14872.14
519.44	14984.22
519.808	15197.78
520.175	15212.47
520.542	15439.58
520.909	15450.2
521.276	15631.44
521.643	15692
522.009	15851.55
522.376	15880.47
522.743	16043.63
523.11	16184.65
523.477	16308.03
523.843	16409.95
524.21	16670.73
524.577	16776.04
524.943	16840.22
525.31	16999.31
525.676	17107.56
526.043	17172.87
526.409	17227.56
526.776	17483.59
527.142	17604.04
527.508	17622.57
527.874	17850.59
528.241	17873.41
528.607	17951.83
528.973	18225.72
529.339	18216.46
529.705	18383.01
530.071	18549.1
530.437	18574.86
530.803	18706.39
531.169	18854.63
531.535	18762.43
531.901	18950.67
532.267	19069.54
532.632	19190.22
532.998	19214.4
533.364	19379.36
533.73	19438.34
534.095	19572.35
534.461	19556.99
534.826	19785.68
535.192	19809.18
535.557	19971.89
535.923	19952.46
536.288	20107.93
536.653	20169.63
537.019	20087.59
537.384	20324.42
537.749	20476.74
538.114	20436.74
538.479	20523.74
538.845	20677.63
539.21	20601.03
539.575	20784.07
539.94	20765.32
540.305	20989.04
540.67	20862.04
541.034	20969.6
541.399	21183.84
541.764	21227
542.129	21319.2
542.494	21234.68
542.858	21370.5
543.223	21424.06
543.587	21579.53
543.952	21469.25
544.316	21683.94
544.681	21652.07
545.045	21847.1
545.41	21928
545.774	21921.9
546.138	22026.3
546.503	22087.54
546.867	22198.95
547.231	22364.37
547.595	22300.87
547.959	22462.22
548.324	22444.37
548.688	22476.91
549.052	22721.65
549.416	22717.13
549.779	22790.12
550.143	22796.45
550.507	23004.35
550.871	23075.76
551.235	23010.45
551.599	23277.57
551.962	23297.68
552.326	23424
552.689	23520.5
553.053	23510.78
553.417	23514.85
553.78	23777.89
554.143	23761.39
554.507	23941.5
554.87	23984.89
555.234	24243.87
555.597	24181.04
555.96	24197.09
556.323	24314.37
556.686	24449.74
557.05	24529.51
557.413	24621.03
557.776	24739.22
558.139	24879.56
558.502	24884.08
558.865	24885.21
559.228	25088.82
559.59	25280.45
559.953	25300.11
560.316	25535.13
560.679	25576.94
561.041	25741.46
561.404	25801.34
561.767	25963.37
562.129	25853.54
562.492	26146.19
562.854	26146.64
563.217	26307.77
563.579	26365.39
563.941	26578.95
564.304	26710.7
564.666	26830.24
565.028	26916.57
565.39	26982.55
565.753	27210.8
566.115	27265.48
566.477	27375.99
566.839	27495.76
567.201	27643.55
567.563	27650.78
567.925	27781.85
568.287	27834.96
568.648	27930.55
569.01	28037.89
569.372	28215.74
569.734	28232.92
570.095	28386.13
570.457	28527.15
570.819	28485.79
571.18	28483.3
571.542	28742.73
571.903	28841.49
572.265	28924.2
572.626	28972.11
572.987	29089.84
573.349	29250.97
573.71	29267.92
574.071	29314.02
574.432	29429.95
574.794	29528.93
575.155	29589.49
575.516	29596.5
575.877	29791.29
576.238	29759.43
576.599	29807.11
576.96	29855.7
577.32	29824.51
577.681	30064.73
578.042	30151.28
578.403	30022.25
578.763	30034.68
579.124	30069.25
579.485	30288.91
579.845	30334.56
580.206	30268.79
580.566	30330.26
580.927	30328
581.287	30407.32
581.648	30358.28
582.008	30567.77
582.368	30436.25
582.728	30555.79
583.089	30532.74
583.449	30511.95
583.809	30588.79
584.169	30548.34
584.529	30605.28
584.889	30701.78
585.249	30584.04
585.609	30534.32
585.969	30678.05
586.329	30632.63
586.688	30754.66
587.048	30665.62
587.408	30570.03
587.768	30619.52
588.127	30638.5
588.487	30474.89
588.846	30944.03
589.206	30638.95
589.565	30745.84
589.925	30833.75
590.284	30615.23
590.643	30767.09
591.003	30904.71
591.362	30804.83
591.721	30778.39
592.08	30727.54
592.44	30862.23
592.799	30833.98
593.158	30810.48
593.517	30836.69
593.876	30871.26
594.235	30860.42
594.593	30830.14
594.952	30949
595.311	30823.36
595.67	30800.53
596.029	31136.79
596.387	31226.06
596.746	31144.48
597.104	31035.55
597.463	31048.44
597.822	31015.22
598.18	31104.48
598.538	31238.03
598.897	31270.58
599.255	30929.57
599.613	31393.06
599.972	31291.37
600.33	31406.17
600.688	31172.5
601.046	31359.84
601.404	31339.05
601.762	31295.66
602.12	31333.63
602.478	31363.45
602.836	31509.21
603.194	31375.88
603.552	31547.86
603.91	31253.63
604.268	31490.23
604.625	31487.07
604.983	31634.86
605.341	31525.94
605.698	31636.67
606.056	31590.34
606.413	31702.43
606.771	31708.53
607.128	31848.64
607.485	31779.04
607.843	31761.41
608.2	31938.36
608.557	32030.33
608.914	31857
609.272	32085.24
609.629	32036.88
609.986	32161.4
610.343	32117.11
610.7	32241.17
611.057	32110.55
611.414	32168.18
611.771	32341.06
612.127	32377.44
612.484	32283.2
612.841	32448.62
613.198	32258.57
613.554	32359.36
613.911	32608.17
614.267	32642.07
614.624	32518.45
614.98	32537.66
615.337	32737.88
615.693	32738.56
616.05	32668.28
616.406	32800.48
616.762	32642.07
617.118	32648.17
617.475	32598.22
617.831	32758.67
618.187	32682.74
618.543	32769.75
618.899	32982.4
619.255	32956.86
619.611	32877.31
619.967	32950.31
620.323	33060.59
620.678	32895.39
621.034	32935.62
621.39	32863.08
621.746	32890.87
622.101	33199.79
622.457	32960.48
622.812	32791.44
623.168	33065.33
623.523	33122.73
623.879	33144.88
624.234	32880.25
624.589	33019
624.945	33117.99
625.3	33052
625.655	33131.32
626.01	33137.87
626.365	33169.51
626.72	33089.29
627.075	33092.68
627.43	32985.79
627.785	32974.03
628.14	32996.41
628.495	33009.29
628.85	33012.68
629.205	32997.08
629.559	33090.19
629.914	32772.23
630.269	32965.22
630.623	32825.34
630.978	32854.94
631.332	32856.52
631.687	33003.86
632.041	32765.45
632.396	32933.58
632.75	32684.55
633.104	32754.83
633.459	32611.33
633.813	32541.05
634.167	32607.04
634.521	32530.2
634.875	32676.19
635.229	32613.14
635.583	32384.22
635.937	32585.34
636.291	32420.83
636.645	32422.41
636.999	32307.61
637.352	32316.42
637.706	32176.77
638.06	32360.49
638.413	32169.54
638.767	32135.19
639.121	32310.32
639.474	31967.05
639.828	32014.96
640.181	31984.91
640.534	32086.15
640.888	31903.55
641.241	31831.92
641.594	31888.64
641.947	31913.27
642.301	31945.13
642.654	31833.73
643.007	31751.69
643.36	31759.6
643.713	31684.58
644.066	31844.35
644.419	31591.25
644.771	31367.52
645.124	31227.19
645.477	31094.99
645.83	30832.17
646.182	30731.83
646.535	30602.12
646.888	30708.78
647.24	30414.55
647.593	30617.03
647.945	30504.04
648.298	30340.66
648.65	30423.37
649.002	30285.52
649.355	30295.69
649.707	30493.87
650.059	30511.05
650.411	30849.12
650.763	30869.91
651.115	31100.86
651.467	30933.41
651.819	30974.54
652.171	30864.03
652.523	30873.52
652.875	30856.8
653.227	30597.15
653.578	30940.87
653.93	30814.99
654.282	30843.69
654.633	30636.92
654.985	30719.63
655.337	30782.45
655.688	30766.18
656.039	30718.5
656.391	30622.68
656.742	30638.05
657.094	30566.64
657.445	30588.56
657.796	30556.47
658.147	30408.45
658.498	30404.61
658.849	30533.87
659.2	30600.54
659.551	30264.73
659.902	30463.82
660.253	30452.29
660.604	30426.08
660.955	30285.07
661.306	30415.91
661.656	30414.33
662.007	30367.32
662.358	30305.86
662.708	30239.64
663.059	30394.89
663.409	30070.61
663.76	30366.42
664.11	30201.9
664.461	30210.49
664.811	30229.25
665.161	30256.59
665.511	30131.4
665.862	30109.02
666.212	30179.53
666.562	30212.07
666.912	30115.35
667.262	30088.46
667.612	30060.21
667.962	30085.97
668.312	30043.94
668.662	30165.29
669.011	30076.71
669.361	30046.2
669.711	30033.55
670.06	30108.35
670.41	29951.51
670.76	29839.65
671.109	30075.35
671.459	29975.02
671.808	29801.69
672.157	30003.04
672.507	29810.05
672.856	29807.11
673.205	29744.74
673.554	29880.78
673.904	29720.56
674.253	29867.9
674.602	29729.37
674.951	29259.56
675.3	29188.82
675.649	29673.33
675.998	29536.16
676.346	29521.24
676.695	29742.71
677.044	29448.7
677.393	29498.65
677.741	29521.47
678.09	29473.79
678.438	29384.07
678.787	29502.94
679.135	29429.27
679.484	29340.68
679.832	29262.95
680.181	29171.2
680.529	29376.39
680.877	29071.09
681.225	29152.89
681.573	29297.07
681.922	29057.98
682.27	29049.17
682.618	29078.54
682.966	29022.27
683.314	29008.04
683.661	28962.84
684.009	28795.39
684.357	28721.72
684.705	28614.15
685.053	28750.87
685.4	28696.41
685.748	28511.55
686.095	28538.22
686.443	28328.73
686.79	28292.8
687.138	28530.76
687.485	28388.39
687.832	28303.87
688.18	28298.9
688.527	28136.87
688.874	28135.07
689.221	28013.49
689.568	28015.07
689.915	27879.7
690.262	27963.32
690.609	27908.86
690.956	27772.36
691.303	27711.35
691.65	27550.9
691.997	27639.26
692.344	27444.01
692.69	27452.15
693.037	27375.99
693.383	27183.45
693.73	27284.47
694.077	27221.19
694.423	27179.84
694.769	26981.2
695.116	26914.08
695.462	26952.27
695.808	26779.85
696.155	26854.65
696.501	26519.29
696.847	26630.92
697.193	26514.32
697.539	26509.12
697.885	26404.26
698.231	26271.39
698.577	26315
698.923	26171.73
699.269	26133.08
699.614	26023.03
699.96	25793.88
700.306	25894.22
700.651	25803.38
700.997	25810.61
701.342	25663.04
701.688	25623.94
702.033	25573.55
702.379	25619.65
702.724	25484.74
703.069	25468.92
703.415	25211.3
703.76	25189.61
704.105	25171.75
704.45	25174.24
704.795	25058.76
705.14	24972.21
705.485	24972.21
705.83	24810.41
706.175	24739.45
706.52	24776.51
706.865	24690.41
707.209	24605.44
707.554	24514.14
707.899	24616.06
708.243	24514.14
708.588	24464.88
708.932	24353.47
709.277	24387.59
709.621	24221.95
709.966	24065.34
710.31	24129.52
710.654	23972.91
710.998	24028.51
711.342	23988.96
711.687	23877.1
712.031	23891.79
712.375	23712.58
712.719	23786.71
713.063	23726.37
713.407	23769.08
713.75	23583.09
714.094	23632.36
714.438	23563.89
714.782	23524.57
715.125	23358.24
715.469	23461.74
715.812	23347.17
716.156	23185.36
716.499	23241.86
716.843	23266.72
717.186	23103.79
717.53	23164.35
717.873	23122.54
718.216	23147.85
718.559	22958.7
718.902	22739.27
719.246	22939.5
719.589	22833.06
719.932	22701.54
720.275	22813.85
720.617	22749.22
720.96	22694.08
721.303	22605.27
721.646	22741.08
721.989	22451.37
722.331	22635.1
722.674	22499.51
723.016	22451.82
723.359	22456.12
723.701	22440.75
724.044	22323.69
724.386	22249.8
724.729	22319.17
725.071	22163.7
725.413	22105.62
725.755	22189.91
726.097	22023.81
726.439	22003.93
726.782	21975
727.124	22062.23
727.465	22012.29
727.807	21980.88
728.149	21850.03
728.491	21822.46
728.833	21875.79
729.175	21804.61
729.516	21772.52
729.858	21766.19
730.199	21735.69
730.541	21710.6
730.882	21619.3
731.224	21703.37
731.565	21516.93
731.906	21483.04
732.248	21591.73
732.589	21421.34
732.93	21417.73
733.271	21420.89
733.612	21498.86
733.953	21354
734.294	21246.66
734.635	21190.84
734.976	21328.46
735.317	21185.87
735.658	21263.38
735.999	21156.04
736.339	21020.22
736.68	21087.57
737.021	21101.13
737.361	20912.66
737.702	21102.48
738.042	20929.15
738.383	20916.5
738.723	21013.44
739.063	20887.35
739.404	20777.97
739.744	20793.56
740.084	20776.61
740.424	20763.06
740.764	20595.6
741.104	20749.95
741.444	20591.99
741.784	20566.9
742.124	20556.51
742.464	20430.86
742.804	20561.03
743.143	20428.6
743.483	20465.21
743.823	20390.18
744.162	20411.2
744.502	20408.71
744.841	20258.44
745.181	20423.86
745.52	20232.9
745.86	20330.07
746.199	20256.63
746.538	20234.71
746.877	20181.83
747.216	20195.84
747.556	20177.53
747.895	20115.16
748.234	19966.47
748.573	20023.41
748.911	19882.63
749.25	19885.79
749.589	19746.81
749.928	19808.5
750.267	19843.08
750.605	19721.95
750.944	19704.33
751.283	19616.19
751.621	19672.01
751.96	19616.19
752.298	19552.24
752.636	19444.45
752.975	19393.37
753.313	19342.98
753.651	19384.33
753.989	19293.04
754.327	19306.6
