Data from breadboard_white_FLMS001491_00028.txt Node
Date: Wed Feb 08 10:47:30 GMT 2017
User: dcchb
Spectrometer: FLMS00149
Trigger mode: 0
Integration Time (sec): 2.000000E-2
Scans to average: 10
Electric dark correction enabled: true
Nonlinearity correction enabled: false
Boxcar width: 0
XAxis mode: Wavelengths
Number of Pixels in Spectrum: 2048
>>>>>Begin Spectral Data<<<<<
341.393	-22.7
341.776	-22.7
342.16	-22.7
342.543	-60.66
342.927	-55.01
343.31	-73.09
343.693	-81.68
344.077	-66.76
344.46	-62.47
344.843	-48.91
345.226	-31.28
345.61	-42.58
345.993	-12.75
346.376	5.78
346.759	15.49
347.142	42.61
347.525	35.61
347.908	51.88
348.291	66.11
348.674	88.49
349.057	113.57
349.44	106.56
349.823	155.83
350.206	156.96
350.588	225.43
350.971	236.73
351.354	254.58
351.737	272.21
352.119	294.36
352.502	283.74
352.884	297.07
353.267	294.36
353.65	288.93
354.032	325.32
354.414	318.08
354.797	346.56
355.179	338.2
355.562	339.1
355.944	337.52
356.326	344.07
356.709	359.21
357.091	368.7
357.473	376.16
357.855	379.78
358.238	351.53
358.62	349.72
359.002	376.84
359.384	384.07
359.766	384.98
360.148	364.86
360.53	363.96
360.912	371.19
361.294	376.39
361.676	360.57
362.057	352.21
362.439	375.71
362.821	366.67
363.203	353.11
363.584	370.29
363.966	353.11
364.348	369.16
364.729	376.84
365.111	362.6
365.493	355.15
365.874	373.68
366.256	340.91
366.637	343.85
367.019	353.56
367.4	357.18
367.781	341.14
368.163	351.08
368.544	375.26
368.925	358.54
369.306	369.83
369.688	377.52
370.069	340.01
370.45	372.77
370.831	355.37
371.212	387.01
371.593	378.2
371.974	368.25
372.355	361.02
372.736	363.06
373.117	363.06
373.498	384.98
373.879	368.25
374.26	360.12
374.641	369.16
375.021	374.58
375.402	387.91
375.783	357.86
376.163	390.4
376.544	405.09
376.925	378.2
377.305	401.02
377.686	406.44
378.066	378.2
378.447	414.81
378.827	397.4
379.208	422.04
379.588	401.25
379.968	388.59
380.349	420.46
380.729	388.82
381.109	416.84
381.489	432.21
381.87	434.69
382.25	448.02
382.63	456.61
383.01	435.14
383.39	446.44
383.77	432.66
384.15	460
384.53	468.14
384.91	479.89
385.29	456.84
385.67	480.57
386.049	463.62
386.429	472.66
386.809	494.58
387.189	493.45
387.568	468.59
387.948	497.97
388.328	508.14
388.707	504.52
389.087	490.96
389.466	525.31
389.846	532.77
390.225	490.06
390.605	535.93
390.984	530.51
391.363	527.8
391.743	532.54
392.122	562.15
392.501	560.34
392.881	560.79
393.26	595.82
393.639	579.77
394.018	613.9
394.397	587
394.776	610.51
395.155	582.48
395.534	631.3
395.913	638.98
396.292	615.25
396.671	664.06
397.05	640.56
397.429	654.57
397.808	680.56
398.186	704.74
398.565	701.8
398.944	702.03
399.323	717.62
399.701	722.82
400.08	729.15
400.458	731.63
400.837	761.01
401.215	778.41
401.594	755.36
401.972	765.98
402.351	785.64
402.729	819.09
403.107	827.9
403.486	841.69
403.864	833.33
404.242	869.48
404.62	870.61
404.999	919.42
405.377	903.61
405.755	914.68
406.133	936.15
406.511	946.77
406.889	979.08
407.267	1003.04
407.645	1003.04
408.023	1026.54
408.401	1053.88
408.779	1062.47
409.156	1098.86
409.534	1103.15
409.912	1101.12
410.29	1145.18
410.667	1172.3
411.045	1219.76
411.422	1216.14
411.8	1229.7
412.178	1263.82
412.555	1284.84
412.933	1315.12
413.31	1368.68
413.687	1342.92
414.065	1373.2
414.442	1388.79
414.819	1433.31
415.197	1478.96
415.574	1507.21
415.951	1512.86
416.328	1528.45
416.705	1540.88
417.082	1564.83
417.46	1605.73
417.837	1632.4
418.214	1644.38
418.591	1653.42
418.967	1661.78
419.344	1690.48
419.721	1716.92
420.098	1722.79
420.475	1761.89
420.852	1792.4
421.228	1826.75
421.605	1848.89
421.982	1864.48
422.358	1883.92
422.735	1897.03
423.111	1931.15
423.488	1961.88
423.864	1951.49
424.241	2009.34
424.617	2038.94
424.994	2048.43
425.37	2106.51
425.746	2085.27
426.123	2130.24
426.499	2149.9
426.875	2172.73
427.251	2227.64
427.627	2239.84
428.003	2258.15
428.379	2326.17
428.756	2353.29
429.132	2327.07
429.507	2431.02
429.883	2429.44
430.259	2502.66
430.635	2529.78
431.011	2546.95
431.387	2621.53
431.763	2628.31
432.138	2654.52
432.514	2681.86
432.89	2727.74
433.265	2839.37
433.641	2873.05
434.016	2805.48
434.392	2890.67
434.767	2976.55
435.143	2962.76
435.518	3025.58
435.894	3047.96
436.269	3078.69
436.644	3189.42
437.02	3158.69
437.395	3191
437.77	3216.99
438.145	3255.18
438.52	3300.83
438.895	3359.59
439.271	3389.64
439.646	3434.84
440.021	3475.52
440.395	3480.49
440.77	3459.02
441.145	3513.93
441.52	3565.91
441.895	3605.23
442.27	3622.86
442.645	3651.1
443.019	3678.9
443.394	3713.25
443.769	3737.88
444.143	3730.88
444.518	3794.38
444.892	3789.86
445.267	3819.46
445.641	3860.36
446.016	3889.97
446.39	3937.2
446.764	3959.57
447.139	3917.31
447.513	4020.81
447.887	4044.77
448.262	4049.74
448.636	4088.83
449.01	4151.88
449.384	4143.07
449.758	4223.52
450.132	4254.93
450.506	4311.2
450.88	4297.87
451.254	4301.71
451.628	4369.96
452.002	4462.16
452.376	4486.11
452.75	4527.01
453.123	4548.03
453.497	4656.95
453.871	4687.69
454.244	4797.29
454.618	4831.64
454.992	4946.89
455.365	4966.32
455.739	5027.57
456.112	5129.03
456.486	5109.37
456.859	5185.08
457.232	5330.38
457.606	5290.84
457.979	5382.36
458.352	5471.4
458.725	5530.15
459.099	5541.22
459.472	5718.39
459.845	5811.73
460.218	5782.12
460.591	5868.22
460.964	5891.05
461.337	5994.77
461.71	6190.92
462.083	6229.12
462.456	6235.9
462.829	6322.22
463.201	6410.35
463.574	6434.99
463.947	6541.42
464.32	6726.96
464.692	6727.18
465.065	6713.17
465.438	6860.96
465.81	6988.42
466.183	7075.65
466.555	7221.86
466.928	7246.04
467.3	7231.58
467.672	7373.49
468.045	7562.64
468.417	7643.99
468.789	7674.95
469.161	7775.74
469.534	7962.86
469.906	8128.5
470.278	8128.05
470.65	8317.2
471.022	8427.48
471.394	8576.85
471.766	8625.89
472.138	8836.73
472.51	8984.75
472.882	9121.7
473.253	9254.8
473.625	9368.92
473.997	9536.83
474.369	9651.17
474.74	9812.75
475.112	9951.73
475.484	10065.63
475.855	10287.77
476.227	10368.67
476.598	10695.89
476.97	10723.23
477.341	11000.06
477.713	11155.09
478.084	11276.67
478.455	11626.94
478.827	11678.24
479.198	12061.73
479.569	12042.97
479.94	12332.23
480.311	12458.56
480.682	12836.85
481.053	13044.53
481.424	13396.16
481.795	13425.99
482.166	13664.4
482.537	13817.39
482.908	14136.48
483.279	14290.15
483.65	14550.03
484.021	14773.75
484.391	15002.22
484.762	15229.11
485.133	15261.65
485.503	15512.71
485.874	15859.37
486.244	15964.91
486.615	16208.29
486.985	16408.74
487.356	16819.8
487.726	16937.99
488.097	17340.46
488.467	17369.84
488.837	17848.25
489.207	17890.05
489.578	18244.62
489.948	18297.95
490.318	18678.96
490.688	18769.58
491.058	19136.12
491.428	19339.28
491.798	19482.33
492.168	19875.08
492.538	19980.17
492.908	20258.58
493.278	20435.3
493.648	20546.03
494.017	20852.91
494.387	21057.43
494.757	21094.94
495.126	21383.52
495.496	21515.49
495.866	21673.23
496.235	21915.94
496.605	22089.72
496.974	22262.82
497.344	22548.91
497.713	22555.47
498.082	22755.01
498.452	23053.53
498.821	23320.64
499.19	23294.43
499.559	23640.41
499.928	23641.31
500.298	23832.04
500.667	24148.42
501.036	24017.12
501.405	24384.57
501.774	24446.26
502.143	24668.63
502.512	24760.61
502.88	24894.84
503.249	25022.97
503.618	25234.27
503.987	25408.72
504.356	25679.68
504.724	25744.53
505.093	25926.23
505.462	25947.02
505.83	26246.67
506.199	26328.25
506.567	26857.73
506.936	26709.71
507.304	27129.36
507.672	27200.77
508.041	27365.74
508.409	27607.08
508.777	27906.96
509.145	28030.58
509.514	28021.99
509.882	28260.4
510.25	28438.7
510.618	28695.64
510.986	28858.58
511.354	29164.78
511.722	29276.87
512.09	29595.96
512.458	29576.98
512.826	29973.35
513.193	30065.55
513.561	30173.35
513.929	30408.59
514.297	30684.52
514.664	30918.41
515.032	31255.35
515.4	31389.58
515.767	31441.33
516.135	31814.88
516.502	31634.32
516.869	32262.78
517.237	32397.69
517.604	32266.17
517.972	32720.4
518.339	33037.22
518.706	33186.6
519.073	33255.3
519.44	33567.61
519.808	33847.6
520.175	33909.74
520.542	34347.02
520.909	34698.2
521.276	34644.41
521.643	34994.01
522.009	35231.97
522.376	35593.77
522.743	35828.34
523.11	36064.26
523.477	36361.88
523.843	36703.12
524.21	36985.14
524.577	37218.58
524.943	37489.31
525.31	37732.92
525.676	37923.88
526.043	38289.74
526.409	38289.97
526.776	38814.47
527.142	38935.15
527.508	39242.49
527.874	39539.88
528.241	39660.33
528.607	39924.5
528.973	40285.4
529.339	40269.35
529.705	40681.54
530.071	41034.3
530.437	41166.5
530.803	41412.15
531.169	41682.65
531.535	41665.47
531.901	41840.38
532.267	41977.78
532.632	42321.73
532.998	42417.54
533.364	42681.49
533.73	42807.14
534.095	43243.06
534.461	43217.52
534.826	43541.13
535.192	43582.48
535.557	44011.63
535.923	43982.02
536.288	44034.22
536.653	44413.65
537.019	44210.49
537.384	44656.58
537.749	44795.56
538.114	44871.94
538.479	45061.77
538.845	45151.93
539.21	45202.1
539.575	45410.68
539.94	45500.4
540.305	45755.99
540.67	45713.5
541.034	45876.21
541.399	46030.78
541.764	46329.08
542.129	46396.65
542.494	46646.36
542.858	46606.13
543.223	46648.17
543.587	46980.36
543.952	46965.22
544.316	47159.11
544.681	47226
545.045	47411.31
545.41	47629.38
545.774	47679.55
546.138	47751.64
546.503	47900.79
546.867	47955.48
547.231	48194.57
547.595	48268.91
547.959	48500.32
548.324	48514.56
548.688	48578.06
549.052	48838.62
549.416	48804.49
549.779	48985.73
550.143	48994.55
550.507	49223.01
550.871	49397.92
551.235	49337.13
551.599	49721.08
551.962	49718.14
552.326	49971.24
552.689	50255.98
553.053	50052.82
553.417	50091.01
553.78	50576.42
554.143	50376.43
554.507	50603.54
554.87	50794.72
555.234	51029.07
555.597	50880.6
555.96	51026.58
556.323	51281.26
556.686	51325.11
557.05	51521.94
557.413	51658.43
557.776	51782.04
558.139	51980.46
558.502	52006.67
558.865	52061.81
559.228	52353.78
559.59	52415.25
559.953	52589.93
560.316	52898.85
560.679	52753.54
561.041	53024.27
561.404	53090.03
561.767	53372.06
562.129	53265.85
562.492	53578.61
562.854	53617.93
563.217	53608.44
563.579	53743.57
563.941	53973.17
564.304	54082.55
564.666	54309.21
565.028	54341.52
565.39	54420.84
565.753	54643.44
566.115	54639.59
566.477	54783.32
566.839	54840.95
567.201	55080.94
567.563	55089.98
567.925	55271.44
568.287	55293.36
568.648	55482.96
569.01	55461.49
569.372	55662.17
569.734	55630.3
570.095	55734.25
570.457	55863.29
570.819	56009.73
571.18	55954.59
571.542	56144.87
571.903	56181.93
572.265	56295.82
572.626	56288.82
572.987	56397.97
573.349	56511.64
573.71	56643.61
574.071	56684.74
574.432	56654.23
574.794	56896.03
575.155	56821.68
575.516	56831.18
575.877	56996.14
576.238	57009.02
576.599	57098.29
576.96	57106.87
577.32	57220.09
577.681	57319.52
578.042	57304.38
578.403	57301.45
578.763	57329.24
579.124	57349.13
579.485	57439.29
579.845	57484.94
580.206	57475.9
580.566	57480.65
580.927	57474.55
581.287	57604.94
581.648	57511.16
582.008	57592.74
582.368	57494.66
582.728	57643.36
583.089	57604.26
583.449	57617.14
583.809	57613.53
584.169	57679.06
584.529	57631.38
584.889	57823.47
585.249	57614.66
585.609	57620.76
585.969	57817.59
586.329	57697.82
586.688	57736.01
587.048	57693.75
587.408	57646.29
587.768	57641.55
588.127	57715.67
588.487	57627.54
588.846	57811.71
589.206	57684.94
589.565	57742.79
589.925	57842.22
590.284	57793.18
590.643	57809.68
591.003	57786.63
591.362	57863.69
591.721	57846.52
592.08	57856.68
592.44	57897.36
592.799	57905.05
593.158	57914.08
593.517	57854.43
593.876	57898.04
594.235	57794.99
594.593	57900.3
594.952	57981.2
595.311	57851.94
595.67	57886.29
596.029	58036.57
596.387	58051.48
596.746	58019.39
597.104	57992.5
597.463	57890.36
597.822	58030.24
598.18	57933.97
598.538	57992.95
598.897	58107.75
599.255	57903.92
599.613	58231.82
599.972	58044.48
600.33	58106.17
600.688	58011.26
601.046	58157.92
601.404	58270.46
601.762	58234.08
602.12	58338.93
602.478	58315.43
602.836	58324.7
603.194	58203.57
603.552	58264.58
603.91	58159.5
604.268	58349.78
604.625	58278.37
604.983	58400.4
605.341	58286.5
605.698	58398.37
606.056	58444.69
606.413	58502.77
606.771	58534.63
607.128	58497.12
607.485	58437.46
607.843	58483.34
608.2	58554.52
608.557	58678.58
608.914	58580.51
609.272	58630.45
609.629	58679.04
609.986	58821.63
610.343	58690.11
610.7	58875.42
611.057	58826.15
611.414	58817.56
611.771	58742.09
612.127	58888.07
612.484	58835.19
612.841	58928.97
613.198	58856.21
613.554	58894.4
613.911	59080.38
614.267	59018.24
614.624	59031.8
614.98	59031.57
615.337	59227.5
615.693	59072.02
616.05	59106.6
616.406	59251.9
616.762	59206.48
617.118	59165.8
617.475	59104.79
617.831	59234.28
618.187	59276.53
618.543	59231.11
618.899	59421.62
619.255	59299.58
619.611	59291.45
619.967	59369.19
620.323	59507.04
620.678	59278.12
621.034	59213.03
621.39	59273.37
621.746	59239.93
622.101	59513.14
622.457	59343.88
622.812	59391.79
623.168	59417.55
623.523	59417.1
623.879	59499.81
624.234	59337.1
624.589	59448.51
624.945	59402.63
625.3	59419.58
625.655	59408.73
626.01	59471.33
626.365	59413.71
626.72	59368.06
627.075	59385.91
627.43	59373.93
627.785	59358.79
628.14	59366.48
628.495	59351.33
628.85	59382.97
629.205	59229.08
629.559	59292.13
629.914	59225.46
630.269	59295.97
630.623	59212.81
630.978	59146.59
631.332	59239.47
631.687	59268.85
632.041	59185.69
632.396	59198.12
632.75	59178.01
633.104	59211.23
633.459	59030.67
633.813	59036.54
634.167	58982.31
634.521	58998.58
634.875	58965.58
635.229	58875.64
635.583	58794.06
635.937	58848.07
636.291	58776.66
636.645	58790.9
636.999	58750.45
637.352	58848.98
637.706	58686.04
638.06	58792.93
638.413	58696.44
638.767	58604.24
639.121	58700.28
639.474	58428.65
639.828	58501.19
640.181	58556.33
640.534	58510
640.888	58382.77
641.241	58324.92
641.594	58378.93
641.947	58457.35
642.301	58320.18
642.654	58334.64
643.007	58338.71
643.36	58263
643.713	58174.64
644.066	58287.18
644.419	58205.83
644.771	58044.48
645.124	57774.2
645.477	57834.76
645.83	57570.82
646.182	57457.15
646.535	57395
646.888	57394.1
647.24	57269.13
647.593	57354.33
647.945	57336.92
648.298	57158.62
648.65	57068.68
649.002	57014.45
649.355	57212.86
649.707	57121.11
650.059	57255.12
650.411	57541.44
650.763	57497.37
651.115	57764.94
651.467	57733.98
651.819	57711.38
652.171	57595.45
652.523	57540.54
652.875	57549.12
653.227	57451.95
653.578	57598.39
653.93	57544.83
654.282	57404.49
654.633	57364.72
654.985	57423.93
655.337	57409.47
655.688	57355.91
656.039	57406.53
656.391	57234.55
656.742	57298.96
657.094	57354.33
657.445	57447.43
657.796	57271.84
658.147	57196.59
658.498	57170.15
658.849	57254.89
659.2	57212.86
659.551	57166.08
659.902	57303.71
660.253	57141
660.604	57268.45
660.955	57039.98
661.306	57108
661.656	57033.66
662.007	57049.7
662.358	57037.05
662.708	57051.73
663.059	57034.79
663.409	56817.16
663.76	57080.66
664.11	57081.34
664.461	57075.46
664.811	57072.98
665.161	57028.91
665.511	56888.35
665.862	57000.44
666.212	57036.37
666.562	56954.56
666.912	56946.2
667.262	56920.44
667.612	56920.44
667.962	56883.38
668.312	56855.58
668.662	56974.45
669.011	56899.2
669.361	56842.93
669.711	56824.85
670.06	56816.94
670.41	56742.82
670.76	56629.82
671.109	56747.56
671.459	56759.99
671.808	56670.5
672.157	56689.26
672.507	56524.97
672.856	56588.7
673.205	56568.36
673.554	56623.72
673.904	56492.65
674.253	56636.83
674.602	56518.64
674.951	56106.22
675.3	56056.51
675.649	56421.92
675.998	56484.07
676.346	56409.94
676.695	56512.77
677.044	56271.87
677.393	56374.01
677.741	56435.48
678.09	56316.39
678.438	56230.51
678.787	56285.2
679.135	56281.36
679.484	56086.11
679.832	56143.51
680.181	56090.63
680.529	56105.09
680.877	55960.69
681.225	55946.23
681.573	56116.62
681.922	55910.07
682.27	55818.32
682.618	55717.31
682.966	55836.17
683.314	55841.6
683.661	55810.41
684.009	55631.43
684.357	55482.28
684.705	55490.65
685.053	55529.51
685.4	55434.38
685.748	55271.44
686.095	55301.27
686.443	55178.79
686.79	55140.37
687.138	55188.28
687.485	55193.7
687.832	55105.8
688.18	55162.29
688.527	54911.23
688.874	54890.44
689.221	54871.9
689.568	54798.46
689.915	54745.58
690.262	54689.76
690.609	54685.69
690.956	54519.82
691.303	54562.53
691.65	54396.66
691.997	54355.08
692.344	54216.55
692.69	54177.69
693.037	54202.32
693.383	53918.94
693.73	53988.99
694.077	53784.93
694.423	53847.07
694.769	53688.43
695.116	53746.74
695.462	53632.62
695.808	53476.24
696.155	53532.05
696.501	53306.75
696.847	53357.82
697.193	53091.61
697.539	53259.29
697.885	52888
698.231	52856.14
698.577	52805.52
698.923	52864.27
699.269	52581.34
699.614	52405.08
699.96	52351.29
700.306	52439.43
700.651	52237.17
700.997	52201.69
701.342	52054.35
701.688	51988.36
702.033	51947.91
702.379	51915.37
702.724	51777.3
703.069	51844.19
703.415	51525.1
703.76	51551.54
704.105	51428.61
704.45	51359.91
704.795	51220.48
705.14	51159.69
705.485	51041.5
705.83	50877.21
706.175	50951.33
706.52	50838.56
706.865	50706.82
707.209	50649.87
707.554	50643.09
707.899	50695.97
708.243	50381.18
708.588	50339.82
708.932	50107.51
709.277	50176.89
709.621	50148.41
709.966	49832.49
710.31	49896.44
710.654	49521.08
710.998	49663.45
711.342	49745.71
711.687	49631.82
712.031	49399.96
712.375	49306.4
712.719	49349.11
713.063	49213.75
713.407	49258.94
713.75	49210.36
714.094	49161.55
714.438	48886.75
714.782	49029.12
715.125	48817.83
715.469	48787.32
715.812	48631.16
716.156	48358.86
716.499	48396.37
716.843	48545.52
717.186	48230.27
717.53	48406.09
717.873	48357.27
718.216	48264.85
718.559	48172.19
718.902	47844.29
719.246	47827.34
719.589	47824.63
719.932	47648.37
720.275	47608.82
720.617	47485.66
720.96	47479.33
721.303	47551.65
721.646	47525.66
721.989	47245.44
722.331	47326.11
722.674	47159.57
723.016	47177.42
723.359	47104.43
723.701	47121.15
724.044	46793.7
724.386	46654.72
724.729	46865.79
725.071	46776.75
725.413	46701.72
725.755	46530.43
726.097	46399.36
726.439	46186.26
726.782	46272.58
727.124	46327.72
727.465	46101.51
727.807	46088.41
728.149	45926.83
728.491	45960.73
728.833	45993.04
729.175	45759.38
729.516	45678.02
729.858	45654.29
730.199	45680.96
730.541	45471.47
730.882	45436.22
731.224	45574.3
731.565	45254.3
731.906	45419.72
732.248	45308.54
732.589	45069.22
732.93	45012.5
733.271	44979.06
733.612	45012.05
733.953	45036.68
734.294	44872.62
734.635	44718.05
734.976	44817.03
735.317	44565.73
735.658	44570.93
735.999	44522.35
736.339	44390.6
736.68	44597.37
737.021	44257.49
737.361	44139.08
737.702	44282.35
738.042	44109.02
738.383	44050.49
738.723	44021.34
739.063	43891.85
739.404	43857.96
739.744	43775.47
740.084	43792.87
740.424	43743.84
740.764	43552.2
741.104	43793.78
741.444	43470.62
741.784	43359.44
742.124	43491.86
742.464	43348.82
742.804	43116.51
743.143	43211.65
743.483	43091.2
743.823	42907.47
744.162	42910.64
744.502	43028.83
744.841	42650.76
745.181	42942.05
745.52	42698.67
745.86	42804.2
746.199	42566.69
746.538	42554.49
746.877	42559.23
747.216	42498.22
747.556	42277.21
747.895	42205.12
748.234	42123.54
748.573	42185.91
748.911	42096.65
749.25	41919.48
749.589	41692.36
749.928	41834.96
750.267	41708.41
750.605	41592.48
750.944	41460.96
751.283	41408.76
751.621	41398.59
751.96	41195.65
752.298	41093.51
