Data from breadboard_white_FLMS001491_00079.txt Node
Date: Wed Feb 08 10:48:15 GMT 2017
User: dcchb
Spectrometer: FLMS00149
Trigger mode: 0
Integration Time (sec): 2.000000E-2
Scans to average: 10
Electric dark correction enabled: true
Nonlinearity correction enabled: false
Boxcar width: 0
XAxis mode: Wavelengths
Number of Pixels in Spectrum: 2048
>>>>>Begin Spectral Data<<<<<
341.393	-7.29
341.776	-7.29
342.16	-7.29
342.543	-70.34
342.927	-68.53
343.31	-68.98
343.693	-66.72
344.077	-61.3
344.46	-55.42
344.843	-46.16
345.226	-59.94
345.61	-39.15
345.993	-1.64
346.376	-10.68
346.759	16.67
347.142	19.38
347.525	40.62
347.908	66.16
348.291	80.62
348.674	83.78
349.057	102.77
349.44	136.21
349.823	130.79
350.206	148.87
350.588	216.21
350.971	227.73
351.354	230.45
351.737	245.36
352.119	254.63
352.502	273.61
352.884	288.07
353.267	292.37
353.65	296.66
354.032	312.48
354.414	307.73
354.797	321.07
355.179	321.74
355.562	338.47
355.944	341.18
356.326	338.92
356.709	349.76
357.091	343.44
357.473	359.03
357.855	341.86
358.238	363.1
358.62	339.14
359.002	354.06
359.384	346.6
359.766	359.26
360.148	366.04
360.53	343.44
360.912	345.25
361.294	361.52
361.676	360.61
362.057	355.41
362.439	345.02
362.821	344.12
363.203	342.76
363.584	347.05
363.966	338.24
364.348	339.37
364.729	345.92
365.111	356.77
365.493	350.89
365.874	342.08
366.256	337.11
366.637	358.35
367.019	335.08
367.4	325.13
367.781	337.56
368.163	338.47
368.544	331.23
368.925	342.76
369.306	358.58
369.688	333.72
370.069	320.61
370.45	330.33
370.831	331.69
371.212	339.37
371.593	342.31
371.974	354.74
372.355	353.61
372.736	339.82
373.117	321.74
373.498	364
373.879	356.09
374.26	335.3
374.641	352.48
375.021	352.48
375.402	338.92
375.783	337.56
376.163	347.28
376.544	369.2
376.925	367.39
377.305	357
377.686	360.16
378.066	380.5
378.447	374.4
378.827	361.06
379.208	368.3
379.588	373.72
379.968	380.5
380.349	370.33
380.729	355.19
381.109	385.02
381.489	380.27
381.87	383.44
382.25	389.76
382.63	383.44
383.01	394.96
383.39	394.74
383.77	413.27
384.15	393.38
384.53	401.74
384.91	397
385.29	431.34
385.67	419.37
386.049	436.32
386.429	409.65
386.809	424.79
387.189	431.8
387.568	428.18
387.948	425.24
388.328	421.85
388.707	454.62
389.087	444.9
389.466	434.51
389.846	466.6
390.225	460.04
390.605	468.63
390.984	447.62
391.363	441.06
391.743	462.98
392.122	483.32
392.501	501.17
392.881	512.02
393.26	497.78
393.639	484.68
394.018	519.48
394.397	530.33
394.776	529.87
395.155	528.52
395.534	541.62
395.913	546.6
396.292	563.32
396.671	560.15
397.05	554.05
397.429	569.87
397.808	582.3
398.186	582.08
398.565	570.32
398.944	587.95
399.323	589.98
399.701	611.23
400.08	599.7
400.458	623.43
400.837	618.91
401.215	646.25
401.594	659.14
401.972	661.62
402.351	668.4
402.729	672.69
403.107	688.96
403.486	739.59
403.864	696.2
404.242	735.97
404.62	730.09
404.999	727.38
405.377	745.69
405.755	770.09
406.133	762.18
406.511	797.44
406.889	776.65
407.267	808.51
407.645	830.2
408.023	837.44
408.401	857.55
408.779	892.35
409.156	916.3
409.534	886.02
409.912	920.37
410.29	937.77
410.667	952.46
411.045	947.49
411.422	1006.92
411.8	1003.31
412.178	1024.32
412.555	1052.8
412.933	1061.38
413.31	1070.42
413.687	1100.93
414.065	1108.16
414.442	1127.37
414.819	1176.86
415.197	1164.21
415.574	1215.73
415.951	1207.6
416.328	1231.1
416.705	1224.32
417.082	1255.5
417.46	1261.38
417.837	1300.47
418.214	1300.93
418.591	1319.23
418.967	1309.97
419.344	1369.63
419.721	1384.09
420.098	1379.79
420.475	1396.74
420.852	1430.41
421.228	1426.8
421.605	1458.21
421.982	1459.79
422.358	1507.25
422.735	1493.46
423.111	1514.25
423.488	1529.17
423.864	1548.38
424.241	1597.87
424.617	1611.43
424.994	1590.64
425.37	1632.67
425.746	1624.08
426.123	1659.11
426.499	1702.05
426.875	1693.23
427.251	1747.92
427.627	1748.82
428.003	1781.59
428.379	1813.23
428.756	1835.6
429.132	1851.65
429.507	1907.46
429.883	1912.89
430.259	1973
430.635	1994.69
431.011	1977.52
431.387	2028.82
431.763	2067.69
432.138	2120.11
432.514	2118.08
432.89	2150.17
433.265	2188.36
433.641	2208.47
434.016	2234.69
434.392	2305.42
434.767	2313.55
435.143	2336.38
435.518	2373.67
435.894	2364.18
436.269	2423.38
436.644	2489.82
437.02	2472.42
437.395	2491.86
437.77	2518.3
438.145	2573.21
438.52	2576.6
438.895	2612.53
439.271	2609.82
439.646	2685.52
440.021	2708.57
440.395	2669.25
440.77	2697.27
441.145	2739.76
441.52	2828.12
441.895	2794.22
442.27	2853.88
442.645	2829.47
443.019	2864.05
443.394	2910.83
443.769	2882.35
444.143	2904.95
444.518	2979.3
444.892	2948.79
445.267	2989.24
445.641	3009.58
446.016	3039.19
446.39	3121.44
446.764	3079.18
447.139	3086.87
447.513	3122.8
447.887	3159.86
448.262	3175
448.636	3201.22
449.01	3224.04
449.384	3291.38
449.758	3292.96
450.132	3356.69
450.506	3330.03
450.88	3391.27
451.254	3347.65
451.628	3447.31
452.002	3467.65
452.376	3532.05
452.75	3538.38
453.123	3533.64
453.497	3631.49
453.871	3623.58
454.244	3745.16
454.618	3753.97
454.992	3816.11
455.365	3812.27
455.739	3941.31
456.112	3966.84
456.486	3984.7
456.859	4073.06
457.232	4129.33
457.606	4111.02
457.979	4161.42
458.352	4287.74
458.725	4332.48
459.099	4365.93
459.472	4395.99
459.845	4487.06
460.218	4529.77
460.591	4584.91
460.964	4558.47
461.337	4731.8
461.71	4728.18
462.083	4833.26
462.456	4850.66
462.829	4858.35
463.201	4956.88
463.574	4959.81
463.947	5106.7
464.32	5218.34
464.692	5228.28
465.065	5262.18
465.438	5336.75
465.81	5424.89
466.183	5475.96
466.555	5587.14
466.928	5683.64
467.3	5676.18
467.672	5733.58
468.045	5914.14
468.417	5869.17
468.789	5983.74
469.161	6047.92
469.534	6158.65
469.906	6307.35
470.278	6327.23
470.65	6440.23
471.022	6537.4
471.394	6637.51
471.766	6709.82
472.138	6762.7
472.51	6924.96
472.882	7013.32
473.253	7099.64
473.625	7244.72
473.997	7421.9
474.369	7457.6
474.74	7531.27
475.112	7757.48
475.484	7890.58
475.855	7963.35
476.227	7990.92
476.598	8247.64
476.97	8375.77
477.341	8516.56
477.713	8654.63
478.084	8699.15
478.455	8964
478.827	8996.09
479.198	9248.29
479.569	9259.81
479.94	9546.81
480.311	9612.35
480.682	9872
481.053	10057.98
481.424	10299.79
481.795	10367.13
482.166	10493.9
482.537	10615.03
482.908	10874.91
483.279	11089.37
483.65	11132.53
484.021	11425.41
484.391	11600.54
484.762	11675.34
485.133	11795.34
485.503	11979.52
485.874	12290.69
486.244	12366.62
486.615	12620.4
486.985	12771.13
487.356	13008.19
487.726	13141.29
488.097	13379.48
488.467	13435.97
488.837	13722.97
489.207	13870.54
489.578	14040.03
489.948	14244.99
490.318	14439.34
490.688	14401.82
491.058	14819.44
491.428	14947.8
491.798	15087.68
492.168	15319.54
492.538	15415.81
492.908	15653.54
493.278	15844.5
493.648	15869.81
494.017	16181.21
494.387	16309.8
494.757	16344.6
495.126	16618.94
495.496	16702.78
495.866	16783.68
496.235	16979.16
496.605	17197.68
496.974	17283.78
497.344	17483.33
497.713	17629.76
498.082	17618.69
498.452	17826.82
498.821	18035.63
499.19	18073.37
499.559	18203.08
499.928	18365.56
500.298	18485.79
500.667	18754.7
501.036	18755.38
501.405	18929.16
501.774	19064.75
502.143	19095.94
502.512	19267.69
502.88	19532.99
503.249	19449.83
503.618	19678.52
503.987	19735.47
504.356	19847.78
504.724	20057.95
505.093	20155.8
505.462	20289.58
505.83	20456.58
506.199	20571.38
506.567	20919.39
506.936	20841.66
507.304	21074.87
507.672	21203.91
508.041	21315.32
508.409	21524.8
508.777	21692.03
509.145	21861.52
509.514	21869.88
509.882	22185.35
510.25	22189.64
510.618	22414.95
510.986	22465.12
511.354	22710.53
511.722	22886.35
512.09	23154.36
512.458	23178.54
512.826	23418.99
513.193	23477.07
513.561	23646.33
513.929	23739.66
514.297	23981.23
514.664	24132.64
515.032	24266.65
515.4	24438.4
515.767	24556.59
516.135	24792.29
516.502	24714.77
516.869	25169.68
517.237	25210.58
517.604	25241.31
517.972	25572.15
518.339	25848.08
518.706	25895.99
519.073	26014.4
519.44	26330.1
519.808	26542.75
520.175	26543.65
520.542	26910.87
520.909	27104.32
521.276	27142.96
521.643	27410.07
522.009	27593.34
522.376	27770.96
522.743	27973.67
523.11	28261.12
523.477	28615.24
523.843	28675.57
524.21	29065.17
524.577	29285.5
524.943	29359.17
525.31	29509.22
525.676	29874.19
526.043	30031.7
526.409	30179.04
526.776	30483.66
527.142	30564.11
527.508	30781.06
527.874	31023.08
528.241	30986.47
528.607	31288.84
528.973	31623.52
529.339	31587.14
529.705	31959.33
530.071	32303.5
530.437	32342.6
530.803	32529.94
531.169	32789.59
531.535	32795.69
531.901	32851.74
532.267	33115.23
532.632	33371.5
532.998	33461.66
533.364	33588.21
533.73	33860.3
534.095	34063.91
534.461	34143.45
534.826	34333.5
535.192	34495.08
535.557	34782.98
535.923	34719.48
536.288	34856.88
536.653	35128.06
537.019	35112.69
537.384	35138.23
537.749	35410.99
538.114	35462.97
538.479	35697.08
538.845	35853.92
539.21	35866.12
539.575	35984.53
539.94	35987.02
540.305	36273.34
540.67	36314.69
541.034	36481.24
541.399	36666.1
541.764	36702.26
542.129	36869.03
542.494	36958.07
542.858	37199.19
543.223	37149.93
543.587	37394.44
543.952	37295.91
544.316	37420.88
544.681	37627.88
545.045	37753.3
545.41	38097.92
545.774	38146.06
546.138	38067.42
546.503	38276.45
546.867	38238.71
547.231	38629.21
547.595	38614.75
547.959	38745.59
548.324	38899.94
548.688	38811.13
549.052	39052.48
549.416	39106.49
549.779	39289.31
550.143	39303.54
550.507	39702.18
550.871	39535.63
551.235	39835.73
551.599	39970.87
551.962	40166.35
552.326	40245.66
552.689	40452.67
553.053	40339
553.417	40357.53
553.78	41049.26
554.143	40842.03
554.507	40965.42
554.87	41195.47
555.234	41477.95
555.597	41312.3
555.96	41590.71
556.323	41749.58
556.686	41836.13
557.05	42013.08
557.413	42222.34
557.776	42219.62
558.139	42522.22
558.502	42697.8
558.865	42750.23
559.228	43131.01
559.59	43208.75
559.953	43300.95
560.316	43713.37
560.679	43613.49
561.041	43994.49
561.404	44138.44
561.767	44357.42
562.129	44234.49
562.492	44725.32
562.854	44632.89
563.217	44712.21
563.579	44887.35
563.941	45197.4
564.304	45348.58
564.666	45547.9
565.028	45679.65
565.39	45919.87
565.753	46035.8
566.115	46169.58
566.477	46400.31
566.839	46478.95
567.201	46653.86
567.563	46773.4
567.925	47002.1
568.287	47007.52
568.648	47148.08
569.01	47322.09
569.372	47547.62
569.734	47329.09
570.095	47719.14
570.457	47779.03
570.819	47806.6
571.18	47845.69
571.542	48141.95
571.903	48143.08
572.265	48352.8
572.626	48554.15
572.987	48554.37
573.349	48637.99
573.71	48716.4
574.071	48902.39
574.432	48945.32
574.794	49207.24
575.155	49232.55
575.516	49136.28
575.877	49395.71
576.238	49410.17
576.599	49440.68
576.96	49578.98
577.32	49635.93
577.681	49712.53
578.042	49788.92
578.403	49876.82
578.763	49798.86
579.124	49899.87
579.485	50117.72
579.845	50115.24
580.206	50053.54
580.566	50123.6
580.927	50148.46
581.287	50356.81
581.648	50181
582.008	50260.99
582.368	50291.28
582.728	50317.04
583.089	50147.78
583.449	50202.47
583.809	50284.95
584.169	50342.8
584.529	50188.91
584.889	50597.03
585.249	50279.3
585.609	50205.18
585.969	50451.05
586.329	50357.72
586.688	50400.65
587.048	50295.57
587.408	50322.01
587.768	50314.78
588.127	50369.47
588.487	50315.68
588.846	50603.81
589.206	50347.77
589.565	50367.21
589.925	50525.85
590.284	50463.93
590.643	50390.71
591.003	50536.02
591.362	50564.04
591.721	50411.95
592.08	50474.55
592.44	50657.82
592.799	50532.4
593.158	50569.46
593.517	50642.91
593.876	50595.45
594.235	50430.26
594.593	50572.17
594.952	50705.73
595.311	50620.31
595.67	50606.3
596.029	50775.56
596.387	50893.29
596.746	50887.19
597.104	50769.46
597.463	50729.68
597.822	50925.61
598.18	50837.7
598.538	50757.7
598.897	50888.1
599.255	50657.59
599.613	51187.98
599.972	50881.09
600.33	50942.78
600.688	50793.18
601.046	50989.11
601.404	51069.56
601.762	51102.78
602.12	51107.07
602.478	51141.2
602.836	51227.3
603.194	51087.41
603.552	51209.44
603.91	51108.2
604.268	51247.18
604.625	51155.21
604.983	51319.72
605.341	51112.95
605.698	51345.71
606.056	51410.8
606.413	51183.91
606.771	51537.35
607.128	51408.31
607.485	51378.25
607.843	51384.36
608.2	51545.03
608.557	51580.06
608.914	51630.45
609.272	51677.68
609.629	51718.13
609.986	51818.92
610.343	51641.52
610.7	51863.44
611.057	51801.07
611.414	51766.49
611.771	51866.6
612.127	51971.46
612.484	51961.74
612.841	52025.92
613.198	51926.04
613.554	52013.49
613.911	52151.34
614.267	52166.48
614.624	52053.94
614.98	52182.98
615.337	52301.62
615.693	52218.68
616.05	52219.59
616.406	52427.04
616.762	52286.48
617.118	52276.99
617.475	52292.81
617.831	52368.51
618.187	52472.01
618.543	52390.43
618.899	52638.11
619.255	52597.88
619.611	52439.47
619.967	52540.71
620.323	52662.29
620.678	52586.13
621.034	52538.68
621.39	52502.07
621.746	52478.11
622.101	52780.25
622.457	52571.67
622.812	52661.84
623.168	52693.93
623.523	52650.76
623.879	52651.44
624.234	52599.24
624.589	52702.51
624.945	52671.33
625.3	52637.43
625.655	52622.29
626.01	52644.43
626.365	52635.62
626.72	52661.61
627.075	52582.06
627.43	52459.58
627.785	52429.75
628.14	52508.85
628.495	52612.35
628.85	52544.1
629.205	52396.76
629.559	52614.83
629.914	52386.81
630.269	52495.96
630.623	52328.51
630.978	52332.8
631.332	52333.26
631.687	52497.32
632.041	52272.92
632.396	52301.85
632.75	52180.94
633.104	52320.38
633.459	52127.84
633.813	52191.11
634.167	52153.37
634.521	52103.21
634.875	52158.8
635.229	52022.98
635.583	51922.42
635.937	51938.69
636.291	51968.52
636.645	51875.42
636.999	51730.79
637.352	51857.56
637.706	51657.12
638.06	51814.17
638.413	51839.48
638.767	51609.43
639.121	51645.82
639.474	51539.38
639.828	51507.29
640.181	51533.5
640.534	51503.45
640.888	51371.02
641.241	51270.69
641.594	51333.28
641.947	51399.72
642.301	51280.4
642.654	51352.72
643.007	51258.71
643.36	51156.79
643.713	51115.21
644.066	51205.83
644.419	51021.65
644.771	50844.93
645.124	50672.06
645.477	50504.6
645.83	50315.46
646.182	50072.07
646.535	50010.38
646.888	49884.28
647.24	49672.99
647.593	49883.6
647.945	49654.23
648.298	49676.83
648.65	49529.49
649.002	49496.5
649.355	49630.28
649.707	49594.12
650.059	49747.34
650.411	50184.16
650.763	50181.45
651.115	50503.47
651.467	50411.73
651.819	50338.28
652.171	50191.84
652.523	50161.56
652.875	50111.85
653.227	50017.84
653.578	50174.9
653.93	50125.18
654.282	49945.75
654.633	49907.11
654.985	49941.46
655.337	49912.76
655.688	49969.93
656.039	50003.15
656.391	49799.76
656.742	49781.91
657.094	49826.2
657.445	49947.78
657.796	49733.55
658.147	49743.27
658.498	49696.26
658.849	49698.3
659.2	49655.14
659.551	49494.46
659.902	49689.03
660.253	49552.99
660.604	49643.16
660.955	49397.29
661.306	49555.25
661.656	49504.63
662.007	49586.89
662.358	49516.38
662.708	49368.59
663.059	49412.2
663.409	49151.87
663.76	49395.25
664.11	49366.1
664.461	49370.62
664.811	49393.9
665.161	49385.31
665.511	49221.47
665.862	49355.93
666.212	49526.32
666.562	49364.75
666.912	49233.68
667.262	49283.62
667.612	49209.95
667.962	49203.85
668.312	49095.83
668.662	49408.81
669.011	49240.91
669.361	49201.81
669.711	49083.85
670.06	49088.6
670.41	49020.8
670.76	49039.11
671.109	49120.46
671.459	49009.05
671.808	49043.85
672.157	49066
672.507	48806.12
672.856	48829.39
673.205	48925.89
673.554	48878.43
673.904	48808.38
674.253	48925.44
674.602	48767.93
674.951	48286.81
675.3	48108.51
675.649	48619
675.998	48597.54
676.346	48563.86
676.695	48742.84
677.044	48273.48
677.393	48536.75
677.741	48651.55
678.09	48382.85
678.438	48415.17
678.787	48418.11
679.135	48423.3
679.484	48166.36
679.832	48248.62
680.181	48205.91
680.529	48288.39
680.877	48097.44
681.225	48070.77
681.573	48321.38
681.922	48012.92
682.27	47885.69
682.618	47944.67
682.966	47755.98
683.314	47932.24
683.661	47738.35
684.009	47563.44
684.357	47395.53
684.705	47287.51
685.053	47271.24
685.4	47209.32
685.748	47153.28
686.095	47031.25
686.443	46941.99
686.79	46944.25
687.138	46936.11
687.485	46924.13
687.832	46720.3
688.18	46718.04
688.527	46513.52
688.874	46503.81
689.221	46425.62
689.568	46252.06
689.915	46200.76
690.262	46225.62
690.609	46086.42
690.956	46050.48
691.303	46008.68
691.65	45730.94
691.997	45854.11
692.344	45527.79
692.69	45532.31
693.037	45461.12
693.383	45155.59
693.73	45335.93
694.077	45102.94
694.423	45101.13
694.769	44949.72
695.116	44742.72
695.462	44745.43
695.808	44662.72
696.155	44676.73
696.501	44374.14
696.847	44383.64
697.193	44119.91
697.539	44217.09
697.885	43857.77
698.231	43725.35
698.577	43761.05
698.923	43699.36
699.269	43416.2
699.614	43277
699.96	43191.8
700.306	43349.31
700.651	42951.13
700.997	42883.34
701.342	42792.94
701.688	42825.48
702.033	42670.01
702.379	42599.95
702.724	42549.11
703.069	42603.8
703.415	42117.93
703.76	42166.29
704.105	42147.54
704.45	42068.89
704.795	41788
705.14	41616.02
705.485	41633.65
705.83	41471.17
706.175	41580.09
706.52	41485.86
706.865	41255.58
707.209	41176.04
707.554	41036.38
707.899	41048.58
708.243	40823.05
708.588	40841.36
708.932	40521.14
709.277	40593
709.621	40708.7
709.966	40301.93
710.31	40444.08
710.654	40023.3
710.998	40129.96
711.342	40161.37
711.687	39922.51
712.031	39748.05
712.375	39691.78
712.719	39751.89
713.063	39679.13
713.407	39682.29
713.75	39396.87
714.094	39390.32
714.438	39230.78
714.782	39200.49
715.125	39152.36
715.469	39176.99
715.812	38993.95
716.156	38730.22
716.499	38757.57
716.843	38825.82
717.186	38571.58
717.53	38691.13
717.873	38665.59
718.216	38528.65
718.559	38375.88
718.902	38163.01
719.246	38311.48
719.589	38119.85
719.932	38043.91
720.275	38077.59
720.617	37984.93
720.96	37965.72
721.303	37973.18
721.646	37806.63
721.989	37512.86
722.331	37678.5
722.674	37538.39
723.016	37493.42
723.359	37456.81
723.701	37400.77
724.044	37174.33
724.386	36970.95
724.729	37227.67
725.071	37014.79
725.413	37041.68
725.755	36852.99
726.097	36753.78
726.439	36680.33
726.782	36836.49
727.124	36856.83
727.465	36566.67
727.807	36503.84
728.149	36417.97
728.491	36438.08
728.833	36471.98
729.175	36333.45
729.516	36271.31
729.858	36241.93
730.199	36296.39
730.541	36140.24
730.882	35979.11
731.224	36147.69
731.565	35740.25
731.906	35896.17
732.248	35842.39
732.589	35608.72
732.93	35543.87
733.271	35691.43
733.612	35680.81
733.953	35800.58
734.294	35536.18
734.635	35446.02
734.976	35489.18
735.317	35328.51
735.658	35356.98
735.999	35338.68
736.339	35085.57
736.68	35170.77
737.021	34954.28
737.361	34724.23
737.702	34994.96
738.042	34943.88
738.383	34688.3
738.723	34838.12
739.063	34618.92
739.404	34771.46
739.744	34630.9
740.084	34542.54
740.424	34539.6
740.764	34368.08
741.104	34533.27
741.444	34284.47
741.784	34226.39
742.124	34308.65
742.464	34175.99
742.804	34320.85
743.143	34086.05
743.483	33930.58
743.823	33932.16
744.162	33888.09
744.502	33890.13
744.841	33734.2
745.181	33892.61
745.52	33759.28
745.86	33736.01
746.199	33679.74
746.538	33530.14
746.877	33472.28
747.216	33510.93
747.556	33404.49
747.895	33345.73
748.234	33336.92
748.573	33213.99
748.911	33098.73
749.25	33085.18
749.589	32944.84
749.928	32981
750.267	33051.05
750.605	32766.54
750.944	32791.62
751.283	32543.49
751.621	32616.26
751.96	32481.35
752.298	32514.57
752.636	32454.46
752.975	32224.63
753.313	32222.15
