Data from breadboard_white_FLMS001491_00078.txt Node
Date: Wed Feb 08 10:48:15 GMT 2017
User: dcchb
Spectrometer: FLMS00149
Trigger mode: 0
Integration Time (sec): 2.000000E-2
Scans to average: 10
Electric dark correction enabled: true
Nonlinearity correction enabled: false
Boxcar width: 0
XAxis mode: Wavelengths
Number of Pixels in Spectrum: 2048
>>>>>Begin Spectral Data<<<<<
341.393	-8.16
341.776	-8.16
342.16	-8.16
342.543	-57.43
342.927	-68.05
343.31	-69.63
343.693	-70.08
344.077	-67.6
344.46	-51.78
344.843	-57.2
345.226	-50.2
345.61	-30.08
345.993	3.59
346.376	-3.64
346.759	23.93
347.142	15.34
347.525	42.46
347.908	52.63
348.291	63.47
348.674	78.39
349.057	120.42
349.44	118.39
349.823	140.08
350.206	161.32
350.588	209.68
350.971	225.28
351.354	261.43
351.737	249.46
352.119	263.24
352.502	261.89
352.884	292.85
353.267	316.8
353.65	319.96
354.032	318.38
354.414	331.26
354.797	312.51
355.179	348.44
355.562	321.09
355.944	348.21
356.326	352.05
356.709	366.97
357.091	354.76
357.473	358.61
357.855	336.69
358.238	366.52
358.62	357.93
359.002	345.05
359.384	364.71
359.766	354.76
360.148	351.37
360.53	369
360.912	357.7
361.294	362.67
361.676	356.57
362.057	342.11
362.439	345.27
362.821	349.57
363.203	342.56
363.584	347.53
363.966	346.18
364.348	358.61
364.729	347.76
365.111	329
365.493	347.99
365.874	334.88
366.256	337.82
366.637	340.53
367.019	331.26
367.4	336.69
367.781	339.62
368.163	341.88
368.544	351.83
368.925	329.91
369.306	345.27
369.688	343.24
370.069	342.56
370.45	360.64
370.831	344.82
371.212	344.37
371.593	351.37
371.974	345.5
372.355	344.37
372.736	363.35
373.117	341.66
373.498	350.47
373.879	376.01
374.26	371.94
374.641	356.12
375.021	343.47
375.402	358.61
375.783	354.76
376.163	366.74
376.544	380.07
376.925	376.91
377.305	358.83
377.686	383.69
378.066	378.04
378.447	368.55
378.827	373.97
379.208	372.39
379.588	368.1
379.968	376.91
380.349	392.73
380.729	387.98
381.109	411.71
381.489	395.89
381.87	398.15
382.25	397.93
382.63	408.32
383.01	408.55
383.39	419.62
383.77	437.47
384.15	410.13
384.53	427.08
384.91	400.41
385.29	442.22
385.67	431.6
386.049	433.18
386.429	431.15
386.809	443.8
387.189	457.36
387.568	440.64
387.948	442.67
388.328	452.39
388.707	430.92
389.087	442.22
389.466	468.43
389.846	481.99
390.225	470.02
390.605	480.41
390.984	486.74
391.363	487.42
391.743	472.95
392.122	484.03
392.501	498.49
392.881	501.2
393.26	510.92
393.639	508.21
394.018	498.26
394.397	524.25
394.776	541.43
395.155	545.72
395.534	554.53
395.913	521.77
396.292	529.22
396.671	546.62
397.05	572.61
397.429	586.85
397.808	568.09
398.186	591.37
398.565	574.87
398.944	596.57
399.323	599.73
399.701	620.07
400.08	612.84
400.458	612.16
400.837	634.08
401.215	652.16
401.594	667.98
401.972	672.95
402.351	668.43
402.729	672.5
403.107	692.83
403.486	712.04
403.864	707.52
404.242	711.82
404.62	730.35
404.999	759.73
405.377	778.71
405.755	777.35
406.133	780.97
406.511	820.74
406.889	784.58
407.267	820.06
407.645	849.21
408.023	875.2
408.401	868.42
408.779	882.21
409.156	894.64
409.534	873.85
409.912	935.09
410.29	961.53
410.667	999.04
411.045	993.17
411.422	992.71
411.8	1018.7
412.178	1058.02
412.555	1070
412.933	1061.19
413.31	1111.81
413.687	1106.61
414.065	1134.63
414.442	1127.4
414.819	1151.35
415.197	1183.44
415.574	1208.53
415.951	1224.12
416.328	1239.71
416.705	1239.04
417.082	1253.05
417.46	1299.6
417.837	1306.38
418.214	1335.3
418.591	1324.91
418.967	1330.33
419.344	1353.16
419.721	1390.44
420.098	1392.03
420.475	1396.55
420.852	1455.98
421.228	1451.91
421.605	1461.4
421.982	1499.37
422.358	1468.41
422.735	1491.46
423.111	1511.57
423.488	1548.63
423.864	1569.65
424.241	1585.69
424.617	1629.76
424.994	1611.23
425.37	1643.09
425.746	1621.62
426.123	1660.27
426.499	1698.68
426.875	1726.71
427.251	1736.2
427.627	1777.1
428.003	1785.46
428.379	1830.43
428.756	1836.99
429.132	1884.44
429.507	1889.19
429.883	1961.5
430.259	1961.73
430.635	1938.9
431.011	1991.78
431.387	2027.26
431.763	2073.59
432.138	2082.4
432.514	2138.45
432.89	2101.16
433.265	2170.08
433.641	2222.06
434.016	2197.65
434.392	2294.15
434.767	2309.74
435.143	2301.38
435.518	2329.63
435.894	2389.06
436.269	2449.4
436.644	2453.24
437.02	2471.77
437.395	2485.1
437.77	2513.13
438.145	2587.93
438.52	2526.23
438.895	2582.73
439.271	2620.24
439.646	2700.24
440.021	2687.58
440.395	2745.21
440.77	2721.03
441.145	2739.56
441.52	2779.33
441.895	2824.98
442.27	2813.46
442.645	2846
443.019	2899.1
443.394	2909.73
443.769	2900.23
444.143	2897.97
444.518	2960.8
444.892	2943.62
445.267	3003.06
445.641	3059.1
446.016	3062.49
446.39	3082.6
446.764	3058.65
447.139	3102.94
447.513	3130.28
447.887	3123.73
448.262	3210.51
448.636	3204.86
449.01	3242.15
449.384	3282.37
449.758	3308.81
450.132	3320.34
450.506	3355.36
450.88	3419.99
451.254	3387.68
451.628	3420.67
452.002	3490.28
452.376	3526.66
452.75	3607.79
453.123	3600.56
453.497	3666.32
453.871	3661.8
454.244	3713.09
454.618	3747.9
454.992	3779.53
455.365	3837.16
455.739	3961.9
456.112	3968.45
456.486	4005.97
456.859	4018.62
457.232	4113.54
457.606	4084.16
457.979	4166.42
458.352	4264.49
458.725	4348.33
459.099	4339.97
459.472	4442.11
459.845	4507.42
460.218	4476.69
460.591	4555.78
460.964	4613.41
461.337	4672.62
461.71	4781.54
462.083	4832.39
462.456	4822.22
462.829	4895.66
463.201	5007.3
463.574	5014.98
463.947	5047.97
464.32	5157.58
464.692	5199.84
465.065	5317.8
465.438	5357.8
465.81	5419.72
466.183	5417.91
466.555	5628.07
466.928	5725.47
467.3	5667.39
467.672	5760.5
468.045	5931.79
468.417	5916.2
468.789	6019.7
469.161	6088.4
469.534	6110.09
469.906	6276.87
470.278	6232.12
470.65	6427.15
471.022	6537.2
471.394	6670.76
471.766	6734.71
472.138	6814.03
472.51	6973.8
472.882	7044.53
473.253	7153.46
473.625	7236.17
473.997	7359.78
474.369	7483.62
474.74	7594.57
475.112	7665.76
475.484	7823.27
475.855	7986.88
476.227	8076.14
476.598	8294.89
476.97	8327.89
477.341	8510.03
477.713	8645.85
478.084	8716.8
478.455	8976.68
478.827	9067.3
479.198	9288.99
479.569	9276.11
479.94	9656.22
480.311	9674.29
480.682	9891.24
481.053	10124.45
481.424	10288.29
481.795	10400.6
482.166	10532.12
482.537	10716.07
482.908	10930.53
483.279	11016.41
483.65	11193.8
484.021	11438.99
484.391	11567.35
484.762	11634.02
485.133	11761.47
485.503	11998.98
485.874	12212.98
486.244	12357.61
486.615	12583.14
486.985	12699.3
487.356	13043.47
487.726	13189.68
488.097	13362.56
488.467	13445.49
488.837	13811.81
489.207	13914.41
489.578	14106.27
489.948	14226.72
490.318	14402.53
490.688	14575.41
491.058	14779.7
491.428	14911.22
491.798	15097.2
492.168	15336.29
492.538	15526.57
492.908	15651.31
493.278	15788.03
493.648	15966.78
494.017	16076.61
494.387	16299.43
494.757	16364.74
495.126	16616.71
495.496	16677.95
495.866	16812.41
496.235	17050.37
496.605	17161.1
496.974	17336.92
497.344	17569.45
497.713	17569.45
498.082	17735.78
498.452	17963.12
498.821	17978.93
499.19	18111.13
499.559	18315.87
499.928	18391.35
500.298	18530.11
500.667	18626.37
501.036	18706.6
501.405	18879.48
501.774	19062.3
502.143	19166.7
502.512	19212.12
502.88	19472
503.249	19394.94
503.618	19659.57
503.987	19769.4
504.356	19840.81
504.724	20005.55
505.093	20067.24
505.462	20100.23
505.83	20396.72
506.199	20609.15
506.567	20889.59
506.936	20815.92
507.304	21092.75
507.672	21112.18
508.041	21280.77
508.409	21429.24
508.777	21663.81
509.145	21818.61
509.514	21912.39
509.882	22048.21
510.25	22172.72
510.618	22358.48
510.986	22424.69
511.354	22745.81
511.722	22849.31
512.09	23082.08
512.458	23143.32
512.826	23377.44
513.193	23553.48
513.561	23658.33
513.929	23848.84
514.297	24002.73
514.664	24240.69
515.032	24192.33
515.4	24463.28
515.767	24627.57
516.135	24751.41
516.502	24663.73
516.869	25174.45
517.237	25169.25
517.604	25279.53
517.972	25641.78
518.339	25647.66
518.706	25844.94
519.073	26030.25
519.44	26209.68
519.808	26610.12
520.175	26657.35
520.542	26942.54
520.909	27093.5
521.276	27158.81
521.643	27486.25
522.009	27547.04
522.376	27871.56
522.743	27996.98
523.11	28281.49
523.477	28577.98
523.843	28778.65
524.21	29071.07
524.577	29220.9
524.943	29408.69
525.31	29546.77
525.676	29827.44
526.043	30044.61
526.409	30196.24
526.776	30560.3
527.142	30627.42
527.508	30764.81
527.874	31053.39
528.241	31183.78
528.607	31170.23
528.973	31562.53
529.339	31629.42
529.705	31814.95
530.071	32236.86
530.437	32329.29
530.803	32558.44
531.169	32757.75
531.535	32754.14
531.901	32957.75
532.267	33191.64
532.632	33339.21
532.998	33402.71
533.364	33703.04
533.73	33825.3
534.095	34057.16
534.461	34246.53
534.826	34445.17
535.192	34552.74
535.557	34855.33
535.923	34745.95
536.288	34942.1
536.653	35159.5
537.019	34979.84
537.384	35195.2
537.749	35596.32
538.114	35388.19
538.479	35646.04
538.845	35860.95
539.21	35794.74
539.575	36013.71
539.94	36051.91
540.305	36413.25
540.67	36375.06
541.034	36495.28
541.399	36615.96
541.764	36797.2
542.129	36881.94
542.494	36918.32
542.858	37135.27
543.223	37164.64
543.587	37422.49
543.952	37344.98
544.316	37493.68
544.681	37688.25
545.045	37775.7
545.41	37921.46
545.774	38007.56
546.138	38022.47
546.503	38117.39
546.867	38271.06
547.231	38616.81
547.595	38655.23
547.959	38836.92
548.324	38703.13
548.688	39025.84
549.052	39154.42
549.416	39281.2
549.779	39266.06
550.143	39404.13
550.507	39669.66
550.871	39878.92
551.235	39858.81
551.599	40006.15
551.962	40069.2
552.326	40215.19
552.689	40497.66
553.053	40408.63
553.417	40443.65
553.78	40953.02
554.143	40811.78
554.507	40962.96
554.87	41209.51
555.234	41511.87
555.597	41321.6
555.96	41578.31
556.323	41681.36
556.686	41793
557.05	42042.26
557.413	42274.79
557.776	42364.51
558.139	42700.32
558.502	42667.78
558.865	42798.62
559.228	43129.91
559.59	43184.37
559.953	43254.2
560.316	43650.8
560.679	43779.61
561.041	43921.3
561.404	44044.92
561.767	44388.86
562.129	44159.49
562.492	44737.55
562.854	44595.41
563.217	44804.44
563.579	44907.27
563.941	45127.6
564.304	45335.05
564.666	45611.2
565.028	45610.98
565.39	45796.96
565.753	45944.53
566.115	46178.42
566.477	46381.58
566.839	46455.25
567.201	46674.9
567.563	46648.46
567.925	46990.15
568.287	47017.49
568.648	47036.7
569.01	47296.13
569.372	47490.47
569.734	47542.9
570.095	47550.59
570.457	47818.83
570.819	47922.1
571.18	47973.17
571.542	48146.05
571.903	48207.97
572.265	48407.96
572.626	48410.45
572.987	48532.03
573.349	48707.17
573.71	48773.83
574.071	48872.36
574.432	49007.04
574.794	49221.5
575.155	49194.61
575.516	49137.21
575.877	49399.35
576.238	49326.81
576.599	49524.77
576.96	49499.91
577.32	49552.12
577.681	49662.62
578.042	49705.11
578.403	49740.13
578.763	49820.81
579.124	49927.92
579.485	50023.29
579.845	50067.81
580.206	50070.29
580.566	50068.49
580.927	50122.72
581.287	50350.51
581.648	50080.24
582.008	50247.01
582.368	50278.42
582.728	50347.57
583.089	50231.65
583.449	50209.95
583.809	50333.56
584.169	50325.88
584.529	50267.12
584.889	50447.46
585.249	50376.5
585.609	50247.01
585.969	50418.31
586.329	50298.54
586.688	50366.78
587.048	50318.42
587.408	50314.13
587.768	50324.07
588.127	50378.08
588.487	50242.04
588.846	50495.82
589.206	50229.39
589.565	50342.83
589.925	50402.49
590.284	50358.87
590.643	50389.16
591.003	50465.31
591.362	50589.83
591.721	50491.53
592.08	50445.65
592.44	50578.53
592.799	50567
593.158	50560.68
593.517	50574.01
593.876	50653.56
594.235	50526.1
594.593	50594.12
594.952	50703.95
595.311	50523.84
595.67	50654.91
596.029	50796.6
596.387	50797.28
596.746	50967.9
597.104	50731.07
597.463	50759.09
597.822	50842.93
598.18	50768.35
598.538	50763.83
598.897	50880.67
599.255	50714.8
599.613	51222.58
599.972	50871.85
600.33	50991.85
600.688	50816.49
601.046	50911.63
601.404	51065.07
601.762	51036.82
602.12	51150.27
602.478	51184.16
602.836	51123.6
603.194	51055.13
603.552	51079.31
603.91	50998.63
604.268	51321.79
604.625	51107.78
604.983	51265.74
605.341	51060.78
605.698	51278.62
606.056	51399.75
606.413	51354.1
606.771	51515
607.128	51403.82
607.485	51283.37
607.843	51373.54
608.2	51546.86
608.557	51610.37
608.914	51442.46
609.272	51685.62
609.629	51753.19
609.986	51800.87
610.343	51613.08
610.7	51938.27
611.057	51852.17
611.414	51764.26
611.771	51828.21
612.127	52001.09
612.484	52016.01
612.841	52116.79
613.198	51956.12
613.554	51893.07
613.911	52174.42
614.267	52136.23
614.624	52084.25
614.98	52237.02
615.337	52328.54
615.693	52258.71
616.05	52314.53
616.406	52384.13
616.762	52297.81
617.118	52258.26
617.475	52298.48
617.831	52411.93
618.187	52379.61
618.543	52449.21
618.899	52601.98
619.255	52544.13
619.611	52419.38
619.967	52656.67
620.323	52674.07
620.678	52490.34
621.034	52455.09
621.39	52425.94
621.746	52499.83
622.101	52810.33
622.457	52498.25
622.812	52579.38
623.168	52686.95
623.523	52657.8
623.879	52840.16
624.234	52606.72
624.589	52687.4
624.945	52715.87
625.3	52723.56
625.655	52668.42
626.01	52698.25
626.365	52653.5
626.72	52630.45
627.075	52622.09
627.43	52514.52
627.785	52472.49
628.14	52551.36
628.495	52560.17
628.85	52495.99
629.205	52427.29
629.559	52651.02
629.914	52430.01
630.269	52510.91
630.623	52367.63
630.978	52299.84
631.332	52356.79
631.687	52456.67
632.041	52303.68
632.396	52348.88
632.75	52214.42
633.104	52285.6
633.459	52138.49
633.813	52181.88
634.167	52212.61
634.521	52041.77
634.875	52166.28
635.229	52061.43
635.583	51775.33
635.937	51975.1
636.291	51891.71
636.645	51947.76
636.999	51819.63
637.352	51866.4
637.706	51587.09
638.06	51781.89
638.413	51779.63
638.767	51625.51
639.121	51639.97
639.474	51517.04
639.828	51483.82
640.181	51469.35
640.534	51483.14
640.888	51517.94
641.241	51250.15
641.594	51336.7
641.947	51443.14
642.301	51296.48
642.654	51358.62
643.007	51274.1
643.36	51128.57
643.713	51108.01
644.066	51203.15
644.419	50987.56
644.771	50872.98
645.124	50739.65
645.477	50647.91
645.83	50410.85
646.182	50074.81
646.535	49937.42
646.888	49940.13
647.24	49728.61
647.593	49913.69
647.945	49765.44
648.298	49633.24
648.65	49686.8
649.002	49423.08
649.355	49704.65
649.707	49633.02
650.059	49842.73
650.411	50171.31
650.763	50174.7
651.115	50557.29
651.467	50449.72
651.819	50344.18
652.171	50357.29
652.523	50099.67
652.875	50225.09
653.227	49986
653.578	50152.78
653.93	50180.12
654.282	49895.83
654.633	49837.76
654.985	49904.42
655.337	49943.52
655.688	49928.15
656.039	50118.65
656.391	49711.43
656.742	49802.5
657.094	49830.75
657.445	49883.18
657.796	49778.1
658.147	49780.36
658.498	49680.93
658.849	49779.68
659.2	49742.62
659.551	49547.82
659.902	49712.11
660.253	49681.83
660.604	49669.63
660.955	49420.14
661.306	49598.22
661.656	49476.18
662.007	49519.57
662.358	49384.21
662.708	49493.13
663.059	49329.75
663.409	49141.96
663.76	49439.8
664.11	49283.65
664.461	49352.57
664.811	49307.83
665.161	49343.08
665.511	49232.35
665.862	49313.48
666.212	49401.16
666.562	49429.18
666.912	49419.24
667.262	49241.61
667.612	49196.42
667.962	49281.84
668.312	49105.57
668.662	49364.78
669.011	49226.02
669.361	49184.89
669.711	49142.86
670.06	49186.93
670.41	49036.87
670.76	49088.62
671.109	49146.93
671.459	48997.78
671.808	49075.97
672.157	49116.19
672.507	48787.62
672.856	48786.49
673.205	48839.59
673.554	48927.5
673.904	48732.25
674.253	48989.87
674.602	48789.42
674.951	48279.61
675.3	48023.79
675.649	48595.53
675.998	48580.16
676.346	48565.93
676.695	48738.13
677.044	48490.9
677.393	48477.12
677.741	48505.81
678.09	48472.82
678.438	48439.15
678.787	48420.85
679.135	48357.57
679.484	48097.46
679.832	48290.45
680.181	48065.83
680.529	48174.98
680.877	48072.15
681.225	48111.7
681.573	48238.03
681.922	48035.77
682.27	47720.3
682.618	47868.09
682.966	47766.85
683.314	47840.3
683.661	47660.41
684.009	47544.48
684.357	47378.61
684.705	47351.5
685.053	47385.84
685.4	47338.61
685.748	47137.49
686.095	47030.83
686.443	46794
686.79	46765.52
687.138	46968.91
687.485	46952.41
687.832	46837.61
688.18	46739.53
688.527	46387.68
688.874	46538.41
689.221	46436.26
689.568	46346.32
689.915	46117.4
690.262	46218.42
690.609	46037.41
690.956	46019.55
691.303	45907.01
691.65	45740.92
691.997	45743.4
692.344	45479
692.69	45470.19
693.037	45499.79
693.383	45157.65
693.73	45233.58
694.077	45050.31
694.423	45074.72
694.769	44851
695.116	44791.56
695.462	44835.4
695.808	44632.47
696.155	44808.29
696.501	44319.94
696.847	44352.48
697.193	44121.3
697.539	44119.94
697.885	43759.05
698.231	43825.26
698.577	43750.69
698.923	43546.62
699.269	43408.77
699.614	43186.41
699.96	43185.95
700.306	43197.71
700.651	43038.16
700.997	42889.01
701.342	42826.42
701.688	42817.38
702.033	42525.41
702.379	42586.87
702.724	42498.29
703.069	42615.35
703.415	42139.88
703.76	42138.75
704.105	42104.63
704.45	42104.18
704.795	41745.99
705.14	41681.59
705.485	41768.59
705.83	41445.89
706.175	41623.06
706.52	41297.19
706.865	41171.77
707.209	41205.22
707.554	41003.41
707.899	41108.72
708.243	40865.56
708.588	40757.09
708.932	40681.84
709.277	40606.36
709.621	40395.29
709.966	40273.49
710.31	40341.74
710.654	40006.83
710.998	39979.71
711.342	40210.44
711.687	39884.35
712.031	39778.13
712.375	39748.31
712.719	39867.17
713.063	39643.22
713.407	39666.95
713.75	39452.95
714.094	39363.68
714.438	39278.04
714.782	39267.64
715.125	39136.8
715.469	39161.88
715.812	39076.91
716.156	38631.5
716.499	38812.06
716.843	38755.11
717.186	38517.38
717.53	38584.27
717.873	38533.2
718.216	38496.59
718.559	38368
718.902	38125.97
719.246	38189.93
719.589	38158.74
719.932	37909.03
720.275	37979.31
720.617	37942.93
720.96	37920.56
721.303	37749.49
721.646	37738.64
721.989	37584.07
722.331	37633.11
722.674	37561.7
723.016	37488.93
723.359	37392.66
723.701	37484.86
724.044	37108.37
724.386	36955.61
724.729	37255.94
725.071	37080.35
725.413	36977.76
725.755	36964.65
726.097	36752.9
726.439	36754.94
726.782	36680.59
727.124	36746.8
727.465	36614.83
727.807	36622.51
728.149	36355.63
728.491	36265.23
728.833	36347.04
729.175	36373.03
729.516	36204.22
729.858	36241.28
730.199	36297.32
730.541	36082.64
730.882	36149.3
731.224	36114.05
731.565	35726.72
731.906	35863.21
732.248	35749.99
732.589	35803.55
732.93	35484.46
733.271	35571.01
733.612	35699.37
733.953	35651.24
734.294	35448.08
734.635	35318.37
734.976	35463.67
735.317	35252.83
735.658	35274.98
735.999	35172.83
736.339	35046.28
736.68	35070.69
737.021	34968.32
737.361	34711.15
737.702	35034.53
738.042	34956.57
738.383	34886.74
738.723	34764.71
739.063	34675.22
739.404	34730.13
739.744	34589.34
740.084	34496.92
740.424	34570.14
740.764	34417.82
741.104	34509.8
741.444	34242.46
741.784	34112.75
742.124	34323.36
742.464	34174.67
742.804	34142.58
743.143	34048.12
743.483	34023.48
743.823	33939.19
744.162	33909.36
744.502	33952.53
744.841	33842.25
745.181	33809.03
745.52	33679.31
745.86	33757.28
746.199	33574.46
746.538	33544.4
746.877	33450.39
747.216	33481.8
747.556	33411.52
747.895	33519.77
748.234	33303.05
748.573	33105.54
748.911	33160
749.25	33052.89
749.589	32918.88
749.928	32949.84
750.267	33061.02
750.605	32739.68
750.944	32765.66
751.283	32558.89
751.621	32689.96
751.96	32390.76
752.298	32403.19
752.636	32465.33
752.975	32304.66
753.313	32109.64
753.651	32247.94
