Data from breadboard_white_FLMS001491_00029.txt Node
Date: Wed Feb 08 10:47:30 GMT 2017
User: dcchb
Spectrometer: FLMS00149
Trigger mode: 0
Integration Time (sec): 2.000000E-2
Scans to average: 10
Electric dark correction enabled: true
Nonlinearity correction enabled: false
Boxcar width: 0
XAxis mode: Wavelengths
Number of Pixels in Spectrum: 2048
>>>>>Begin Spectral Data<<<<<
341.393	-31.4
341.776	-31.4
342.16	-31.4
342.543	-80.89
342.927	-73.2
343.31	-58.74
343.693	-68.23
344.077	-62.58
344.46	-57.16
344.843	-53.32
345.226	-39.08
345.61	-43.15
345.993	-31.4
346.376	-5.86
346.759	13.35
347.142	34.14
347.525	48.15
347.908	41.14
348.291	81.59
348.674	86.34
349.057	114.81
349.44	96.51
349.823	144.42
350.206	134.02
350.588	188.94
350.971	228.48
351.354	238.2
351.737	255.15
352.119	275.26
352.502	263.28
352.884	313
353.267	317.75
353.65	310.97
354.032	318.2
354.414	320.68
354.797	333.79
355.179	330.85
355.562	363.85
355.944	336.05
356.326	354.58
356.709	348.48
357.091	374.02
357.473	362.94
357.855	354.36
358.238	370.4
358.62	364.07
359.002	380.8
359.384	361.59
359.766	375.37
360.148	366.33
360.53	364.98
360.912	372.66
361.294	390.51
361.676	352.55
362.057	394.35
362.439	345.09
362.821	374.02
363.203	392.55
363.584	363.85
363.966	371.3
364.348	356.61
364.729	377.18
365.111	338.54
365.493	353
365.874	342.38
366.256	355.26
366.637	345.32
367.019	342.83
367.4	345.99
367.781	360.46
368.163	350.29
368.544	347.12
368.925	340.12
369.306	363.85
369.688	360.91
370.069	354.13
370.45	354.81
370.831	360.91
371.212	369.04
371.593	373.34
371.974	349.16
372.355	373.79
372.736	360.91
373.117	365.88
373.498	364.52
373.879	372.89
374.26	360.23
374.641	358.87
375.021	352.1
375.402	376.5
375.783	387.12
376.163	404.3
376.544	407.46
376.925	393.45
377.305	397.74
377.686	415.82
378.066	399.78
378.447	409.49
378.827	386.44
379.208	398.2
379.588	397.74
379.968	402.26
380.349	416.73
380.729	394.35
381.109	412.43
381.489	410.85
381.87	431.42
382.25	421.47
382.63	429.16
383.01	439.1
383.39	433.45
383.77	435.71
384.15	443.17
384.53	450.4
384.91	462.15
385.29	454.24
385.67	485.65
386.049	449.49
386.429	453.34
386.809	478.65
387.189	491.75
387.568	468.93
387.948	484.07
388.328	515.25
388.707	510.28
389.087	506.89
389.466	511.87
389.846	502.15
390.225	489.49
390.605	503.96
390.984	532.2
391.363	524.75
391.743	539.89
392.122	551.64
392.501	572.2
392.881	575.59
393.26	586.89
393.639	578.76
394.018	590.73
394.397	613.33
394.776	582.15
395.155	593.22
395.534	596.83
395.913	589.6
396.292	643.16
396.671	649.04
397.05	634.35
397.429	663.27
397.808	653.78
398.186	672.54
398.565	695.82
398.944	699.88
399.323	703.05
399.701	706.44
400.08	730.62
400.458	736.72
400.837	724.06
401.215	763.84
401.594	771.97
401.972	749.6
402.351	792.99
402.729	820.11
403.107	822.37
403.486	849.03
403.864	844.96
404.242	859.43
404.62	877.05
404.999	878.86
405.377	891.29
405.755	933.55
406.133	919.99
406.511	943.94
406.889	940.55
407.267	1014.68
407.645	999.54
408.023	1046.99
408.401	1035.02
408.779	1050.16
409.156	1087.9
409.534	1132.41
409.912	1141.23
410.29	1164.5
410.667	1175.35
411.045	1177.16
411.422	1227.1
411.8	1231.17
412.178	1283.6
412.555	1284.95
412.933	1315.69
413.31	1373.09
413.687	1369.7
414.065	1402.46
414.442	1379.41
414.819	1449.69
415.197	1473.2
415.574	1504.83
415.951	1486.98
416.328	1531.5
416.705	1535.79
417.082	1543.93
417.46	1601.55
417.837	1624.6
418.214	1610.59
418.591	1620.08
418.967	1680.87
419.344	1705.51
419.721	1733.08
420.098	1722.23
420.475	1772.4
420.852	1782.57
421.228	1840.87
421.605	1801.55
421.982	1825.73
422.358	1873.86
422.735	1956.57
423.111	1940.75
423.488	1929.68
423.864	1926.97
424.241	2040.86
424.617	2021.66
424.994	2042.67
425.37	2087.64
425.746	2093.97
426.123	2123.12
426.499	2105.5
426.875	2157.25
427.251	2215.32
427.627	2254.87
428.003	2290.58
428.379	2316.11
428.756	2319.95
429.132	2352.27
429.507	2400.18
429.883	2447.18
430.259	2450.8
430.635	2486.28
431.011	2526.5
431.387	2608.99
431.763	2612.15
432.138	2644.69
432.514	2707.51
432.89	2702.54
433.265	2784.12
433.641	2818.7
434.016	2828.87
434.392	2937.34
434.767	2975.53
435.143	2978.47
435.518	3007.84
435.894	3068.18
436.269	3055.75
436.644	3131.68
437.02	3162.87
437.395	3195.18
437.77	3200.38
438.145	3273.37
438.52	3272.7
438.895	3323.99
439.271	3375.07
439.646	3412.81
440.021	3465.01
440.395	3490.77
440.77	3458
441.145	3514.05
441.52	3545.46
441.895	3607.15
442.27	3670.2
442.645	3616.19
443.019	3706.58
443.394	3689.86
443.769	3739.12
444.143	3758.11
444.518	3846.24
444.892	3807.82
445.267	3835.17
445.641	3883.08
446.016	3882.85
446.39	3913.36
446.764	3941.38
447.139	3925.11
447.513	4045.56
447.887	4007.14
448.262	4032
448.636	4120.13
449.01	4138.66
449.384	4172.79
449.758	4227.25
450.132	4258.89
450.506	4280.35
450.88	4346.34
451.254	4331.2
451.628	4370.75
452.002	4465.43
452.376	4469.5
452.75	4533.23
453.123	4553.11
453.497	4638.31
453.871	4703.85
454.244	4795.37
454.618	4822.94
454.992	4906.1
455.365	4939.32
455.739	5007.57
456.112	5061.8
456.486	5095.7
456.859	5182.7
457.232	5270.38
457.606	5275.58
457.979	5335.02
458.352	5466.99
458.725	5540.66
459.099	5594.67
459.472	5657.72
459.845	5755.79
460.218	5754.21
460.591	5882.8
460.964	5854.1
461.337	6053.64
461.71	6160.08
462.083	6252.73
462.456	6240.3
462.829	6258.61
463.201	6375.67
463.574	6446.17
463.947	6513.97
464.32	6633.74
464.692	6751.93
465.065	6796.45
465.438	6891.36
465.81	6958.02
466.183	7047.51
466.555	7212.48
466.928	7298.58
467.3	7305.36
467.672	7386.94
468.045	7609.76
468.417	7631
468.789	7739.02
469.161	7774.05
469.534	7897.89
469.906	8086.36
470.278	8151.66
470.65	8241.15
471.022	8379.45
471.394	8609.96
471.766	8644.98
472.138	8748.71
472.51	8980.57
472.882	9076.61
473.253	9214.24
473.625	9378.75
473.997	9538.75
474.369	9610.38
474.74	9763.6
475.112	9915.01
475.484	10072.74
475.855	10277.26
476.227	10385.5
476.598	10683.8
476.97	10771.71
477.341	10950.01
477.713	11241.53
478.084	11306.16
478.455	11563.78
478.827	11698.92
479.198	12038.79
479.569	12028.62
479.94	12361.5
480.311	12498.22
480.682	12784.31
481.053	13112.89
481.424	13211.42
481.795	13479.89
482.166	13713.78
482.537	13862.02
482.908	14172.52
483.279	14268.79
483.65	14504.94
484.021	14844.6
484.391	14936.57
484.762	15157.58
485.133	15314.41
485.503	15482.54
485.874	15790.33
486.244	15941.52
486.615	16249.08
486.985	16517.09
487.356	16743.98
487.726	16983.75
488.097	17290.41
488.467	17323.17
488.837	17786.21
489.207	17958.19
489.578	18241.79
489.948	18453.77
490.318	18681.78
490.688	18669.58
491.058	19064.15
491.428	19244.25
491.798	19503.46
492.168	20012.14
492.538	19917
492.908	20230.44
493.278	20511.34
493.648	20524.67
494.017	20668.85
494.387	21014.38
494.757	21149.74
495.126	21537.07
495.496	21477.64
495.866	21692.33
496.235	21893.22
496.605	22118.98
496.974	22307
497.344	22451.63
497.713	22672.19
498.082	22920.99
498.452	23074.21
498.821	23097.94
499.19	23319.85
499.559	23635.32
499.928	23683.46
500.298	23769.11
500.667	24024.92
501.036	24084.13
501.405	24335.42
501.774	24484.57
502.143	24647.05
502.512	24761.4
502.88	25072.8
503.249	24983.31
503.618	25252.23
503.987	25437.76
504.356	25521.15
504.724	25682.05
505.093	25881.82
505.462	26009.05
505.83	26238.87
506.199	26418.53
506.567	26663.04
506.936	26681.8
507.304	27115.46
507.672	27252.86
508.041	27271.84
508.409	27580.76
508.777	27873.18
509.145	28076.34
509.514	28144.81
509.882	28378.03
510.25	28474.97
510.618	28773.27
510.986	28853.27
511.354	29116.99
511.722	29361.5
512.09	29591.78
512.458	29508.84
512.826	29808.95
513.193	30073.57
513.561	30272.89
513.929	30494.13
514.297	30780.9
514.664	31045.07
515.032	31235.35
515.4	31436.48
515.767	31580.65
516.135	31812.29
516.502	31592.18
516.869	32167.53
517.237	32393.74
517.604	32347.19
517.972	32748.98
518.339	32933.84
518.706	33028.98
519.073	33198.46
519.44	33541.51
519.808	33878.22
520.175	33857.65
520.542	34330.41
520.909	34625.09
521.276	34606.11
521.643	34949.38
522.009	35170.61
522.376	35544.39
522.743	35783.25
523.11	36070.03
523.477	36476.57
523.843	36543.23
524.21	37023
524.577	37255.76
524.943	37398.58
525.31	37648.52
525.676	38051.67
526.043	38135.73
526.409	38317.65
526.776	38768.03
527.142	38921.7
527.508	39154.01
527.874	39654.11
528.241	39662.02
528.607	39789.02
528.973	40254.1
529.339	40280.08
529.705	40640.53
530.071	40940.86
530.437	41039.84
530.803	41293.39
531.169	41573.61
531.535	41650.67
531.901	41843.66
532.267	41991
532.632	42390.76
532.998	42540.59
533.364	42782.62
533.73	42877.53
534.095	43258.54
534.461	43335.6
534.826	43637.74
535.192	43668.47
535.557	43848.58
535.923	43908.69
536.288	44045.41
536.653	44435.46
537.019	44216.93
537.384	44546.87
537.749	44779.4
538.114	44837.48
538.479	44920.87
538.845	45234.76
539.21	45140.07
539.575	45325.6
539.94	45524.47
540.305	45811.01
540.67	45758.58
541.034	45962.2
541.399	46175.75
541.764	46283.99
542.129	46477.21
542.494	46566.7
542.858	46628.84
543.223	46808.27
543.587	46994.48
543.952	46916.52
544.316	47202.39
544.681	47134.82
545.045	47485.77
545.41	47635.15
545.774	47743.39
546.138	47753.79
546.503	47889.15
546.867	47893.67
547.231	48353.77
547.595	48252.08
547.959	48454.33
548.324	48435.58
548.688	48486.87
549.052	48713.99
549.416	48748.56
549.779	48931.38
550.143	49007.31
550.507	49307.64
550.871	49461.76
551.235	49339.51
551.599	49782.43
551.962	49791.02
552.326	49856.33
552.689	50082.09
553.053	50026.5
553.417	50144.46
553.78	50500.16
554.143	50471
554.507	50617.89
554.87	50711.22
555.234	51051.1
555.597	50933.82
555.96	51020.37
556.323	51298.55
556.686	51340.36
557.05	51498.55
557.413	51557.3
557.776	51706.45
558.139	51968.82
558.502	52005.88
558.865	52144.41
559.228	52300.11
559.59	52368.13
559.953	52447.22
560.316	52783.03
560.679	52785.52
561.041	52988.9
561.404	53125.62
561.767	53384.83
562.129	53329.46
562.492	53609.68
562.854	53618.49
563.217	53668.43
563.579	53732.39
563.941	53994.53
564.304	54094.64
564.666	54235.65
565.028	54220.06
565.39	54406.95
565.753	54610.1
566.115	54653.72
566.477	54826.37
566.839	54938.68
567.201	55057.55
567.563	55093.48
567.925	55316.07
568.287	55320.37
568.648	55315.4
569.01	55501.61
569.372	55653.24
569.734	55575.95
570.095	55724.42
570.457	55868.38
570.819	55940.69
571.18	56006.23
571.542	56111.76
571.903	56123.74
572.265	56251.64
572.626	56308.82
572.987	56388.59
573.349	56472.2
573.71	56592.65
574.071	56620.67
574.432	56706.77
574.794	56883.94
575.155	56836.26
575.516	56824.28
575.877	56938.63
576.238	57034.67
576.599	57121.22
576.96	57115.12
577.32	57194.22
577.681	57255.68
578.042	57332.74
578.403	57313.76
578.763	57344.04
579.124	57350.14
579.485	57402.57
579.845	57550.59
580.206	57483.7
580.566	57452.06
580.927	57560.08
581.287	57505.85
581.648	57480.99
582.008	57620.42
582.368	57578.61
582.728	57610.48
583.089	57648.67
583.449	57609.35
583.809	57632.85
584.169	57737.25
584.529	57610.7
584.889	57890.7
585.249	57650.48
585.609	57585.17
585.969	57802.56
586.329	57649.8
586.688	57745.61
587.048	57761.43
587.408	57630.82
587.768	57697.03
588.127	57726.18
588.487	57704.49
588.846	57833.52
589.206	57731.83
589.565	57661.32
589.925	57863.13
590.284	57682.57
590.643	57733.86
591.003	57864.48
591.362	57923.91
591.721	57802.56
592.08	57842.11
592.44	57895.89
592.799	57891.15
593.158	57838.49
593.517	57841.88
593.876	57910.36
594.235	57823.8
594.593	57894.99
594.952	57885.95
595.311	57800.53
595.67	57915.1
596.029	57974.53
596.387	58031.03
596.746	58090.24
597.104	57911.03
597.463	57934.54
597.822	58080.52
598.18	57947.87
598.538	57948.09
598.897	58110.58
599.255	57862
599.613	58257.92
599.972	58011.37
600.33	58141.31
600.688	58076.23
601.046	58189.67
601.404	58209.33
601.762	58233.29
602.12	58319.16
602.478	58293.85
602.836	58341.98
603.194	58205.26
603.552	58250.91
603.91	58202.78
604.268	58363.68
604.625	58249.1
604.983	58392.83
605.341	58294.3
605.698	58386.5
606.056	58417.24
606.413	58449.1
606.771	58533.39
607.128	58581.52
607.485	58386.05
607.843	58419.5
608.2	58599.15
608.557	58622.65
608.914	58531.13
609.272	58682.09
609.629	58718.24
609.986	58786.94
610.343	58716.66
610.7	58810.45
611.057	58764.57
611.414	58783.55
611.771	58845.92
612.127	58937.45
612.484	58892.93
612.841	58938.8
613.198	58863.33
613.554	58905.58
613.911	59033.49
614.267	58984.9
614.624	59056.09
614.98	59040.5
615.337	59119.59
615.693	59073.26
616.05	59053.38
616.406	59209.53
616.762	59159.59
617.118	59119.59
617.475	59182.86
617.831	59210.66
618.187	59228.06
618.543	59302.41
618.899	59398
619.255	59373.82
619.611	59312.58
619.967	59337.89
620.323	59340.83
620.678	59314.84
621.034	59282.98
621.39	59275.74
621.746	59269.19
622.101	59518.9
622.457	59268.06
622.812	59429.19
623.168	59415.4
623.523	59419.47
623.879	59498.79
624.234	59313.26
624.589	59394.61
624.945	59426.02
625.3	59412.24
625.655	59442.07
626.01	59395.51
626.365	59408.85
626.72	59350.09
627.075	59393.48
627.43	59435.51
627.785	59340.83
628.14	59360.26
628.495	59356.19
628.85	59374.5
629.205	59201.62
629.559	59348.96
629.914	59262.18
630.269	59299.25
630.623	59166.82
630.978	59211.56
631.332	59299.7
631.687	59281.62
632.041	59146.48
632.396	59257.21
632.75	59066.94
633.104	59156.42
633.459	59046.15
633.813	58997.56
634.167	59020.16
634.521	58930.67
634.875	58963.66
635.229	58937.67
635.583	58830.78
635.937	58801.41
636.291	58819.48
636.645	58806.38
636.999	58765.02
637.352	58851.8
637.706	58705.14
638.06	58774.51
638.413	58693.16
638.767	58576.1
639.121	58696.32
639.474	58442.77
639.828	58504.69
640.181	58562.99
640.534	58506.5
640.888	58367.74
641.241	58366.84
641.594	58330.91
641.947	58411.36
642.301	58301.53
642.654	58363.68
643.007	58376.56
643.36	58306.73
643.713	58225.38
644.066	58355.32
644.419	58240.74
644.771	58060.18
645.124	57798.49
645.477	57751.72
645.83	57536.58
646.182	57396.47
646.535	57402.12
646.888	57366.19
647.24	57259.07
647.593	57403.25
647.945	57291.62
648.298	57206.19
648.65	57152.86
649.002	57057.95
649.355	57121.9
649.707	57088
650.059	57247.1
650.411	57492.97
650.763	57593.08
651.115	57730.7
651.467	57662.23
651.819	57708.33
652.171	57582.23
652.523	57544.04
652.875	57537.94
653.227	57397.83
653.578	57552.17
653.93	57531.38
654.282	57412.52
654.633	57335.46
654.985	57430.37
655.337	57376.81
655.688	57366.64
656.039	57443.02
656.391	57227.44
656.742	57267.66
657.094	57236.25
657.445	57337.94
657.796	57199.64
658.147	57264.05
658.498	57211.84
658.849	57233.76
659.2	57184.73
659.551	57117.61
659.902	57169.81
660.253	57137.27
660.604	57211.62
660.955	57040.32
661.306	57047.1
661.656	57063.15
662.007	57126.87
662.358	57078.51
662.708	57064.5
663.059	56971.62
663.409	56862.7
663.76	57012.3
664.11	57028.8
664.461	56982.02
664.811	57023.37
665.161	57022.02
665.511	56857.05
665.862	56992.19
666.212	56982.02
666.562	57029.7
666.912	56916.26
667.262	56904.96
667.612	56895.92
667.962	56862.7
668.312	56853.21
668.662	56951.06
669.011	56885.52
669.361	56808.69
669.711	56825.41
670.06	56736.83
670.41	56709.94
670.76	56628.36
671.109	56787.45
671.459	56674.91
671.808	56676.72
672.157	56770.95
672.507	56551.52
672.856	56530.05
673.205	56548.36
673.554	56600.56
673.904	56509.49
674.253	56633.1
674.602	56571.63
674.951	56219.78
675.3	56022.04
675.649	56511.3
675.998	56397.85
676.346	56412.54
676.695	56470.62
677.044	56231.08
677.393	56372.77
677.741	56314.01
678.09	56314.69
678.438	56215.03
678.787	56303.17
679.135	56248.25
679.484	56095.71
679.832	56207.58
680.181	56043.74
680.529	56099.56
680.877	55982.04
681.225	55943.18
681.573	56112.21
681.922	55900.69
682.27	55752.22
682.618	55839
682.966	55811.88
683.314	55867.7
683.661	55840.81
684.009	55584.09
684.357	55509.06
684.705	55492.79
685.053	55553.36
685.4	55433.36
685.748	55314.72
686.095	55249.63
686.443	55166.93
686.79	55158.79
687.138	55195.4
687.485	55207.38
687.832	55052.35
688.18	55107.04
688.527	54858.68
688.874	54955.18
689.221	54852.36
689.568	54792.7
689.915	54709.31
690.262	54782.53
690.609	54710.21
690.956	54476.1
691.303	54465.93
691.65	54354.29
691.997	54360.84
692.344	54158.59
692.69	54054.19
693.037	54173.73
693.383	53853.51
693.73	54029.78
694.077	53783.68
694.423	53846.73
694.769	53754.53
695.116	53625.04
695.462	53551.83
695.808	53496.69
696.155	53505.27
696.501	53282.68
696.847	53263.02
697.193	53040.88
697.539	53176.02
697.885	52833.2
698.231	52844.5
698.577	52819.87
698.923	52743.26
699.269	52593.66
699.614	52420.33
699.96	52356.15
700.306	52421.69
700.651	52303.27
700.997	52193.44
701.342	52051.53
701.688	52096.27
702.033	51868.03
702.379	51936.28
702.724	51810.18
703.069	51759.33
703.415	51439.79
703.76	51497.87
704.105	51522.95
704.45	51412
704.795	51124.32
705.14	51106.92
705.485	51074.38
705.83	50979.69
706.175	50889.52
706.52	50841.16
706.865	50643.2
707.209	50675.29
707.554	50581.06
707.899	50602.3
708.243	50472.81
708.588	50367.5
708.932	50191.69
709.277	50233.72
709.621	50172.71
709.966	49943.11
710.31	49995.99
710.654	49628.31
710.998	49774.75
711.342	49646.17
711.687	49630.8
712.031	49458.83
712.375	49294.76
712.719	49347.19
713.063	49293.63
713.407	49414.31
713.75	49192.39
714.094	49106.97
714.438	48859.52
714.782	49036.46
715.125	48794.44
715.469	48887.99
715.812	48618.85
716.156	48474.45
716.499	48446.88
716.843	48468.34
717.186	48282.59
717.53	48389.7
717.873	48337.73
718.216	48324.85
718.559	48073.55
718.902	47745.65
719.246	47927.12
719.589	47670.17
719.932	47664.07
720.275	47742.26
720.617	47569.16
720.96	47453.91
721.303	47510.4
721.646	47479.9
721.989	47264.99
722.331	47411.65
722.674	47217.53
723.016	47150.86
723.359	47097.53
723.701	47074.93
724.044	46723.76
724.386	46719.69
724.729	46857.31
725.071	46630.88
725.413	46784.77
725.755	46564.89
726.097	46285.12
726.439	46197.22
726.782	46148.41
727.124	46368.74
727.465	46169.87
727.807	45968.52
728.149	46079.48
728.491	45807.17
728.833	45886.27
729.175	45803.78
729.516	45679.27
729.858	45668.19
730.199	45735.99
730.541	45485.6
730.882	45473.17
731.224	45475.65
731.565	45328.09
731.906	45267.52
732.248	45333.74
732.589	45115.89
732.93	45100.75
733.271	45089
733.612	44973.75
733.953	44949.79
734.294	44861.43
734.635	44710.7
734.976	44861.43
735.317	44623.02
735.658	44471.61
735.999	44473.65
736.339	44380.77
736.68	44486.08
737.021	44324.27
737.361	44077.27
737.702	44209.47
738.042	44189.81
738.383	44092.64
738.723	43978.52
739.063	43828.24
739.404	43901.68
739.744	43890.39
740.084	43663.72
740.424	43793.66
740.764	43683.16
741.104	43801.57
741.444	43427.12
741.784	43406.56
742.124	43481.81
742.464	43355.94
742.804	43325.65
743.143	43267.58
743.483	43169.05
743.823	42892.45
744.162	42869.4
744.502	42882.73
744.841	42718.66
745.181	42834.59
745.52	42677.08
745.86	42654.71
746.199	42654.71
746.538	42555.28
746.877	42499.46
747.216	42448.16
747.556	42279.13
747.895	42463.53
748.234	42182.18
748.573	42072.13
748.911	42028.29
749.25	41894.96
749.589	41756.43
749.928	41887.05
750.267	41825.81
750.605	41640.5
750.944	41576.1
751.283	41352.37
751.621	41475.08
751.96	41100.18
752.298	41290.45
752.636	41147.41
752.975	41013.62
753.313	40822.67
