Data from breadboard_white_FLMS001491_00016.txt Node
Date: Wed Feb 08 10:47:21 GMT 2017
User: dcchb
Spectrometer: FLMS00149
Trigger mode: 0
Integration Time (sec): 2.000000E-2
Scans to average: 10
Electric dark correction enabled: true
Nonlinearity correction enabled: false
Boxcar width: 0
XAxis mode: Wavelengths
Number of Pixels in Spectrum: 2048
>>>>>Begin Spectral Data<<<<<
341.393	-24.72
341.776	-24.72
342.16	-24.72
342.543	-50.7
342.927	-56.81
343.31	-56.58
343.693	-65.85
344.077	-47.09
344.46	-55.45
344.843	-42.57
345.226	-39.18
345.61	-35.11
345.993	-16.36
346.376	-15
346.759	-7.99
347.142	35.85
347.525	46.24
347.908	48.5
348.291	73.36
348.674	72.46
349.057	104.77
349.44	122.85
349.823	148.16
350.206	183.64
350.588	222.06
350.971	222.06
351.354	237.2
351.737	264.99
352.119	266.8
352.502	282.17
352.884	297.53
353.267	293.01
353.65	316.97
354.032	333.47
354.414	306.35
354.797	331.43
355.179	350.19
355.562	344.99
355.944	349.96
356.326	357.87
356.709	356.52
357.091	347.02
357.473	367.59
357.855	374.82
358.238	355.39
358.62	366.69
359.002	362.17
359.384	363.07
359.766	382.5
360.148	385.89
360.53	360.13
360.912	359
361.294	354.71
361.676	361.94
362.057	356.52
362.439	348.15
362.821	364.88
363.203	376.4
363.584	361.94
363.966	356.74
364.348	365.1
364.729	357.87
365.111	357.19
365.493	352.67
365.874	353.58
366.256	357.65
366.637	345.89
367.019	353.35
367.4	330.3
367.781	344.76
368.163	357.87
368.544	352.67
368.925	360.81
369.306	348.38
369.688	337.08
370.069	344.76
370.45	376.63
370.831	374.37
371.212	377.08
371.593	354.71
371.974	352.67
372.355	366.46
372.736	362.84
373.117	374.14
373.498	366.46
373.879	362.62
374.26	370.75
374.641	377.31
375.021	343.86
375.402	378.44
375.783	379.79
376.163	403.75
376.544	388.61
376.925	380.7
377.305	383.41
377.686	377.31
378.066	392.45
378.447	390.19
378.827	424.08
379.208	384.31
379.588	372.11
379.968	418.21
380.349	401.26
380.729	406.91
381.109	394.93
381.489	411.43
381.87	395.84
382.25	435.84
382.63	428.15
383.01	438.32
383.39	442.62
383.77	433.8
384.15	439.9
384.53	438.1
384.91	422.73
385.29	455.95
385.67	442.39
386.049	464.99
386.429	456.4
386.809	481.71
387.189	439.45
387.568	468.15
387.948	463.63
388.328	483.97
388.707	488.72
389.087	476.74
389.466	502.27
389.846	530.75
390.225	519
390.605	513.57
390.984	517.87
391.363	528.71
391.743	551.77
392.122	527.13
392.501	542.05
392.881	554.48
393.26	574.14
393.639	575.49
394.018	585.89
394.397	581.82
394.776	573.01
395.155	605.1
395.534	600.35
395.913	604.65
396.292	602.39
396.671	619.79
397.05	650.52
397.429	626.79
397.808	664.98
398.186	647.58
398.565	667.69
398.944	671.54
399.323	683.51
399.701	678.09
400.08	709.28
400.458	709.73
400.837	711.53
401.215	726.22
401.594	750.63
401.972	753.34
402.351	763.06
402.729	777.75
403.107	799.67
403.486	808.26
403.864	833.34
404.242	834.7
404.62	877.63
404.999	851.87
405.377	852.55
405.755	874.02
406.133	904.3
406.511	932.09
406.889	954.69
407.267	953.34
407.645	971.87
408.023	980.68
408.401	1013.45
408.779	1005.09
409.156	1056.16
409.534	1062.71
409.912	1085.31
410.29	1118.3
410.667	1144.97
411.045	1173.22
411.422	1177.96
411.8	1192.2
412.178	1220.22
412.555	1244.85
412.933	1228.58
413.31	1269.49
413.687	1335.25
414.065	1344.51
414.442	1373.44
414.819	1381.12
415.197	1374.57
415.574	1418.86
415.951	1433.55
416.328	1472.19
416.705	1476.94
417.082	1485.3
417.46	1522.59
417.837	1532.98
418.214	1562.59
418.591	1573.89
418.967	1593.55
419.344	1651.17
419.721	1645.52
420.098	1656.59
420.475	1683.49
420.852	1698.85
421.228	1740.66
421.605	1723.71
421.982	1771.62
422.358	1800.32
422.735	1838.96
423.111	1821.11
423.488	1865.4
423.864	1897.49
424.241	1894.1
424.617	1913.99
424.994	1916.48
425.37	1961.22
425.746	2019.52
426.123	2022.91
426.499	2042.35
426.875	2029.92
427.251	2121.44
427.627	2131.38
428.003	2149.24
428.379	2203.47
428.756	2241.89
429.132	2265.17
429.507	2304.04
429.883	2321.21
430.259	2322.57
430.635	2361.89
431.011	2406.18
431.387	2472.39
431.763	2496.12
432.138	2525.27
432.514	2611.6
432.89	2568.66
433.265	2614.99
433.641	2669.9
434.016	2719.17
434.392	2731.37
434.767	2830.8
435.143	2804.81
435.518	2821.54
435.894	2900.63
436.269	2908.77
436.644	2979.95
437.02	3010.68
437.395	3026.5
437.77	3057.24
438.145	3090.23
438.52	3121.19
438.895	3166.84
439.271	3157.8
439.646	3256.1
440.021	3314.63
440.395	3333.84
440.77	3273.95
441.145	3336.1
441.52	3396.66
441.895	3402.31
442.27	3431.24
442.645	3447.73
443.019	3486.83
443.394	3516.88
443.769	3497
444.143	3541.74
444.518	3604.79
444.892	3527.28
445.267	3620.39
445.641	3644.34
446.016	3677.56
446.39	3732.25
446.764	3754.17
447.139	3713.49
447.513	3797.1
447.887	3812.02
448.262	3809.53
448.636	3857.21
449.01	3943.99
449.384	3953.48
449.758	3994.84
450.132	4049.07
450.506	4061.05
450.88	4065.35
451.254	4086.14
451.628	4164.55
452.002	4198.67
452.376	4241.39
452.75	4311.89
453.123	4353.7
453.497	4348.28
453.871	4426.69
454.244	4493.13
454.618	4545.11
454.992	4635.27
455.365	4585.33
455.739	4754.82
456.112	4790.75
456.486	4845.21
456.859	4919.56
457.232	4978.32
457.606	4972.21
457.979	5040.91
458.352	5195.03
458.725	5254.92
459.099	5249.95
459.472	5344.86
459.845	5398.64
460.218	5501.69
460.591	5508.24
460.964	5555.02
461.337	5682.93
461.71	5813.77
462.083	5860.55
462.456	5873.43
462.829	5917.27
463.201	6029.36
463.574	6036.82
463.947	6134.9
464.32	6252.86
464.692	6322.91
465.065	6396.36
465.438	6472.51
465.81	6566.52
466.183	6601.55
466.555	6742.56
466.928	6766.97
467.3	6827.08
467.672	6943.69
468.045	7124.7
468.417	7145.49
468.789	7191.82
469.161	7276.11
469.534	7491.24
469.906	7632.71
470.278	7677.45
470.65	7802.87
471.022	7988.86
471.394	8071.34
471.766	8143.66
472.138	8300.04
472.51	8390.43
472.882	8555.17
473.253	8618.22
473.625	8759.46
473.997	8916.74
474.369	9015.27
474.74	9095.04
475.112	9305.21
475.484	9384.53
475.855	9633.11
476.227	9728.25
476.598	10003.49
476.97	10069.26
477.341	10286.65
477.713	10349.47
478.084	10536.81
478.455	10816.35
478.827	10854.09
479.198	11310.35
479.569	11207.98
479.94	11491.14
480.311	11723.22
480.682	11942.2
481.053	12188.3
481.424	12345.35
481.795	12529.08
482.166	12692.91
482.537	12852.68
482.908	13123.86
483.279	13384.65
483.65	13570.18
484.021	13806.78
484.391	13950.28
484.762	14178.3
485.133	14320.44
485.503	14476.14
485.874	14807.44
486.244	14938.05
486.615	15193.19
486.985	15377.82
487.356	15671.14
487.726	15806.73
488.097	16219.83
488.467	16157.91
488.837	16547.05
489.207	16743.66
489.578	16985.46
489.948	17070.43
490.318	17452.79
490.688	17516.52
491.058	17821.82
491.428	18029.05
491.798	18201.24
492.168	18502.03
492.538	18609.82
492.908	18841.68
493.278	19087.55
493.648	19163.03
494.017	19340.88
494.387	19541.77
494.757	19728.44
495.126	19937.92
495.496	20026.96
495.866	20147.41
496.235	20407.06
496.605	20556.66
496.974	20735.19
497.344	20911.46
497.713	21090.89
498.082	21167.72
498.452	21450.65
498.821	21655.39
499.19	21811.55
499.559	21903.52
499.928	22083.4
500.298	22176.51
500.667	22366.78
501.036	22327.46
501.405	22686.1
501.774	22638.42
502.143	22920.67
502.512	23079.99
502.88	23192.98
503.249	23325.4
503.618	23532.18
503.987	23586.64
504.356	23850.59
504.724	23904.82
505.093	24020.75
505.462	24223.01
505.83	24422.78
506.199	24529.89
506.567	24822.77
506.936	24770.34
507.304	25128.07
507.672	25112.93
508.041	25436.53
508.409	25683.08
508.777	25748.39
509.145	26032.23
509.514	26027.03
509.882	26243.74
510.25	26350.63
510.618	26520.57
510.986	26715.15
511.354	26954.01
511.722	27231.52
512.09	27436.48
512.458	27399.42
512.826	27757.15
513.193	27902.23
513.561	28024.04
513.929	28277.59
514.297	28508.32
514.664	28738.59
515.032	28798.25
515.4	28999.15
515.767	29279.6
516.135	29380.39
516.502	29257
516.869	29728.85
517.237	29888.85
517.604	29984.66
517.972	30355.28
518.339	30599.11
518.706	30632.33
519.073	30877.3
519.44	31043.62
519.808	31483.83
520.175	31386.66
520.542	31788.68
520.909	31983.26
521.276	32029.58
521.643	32517.03
522.009	32678.15
522.376	32929.67
522.743	33153.85
523.11	33458.47
523.477	33883.77
523.843	33967.84
524.21	34280.6
524.577	34435.85
524.943	34658.89
525.31	34791.32
525.676	35177.3
526.043	35462.03
526.409	35718.07
526.776	35980.44
527.142	36139.08
527.508	36359.41
527.874	36596.02
528.241	36833.3
528.607	36882.34
528.973	37325.49
529.339	37308.09
529.705	37702.2
530.071	37920.95
530.437	38132.47
530.803	38379.47
531.169	38449.75
531.535	38596.41
531.901	38728.84
532.267	38934.94
532.632	39239.79
532.998	39380.12
533.364	39531.08
533.73	39706.22
534.095	40019.65
534.461	40056.49
534.826	40255.13
535.192	40510.94
535.557	40684.5
535.923	40716.13
536.288	40923.13
536.653	41100.3
537.019	41055.56
537.384	41303.46
537.749	41558.6
538.114	41561.99
538.479	41747.97
538.845	41983.22
539.21	41844.69
539.575	42068.64
539.94	42261.85
540.305	42498.46
540.67	42415.3
541.034	42594.05
541.399	42776.19
541.764	42932.57
542.129	43062.29
542.494	43097.31
542.858	43209.4
543.223	43338.44
543.587	43720.12
543.952	43629.5
544.316	43916.95
544.681	43849.61
545.045	44053.9
545.41	44306.77
545.774	44418.18
546.138	44351.52
546.503	44561.68
546.867	44562.13
547.231	44976.13
547.595	44905.63
547.959	45085.51
548.324	45120.76
548.688	45303.58
549.052	45452.73
549.416	45580.86
549.779	45539.73
550.143	45710.8
550.507	45943.34
550.871	46004.36
551.235	46146.05
551.599	46317.34
551.962	46513.72
552.326	46672.13
552.689	46901.05
553.053	46673.04
553.417	46871.68
553.78	47292.68
554.143	47120.26
554.507	47318.9
554.87	47529.74
555.234	47967.92
555.597	47696.29
555.96	47912.78
556.323	48137.41
556.686	48214.47
557.05	48614
557.413	48601.58
557.776	48698.52
558.139	48928.8
558.502	49000.66
558.865	49136.7
559.228	49411.5
559.59	49563.13
559.953	49646.97
560.316	50004.02
560.679	50002.89
561.041	50110.91
561.404	50249.22
561.767	50545.25
562.129	50452.6
562.492	50676.77
562.854	50811.46
563.217	50756.77
563.579	50982.53
563.941	51155.86
564.304	51279.47
564.666	51522.4
565.028	51580.25
565.39	51741.83
565.753	51867.93
566.115	51978.44
566.477	52087.59
566.839	52246
567.201	52428.82
567.563	52442.15
567.925	52614.13
568.287	52732.09
568.648	52669.26
569.01	52852.99
569.372	53073.1
569.734	52990.16
570.095	53251.85
570.457	53301.56
570.819	53406.42
571.18	53378.4
571.542	53578.85
571.903	53633.31
572.265	53723.02
572.626	53823.81
572.987	53885.05
573.349	53966.41
573.71	54139.73
574.071	54219.96
574.432	54251.14
574.794	54388.77
575.155	54391.03
575.516	54321.42
575.877	54399.16
576.238	54518.26
576.599	54662.21
576.96	54681.19
577.32	54649.1
577.681	54796.67
578.042	54869.66
578.403	54776.1
578.763	54898.81
579.124	54896.55
579.485	55037.79
579.845	55046.15
580.206	54935.65
580.566	55056.09
580.927	55058.35
581.287	55186.49
581.648	55095.87
582.008	55292.02
582.368	55150.56
582.728	55184.9
583.089	55125.02
583.449	55136.77
583.809	55207.5
584.169	55280.5
584.529	55180.39
584.889	55392.36
585.249	55185.13
585.609	55233.49
585.969	55343.54
586.329	55201.63
586.688	55282.08
587.048	55252.02
587.408	55235.98
587.768	55203.89
588.127	55219.48
588.487	55153.95
588.846	55353.04
589.206	55191.23
589.565	55207.96
589.925	55320.04
590.284	55212.7
590.643	55250.89
591.003	55409.31
591.362	55442.75
591.721	55350.78
592.08	55296.99
592.44	55385.8
592.799	55330.44
593.158	55321.4
593.517	55324.79
593.876	55377.89
594.235	55333.83
594.593	55374.96
594.952	55405.69
595.311	55315.97
595.67	55406.37
596.029	55555.06
596.387	55480.26
596.746	55520.72
597.104	55494.73
597.463	55435.52
597.822	55589.87
598.18	55519.13
598.538	55489.98
598.897	55647.49
599.255	55477.33
599.613	55762.52
599.972	55650.66
600.33	55640.94
600.688	55490.89
601.046	55637.77
601.404	55722.29
601.762	55663.08
602.12	55867.6
602.478	55827.6
602.836	55887.03
603.194	55755.06
603.552	55881.61
603.91	55735.62
604.268	55855.4
604.625	55799.58
604.983	55901.95
605.341	55784.21
605.698	55949.63
606.056	55978.1
606.413	55937.65
606.771	56014.04
607.128	56050.64
607.485	55988.5
607.843	55981.27
608.2	56161.6
608.557	56195.05
608.914	56146.91
609.272	56303.07
609.629	56274.14
609.986	56337.19
610.343	56285.44
610.7	56446.11
611.057	56319.79
611.414	56327.7
611.771	56384.42
612.127	56436.4
612.484	56453.35
612.841	56461.71
613.198	56397.75
613.554	56448.6
613.911	56559.56
614.267	56544.19
614.624	56501.25
614.98	56525.66
615.337	56653.57
615.693	56630.97
616.05	56605.21
616.406	56757.29
616.762	56615.6
617.118	56670.06
617.475	56697.18
617.831	56726.56
618.187	56883.84
618.543	56807.69
618.899	56898.98
619.255	56834.35
619.611	56814.47
619.967	56887.01
620.323	56882.94
620.678	56896.05
621.034	56757.97
621.39	56830.74
621.746	56795.94
622.101	57068.25
622.457	56830.74
622.812	56912.77
623.168	57001.35
623.523	56987.8
623.879	57013.11
624.234	56875.03
624.589	56945.31
624.945	57000.68
625.3	57044.29
625.655	57004.29
626.01	56969.72
626.365	56929.27
626.72	56941.47
627.075	56959.1
627.43	56913.22
627.785	56905.31
628.14	56900.79
628.495	56905.31
628.85	56828.03
629.205	56728.59
629.559	56887.23
629.914	56709.16
630.269	56798.42
630.623	56640.91
630.978	56688.14
631.332	56746.22
631.687	56788.93
632.041	56583.51
632.396	56627.13
632.75	56548.26
633.104	56642.72
633.459	56413.12
633.813	56410.41
634.167	56427.13
634.521	56387.13
634.875	56425.32
635.229	56428.04
635.583	56167.93
635.937	56215.84
636.291	56262.16
636.645	56156.18
636.999	56184.2
637.352	56169.74
637.706	56056.75
638.06	56111.21
638.413	56085.67
638.767	55988.27
639.121	56090.87
639.474	55896.98
639.828	55830.54
640.181	55896.98
640.534	55839.12
640.888	55830.76
641.241	55700.37
641.594	55818.56
641.947	55825.34
642.301	55685.91
642.654	55783.31
643.007	55740.82
643.36	55661.28
643.713	55614.5
644.066	55640.94
644.419	55474.16
644.771	55361.62
645.124	55107.39
645.477	55033.04
645.83	54905.82
646.182	54711.25
646.535	54496.34
646.888	54585.15
647.24	54457.92
647.593	54631.25
647.945	54499.73
648.298	54334.31
648.65	54347.19
649.002	54311.26
649.355	54320.52
649.707	54307.19
650.059	54454.98
650.411	54746.95
650.763	54798.02
651.115	55045.02
651.467	55010.67
651.819	54926.38
652.171	54799.83
652.523	54808.19
652.875	54755.76
653.227	54663.79
653.578	54847.51
653.93	54778.81
654.282	54615.2
654.633	54551.93
654.985	54660.4
655.337	54673.96
655.688	54635.31
656.039	54653.62
656.391	54464.7
656.742	54542.66
657.094	54397.81
657.445	54560.51
657.796	54459.05
658.147	54398.26
658.498	54395.32
658.849	54447.07
659.2	54336.79
659.551	54271.03
659.902	54376.11
660.253	54354.64
660.604	54374.76
660.955	54197.36
661.306	54348.77
661.656	54225.83
662.007	54281.2
662.358	54202.78
662.708	54190.58
663.059	54066.74
663.409	53959.4
663.76	54164.82
664.11	54036.91
664.461	54093.86
664.811	54092.5
665.161	54049.57
665.511	53984.94
665.862	53972.28
666.212	54021.32
666.562	54013.18
666.912	53977.25
667.262	53923.92
667.612	53885.96
667.962	53925.05
668.312	53975.22
668.662	54005.95
669.011	53968.21
669.361	53924.15
669.711	53853.19
670.06	53795.11
670.41	53740.88
670.76	53719.41
671.109	53770.93
671.459	53669.92
671.808	53670.82
672.157	53756.92
672.507	53521.67
672.856	53493.2
673.205	53543.82
673.554	53537.94
673.904	53456.81
674.253	53608.68
674.602	53492.75
674.951	53068.58
675.3	52863.84
675.649	53367.33
675.998	53321.23
676.346	53412.07
676.695	53437.83
677.044	53188.12
677.393	53366.65
677.741	53315.12
678.09	53269.7
678.438	53181.79
678.787	53156.26
679.135	53161.46
679.484	53118.74
679.832	53050.27
680.181	52963.04
680.529	53041.23
680.877	52899.09
681.225	52870.84
681.573	53008.46
681.922	52804.63
682.27	52649.38
682.618	52786.78
682.966	52672.88
683.314	52794.69
683.661	52542.26
684.009	52493
684.357	52432.43
684.705	52257.75
685.053	52366.67
685.4	52241.48
685.748	52074.25
686.095	52187.92
686.443	52029.96
686.79	52066.12
687.138	51999.68
687.485	51942.73
687.832	51843.07
688.18	51917.87
688.527	51728.95
688.874	51697.99
689.221	51576.64
689.568	51516.3
689.915	51396.08
690.262	51375.97
690.609	51243.09
690.956	51163.99
691.303	51068.85
691.65	50938.24
691.997	51013.49
692.344	50635.19
692.69	50549.32
693.037	50655.53
693.383	50450.57
693.73	50580.05
694.077	50276.11
694.423	50253.51
694.769	50196.79
695.116	50100.29
695.462	49981.2
695.808	49919.51
696.155	49901.88
696.501	49683.58
696.847	49707.99
697.193	49376.02
697.539	49491.95
697.885	49177.38
698.231	49140.09
698.577	49109.36
698.923	48961.57
699.269	48906.43
699.614	48625.08
699.96	48672.31
700.306	48734.68
700.651	48444.29
700.997	48410.62
701.342	48376.95
701.688	48128.14
702.033	48012.66
702.379	48046.11
702.724	47984.19
703.069	48012.44
703.415	47586.69
703.76	47669.62
704.105	47483.64
704.45	47426.46
704.795	47149.64
705.14	47153.48
705.485	47074.38
705.83	46823.09
706.175	46863.09
706.52	46819.25
706.865	46542.87
707.209	46561.18
707.554	46333.16
707.899	46422.2
708.243	46224.69
708.588	46280.73
708.932	45903.57
709.277	46058.14
709.621	46003.9
709.966	45668.77
710.31	45831.7
710.654	45344.49
710.998	45381.55
711.342	45412.05
711.687	45320.31
712.031	45110.37
712.375	45066.98
712.719	45082.8
713.063	45055.91
713.407	45127.09
713.75	44782.24
714.094	44702.69
714.438	44531.63
714.782	44537.95
715.125	44456.83
715.469	44505.86
715.812	44299.09
716.156	44082.37
716.499	43964.18
716.843	44100.68
717.186	43814.58
717.53	44011.64
717.873	44016.39
718.216	43810.74
718.559	43479.22
718.902	43465.21
719.246	43388.38
719.589	43403.52
719.932	43149.29
720.275	43232
720.617	43236.07
720.96	42964.21
721.303	43043.76
721.646	43063.42
721.989	42722.63
722.331	42911.56
722.674	42743.2
723.016	42683.99
723.359	42576.65
723.701	42676.53
724.044	42293.27
724.386	42165.13
724.729	42302.31
725.071	42326.49
725.413	42117.45
725.755	41957
726.097	41996.1
726.439	41704.36
726.782	41780.74
727.124	41813.28
727.465	41550.46
727.807	41677.01
728.149	41483.8
728.491	41380.75
728.833	41316.12
729.175	41211.04
729.516	41007.88
729.858	41164.71
730.199	41256.91
730.541	41211.26
730.882	40925.84
731.224	41083.81
731.565	40742.12
731.906	40819.86
732.248	40731.95
732.589	40507.1
732.93	40434.33
733.271	40466.65
733.612	40473.88
733.953	40534.89
734.294	40325.18
734.635	40089.93
734.976	40169.93
735.317	39951.63
735.658	39988.02
735.999	39951.18
736.339	39777.17
736.68	39751.41
737.021	39647.69
737.361	39532.44
737.702	39821.47
738.042	39699.21
738.383	39454.47
738.723	39541.02
739.063	39358.43
739.404	39448.6
739.744	39283.18
740.084	39125.67
740.424	39237.75
740.764	39167.25
741.104	39232.1
741.444	38901.72
741.784	38896.52
742.124	38941.49
742.464	38754.83
742.804	38755.73
743.143	38708.28
743.483	38497.89
743.823	38351.45
744.162	38381.5
744.502	38401.84
744.841	38388.74
745.181	38353.71
745.52	38205.46
745.86	38183.09
746.199	38076.88
746.538	37911.23
746.877	38200.49
747.216	38126.14
747.556	37765.7
747.895	37880.28
748.234	37608.64
748.573	37581.98
748.911	37418.37
749.25	37465.14
749.589	37328.65
749.928	37398.25
750.267	37370.91
750.605	37265.83
750.944	37068.55
751.283	36913.97
751.621	37161.42
751.96	36843.47
752.298	36756.69
752.636	36819.06
