Data from breadboard_black_back_FLMS001491_00039.txt Node
Date: Wed Feb 08 10:50:19 GMT 2017
User: dcchb
Spectrometer: FLMS00149
Trigger mode: 0
Integration Time (sec): 2.000000E-2
Scans to average: 10
Electric dark correction enabled: true
Nonlinearity correction enabled: false
Boxcar width: 0
XAxis mode: Wavelengths
Number of Pixels in Spectrum: 2048
>>>>>Begin Spectral Data<<<<<
341.393	-28.95
341.776	-28.95
342.16	-28.95
342.543	-59.69
342.927	-92.46
343.31	-74.6
343.693	-76.64
344.077	-52.68
344.46	-84.09
344.843	-75.73
345.226	-30.76
345.61	-18.33
345.993	-21.04
346.376	6.07
346.759	20.08
347.142	42.68
347.525	32.97
347.908	56.24
348.291	62.57
348.674	91.95
349.057	121.32
349.44	116.13
349.823	128.78
350.206	172.85
350.588	206.97
350.971	210.81
351.354	246.74
351.737	247.87
352.119	276.12
352.502	275.9
352.884	275.9
353.267	293.98
353.65	309.57
354.032	296.46
354.414	322
354.797	310.92
355.179	337.36
355.562	332.39
355.944	331.71
356.326	320.64
356.709	356.35
357.091	344.37
357.473	378.94
357.855	338.49
358.238	356.12
358.62	350.47
359.002	346.4
359.384	364.26
359.766	345.27
360.148	347.08
360.53	355.22
360.912	339.85
361.294	323.35
361.676	366.52
362.057	346.18
362.439	353.41
362.821	339.62
363.203	346.86
363.584	354.31
363.966	356.8
364.348	334.65
364.729	344.14
365.111	336.46
365.493	353.18
365.874	349.57
366.256	333.07
366.637	343.24
367.019	337.36
367.4	349.79
367.781	351.37
368.163	326.29
368.544	316.35
368.925	330.58
369.306	347.31
369.688	333.97
370.069	354.99
370.45	359.51
370.831	343.47
371.212	351.15
371.593	338.04
371.974	345.95
372.355	362.22
372.736	345.95
373.117	366.97
373.498	371.71
373.879	348.66
374.26	339.17
374.641	364.71
375.021	355.44
375.402	355.44
375.783	365.84
376.163	369.91
376.544	365.61
376.925	380.75
377.305	383.92
377.686	353.86
378.066	376.69
378.447	386.63
378.827	376.23
379.208	383.01
379.588	375.56
379.968	396.35
380.349	387.31
380.729	400.87
381.109	386.4
381.489	396.8
381.87	392.05
382.25	393.41
382.63	410.81
383.01	419.85
383.39	426.85
383.77	404.25
384.15	449.68
384.53	420.53
384.91	415.78
385.29	423.69
385.67	425.5
386.049	431.37
386.429	432.73
386.809	428.66
387.189	427.98
387.568	436.8
387.948	441.99
388.328	460.98
388.707	454.2
389.087	463.01
389.466	452.62
389.846	486.96
390.225	452.39
390.605	489
390.984	479.73
391.363	482.22
391.743	477.02
392.122	482.22
392.501	499.17
392.881	504.59
393.26	497.13
393.639	536.45
394.018	513.18
394.397	521.99
394.776	515.89
395.155	506.85
395.534	503.91
395.913	541.65
396.292	531.48
396.671	524.48
397.05	512.95
397.429	527.87
397.808	537.81
398.186	543.69
398.565	553.18
398.944	543.23
399.323	563.8
399.701	579.17
400.08	600.63
400.458	578.94
400.837	562.67
401.215	586.4
401.594	599.96
401.972	567.64
402.351	604.48
402.729	601.76
403.107	614.19
403.486	608.09
403.864	613.51
404.242	626.62
404.62	620.52
404.999	635.89
405.377	635.44
405.755	631.14
406.133	654.42
406.511	657.36
406.889	683.57
407.267	656.45
407.645	669.78
408.023	705.04
408.401	713.85
408.779	705.49
409.156	703.68
409.534	705.49
409.912	711.37
410.29	737.81
410.667	747.75
411.045	738.71
411.422	742.78
411.8	764.02
412.178	756.34
412.555	784.13
412.933	780.06
413.31	792.27
413.687	817.13
414.065	819.84
414.442	823.23
414.819	830.68
415.197	854.86
415.574	865.94
415.951	860.06
416.328	856.9
416.705	886.5
417.082	898.71
417.46	905.94
417.837	903
418.214	891.47
418.591	919.27
418.967	930.57
419.344	943.22
419.721	943.45
420.098	947.97
420.475	971.02
420.852	964.92
421.228	968.08
421.605	974.86
421.982	998.59
422.358	997.23
422.735	1015.54
423.111	986.84
423.488	1027.29
423.864	1041.75
424.241	1053.28
424.617	1047.18
424.994	1092.37
425.37	1074.29
425.746	1082.43
426.123	1109.1
426.499	1119.26
426.875	1116.78
427.251	1152.26
427.627	1147.96
428.003	1155.2
428.379	1182.77
428.756	1197.23
429.132	1220.28
429.507	1239.26
429.883	1228.41
430.259	1269.09
430.635	1261.86
431.011	1251.69
431.387	1305.93
431.763	1318.36
432.138	1311.35
432.514	1344.34
432.89	1361.52
433.265	1376.88
433.641	1399.71
434.016	1409.43
434.392	1439.26
434.767	1471.12
435.143	1455.53
435.518	1463.89
435.894	1476.54
436.269	1493.49
436.644	1528.52
437.02	1531.91
437.395	1526.49
437.77	1570.78
438.145	1570.78
438.52	1596.54
438.895	1603.77
439.271	1580.95
439.646	1648.29
440.021	1672.02
440.395	1687.39
440.77	1674.28
441.145	1694.39
441.52	1719.47
441.895	1712.92
442.27	1746.59
442.645	1740.26
443.019	1753.82
443.394	1756.08
443.769	1774.84
444.143	1794.95
444.518	1836.53
444.892	1799.47
445.267	1836.76
445.641	1829.75
446.016	1813.26
446.39	1841.96
446.764	1900.26
447.139	1870.88
447.513	1905.01
447.887	1904.1
448.262	1900.26
448.636	1909.98
449.01	1963.76
449.384	1989.07
449.758	1974.84
450.132	2008.96
450.506	2026.13
450.88	2010.54
451.254	2066.81
451.628	2071.56
452.002	2105.23
452.376	2114.49
452.75	2097.77
453.123	2148.62
453.497	2185.68
453.871	2203.08
454.244	2252.12
454.618	2240.82
454.992	2283.53
455.365	2325.79
455.739	2347.03
456.112	2370.53
456.486	2416.41
456.859	2372.11
457.232	2441.26
457.606	2456.86
457.979	2475.39
458.352	2542.05
458.725	2566.01
459.099	2605.78
459.472	2645.55
459.845	2622.73
460.218	2685.1
460.591	2714.93
460.964	2713.35
461.337	2790.63
461.71	2816.17
462.083	2877.86
462.456	2857.52
462.829	2871.53
463.201	2949.72
463.574	2960.57
463.947	3007.12
464.32	3102.72
464.692	3083.73
465.065	3100.46
465.438	3170.51
465.81	3148.36
466.183	3263.16
466.555	3295.48
466.928	3308.81
467.3	3316.95
467.672	3407.11
468.045	3452.08
468.417	3443.5
468.789	3469.26
469.161	3538.41
469.534	3622.48
469.906	3689.59
470.278	3713.09
470.65	3752.42
471.022	3815.01
471.394	3883.49
471.766	3943.6
472.138	3937.27
472.51	4044.61
472.882	4074.89
473.253	4166.19
473.625	4243.25
473.997	4269.01
474.369	4292.97
474.74	4348.33
475.112	4443.92
475.484	4531.15
475.855	4660.87
476.227	4632.39
476.598	4778.38
476.97	4796.68
477.341	4887.75
477.713	4993.96
478.084	5060.18
478.455	5132.49
478.827	5244.13
479.198	5361.64
479.569	5365.48
479.94	5481.64
480.311	5549.66
480.682	5686.6
481.053	5822.19
481.424	5908.97
481.795	5961.4
482.166	6039.59
482.537	6116.42
482.908	6226.7
483.279	6292.46
483.65	6449.75
484.021	6539.91
484.391	6597.99
484.762	6681.15
485.133	6781.26
485.503	6893.58
485.874	7027.81
486.244	7092.44
486.615	7197.07
486.985	7306.9
487.356	7448.59
487.726	7468.7
488.097	7652.2
488.467	7715.25
488.837	7875.92
489.207	7906.66
489.578	8020.33
489.948	8081.79
490.318	8159.98
490.688	8264.84
491.058	8384.16
491.428	8505.06
491.798	8591.84
492.168	8759.29
492.538	8795.45
492.908	8899.85
493.278	8996.57
493.648	9052.16
494.017	9188.66
494.387	9304.59
494.757	9357.01
495.126	9420.29
495.496	9406.96
495.866	9587.29
496.235	9673.16
496.605	9688.98
496.974	9820.5
497.344	9891.01
497.713	9975.08
498.082	10033.15
498.452	10128.97
498.821	10184.79
499.19	10217.33
499.559	10338.23
499.928	10442.18
500.298	10547.27
500.667	10524.89
501.036	10576.87
501.405	10712.23
501.774	10774.6
502.143	10876.75
502.512	10954.26
502.88	11047.36
503.249	11052.34
503.618	11117.87
503.987	11230.41
504.356	11262.5
504.724	11326.91
505.093	11373.91
505.462	11423.17
505.83	11528.48
506.199	11694.58
506.567	11893.44
506.936	11801.47
507.304	11982.03
507.672	12017.51
508.041	12038.98
508.409	12174.34
508.777	12314
509.145	12315.81
509.514	12392.19
509.882	12460.21
510.25	12598.51
510.618	12608.45
510.986	12672.63
511.354	12833.53
511.722	12994.66
512.09	13090.93
512.458	13090.02
512.826	13167.99
513.193	13280.53
513.561	13321.2
513.929	13410.47
514.297	13573.4
514.664	13684.58
515.032	13733.62
515.4	13908.98
515.767	13969.77
516.135	13933.16
516.502	14044.35
516.869	14258.35
517.237	14333.61
517.604	14260.61
517.972	14485.92
518.339	14499.93
518.706	14630.1
519.073	14681.85
519.44	14838.23
519.808	14986.7
520.175	14983.08
520.542	15187.82
520.909	15440.92
521.276	15467.14
521.643	15491.54
522.009	15654.25
522.376	15798.65
522.743	15906.67
523.11	16025.99
523.477	16127.01
523.843	16324.74
524.21	16398.64
524.577	16596.6
524.943	16609.25
525.31	16756.37
525.676	17031.84
526.043	16995.23
526.409	17150.03
526.776	17397.48
527.142	17394.77
527.508	17519.51
527.874	17477.25
528.241	17656.46
528.607	17769.9
528.973	18044.47
529.339	17979.39
529.705	18206.27
530.071	18332.37
530.437	18404.91
530.803	18448.3
531.169	18565.81
531.535	18601.06
531.901	18698.01
532.267	18819.82
532.632	18978.23
532.998	19024.56
533.364	19169.64
533.73	19202.86
534.095	19308.16
534.461	19449.18
534.826	19483.98
535.192	19653.47
535.557	19805.55
535.923	19764.88
536.288	19840.58
536.653	19982.95
537.019	19886.68
537.384	20113.34
537.749	20210.97
538.114	20159.67
538.479	20263.85
538.845	20376.84
539.21	20426.55
539.575	20473.78
539.94	20545.87
540.305	20817.28
540.67	20616.38
541.034	20775.92
541.399	20888.69
541.764	20979.99
542.129	21035.8
542.494	21104.95
542.858	21116.48
543.223	21313.54
543.587	21367.55
543.952	21293.88
544.316	21435.11
544.681	21467.88
545.045	21667.2
545.41	21739.06
545.774	21688.44
546.138	21808.89
546.503	21988.77
546.867	21884.82
547.231	22074.42
547.595	22148.54
547.959	22215.21
548.324	22288.2
548.688	22321.19
549.052	22437.57
549.416	22466.95
549.779	22503.33
550.143	22607.51
550.507	22695.87
550.871	22857
551.235	22844.12
551.599	23002.08
551.962	23066.03
552.326	23173.37
552.689	23322.52
553.053	23181.96
553.417	23305.12
553.78	23660.59
554.143	23614.27
554.507	23698.33
554.87	23715.96
555.234	24007.02
555.597	23886.35
555.96	23887.93
556.323	24113.01
556.686	24168.15
557.05	24332.67
557.413	24448.59
557.776	24422.61
558.139	24648.14
558.502	24685.88
558.865	24810.17
559.228	24916.38
559.59	25016.26
559.953	25112.08
560.316	25287.89
560.679	25361.34
561.041	25440.21
561.404	25594.33
561.767	25665.96
562.129	25710.48
562.492	25948.89
562.854	26003.81
563.217	25981.44
563.579	26090.36
563.941	26236.57
564.304	26462.55
564.666	26545.26
565.028	26627.75
565.39	26737.8
565.753	26887.17
566.115	27029.09
566.477	27077.9
566.839	27157.22
567.201	27295.53
567.563	27375.75
567.925	27639.7
568.287	27659.58
568.648	27677.44
569.01	27887.37
569.372	28070.87
569.734	27876.98
570.095	28159.91
570.457	28189.96
570.819	28372.11
571.18	28336.85
571.542	28440.58
571.903	28577.98
572.265	28659.11
572.626	28778.88
572.987	28781.14
573.349	28760.57
573.71	28982.71
574.071	28995.59
574.432	29075.37
574.794	29401.68
575.155	29313.55
575.516	29217.06
575.877	29295.02
576.238	29444.17
576.599	29618.63
576.96	29525.75
577.32	29575.47
577.681	29650.27
578.042	29852.52
578.403	29842.35
578.763	29772.75
579.124	29960.77
579.485	29940.43
579.845	30049.35
580.206	30001.22
580.566	30003.25
580.927	30151.5
581.287	30239.18
581.648	30058.16
582.008	30280.31
582.368	30187.2
582.728	30273.3
583.089	30284.37
583.449	30277.59
583.809	30289.57
584.169	30240.31
584.529	30327.76
584.889	30501.32
585.249	30433.97
585.609	30270.14
585.969	30465.84
586.329	30314.65
586.688	30372.73
587.048	30401.43
587.408	30273.75
587.768	30359.17
588.127	30321.89
588.487	30312.17
588.846	30530.47
589.206	30319.17
589.565	30395.56
589.925	30571.6
590.284	30418.83
590.643	30515.1
591.003	30688.2
591.362	30686.4
591.721	30570.69
592.08	30651.37
592.44	30653.86
592.799	30641.88
593.158	30656.79
593.517	30546.06
593.876	30695.66
594.235	30588.77
594.593	30725.27
594.952	30692.05
595.311	30646.4
595.67	30525.5
596.029	30953.51
596.387	30824.25
596.746	30958.03
597.104	30781.76
597.463	30718.71
597.822	30973.85
598.18	30843.91
598.538	30797.35
598.897	31063.34
599.255	30788.09
599.613	31083.67
599.972	30937.46
600.33	31108.53
600.688	30927.97
601.046	31042.09
601.404	31207.29
601.762	31009.1
602.12	31250.68
602.478	31089.32
602.836	31192.15
603.194	31044.58
603.552	31181.75
603.91	31133.62
604.268	31311.24
604.625	31221.98
604.983	31313.72
605.341	31186.95
605.698	31412.25
606.056	31351.92
606.413	31345.36
606.771	31551.01
607.128	31651.12
607.485	31406.6
607.843	31533.61
608.2	31767.05
608.557	31764.11
608.914	31746.03
609.272	31821.06
609.629	31823.77
609.986	31988.74
610.343	31799.14
610.7	31984.44
611.057	31912.58
611.414	31825.12
611.771	31960.26
612.127	32157.54
612.484	32055.85
612.841	32213.81
613.198	32035.06
613.554	32088.39
613.911	32252.68
614.267	32130.2
614.624	32203.19
614.98	32289.07
615.337	32479.12
615.693	32297.43
616.05	32403.19
616.406	32527.7
616.762	32502.85
617.118	32369.29
617.475	32415.16
617.831	32515.5
618.187	32505.78
618.543	32679.34
618.899	32762.95
619.255	32629.17
619.611	32677.53
619.967	32657.87
620.323	32779.67
620.678	32597.76
621.034	32647.02
621.39	32529.96
621.746	32579.68
622.101	32950.52
622.457	32730.64
622.812	32591.21
623.168	32909.16
623.523	32760.24
623.879	32992.55
624.234	32663.07
624.589	32908.03
624.945	32831.88
625.3	32853.12
625.655	32814.25
626.01	32828.26
626.365	32929.28
626.72	32795.95
627.075	32840.01
627.43	32783.06
627.785	32868.71
628.14	32693.58
628.495	32798.21
628.85	32821.03
629.205	32583.97
629.559	32827.36
629.914	32643.63
630.269	32555.27
630.623	32554.6
630.978	32532.45
631.332	32715.95
631.687	32695.84
632.041	32587.14
632.396	32578.32
632.75	32328.16
633.104	32543.3
633.459	32288.39
633.813	32369.52
634.167	32348.05
634.521	32380.14
634.875	32397.54
635.229	32258.11
635.583	32073.03
635.937	32017.89
636.291	32054.27
636.645	32070.99
636.999	31841.85
637.352	32119.81
637.706	31821.51
638.06	32125.68
638.413	31977.89
638.767	31895.4
639.121	32016.31
639.474	31736.99
639.828	31776.99
640.181	31751.45
640.534	31755.52
640.888	31739.02
641.241	31437.79
641.594	31583.77
641.947	31784.67
642.301	31556.88
642.654	31495.87
643.007	31483.21
643.36	31488.86
643.713	31353.5
644.066	31438.02
644.419	31288.19
644.771	31221.3
645.124	30839.16
645.477	30761.87
645.83	30549.45
646.182	30378.16
646.535	30368.44
646.888	30323.92
647.24	30198.73
647.593	30238.5
647.945	30269.68
648.298	30015.68
648.65	30098.84
649.002	29937.49
649.355	30069.46
649.707	30051.84
650.059	30151.5
650.411	30518.94
650.763	30553.52
651.115	30970.91
651.467	30741.54
651.819	30724.36
652.171	30635.78
652.523	30591.26
652.875	30516.91
653.227	30499.96
653.578	30630.13
653.93	30450.02
654.282	30417.25
654.633	30295.45
654.985	30532.28
655.337	30391.94
655.688	30474.42
656.039	30472.62
656.391	30140.87
656.742	30333.86
657.094	30370.47
657.445	30480.75
657.796	30302.45
658.147	30129.8
658.498	30228.1
658.849	30236.69
659.2	30264.49
659.551	30134.55
659.902	30204.38
660.253	30172.74
660.604	30144.49
660.955	29988.79
661.306	29979.07
661.656	30079.41
662.007	30110.14
662.358	30089.58
662.708	29961.9
663.059	30003.02
663.409	29843.93
663.76	30089.35
664.11	29981.1
664.461	29960.09
664.811	29954.21
665.161	29942.46
665.511	29836.02
665.862	29936.81
666.212	30045.06
666.562	30034.89
666.912	29892.29
667.262	29767.55
667.612	29856.81
667.962	29929.81
668.312	29796.48
668.662	30003.02
669.011	29836.93
669.361	29724.61
669.711	29742.01
670.06	29815.23
670.41	29633.32
670.76	29717.38
671.109	29726.65
671.459	29632.41
671.808	29616.82
672.157	29567.33
672.507	29564.62
672.856	29484.39
673.205	29491.17
673.554	29487.11
673.904	29429.03
674.253	29537.5
674.602	29452.3
674.951	29105.87
675.3	28991.07
675.649	29397.84
675.998	29251.41
676.346	29413.89
676.695	29437.39
677.044	29188.58
677.393	29205.53
677.741	29271.29
678.09	29205.31
678.438	29209.15
678.787	29138.87
679.135	29226.55
679.484	29047.34
679.832	29074.01
680.181	28821.13
680.529	28889.38
680.877	28970.96
681.225	28808.25
681.573	29047.8
681.922	28814.13
682.27	28713.57
682.618	28835.6
682.966	28715.37
683.314	28737.75
683.661	28670.18
684.009	28440.81
684.357	28460.24
684.705	28446.91
685.053	28456.85
685.4	28318.32
685.748	28331.2
686.095	28182.06
686.443	28034.26
686.79	28074.49
687.138	28165.33
687.485	28153.81
687.832	27992.23
688.18	27937.77
688.527	27780.26
688.874	27871.78
689.221	27787.72
689.568	27653.26
689.915	27680.6
690.262	27688.28
690.609	27549.53
690.956	27439.25
691.303	27638.79
691.65	27296.43
691.997	27235.64
692.344	27182.76
692.69	27106.15
693.037	27091.91
693.383	26904.8
693.73	27003.33
694.077	26863.9
694.423	26795.88
694.769	26859.15
695.116	26653.73
695.462	26648.99
695.808	26497.35
696.155	26613.51
696.501	26432.72
696.847	26389.11
697.193	26103.47
697.539	26333.97
697.885	26081.77
698.231	25936.46
698.577	26084.48
698.923	26121.32
699.269	25746.41
699.614	25745.28
699.96	25695.79
700.306	25636.13
700.651	25548.9
700.997	25508.23
701.342	25497.61
701.688	25429.81
702.033	25312.53
702.379	25337.84
702.724	25224.85
703.069	25293.54
703.415	24944.4
703.76	24995.7
704.105	25094
704.45	24941.24
704.795	24716.16
705.14	24680.45
705.485	24704.18
705.83	24627.12
706.175	24644.97
706.52	24488.37
706.865	24416.05
707.209	24454.47
707.554	24318.43
707.899	24356.62
708.243	24175.16
708.588	24214.25
708.932	24020.58
709.277	24052.67
709.621	24091.32
709.966	23881.83
710.31	23884.99
710.654	23741.04
710.998	23749.86
711.342	23849.06
711.687	23805.45
712.031	23691.78
712.375	23455.17
712.719	23633.93
713.063	23489.07
713.407	23517.32
713.75	23480.48
714.094	23383.31
714.438	23291.79
714.782	23347.15
715.125	23157.1
715.469	23130.21
715.812	23116.43
716.156	22971.57
716.499	23048.86
716.843	22980.84
717.186	22889.99
717.53	23056.31
717.873	22951.01
718.216	22874.62
718.559	22847.51
718.902	22532.26
719.246	22684.57
719.589	22594.63
719.932	22554.41
720.275	22549.44
720.617	22435.99
720.96	22395.77
721.303	22515.09
721.646	22483.22
721.989	22268.09
722.331	22322.32
722.674	22380.85
723.016	22178.37
723.359	22163
723.701	22252.95
724.044	22071.03
724.386	21968.89
724.729	22065.83
725.071	21965.04
725.413	21942.22
725.755	21948.1
726.097	21776.8
726.439	21758.5
726.782	21811.38
727.124	21885.5
727.465	21636.69
727.807	21703.13
728.149	21608.22
728.491	21545.85
728.833	21625.84
729.175	21544.72
729.516	21508.11
729.858	21478.73
730.199	21587.65
730.541	21457.49
730.882	21374.32
731.224	21435.11
731.565	21271.73
731.906	21370.71
732.248	21364.16
732.589	21143.37
732.93	21143.14
733.271	21177.72
733.612	21167.32
733.953	21147.89
734.294	21121.68
734.635	20952.64
734.976	21019.98
735.317	20925.98
735.658	21001.45
735.999	20862.93
736.339	20790.61
736.68	20950.83
737.021	20824.28
737.361	20652.54
737.702	20869.25
738.042	20493.67
738.383	20745.41
738.723	20667.45
739.063	20583.61
739.404	20530.28
739.744	20592.2
740.084	20510.39
740.424	20460
740.764	20440.56
741.104	20419.1
741.444	20348.82
741.784	20227.46
742.124	20375.26
742.464	20320.12
742.804	20339.55
743.143	20187.69
743.483	20228.59
743.823	20134.13
744.162	20112.66
744.502	20208.25
744.841	20074.47
745.181	20136.84
745.52	20016.17
745.86	20177.07
746.199	20013.46
746.538	19874.48
746.877	19975.72
747.216	19925.32
747.556	19914.7
747.895	19900.92
748.234	19731.43
748.573	19747.93
748.911	19756.97
749.25	19646.46
749.589	19556.75
749.928	19688.95
750.267	19567.59
750.605	19502.06
750.944	19557.42
751.283	19448.5
751.621	19427.03
751.96	19295.06
752.298	19298.22
752.636	19232.91
752.975	19135.97
753.313	19147.26
753.651	19125.57
753.989	19078.34
