Data from breadboard_white_FLMS001491_00027.txt Node
Date: Wed Feb 08 10:47:30 GMT 2017
User: dcchb
Spectrometer: FLMS00149
Trigger mode: 0
Integration Time (sec): 2.000000E-2
Scans to average: 10
Electric dark correction enabled: true
Nonlinearity correction enabled: false
Boxcar width: 0
XAxis mode: Wavelengths
Number of Pixels in Spectrum: 2048
>>>>>Begin Spectral Data<<<<<
341.393	-4.15
341.776	-4.15
342.16	-4.15
342.543	-62.91
342.927	-76.24
343.31	-81.66
343.693	-69.46
344.077	-74.66
344.46	-39.86
344.843	-38.5
345.226	-59.52
345.61	-23.59
345.993	-19.75
346.376	6.24
346.759	18.67
347.142	26.58
347.525	45.34
347.908	53.25
348.291	63.64
348.674	88.5
349.057	104.77
349.44	134.83
349.823	135.28
350.206	174.6
350.588	204.2
350.971	240.13
351.354	253.47
351.737	275.84
352.119	291.88
352.502	300.02
352.884	296.4
353.267	319
353.65	323.07
354.032	321.94
354.414	322.62
354.797	361.49
355.179	340.25
355.562	351.54
355.944	358.32
356.326	368.27
356.709	357.19
357.091	371.43
357.473	376.63
357.855	373.69
358.238	383.63
358.62	366.01
359.002	384.09
359.384	366.69
359.766	367.36
360.148	390.87
360.53	385.89
360.912	370.3
361.294	386.8
361.676	366.23
362.057	378.44
362.439	375.95
362.821	378.44
363.203	347.7
363.584	366.91
363.966	354.03
364.348	378.44
364.729	370.3
365.111	365.1
365.493	360.81
365.874	371.88
366.256	377.76
366.637	359
367.019	372.33
367.4	381.15
367.781	352
368.163	364.43
368.544	375.72
368.925	368.27
369.306	391.32
369.688	372.56
370.069	380.02
370.45	378.44
370.831	363.52
371.212	363.97
371.593	353.58
371.974	363.07
372.355	371.2
372.736	390.64
373.117	394.48
373.498	365.56
373.879	377.53
374.26	391.32
374.641	375.72
375.021	341.83
375.402	388.38
375.783	394.03
376.163	399.45
376.544	407.14
376.925	375.27
377.305	405.55
377.686	379.11
378.066	405.1
378.447	434.93
378.827	410.75
379.208	425.44
379.588	455.95
379.968	413.24
380.349	429.96
380.729	420.92
381.109	415.5
381.489	415.72
381.87	419.79
382.25	436.74
382.63	427.7
383.01	439.68
383.39	462.5
383.77	444.2
384.15	443.75
384.53	455.04
384.91	466.34
385.29	457.3
385.67	467.7
386.049	462.05
386.429	485.1
386.809	489.62
387.189	481.48
387.568	487.36
387.948	495.27
388.328	509.28
388.707	509.51
389.087	514.25
389.466	525.78
389.846	512.9
390.225	512.44
390.605	542.05
390.984	544.08
391.363	553.8
391.743	558.32
392.122	549.96
392.501	557.41
392.881	574.82
393.26	579.11
393.639	607.13
394.018	604.42
394.397	576.62
394.776	614.14
395.155	634.93
395.534	616.17
395.913	618.88
396.292	635.38
396.671	656.17
397.05	644.19
397.429	669.5
397.808	659.78
398.186	676.51
398.565	710.63
398.944	720.12
399.323	729.16
399.701	709.05
400.08	742.72
400.458	751.31
400.837	758.54
401.215	765.09
401.594	768.71
401.972	777.97
402.351	805.77
402.729	791.76
403.107	810.74
403.486	835.6
403.864	853.68
404.242	849.61
404.62	868.37
404.999	902.04
405.377	875.15
405.755	929.16
406.133	929.38
406.511	956.27
406.889	972.77
407.267	986.1
407.645	1031.3
408.023	1073.33
408.401	1027.01
408.779	1063.16
409.156	1133.44
409.534	1094.58
409.912	1125.76
410.29	1193.33
410.667	1168.92
411.045	1203.73
411.422	1198.53
411.8	1255.7
412.178	1282.37
412.555	1315.81
412.933	1330.5
413.31	1345.64
413.687	1372.53
414.065	1401.01
414.442	1440.33
414.819	1466.54
415.197	1443.04
415.574	1496.83
415.951	1531.4
416.328	1556.03
416.705	1522.14
417.082	1584.05
417.46	1587.44
417.837	1608.46
418.214	1652.3
418.591	1656.37
418.967	1669.93
419.344	1713.32
419.721	1724.62
420.098	1725.29
420.475	1768.68
420.852	1793.77
421.228	1796.93
421.605	1797.61
421.982	1872.86
422.358	1887.1
422.735	1929.81
423.111	1913.76
423.488	1943.14
423.864	2012.74
424.241	2020.2
424.617	2029.47
424.994	2038.51
425.37	2082.57
425.746	2073.53
426.123	2125.74
426.499	2167.32
426.875	2188.33
427.251	2225.62
427.627	2276.69
428.003	2298.84
428.379	2300.42
428.756	2339.29
429.132	2358.5
429.507	2437.37
429.883	2452.05
430.259	2513.52
430.635	2511.04
431.011	2573.41
431.387	2586.97
431.763	2662.67
432.138	2697.25
432.514	2676.46
432.89	2692.5
433.265	2751.26
433.641	2772.05
434.016	2886.17
434.392	2909.9
434.767	2979.72
435.143	2976.33
435.518	3056.78
435.894	3064.92
436.269	3113.51
436.644	3134.75
437.02	3197.57
437.395	3203.22
437.77	3254.74
438.145	3283.9
438.52	3317.12
438.895	3372.26
439.271	3394.18
439.646	3452.48
440.021	3460.62
440.395	3492.03
440.77	3498.81
441.145	3547.62
441.52	3560.95
441.895	3578.58
442.27	3629.2
442.645	3619.03
443.019	3686.6
443.394	3674.85
443.769	3724.34
444.143	3740.38
444.518	3815.41
444.892	3758.91
445.267	3850.21
445.641	3894.05
446.016	3897.21
446.39	3939.47
446.764	3910.09
447.139	3970.66
447.513	4035.74
447.887	4038.23
448.262	4017.89
448.636	4114.61
449.01	4158.9
449.384	4184.66
449.758	4176.98
450.132	4237.54
450.506	4308.05
450.88	4350.99
451.254	4342.63
451.628	4386.92
452.002	4508.95
452.376	4509.85
452.75	4538.78
453.123	4567.03
453.497	4668.49
453.871	4702.39
454.244	4827.13
454.618	4855.38
454.992	4921.37
455.365	4891.54
455.739	5053.12
456.112	5033.91
456.486	5131.08
456.859	5186.22
457.232	5276.39
457.606	5303.96
457.979	5311.19
458.352	5503.27
458.725	5564.29
459.099	5594.57
459.472	5683.83
459.845	5747.11
460.218	5830.27
460.591	5879.31
460.964	5898.74
461.337	6075.24
461.71	6180.77
462.083	6206.53
462.456	6206.31
462.829	6299.41
463.201	6378.5
463.574	6425.96
463.947	6530.37
464.32	6637.71
464.692	6767.42
465.065	6888.32
465.438	6858.49
465.81	7019.84
466.183	7039.73
466.555	7248.31
466.928	7239.27
467.3	7302.1
467.672	7412.6
468.045	7656.21
468.417	7616.44
468.789	7699.6
469.161	7741.63
469.534	7973.72
469.906	8124.67
470.278	8180.72
470.65	8334.84
471.022	8427.26
471.394	8628.39
471.766	8743.41
472.138	8817.99
472.51	8923.97
472.882	9104.76
473.253	9259.56
473.625	9300.46
473.997	9589.72
474.369	9632.88
474.74	9778.19
475.112	9961.24
475.484	10106.32
475.855	10339.08
476.227	10345.86
476.598	10676.7
476.97	10801.67
477.341	11067.42
477.713	11163.01
478.084	11243.01
478.455	11647.07
478.827	11623.79
479.198	12075.98
479.569	11979.71
479.94	12379.93
480.311	12536.99
480.682	12845.91
481.053	13034.6
481.424	13296.51
481.795	13381.48
482.166	13715.03
482.537	13842.94
482.908	14129.94
483.279	14217.17
483.65	14613.77
484.021	14843.59
484.391	15018.05
484.762	15098.5
485.133	15306.18
485.503	15626.62
485.874	15842.44
486.244	15993.62
486.615	16266.61
486.985	16485.81
487.356	16873.37
487.726	17027.49
488.097	17347.48
488.467	17339.8
488.837	17810.97
489.207	18027.01
489.578	18248.47
489.948	18407.79
490.318	18697.73
490.688	18696.15
491.058	19098.4
491.428	19379.07
491.798	19547.42
492.168	19965.72
492.538	20005.04
492.908	20123.23
493.278	20543.56
493.648	20545.82
494.017	20892.25
494.387	21076.2
494.757	21195.06
495.126	21499.01
495.496	21475.96
495.866	21656.29
496.235	21888.15
496.605	22162.27
496.974	22278.2
497.344	22513.22
497.713	22621.24
498.082	22716.15
498.452	23008.8
498.821	23253.99
499.19	23254.22
499.559	23486.76
499.928	23625.96
500.298	23811.49
500.667	24150.47
501.036	24046.97
501.405	24335.09
501.774	24483.34
502.143	24601.3
502.512	24754.52
502.88	25021.63
503.249	25003.1
503.618	25220.04
503.987	25455.52
504.356	25510.43
504.724	25820.71
505.093	25921.72
505.462	26059.12
505.83	26290.75
506.199	26497.98
506.567	26769.38
506.936	26777.29
507.304	27100.22
507.672	27256.6
508.041	27357.61
508.409	27673.09
508.777	27773.2
509.145	28013.19
509.514	28150.59
509.882	28451.14
510.25	28460.64
510.618	28602.33
510.986	28845.03
511.354	29050.68
511.722	29265.81
512.09	29652.24
512.458	29566.6
512.826	29966.81
513.193	29934.5
513.561	30240.7
513.929	30428.27
514.297	30742.38
514.664	31020.12
515.032	31054.01
515.4	31498.75
515.767	31465.98
516.135	31700.1
516.502	31585.53
516.869	32149.35
517.237	32329.46
517.604	32288.78
517.972	32601.77
518.339	33008.09
518.706	32912.5
519.073	33176.9
519.44	33529.88
519.808	34045.8
520.175	33987.04
520.542	34376.86
520.909	34467.03
521.276	34682.85
521.643	35006
522.009	35148.14
522.376	35454.35
522.743	35706.55
523.11	36028.8
523.477	36448.67
523.843	36630.36
524.21	37089.11
524.577	37282.78
524.943	37337.92
525.31	37615.65
525.676	37900.16
526.043	38219.7
526.409	38529.07
526.776	38919.34
527.142	38947.59
527.508	39263.06
527.874	39502.15
528.241	39715.48
528.607	39782.15
528.973	40195.69
529.339	40177.84
529.705	40625.97
530.071	40961.32
530.437	41255.1
530.803	41368.55
531.169	41663
531.535	41677.69
531.901	41862.54
532.267	41980.05
532.632	42372.59
532.998	42439.48
533.364	42668.4
533.73	43059.35
534.095	43133.02
534.461	43302.51
534.826	43624.3
535.192	43645.32
535.557	43947.91
535.923	43846.9
536.288	44273.78
536.653	44320.56
537.019	44262.71
537.384	44551.74
537.749	44809.36
538.114	44850.49
538.479	44911.28
538.845	45196.24
539.21	45119.63
539.575	45326.86
539.94	45509
540.305	45657.02
540.67	45854.98
541.034	45977.01
541.399	46195.08
541.764	46291.58
542.129	46389.2
542.494	46579.71
542.858	46738.35
543.223	46766.14
543.587	46949.87
543.952	46974.95
544.316	47241.61
544.681	47235.74
545.045	47419.46
545.41	47659.45
545.774	47684.09
546.138	47832.33
546.503	47832.33
546.867	47817.19
547.231	48293.79
547.595	48216.05
547.959	48442.26
548.324	48448.13
548.688	48675.7
549.052	48765.64
549.416	48849.7
549.779	48939.87
550.143	49018.06
550.507	49324.95
550.871	49378.5
551.235	49349.35
551.599	49851.94
551.962	49816.91
552.326	49903.46
552.689	50102.1
553.053	50027.98
553.417	50159.5
553.78	50531.69
554.143	50435.2
554.507	50713.61
554.87	50747.96
555.234	51035.18
555.597	50949.76
555.96	51099.81
556.323	51251.45
556.686	51312.24
557.05	51485.57
557.413	51654.15
557.776	51805.11
558.139	51939.34
558.502	51992.22
558.865	52144.53
559.228	52297.07
559.59	52473.34
559.953	52431.3
560.316	52725.08
560.679	52836.49
561.041	53017.96
561.404	53169.59
561.767	53314.67
562.129	53370.49
562.492	53609.58
562.854	53581.33
563.217	53637.37
563.579	53849.8
563.941	53925.28
564.304	54136.34
564.666	54251.82
565.028	54291.82
565.39	54491.82
565.753	54539.95
566.115	54611.13
566.477	54847.06
566.839	54906.72
567.201	55119.82
567.563	55172.25
567.925	55280.72
568.287	55287.28
568.648	55421.73
569.01	55528.62
569.372	55626.02
569.734	55598.68
570.095	55777.66
570.457	55913.02
570.819	55921.38
571.18	56016.07
571.542	56112.79
571.903	56188.49
572.265	56217.87
572.626	56362.73
572.987	56390.97
573.349	56468.94
573.71	56605.88
574.071	56662.83
574.432	56724.07
574.794	56900.57
575.155	56906.89
575.516	56902.37
575.877	56953.45
576.238	56965.2
576.599	57155.25
576.96	57095.82
577.32	57060.11
577.681	57243.16
578.042	57298.07
578.403	57234.34
578.763	57301.69
579.124	57383.27
579.485	57456.26
579.845	57520.89
580.206	57440.66
580.566	57537.61
580.927	57485.64
581.287	57627.33
581.648	57501
582.008	57686.08
582.368	57558.18
582.728	57648.79
583.089	57623.48
583.449	57621.9
583.809	57693.99
584.169	57654.67
584.529	57595.69
584.889	57822.35
585.249	57708
585.609	57615.12
585.969	57728.11
586.329	57719.53
586.688	57759.3
587.048	57758.85
587.408	57649.25
587.768	57685.86
588.127	57744.16
588.487	57689.02
588.846	57825.97
589.206	57680.88
589.565	57720.66
589.925	57846.53
590.284	57783.48
590.643	57729.7
591.003	57877.26
591.362	57900.54
591.721	57901.44
592.08	57852.18
592.44	57877.04
592.799	57903.25
593.158	57816.47
593.517	57877.94
593.876	57924.72
594.235	57785.51
594.593	57975.57
594.952	57938.05
595.311	57837.94
595.67	57857.83
596.029	58059.86
596.387	58041.1
596.746	58025.28
597.104	57893.31
597.463	57964.27
597.822	58058.5
598.18	57957.49
598.538	58011.72
598.897	58126.97
599.255	57888.79
599.613	58278.38
599.972	58110.93
600.33	58148.67
600.688	58084.04
601.046	58240.42
601.404	58216.46
601.762	58178.27
602.12	58313.86
602.478	58266.63
602.836	58252.85
603.194	58217.37
603.552	58257.37
603.91	58194.09
604.268	58331.49
604.625	58278.61
604.983	58467.08
605.341	58254.43
605.698	58419.17
606.056	58446.06
606.413	58439.73
606.771	58510.47
607.128	58506.17
607.485	58412.16
607.843	58496
608.2	58558.15
608.557	58655.32
608.914	58598.15
609.272	58716.79
609.629	58726.51
609.986	58775.77
610.343	58705.94
610.7	58813.06
611.057	58809.22
611.414	58728.31
611.771	58796.34
612.127	58933.51
612.484	58867.75
612.841	58963.56
613.198	58860.29
613.554	58874.53
613.911	59028.42
614.267	59046.27
614.624	58987.97
614.98	59027.29
615.337	59143.44
615.693	59095.99
616.05	59080.62
616.406	59269.54
616.762	59114.52
617.118	59204.46
617.475	59130.56
617.831	59298.92
618.187	59288.53
618.543	59259.83
618.899	59447.17
619.255	59326.72
619.611	59315.64
619.967	59336.43
620.323	59452.82
620.678	59272.71
621.034	59315.64
621.39	59325.59
621.746	59295.08
622.101	59488.52
622.457	59296.66
622.812	59386.83
623.168	59504.11
623.523	59423.66
623.879	59490.55
624.234	59376.66
624.589	59433.61
624.945	59393.83
625.3	59484
625.655	59405.58
626.01	59404.23
626.365	59438.13
626.72	59404.23
627.075	59291.01
627.43	59416.66
627.785	59306.6
628.14	59347.73
628.495	59398.81
628.85	59286.27
629.205	59253.5
629.559	59373.72
629.914	59235.87
630.269	59289.88
630.623	59199.94
630.978	59151.35
631.332	59241.97
631.687	59235.42
632.041	59188.64
632.396	59215.31
632.75	59149.77
633.104	59148.19
633.459	59032.71
633.813	59002.43
634.167	58988.65
634.521	58992.94
634.875	58969.66
635.229	58947.07
635.583	58841.08
635.937	58841.31
636.291	58750.91
636.645	58832.49
636.999	58823.68
637.352	58804.24
637.706	58654.19
638.06	58799.27
638.413	58734.64
638.767	58617.81
639.121	58639.5
639.474	58489.68
639.828	58470.24
640.181	58517.92
640.534	58504.14
640.888	58393.86
641.241	58343.01
641.594	58407.65
641.947	58511.15
642.301	58322.22
642.654	58364.48
643.007	58324.03
643.36	58273.41
643.713	58242.68
644.066	58259.4
644.419	58113.42
644.771	57996.36
645.124	57791.62
645.477	57763.82
645.83	57547.1
646.182	57428.69
646.535	57352.08
646.888	57430.27
647.24	57256.94
647.593	57350.72
647.945	57321.12
648.298	57185.08
648.65	57152.54
649.002	57039.09
649.355	57145.53
649.707	57122.93
650.059	57214.46
650.411	57527.44
650.763	57590.49
651.115	57771.73
651.467	57713.2
651.819	57677.72
652.171	57597.27
652.523	57554.33
652.875	57500.1
653.227	57373.77
653.578	57636.59
653.93	57503.71
654.282	57377.62
654.633	57325.41
654.985	57430.5
655.337	57383.49
655.688	57370.16
656.039	57450.83
656.391	57221.91
656.742	57205.42
657.094	57249.03
657.445	57357.05
657.796	57302.59
658.147	57272.31
658.498	57269.82
658.849	57291.74
659.2	57203.61
659.551	57145.76
659.902	57235.7
660.253	57241.35
660.604	57217.17
660.955	57066.89
661.306	57195.02
661.656	57079.77
662.007	57056.04
662.358	57008.59
662.708	57065.31
663.059	56985.31
663.409	56864.18
663.76	57050.84
664.11	56990.51
664.461	57053.33
664.811	57044.29
665.161	56941.47
665.511	56894.92
665.862	57008.13
666.212	56993.44
666.562	56994.8
666.912	56915.25
667.262	56945.76
667.612	56869.61
667.962	56870.28
668.312	56827.12
668.662	56981.02
669.011	56838.65
669.361	56852.88
669.711	56842.94
670.06	56781.25
670.41	56732.66
670.76	56684.98
671.109	56761.36
671.459	56764.75
671.808	56693.57
672.157	56713.45
672.507	56510.52
672.856	56511.42
673.205	56628.48
673.554	56541.03
673.904	56457.87
674.253	56688.82
674.602	56601.36
674.951	56120.93
675.3	56037.54
675.649	56458.54
675.998	56348.26
676.346	56416.96
676.695	56441.6
677.044	56312.78
677.393	56367.25
677.741	56414.03
678.09	56259.9
678.438	56214.48
678.787	56302.84
679.135	56239.11
679.484	56035.73
679.832	56178.1
680.181	55987.14
680.529	56116.18
680.877	55971.55
681.225	55959.12
681.573	56055.39
681.922	55910.31
682.27	55814.04
682.618	55855.62
682.966	55810.65
683.314	55867.6
683.661	55750.09
684.009	55611.11
684.357	55573.6
684.705	55532.47
685.053	55591.45
685.4	55445.91
685.748	55302.64
686.095	55240.27
686.443	55181.52
686.79	55122.31
687.138	55194.85
687.485	55254.28
687.832	55073.72
688.18	55158.01
688.527	55002.08
688.874	54897.23
689.221	54878.02
689.568	54736.1
689.915	54656.33
690.262	54735.88
690.609	54721.19
690.956	54609.1
691.303	54523.23
691.65	54353.74
691.997	54331.14
692.344	54150.81
692.69	54188.32
693.037	54186.51
693.383	53946.07
693.73	53981.55
694.077	53856.8
694.423	53828.78
694.769	53782
695.116	53630.37
695.462	53468.79
695.808	53473.31
696.155	53494.78
696.501	53203.49
696.847	53306.54
697.193	53049.82
697.539	53238.52
697.885	52895.7
698.231	52851.63
698.577	52770.96
698.923	52718.98
699.269	52654.12
699.614	52497.29
699.96	52358.54
700.306	52479.21
700.651	52280.8
700.997	52166.45
701.342	52172.55
701.688	52076.74
702.033	51834.94
702.379	51831.32
702.724	51785.9
703.069	51823.19
703.415	51535.51
703.76	51548.16
704.105	51488.96
704.45	51295.97
704.795	51191.34
705.14	51074.28
705.485	51086.26
705.83	50975.75
706.175	50877.67
706.52	50870.22
706.865	50694.4
707.209	50647.17
707.554	50648.53
707.899	50580.96
708.243	50322.43
708.588	50405.6
708.932	50232.27
709.277	50107.52
709.621	50146.85
709.966	49889.45
710.31	50053.74
710.654	49643.13
710.998	49758.15
711.342	49712.28
711.687	49668.21
712.031	49430.25
712.375	49324.72
712.719	49309.35
713.063	49151.84
713.407	49488.11
713.75	49101.22
714.094	49146.42
714.438	48879.08
714.782	49006.76
715.125	48713.21
715.469	48808.35
715.812	48583.04
716.156	48421.24
716.499	48461.92
716.843	48609.71
717.186	48304.63
717.53	48427.12
717.873	48329.72
718.216	48238.65
718.559	48119.33
718.902	47727.02
719.246	47978.31
719.589	47864.42
719.932	47597.31
720.275	47646.8
720.617	47560.47
720.96	47489.74
721.303	47560.25
721.646	47422.62
721.989	47331.1
722.331	47395.05
722.674	47173.36
723.016	47048.17
723.359	47117.32
723.701	47144.21
724.044	46841.62
724.386	46638.46
724.729	46876.65
725.071	46543.1
725.413	46681.17
725.755	46520.5
726.097	46397.57
726.439	46135.65
726.782	46124.58
727.124	46261.07
727.465	46065.37
727.807	46187.63
728.149	45930.01
728.491	45924.36
728.833	45907.86
729.175	45734.98
729.516	45713.74
729.858	45722.55
730.199	45807.98
730.541	45680.75
730.882	45452.28
731.224	45649.79
731.565	45226.07
731.906	45367.76
732.248	45234.66
732.589	45083.93
732.93	45069.46
733.271	45073.76
733.612	44957.6
733.953	44887.1
734.294	44840.54
734.635	44557.61
734.976	44759.42
735.317	44518.52
735.658	44511.29
735.999	44513.32
736.339	44431.52
736.68	44590.83
737.021	44317.62
737.361	44074.01
737.702	44326.43
738.042	44046.44
738.383	44078.53
738.723	44074.46
739.063	43952.88
739.404	43958.31
739.744	43930.06
740.084	43649.39
740.424	43742.72
740.764	43612.55
741.104	43720.8
741.444	43403.07
741.784	43400.13
742.124	43481.48
742.464	43229.51
742.804	43303.64
743.143	43248.04
743.483	43050.53
743.823	42956.53
744.162	42911.56
744.502	42946.81
744.841	42888.51
745.181	42916.53
745.52	42758.34
745.86	42730.32
746.199	42549.76
746.538	42566.25
746.877	42606.93
747.216	42561.06
747.556	42268.63
747.895	42279.26
748.234	42135.3
748.573	42114.74
748.911	41989.77
749.25	41867.06
749.589	41636.33
749.928	41852.6
750.267	41738.48
750.605	41615.09
750.944	41486.96
751.283	41341.43
751.621	41460.97
751.96	41152.28
752.298	41151.38
752.636	41098.27
752.975	40968.56
