Data from breadboard_white_FLMS001491_00013.txt Node
Date: Wed Feb 08 10:47:20 GMT 2017
User: dcchb
Spectrometer: FLMS00149
Trigger mode: 0
Integration Time (sec): 2.000000E-2
Scans to average: 10
Electric dark correction enabled: true
Nonlinearity correction enabled: false
Boxcar width: 0
XAxis mode: Wavelengths
Number of Pixels in Spectrum: 2048
>>>>>Begin Spectral Data<<<<<
341.393	-22.13
341.776	-22.13
342.16	-22.13
342.543	-59.65
342.927	-78.4
343.31	-88.8
343.693	-56.93
344.077	-55.13
344.46	-53.77
344.843	-47.22
345.226	-42.24
345.61	-51.28
345.993	-12.64
346.376	-13.77
346.759	11.09
347.142	30.52
347.525	32.78
347.908	46.57
348.291	74.59
348.674	98.32
349.057	127.92
349.44	109.62
349.823	147.35
350.206	166.11
350.588	202.49
350.971	228.03
351.354	228.26
351.737	275.26
352.119	250.63
352.502	267.13
352.884	281.59
353.267	283.85
353.65	311.87
354.032	319.1
354.414	330.85
354.797	316.62
355.179	341.93
355.562	360.23
355.944	337.41
356.326	356.16
356.709	358.87
357.091	348.71
357.473	356.84
357.855	368.82
358.238	373.34
358.62	354.81
359.002	356.16
359.384	374.69
359.766	364.3
360.148	369.04
360.53	353.23
360.912	363.62
361.294	335.15
361.676	342.15
362.057	345.99
362.439	360
362.821	356.84
363.203	351.64
363.584	368.82
363.966	355.03
364.348	371.3
364.729	346.22
365.111	355.94
365.493	336.05
365.874	356.16
366.256	374.47
366.637	353
367.019	359.78
367.4	369.5
367.781	356.39
368.163	365.88
368.544	370.17
368.925	348.48
369.306	347.12
369.688	350.06
370.069	355.71
370.45	352.32
370.831	353.23
371.212	362.04
371.593	348.03
371.974	357.52
372.355	354.13
372.736	352.1
373.117	360.46
373.498	363.17
373.879	369.04
374.26	360.91
374.641	357.74
375.021	350.74
375.402	366.78
375.783	386.67
376.163	393.68
376.544	420.34
376.925	394.13
377.305	370.63
377.686	392.32
378.066	401.81
378.447	428.25
378.827	395.94
379.208	401.59
379.588	411.98
379.968	393.22
380.349	389.61
380.729	395.48
381.109	402.04
381.489	415.82
381.87	421.92
382.25	410.85
382.63	423.28
383.01	435.48
383.39	418.53
383.77	438.19
384.15	428.7
384.53	435.03
384.91	445.2
385.29	467.35
385.67	448.59
386.049	459.44
386.429	456.73
386.809	463.28
387.189	445.88
387.568	477.74
387.948	474.35
388.328	491.07
388.707	488.59
389.087	494.46
389.466	488.14
389.846	492.88
390.225	527.91
390.605	528.36
390.984	533.79
391.363	543.5
391.743	511.87
392.122	534.92
392.501	530.85
392.881	554.58
393.26	549.6
393.639	587.12
394.018	559.32
394.397	577.63
394.776	596.61
395.155	611.52
395.534	590.51
395.913	602.48
396.292	583.5
396.671	620.79
397.05	628.47
397.429	642.26
397.808	648.13
398.186	657.62
398.565	652.43
398.944	650.17
399.323	687.91
399.701	693.78
400.08	697.4
400.458	734.01
400.837	713.89
401.215	727.68
401.594	739.88
401.972	757.96
402.351	767.9
402.729	754.12
403.107	790.28
403.486	812.65
403.864	806.77
404.242	853.55
404.62	872.99
404.999	863.04
405.377	860.1
405.755	882.93
406.133	891.74
406.511	917.5
406.889	937.84
407.267	961.34
407.645	971.51
408.023	1004.73
408.401	1011.96
408.779	1022.13
409.156	1069.36
409.534	1059.2
409.912	1100.78
410.29	1110.49
410.667	1132.41
411.045	1150.27
411.422	1194.56
411.8	1188.01
412.178	1222.13
412.555	1212.86
412.933	1255.12
413.31	1301.67
413.687	1310.71
414.065	1305.97
414.442	1325.63
414.819	1380.54
415.197	1370.83
415.574	1445.17
415.951	1443.14
416.328	1479.52
416.705	1487.66
417.082	1471.39
417.46	1552.29
417.837	1551.16
418.214	1561.78
418.591	1593.42
418.967	1595.23
419.344	1605.4
419.721	1607.88
420.098	1682
420.475	1679.74
420.852	1708.9
421.228	1699.4
421.605	1752.51
421.982	1789.35
422.358	1765.39
422.735	1806.29
423.111	1836.35
423.488	1860.76
423.864	1881.55
424.241	1925.84
424.617	1976.91
424.994	1934.65
425.37	1991.37
425.746	1985.72
426.123	2017.59
426.499	2044.93
426.875	2058.94
427.251	2079.96
427.627	2165.83
428.003	2152.95
428.379	2218.03
428.756	2201.99
429.132	2246.73
429.507	2289.22
429.883	2288.99
430.259	2369.44
430.635	2366.28
431.011	2426.84
431.387	2453.06
431.763	2513.17
432.138	2499.38
432.514	2581.87
432.89	2566.5
433.265	2646.72
433.641	2655.09
434.016	2697.34
434.392	2738.47
434.767	2813.05
435.143	2803.78
435.518	2816.89
435.894	2859.6
436.269	2891.01
436.644	2980.73
437.02	2966.49
437.395	2987.05
437.77	3062.98
438.145	3069.31
438.52	3100.05
438.895	3158.8
439.271	3156.77
439.646	3291.45
440.021	3270.66
440.395	3284.9
440.77	3305.01
441.145	3342.53
441.52	3380.04
441.895	3373.71
442.27	3443.09
442.645	3416.2
443.019	3458
443.394	3465.23
443.769	3533.03
444.143	3495.74
444.518	3578.9
444.892	3582.29
445.267	3616.19
445.641	3686.24
446.016	3681.05
446.39	3735.96
446.764	3747.94
447.139	3691.44
447.513	3770.31
447.887	3785.68
448.262	3805.56
448.636	3811.44
449.01	3912
449.384	3902.51
449.758	3946.13
450.132	4057.53
450.506	4014.37
450.88	4080.58
451.254	4054.6
451.628	4205.78
452.002	4234.48
452.376	4252.56
452.75	4285.1
453.123	4355.83
453.497	4388.15
453.871	4399.9
454.244	4549.95
454.618	4525.77
454.992	4611.42
455.365	4597.18
455.739	4736.39
456.112	4805.76
456.486	4842.82
456.859	4853.45
457.232	4970.28
457.606	4961.24
457.979	5009.83
458.352	5166.21
458.725	5185.41
459.099	5243.27
459.472	5340.89
459.845	5410.49
460.218	5402.36
460.591	5491.62
460.964	5596.25
461.337	5653.2
461.71	5742.46
462.083	5876.24
462.456	5856.13
462.829	5859.3
463.201	6018.16
463.574	6021.1
463.947	6140.19
464.32	6251.83
464.692	6285.95
465.065	6343.12
465.438	6437.58
465.81	6534.76
466.183	6619.28
466.555	6759.16
466.928	6800.51
467.3	6817.46
467.672	6903.79
468.045	7111.47
468.417	7086.61
468.789	7179.94
469.161	7310.33
469.534	7434.17
469.906	7661.51
470.278	7682.52
470.65	7736.99
471.022	7904.44
471.394	8043.42
471.766	8155.96
472.138	8255.16
472.51	8366.12
472.882	8512.56
473.253	8603.4
473.625	8696.51
473.997	8905.09
474.369	8947.35
474.74	9115.71
475.112	9250.17
475.484	9455.58
475.855	9557.05
476.227	9749.14
476.598	9980.77
476.97	10027.1
477.341	10218.28
477.713	10435.22
478.084	10522.68
478.455	10758.15
478.827	10935.09
479.198	11218.7
479.569	11272.49
479.94	11566.94
480.311	11648.3
480.682	11980.94
481.053	12227.72
481.424	12379.35
481.795	12502.51
482.166	12768.04
482.537	12891.2
482.908	13168.93
483.279	13252.1
483.65	13593.78
484.021	13759.2
484.391	13986.31
484.762	14092.98
485.133	14215.01
485.503	14399.41
485.874	14736.35
486.244	14899.06
486.615	15145.38
486.985	15400.97
487.356	15683.44
487.726	15777.9
488.097	16140.83
488.467	16225.58
488.837	16569.52
489.207	16731.1
489.578	16946.46
489.948	17074.59
490.318	17401.14
490.688	17452.21
491.058	17739.21
491.428	17975.36
491.798	18173.55
492.168	18541.22
492.538	18582.12
492.908	18821.67
493.278	18980.76
493.648	19136.46
494.017	19413.74
494.387	19497.35
494.757	19720.63
495.126	19941.64
495.496	19924.91
495.866	20073.16
496.235	20440.38
496.605	20621.39
496.974	20760.6
497.344	20937.54
497.713	21079.91
498.082	21150.19
498.452	21412.33
498.821	21528.71
499.19	21600.8
499.559	21888.7
499.928	21969.38
500.298	22141.8
500.667	22443.27
501.036	22430.38
501.405	22597.84
501.774	22628.12
502.143	22902.24
502.512	23040.99
502.88	23275.79
503.249	23308.55
503.618	23465.39
503.987	23557.13
504.356	23766.62
504.724	23845.49
505.093	24028.53
505.462	24147.4
505.83	24305.36
506.199	24541.97
506.567	24805.24
506.936	24795.52
507.304	25091.56
507.672	25242.97
508.041	25334.26
508.409	25524.54
508.777	25849.5
509.145	25923.17
509.514	26148.71
509.882	26199.78
510.25	26392.77
510.618	26553.89
510.986	26634.12
511.354	26933.32
511.722	27134.44
512.09	27371.5
512.458	27430.71
512.826	27747.76
513.193	27899.17
513.561	27965.83
513.929	28272.27
514.297	28498.47
514.664	28611.24
515.032	28701.18
515.4	28895.75
515.767	29249.87
516.135	29363.54
516.502	29164.22
516.869	29723.3
517.237	29937.98
517.604	29962.84
517.972	30301.36
518.339	30540.45
518.706	30565.09
519.073	30872.2
519.44	31139.31
519.808	31248.46
520.175	31378.62
520.542	31818.84
520.909	32008.89
521.276	32007.76
521.643	32339.28
522.009	32731.36
522.376	32939.49
522.743	33108.52
523.11	33440.26
523.477	33708.28
523.843	33800.93
524.21	34109.4
524.577	34482.05
524.943	34658.54
525.31	34809.72
525.676	35207.9
526.043	35316.83
526.409	35564.5
526.776	36085.39
527.142	36105.96
527.508	36199.97
527.874	36542.1
528.241	36758.37
528.607	36952.26
528.973	37217.57
529.339	37176.21
529.705	37712.02
530.071	37946.59
530.437	38101.16
530.803	38259.57
531.169	38511.09
531.535	38483.3
531.901	38597.64
532.267	38958.09
532.632	39066.78
532.998	39258.19
533.364	39598.97
533.73	39634.45
534.095	39868.8
534.461	39892.52
534.826	40231.27
535.192	40370.25
535.557	40744.48
535.923	40600.98
536.288	40829.68
536.653	40989.22
537.019	41047.97
537.384	41175.88
537.749	41482.99
538.114	41480.73
538.479	41734.51
538.845	41803.21
539.21	41862.19
539.575	42028.74
539.94	42142.41
540.305	42426.7
540.67	42293.82
541.034	42538.1
541.399	42780.58
541.764	42776.97
542.129	42994.82
542.494	43120.24
542.858	43190.29
543.223	43110.74
543.587	43624.4
543.952	43511.41
544.316	43878.63
544.681	43851.97
545.045	43945.75
545.41	44252.64
545.774	44268.68
546.138	44420.99
546.503	44382.8
546.867	44553.87
547.231	44862.79
547.595	44905.73
547.959	45057.36
548.324	45128.09
548.688	45159.05
549.052	45424.81
549.416	45429.55
549.779	45555.2
550.143	45691.47
550.507	45902.99
550.871	46014.62
551.235	46065.7
551.599	46405.57
551.962	46390.21
552.326	46521.5
552.689	46814.6
553.053	46672.46
553.417	46898.22
553.78	47345.89
554.143	47058.66
554.507	47360.8
554.87	47616.62
555.234	47922.37
555.597	47698.87
555.96	47843.05
556.323	48192.42
556.686	48167.34
557.05	48480.32
557.413	48560.77
557.776	48530.72
558.139	48845.96
558.502	48997.6
558.865	49037.82
559.228	49298.83
559.59	49515.32
559.953	49412.27
560.316	49891.58
560.679	49872.83
561.041	50072.37
561.404	50155.08
561.767	50311.01
562.129	50399.14
562.492	50601.62
562.854	50725.69
563.217	50883.42
563.579	50869.86
563.941	51179.46
564.304	51364.09
564.666	51486.12
565.028	51452.9
565.39	51625.55
565.753	51808.6
566.115	51955.03
566.477	52069.61
566.839	52114.58
567.201	52350.5
567.563	52379.2
567.925	52671.62
568.287	52554.11
568.648	52677.73
569.01	52882.69
569.372	53012.63
569.734	52925.18
570.095	53157.26
570.457	53273.42
570.819	53402
571.18	53419.17
571.542	53550.7
571.903	53571.26
572.265	53668.66
572.626	53715.21
572.987	53879.5
573.349	53920.4
573.71	54046.05
574.071	54183.67
574.432	54176.67
574.794	54418.24
575.155	54333.73
575.516	54321.52
575.877	54413.05
576.238	54543.66
576.599	54604.23
576.96	54553.83
577.32	54605.13
577.681	54729.87
578.042	54758.35
578.403	54797.9
578.763	54808.74
579.124	54917.44
579.485	55010.09
579.845	54987.04
580.206	54948.85
580.566	54914.95
580.927	54948.4
581.287	55121.95
581.648	55077.21
582.008	55187.94
582.368	55116.98
582.728	55131.67
583.089	55160.37
583.449	55057.1
583.809	55175.51
584.169	55260.48
584.529	55138.9
584.889	55343.19
585.249	55179.81
585.609	55151.78
585.969	55264.55
586.329	55170.99
586.688	55335.06
587.048	55260.71
587.408	55215.29
587.768	55150.65
588.127	55157.43
588.487	55165.57
588.846	55290.76
589.206	55167.15
589.565	55168.51
589.925	55305.45
590.284	55270.65
590.643	55230.65
591.003	55309.07
591.362	55351.78
591.721	55325.34
592.08	55324.21
592.44	55316.3
592.799	55320.37
593.158	55313.36
593.517	55343.64
593.876	55385.45
594.235	55325.57
594.593	55296.19
594.952	55374.83
595.311	55272.46
595.67	55442.4
596.029	55519.01
596.387	55471.32
596.746	55538.67
597.104	55482.4
597.463	55415.96
597.822	55496.41
598.18	55474.94
598.538	55363.98
598.897	55582.06
599.255	55371.67
599.613	55749.06
599.972	55571.43
600.33	55610.3
600.688	55531.89
601.046	55660.25
601.404	55767.14
601.762	55675.16
602.12	55810.3
602.478	55799.45
602.836	55796.97
603.194	55686.23
603.552	55774.37
603.91	55731.2
604.268	55799.9
604.625	55716.29
604.983	55885.32
605.341	55726.91
605.698	55914.02
606.056	55952.44
606.413	55867.25
606.771	56073.57
607.128	56104.75
607.485	55953.12
607.843	56006.68
608.2	56090.52
608.557	56131.87
608.914	55975.94
609.272	56156.96
609.629	56291.19
609.986	56308.36
610.343	56174.36
610.7	56321.25
611.057	56369.61
611.414	56309.95
611.771	56225.88
612.127	56373.22
612.484	56337.97
612.841	56415.93
613.198	56306.78
613.554	56331.19
613.911	56499.32
614.267	56529.6
614.624	56494.12
614.98	56580.45
615.337	56631.97
615.693	56592.65
616.05	56509.71
616.406	56793.55
616.762	56617.06
617.118	56714.23
617.475	56595.14
617.831	56713.55
618.187	56698.18
618.543	56719.88
618.899	56848.69
619.255	56771.18
619.611	56851.17
619.967	56865.19
620.323	56822.25
620.678	56835.58
621.034	56739.09
621.39	56836.26
621.746	56750.16
622.101	57044.16
622.457	56814.79
622.812	56869.03
623.168	56956.26
623.523	56911.29
623.879	56988.8
624.234	56830.16
624.589	56987.67
624.945	57003.26
625.3	57010.72
625.655	56873.09
626.01	56953.09
626.365	56887.78
626.72	56857.05
627.075	56888.91
627.43	56835.58
627.785	56786.32
628.14	56851.17
628.495	56816.6
628.85	56821.8
629.205	56772.98
629.559	56865.19
629.914	56674.46
630.269	56711.29
630.623	56607.57
630.978	56575.25
631.332	56687.34
631.687	56703.83
632.041	56634.23
632.396	56640.11
632.75	56521.69
633.104	56480.79
633.459	56417.06
633.813	56388.36
634.167	56385.2
634.521	56400.34
634.875	56380.68
635.229	56375.93
635.583	56208.25
635.937	56251.19
636.291	56167.35
636.645	56215.49
636.999	56098.65
637.352	56152.66
637.706	56015.94
638.06	56077.18
638.413	55966.68
638.767	55915.83
639.121	55980.24
639.474	55772.33
639.828	55894.59
640.181	55866.57
640.534	55806.23
640.888	55797.87
641.241	55647.82
641.594	55713.58
641.947	55763.07
642.301	55635.84
642.654	55757.87
643.007	55671.32
643.36	55554.03
643.713	55542.51
644.066	55654.14
644.419	55453.7
644.771	55338.67
645.124	55083.31
645.477	54978.46
645.83	54821.62
646.182	54676.09
646.535	54502.99
646.888	54596.54
647.24	54329.66
647.593	54537.56
647.945	54413.05
648.298	54299.83
648.65	54294.86
649.002	54178.7
649.355	54228.87
649.707	54281.75
650.059	54373.27
650.411	54751.79
650.763	54693.94
651.115	55032.47
651.467	54891.23
651.819	54909.53
652.171	54806.03
652.523	54713.83
652.875	54691.23
653.227	54624.11
653.578	54831.34
653.93	54689.42
654.282	54601.29
654.633	54478.36
654.985	54565.81
655.337	54487.17
655.688	54533.5
656.039	54594.96
656.391	54355.87
656.742	54470.45
657.094	54394.29
657.445	54467.96
657.796	54423.44
658.147	54375.76
658.498	54396.1
658.849	54324.91
659.2	54330.34
659.551	54304.35
659.902	54386.15
660.253	54318.13
660.604	54284.01
660.955	54200.17
661.306	54244.24
661.656	54159.72
662.007	54146.39
662.358	54142.09
662.708	54105.26
663.059	54053.28
663.409	53841.99
663.76	54179.38
664.11	54041.08
664.461	54045.6
664.811	53957.69
665.161	54026.84
665.511	53911.59
665.862	53924.25
666.212	53985.26
666.562	54049.44
666.912	53873.4
667.262	53959.95
667.612	53895.55
667.962	53917.92
668.312	53876.34
668.662	54007.63
669.011	53877.92
669.361	53826.62
669.711	53843.34
670.06	53737.58
670.41	53727.87
670.76	53686.51
671.109	53761.54
671.459	53685.61
671.808	53597.02
672.157	53643.35
672.507	53504.6
672.856	53498.72
673.205	53529.45
673.554	53575.78
673.904	53350.25
674.253	53619.17
674.602	53524.48
674.951	53021.22
675.3	52846.53
675.649	53417.37
675.998	53333.53
676.346	53306.41
676.695	53392.51
677.044	53123.82
677.393	53291.72
677.741	53322.45
678.09	53217.6
678.438	53107.54
678.787	53166.75
679.135	53166.07
679.484	53020.31
679.832	53072.97
680.181	52842.47
680.529	52945.06
680.877	52838.17
681.225	52880.43
681.573	52992.97
681.922	52731.73
682.27	52606.99
682.618	52699.87
682.966	52618.74
683.314	52731.06
683.661	52621.68
684.009	52460.56
684.357	52369.94
684.705	52303.95
685.053	52287.45
685.4	52253.78
685.748	52076.38
686.095	52047.91
686.443	51979.21
686.79	51899.44
687.138	51934.24
687.485	51877.07
687.832	51770.63
688.18	51873
688.527	51597.3
688.874	51598.88
689.221	51550.52
689.568	51346.46
689.915	51365.67
690.262	51273.24
690.609	51128.39
690.956	51136.3
691.303	51066.92
691.65	50884.33
691.997	50978.79
692.344	50667.83
692.69	50684.11
693.037	50577.89
693.383	50297.9
693.73	50473.94
694.077	50193.04
694.423	50195.3
694.769	50034.86
695.116	50036.44
695.462	49992.15
695.808	49777.24
696.155	49895.88
696.501	49571.37
696.847	49636.22
697.193	49449.79
697.539	49411.37
697.885	49229
698.231	49102.9
698.577	49038.27
698.923	49024.26
699.269	48727.55
699.614	48617.04
699.96	48568
700.306	48666.98
700.651	48392.19
700.997	48332.75
701.342	48351.96
701.688	48167.79
702.033	47961.46
702.379	47867.23
702.724	47850.06
703.069	47926.89
703.415	47462.49
703.76	47508.14
704.105	47496.39
704.45	47331.88
704.795	46996.52
705.14	46982.06
705.485	46985.22
705.83	46828.61
706.175	46840.36
706.52	46622.29
706.865	46542.07
707.209	46563.08
707.554	46418.68
707.899	46344.78
708.243	46191.34
708.588	46074.28
708.932	45908.19
709.277	45945.92
709.621	45948.64
709.966	45690.11
710.31	45723.78
710.654	45290.12
710.998	45457.35
711.342	45394.98
711.687	45265.72
712.031	44963.58
712.375	44912.51
712.719	44889.46
713.063	45017.36
713.407	44932.17
713.75	44770.81
714.094	44724.49
714.438	44480.43
714.782	44424.61
715.125	44325.63
715.469	44448.56
715.812	44109.14
716.156	43912.76
716.499	44037.5
716.843	44054.22
717.186	43722.93
717.53	44055.35
717.873	43960.89
718.216	43667.34
718.559	43570.62
718.902	43364.75
719.246	43319.33
719.589	43246.79
719.932	43127.02
720.275	43130.18
720.617	43121.82
720.96	42954.82
721.303	42920.02
721.646	43035.94
721.989	42581.49
722.331	42869.17
722.674	42572.45
723.016	42533.13
723.359	42540.14
723.701	42497.43
724.044	42240.71
724.386	42126.36
724.729	42268.06
725.071	42071.68
725.413	42149.41
725.755	41999.14
726.097	41997.55
726.439	41713.04
726.782	41759.59
727.124	41883.66
727.465	41545.81
727.807	41636.89
728.149	41304.24
728.491	41389.89
728.833	41228.08
729.175	41185.6
729.516	41118.71
729.858	41032.61
730.199	41073.74
730.541	40926.62
730.882	40911.25
731.224	41072.61
731.565	40612.51
731.906	40686.4
732.248	40709.45
732.589	40378.84
732.93	40419.06
733.271	40289.8
733.612	40439.4
733.953	40403.47
734.294	40163.25
734.635	40042.13
734.976	40171.39
735.317	39955.12
735.658	39960.77
735.999	39908.34
736.339	39813.66
736.68	39951.51
737.021	39760.55
737.361	39621.57
737.702	39685.3
738.042	39467.68
738.383	39393.78
738.723	39448.47
739.063	39354.69
739.404	39446.21
739.744	39232.43
740.084	39142.71
740.424	39107.23
740.764	39071.98
741.104	39082.6
741.444	38875.83
741.784	38796.06
742.124	38831.76
742.464	38878.99
742.804	38707.7
743.143	38578.21
743.483	38574.14
743.823	38318.78
744.162	38272.45
744.502	38472
744.841	38142.06
745.181	38398.78
745.52	38130.31
745.86	38185.45
746.199	38016.87
746.538	37897.1
746.877	38081.05
747.216	38084.21
747.556	37928.73
747.895	37719.02
748.234	37560.83
748.573	37516.09
748.911	37465.92
749.25	37294.85
749.589	37262.54
749.928	37250.79
750.267	37212.59
750.605	37114.29
750.944	37030.9
751.283	36868.65
751.621	37114.07
751.96	36695.77
752.298	36801.53
752.636	36724.47
