Data from breadboard_black_back_FLMS001491_00079.txt Node
Date: Wed Feb 08 10:50:54 GMT 2017
User: dcchb
Spectrometer: FLMS00149
Trigger mode: 0
Integration Time (sec): 2.000000E-2
Scans to average: 10
Electric dark correction enabled: true
Nonlinearity correction enabled: false
Boxcar width: 0
XAxis mode: Wavelengths
Number of Pixels in Spectrum: 2048
>>>>>Begin Spectral Data<<<<<
341.393	-15.96
341.776	-15.96
342.16	-15.96
342.543	-54.38
342.927	-70.42
343.31	-80.59
343.693	-97.54
344.077	-51.89
344.46	-46.47
344.843	-57.54
345.226	-35.62
345.61	-37.43
345.993	-2.63
346.376	1.21
346.759	17.94
347.142	36.02
347.525	48.22
347.908	65.85
348.291	76.01
348.674	72.85
349.057	91.61
349.44	123.25
349.823	139.74
350.206	171.83
350.588	231.04
350.971	222.9
351.354	226.97
351.737	242.34
352.119	266.97
352.502	261.32
352.884	271.04
353.267	280.08
353.65	298.38
354.032	282.56
354.414	324.82
354.797	331.15
355.179	323.92
355.562	334.31
355.944	324.14
356.326	337.25
356.709	361.88
357.091	342.45
357.473	339.06
357.855	356.46
358.238	343.58
358.62	352.84
359.002	344.71
359.384	345.84
359.766	352.17
360.148	363.92
360.53	337.93
360.912	325.5
361.294	338.38
361.676	361.21
362.057	354.43
362.439	329.79
362.821	368.44
363.203	344.71
363.584	338.38
363.966	351.71
364.348	344.71
364.729	345.61
365.111	335.44
365.493	341.09
365.874	336.8
366.256	318.72
366.637	332.05
367.019	334.31
367.4	352.17
367.781	329.12
368.163	343.35
368.544	327.99
368.925	332.51
369.306	333.18
369.688	349.23
370.069	346.97
370.45	356.69
370.831	341.32
371.212	353.07
371.593	345.61
371.974	328.66
372.355	350.81
372.736	344.93
373.117	369.34
373.498	351.26
373.879	366.63
374.26	328.89
374.641	340.87
375.021	339.96
375.402	351.49
375.783	359.85
376.163	379.51
376.544	377.93
376.925	375.89
377.305	377.25
377.686	356.91
378.066	355.78
378.447	370.7
378.827	380.64
379.208	381.32
379.588	375.44
379.968	383.58
380.349	390.58
380.729	383.35
381.109	373.63
381.489	397.36
381.87	377.48
382.25	396.01
382.63	411.6
383.01	389.68
383.39	410.92
383.77	383.35
384.15	405.5
384.53	415.67
384.91	408.44
385.29	440.07
385.67	432.62
386.049	444.59
386.429	432.84
386.809	422.9
387.189	421.54
387.568	436.91
387.948	451.37
388.328	451.82
388.707	463.58
389.087	456.8
389.466	462.9
389.846	447.08
390.225	453.86
390.605	481.65
390.984	479.39
391.363	480.98
391.743	480.52
392.122	464.03
392.501	514.42
392.881	491.15
393.26	506.06
393.639	509.68
394.018	484.37
394.397	514.87
394.776	481.88
395.155	507.42
395.534	503.12
395.913	533.86
396.292	530.24
396.671	529.34
397.05	538.38
397.429	552.39
397.808	530.92
398.186	546.29
398.565	542.22
398.944	540.86
399.323	569.79
399.701	552.84
400.08	565.72
400.458	566.4
400.837	576.34
401.215	579.73
401.594	587.19
401.972	595.1
402.351	594.42
402.729	576.57
403.107	598.71
403.486	595.78
403.864	606.17
404.242	621.09
404.62	623.57
404.999	621.09
405.377	649.11
405.755	650.92
406.133	683.68
406.511	669.67
406.889	645.72
407.267	664.93
407.645	691.14
408.023	698.15
408.401	697.92
408.779	722.55
409.156	711.03
409.534	687.52
409.912	697.02
410.29	721.65
410.667	736.11
411.045	732.04
411.422	770.69
411.8	748.99
412.178	763.23
412.555	779.95
412.933	789.44
413.31	785.15
413.687	807.75
414.065	817.92
414.442	822.44
414.819	814.3
415.197	823.79
415.574	829.22
415.951	852.27
416.328	854.75
416.705	841.64
417.082	842.32
417.46	875.32
417.837	894.07
418.214	893.85
418.591	907.41
418.967	903.34
419.344	932.72
419.721	938.59
420.098	936.78
420.475	948.31
420.852	937.24
421.228	965.26
421.605	948.08
421.982	987.86
422.358	962.32
422.735	1005.48
423.111	1002.32
423.488	1035.54
423.864	1030.57
424.241	1026.95
424.617	1027.63
424.994	1037.57
425.37	1064.01
425.746	1048.42
426.123	1112.37
426.499	1099.26
426.875	1106.5
427.251	1135.65
427.627	1144.01
428.003	1134.07
428.379	1159.83
428.756	1156.44
429.132	1200.51
429.507	1222.65
429.883	1227.4
430.259	1248.87
430.635	1224.69
431.011	1243.89
431.387	1317.56
431.763	1304.91
432.138	1310.11
432.514	1310.11
432.89	1326.83
433.265	1370.22
433.641	1355.53
434.016	1381.74
434.392	1407.28
434.767	1432.36
435.143	1429.43
435.518	1464.68
435.894	1429.65
436.269	1527.73
436.644	1508.07
437.02	1528.86
437.395	1556.65
437.77	1539.93
438.145	1579.7
438.52	1585.13
438.895	1634.62
439.271	1599.82
439.646	1655.63
440.021	1668.06
440.395	1660.38
440.77	1624.22
441.145	1684.79
441.52	1713.03
441.895	1689.31
442.27	1723.2
442.645	1693.6
443.019	1741.96
443.394	1758
443.769	1779.92
444.143	1776.76
444.518	1803.65
444.892	1796.2
445.267	1823.09
445.641	1789.42
446.016	1827.61
446.39	1831.68
446.764	1865.8
447.139	1859.24
447.513	1880.94
447.887	1871.67
448.262	1903.76
448.636	1914.16
449.01	1931.11
449.384	1974.72
449.758	1974.5
450.132	1988.73
450.506	1977.43
450.88	2011.78
451.254	2040.94
451.628	2037.55
452.002	2080.03
452.376	2103.08
452.75	2135.62
453.123	2128.84
453.497	2173.81
453.871	2229.86
454.244	2207.71
454.618	2225.56
454.992	2277.54
455.365	2260.82
455.739	2306.01
456.112	2336.75
456.486	2376.29
456.859	2379.01
457.232	2442.28
457.606	2466.46
457.979	2466.23
458.352	2512.79
458.725	2589.85
459.099	2568.38
459.472	2644.31
459.845	2653.57
460.218	2686.57
460.591	2717.53
460.964	2706
461.337	2778.77
461.71	2830.52
462.083	2857.18
462.456	2845.43
462.829	2859.44
463.201	2939.44
463.574	2962.94
463.947	2969.95
464.32	3049.95
464.692	3049.27
465.065	3083.17
465.438	3151.41
465.81	3225.08
466.183	3249.26
466.555	3311.64
466.928	3291.3
467.3	3285.42
467.672	3373.1
468.045	3439.99
468.417	3507.56
468.789	3497.39
469.161	3531.29
469.534	3578.75
469.906	3694.45
470.278	3728.12
470.65	3735.81
471.022	3835.92
471.394	3884.73
471.766	3887.89
472.138	3956.36
472.51	4045.4
472.882	4090.37
473.253	4120.88
473.625	4221.22
473.997	4258.05
474.369	4327.88
474.74	4339.63
475.112	4457.59
475.484	4548.67
475.855	4574.88
476.227	4623.69
476.598	4723.35
476.97	4810.81
477.341	4876.79
477.713	4994.53
478.084	4986.62
478.455	5159.05
478.827	5206.5
479.198	5335.99
479.569	5358.81
479.94	5526.49
480.311	5482.2
480.682	5612.37
481.053	5775.3
481.424	5936.2
481.795	5898.23
482.166	6041.51
482.537	6140.49
482.908	6226.81
483.279	6333.7
483.65	6439.01
484.021	6483.76
484.391	6618.44
484.762	6671.77
485.133	6739.34
485.503	6809.4
485.874	7010.97
486.244	7089.62
486.615	7157.18
486.985	7282.15
487.356	7370.29
487.726	7440.34
488.097	7646.89
488.467	7612.77
488.837	7816.38
489.207	7928.69
489.578	8008.69
489.948	8065.18
490.318	8277.83
490.688	8186.54
491.058	8423.82
491.428	8463.82
491.798	8568.22
492.168	8728.22
492.538	8719.4
492.908	8916.91
493.278	9008.89
493.648	9053.63
494.017	9107.87
494.387	9210.69
494.757	9290.91
495.126	9396.9
495.496	9459.72
495.866	9573.39
496.235	9661.75
496.605	9689.1
496.974	9757.57
497.344	9882.54
497.713	9966.38
498.082	10058.35
498.452	10132.47
498.821	10174.96
499.19	10170.89
499.559	10363.43
499.928	10406.82
500.298	10473.71
500.667	10600.71
501.036	10621.5
501.405	10737.88
501.774	10709.18
502.143	10820.82
502.512	10852.45
502.88	11005.45
503.249	11009.74
503.618	11101.26
503.987	11138.32
504.356	11230.52
504.724	11334.7
505.093	11353.23
505.462	11477.07
505.83	11521.36
506.199	11644.3
506.567	11785.54
506.936	11781.7
507.304	11997.06
507.672	12039.09
508.041	12126.32
508.409	12204.51
508.777	12253.32
509.145	12389.36
509.514	12387.78
509.882	12452.64
510.25	12495.12
510.618	12620.54
510.986	12814.89
511.354	12853.98
511.722	12978.95
512.09	13070.93
512.458	13067.09
512.826	13196.8
513.193	13247.87
513.561	13336.46
513.929	13452.39
514.297	13553.63
514.664	13656.9
515.032	13753.4
515.4	13954.29
515.767	13958.59
516.135	14073.61
516.502	14062.99
516.869	14234.74
517.237	14281.74
517.604	14375.53
517.972	14486.03
518.339	14626.59
518.706	14629.3
519.073	14719.47
519.44	14833.59
519.808	14936.64
520.175	14976.19
520.542	15310.19
520.909	15344.31
521.276	15402.39
521.643	15591.09
522.009	15750.86
522.376	15748.15
522.743	15944.98
523.11	16032.66
523.477	16185.2
523.843	16257.51
524.21	16389.94
524.577	16586.99
524.943	16721.45
525.31	16841.45
525.676	17010.48
526.043	16995.34
526.409	17111.05
526.776	17363.47
527.142	17348.1
527.508	17499.74
527.874	17554.43
528.241	17794.42
528.607	17866.51
528.973	18035.77
529.339	18030.35
529.705	18319.83
530.071	18394.86
530.437	18389.66
530.803	18615.19
531.169	18635.75
531.535	18651.35
531.901	18748.29
532.267	18862.64
532.632	19021.05
532.998	19078.68
533.364	19123.65
533.73	19287.71
534.095	19318.45
534.461	19435.28
534.826	19509.63
535.192	19607.93
535.557	19803.41
535.923	19864.2
536.288	19897.64
536.653	19990.29
537.019	20004.08
537.384	20090.4
537.749	20209.27
538.114	20333.79
538.479	20258.54
538.845	20429.6
539.21	20482.26
539.575	20571.75
539.94	20527.68
540.305	20649.94
540.67	20739.88
541.034	20823.49
541.399	20933.55
541.764	20990.27
542.129	21121.56
542.494	21127.44
542.858	21280.88
543.223	21333.54
543.587	21452.4
543.952	21476.36
544.316	21564.72
544.681	21570.37
545.045	21676.58
545.41	21805.39
545.774	21851.49
546.138	21828.89
546.503	21945.72
546.867	21909.34
547.231	22122.67
547.595	22274.3
547.959	22338.48
548.324	22195.21
548.688	22387.29
549.052	22575.99
549.416	22576.89
549.779	22568.08
550.143	22705.25
550.507	22755.64
550.871	22843.33
551.235	22823.44
551.599	22972.14
551.962	23134.17
552.326	23178.46
552.689	23339.58
553.053	23194.05
553.417	23417.1
553.78	23656.86
554.143	23565.11
554.507	23657.09
554.87	23783.87
555.234	24009.85
555.597	23961.94
555.96	23954.94
556.323	24202.16
556.686	24153.12
557.05	24337.3
557.413	24479.22
557.776	24510.17
558.139	24596.95
558.502	24671.3
558.865	24729.38
559.228	24961.01
559.59	25019.99
559.953	25092.08
560.316	25442.35
560.679	25388.34
561.041	25584.27
561.404	25678.51
561.767	25792.4
562.129	25772.51
562.492	26018.38
562.854	25992.17
563.217	26116.46
563.579	26210.7
563.941	26429.45
564.304	26459.28
564.666	26643.45
565.028	26628.54
565.39	26909.66
565.753	26987.4
566.115	27034.63
566.477	27174.06
566.839	27142.42
567.201	27460.38
567.563	27475.75
567.925	27687.72
568.287	27667.15
568.648	27700.15
569.01	27877.32
569.372	28019.46
569.734	27990.31
570.095	28138.33
570.457	28276.86
570.819	28317.98
571.18	28360.92
571.542	28549.62
571.903	28507.13
572.265	28649.5
572.626	28748.93
572.987	28743.06
573.349	28892.21
573.71	28946.22
574.071	29049.49
574.432	29169.94
574.794	29445.64
575.155	29348.92
575.516	29313.89
575.877	29473.89
576.238	29453.55
576.599	29649.25
576.96	29609.02
577.32	29695.8
577.681	29662.58
578.042	29750.94
578.403	29770.83
578.763	29852.41
579.124	29809.7
579.485	30007.66
579.845	30079.07
580.206	30088.11
580.566	30000.65
580.927	30147.09
581.287	30202.68
581.648	30119.74
582.008	30260.08
582.368	30186.64
582.728	30348.21
583.089	30265.73
583.449	30215.56
583.809	30237.71
584.169	30346.63
584.529	30301.66
584.889	30500.53
585.249	30333.75
585.609	30259.4
585.969	30598.15
586.329	30456.23
586.688	30529
587.048	30487.42
587.408	30384.37
587.768	30402.68
588.127	30402
588.487	30367.87
588.846	30634.53
589.206	30400.42
589.565	30397.7
589.925	30576.91
590.284	30525.61
590.643	30510.69
591.003	30609.22
591.362	30664.14
591.721	30547.3
592.08	30638.83
592.44	30715.89
592.799	30706.4
593.158	30659.39
593.517	30735.77
593.876	30648.32
594.235	30656.91
594.593	30756.11
594.952	30712.05
595.311	30819.61
595.67	30889.44
596.029	30969.67
596.387	30816.22
596.746	31051.92
597.104	30819.84
597.463	30826.39
597.822	30904.36
598.18	30854.41
598.538	30940.74
598.897	31081.08
599.255	30822.55
599.613	31197
599.972	31100.06
600.33	31159.27
600.688	31030.68
601.046	31137.12
601.404	31238.59
601.762	31190
602.12	31339.6
602.478	31397.23
602.836	31355.19
603.194	31199.26
603.552	31270.22
603.91	31216.89
604.268	31319.71
604.625	31375.76
604.983	31460.73
605.341	31280.84
605.698	31449.88
606.056	31499.6
606.413	31459.6
606.771	31475.87
607.128	31638.8
607.485	31431.12
607.843	31542.76
608.2	31808.06
608.557	31845.58
608.914	31832.92
609.272	31880.6
609.629	31970.54
609.986	32077.43
610.343	31841.06
610.7	32061.84
611.057	31961.05
611.414	32035.4
611.771	32011.45
612.127	32170.76
612.484	32117.43
612.841	32232.68
613.198	32262.29
613.554	32210.76
613.911	32363.08
614.267	32315.85
614.624	32312.68
614.98	32354.04
615.337	32458.44
615.693	32403.75
616.05	32487.14
616.406	32507.7
616.762	32635.16
617.118	32538.66
617.475	32489.85
617.831	32649.62
618.187	32696.4
618.543	32820.01
618.899	32884.87
619.255	32812.78
619.611	32874.02
619.967	32913.12
620.323	32919.67
620.678	32813.01
621.034	32661.6
621.39	32832.44
621.746	32718.09
622.101	33116.73
622.457	32814.82
622.812	32880.12
623.168	33133.45
623.523	33081.93
623.879	32988.82
624.234	32746.34
624.589	32907.69
624.945	33108.37
625.3	33009.16
625.655	32954.7
626.01	32955.6
626.365	32996.51
626.72	32849.62
627.075	32956.28
627.43	32823.85
627.785	32697.3
628.14	32954.47
628.495	32832.22
628.85	32835.61
629.205	32792.44
629.559	32889.16
629.914	32795.61
630.269	32757.19
630.623	32725.33
630.978	32728.26
631.332	32776.17
631.687	32728.49
632.041	32754.25
632.396	32836.06
632.75	32502.51
633.104	32572.56
633.459	32455.73
633.813	32514.48
634.167	32504.54
634.521	32453.69
634.875	32297.31
635.229	32332.79
635.583	32287.15
635.937	32292.57
636.291	32312.23
636.645	32321.95
636.999	32133.25
637.352	32211.67
637.706	32085.79
638.06	32273.59
638.413	32148.17
638.767	32083.31
639.121	32151.56
639.474	31828.85
639.828	31918.12
640.181	32022.52
640.534	31926.93
640.888	31817.55
641.241	31608.07
641.594	31809.64
641.947	31809.19
642.301	31715.64
642.654	31746.37
643.007	31667.95
643.36	31639.7
643.713	31548.86
644.066	31753.15
644.419	31499.82
644.771	31328.3
645.124	31091.92
645.477	30974.86
645.83	30811.25
646.182	30643.12
646.535	30443.8
646.888	30541.65
647.24	30428.44
647.593	30433.86
647.945	30434.31
648.298	30204.49
648.65	30137.82
649.002	30221.21
649.355	30277.93
649.707	30286.52
650.059	30470.24
650.411	30820.52
650.763	30593.86
651.115	31112.04
651.467	30980.51
651.819	30921.08
652.171	30844.7
652.523	30722.44
652.875	30696.68
653.227	30786.39
653.578	30850.35
653.93	30784.81
654.282	30492.39
654.633	30425.27
654.985	30586.4
655.337	30528.1
655.688	30652.16
656.039	30689.67
656.391	30441.32
656.742	30535.1
657.094	30427.08
657.445	30542.56
657.796	30492.84
658.147	30392.73
658.498	30488.32
658.849	30434.99
659.2	30408.32
659.551	30197.71
659.902	30438.38
660.253	30355.9
660.604	30408.55
660.955	30163.36
661.306	30317.03
661.656	30284.49
662.007	30332.62
662.358	30187.54
662.708	30139.41
663.059	30266.86
663.409	29855.12
663.76	30230.93
664.11	30230.7
664.461	30309.8
664.811	30207.65
665.161	30123.13
665.511	30049.69
665.862	30005.62
666.212	30143.47
666.562	30062.57
666.912	30118.39
667.262	29968.56
667.612	30051.5
667.962	30050.82
668.312	30012.63
668.662	30161.78
669.011	30019.63
669.361	29930.37
669.711	29802.46
670.06	29835.91
670.41	29910.26
670.76	29804.72
671.109	29986.41
671.459	29900.09
671.808	29629.14
672.157	29819.41
672.507	29850.37
672.856	29718.17
673.205	29732.86
673.554	29780.54
673.904	29657.16
674.253	29882.46
674.602	29804.72
674.951	29352.99
675.3	29143.05
675.649	29604.5
675.998	29485.64
676.346	29421.68
676.695	29618.29
677.044	29357.05
677.393	29481.8
677.741	29463.04
678.09	29343.27
678.438	29376.04
678.787	29457.39
679.135	29424.62
679.484	29025.08
679.832	29311.63
680.181	29179.43
680.529	29117.96
680.877	29134.91
681.225	29152.54
681.573	29252.2
681.922	29031.19
682.27	28965.42
682.618	28934.92
682.966	28958.42
683.314	28926.33
683.661	28955.93
684.009	28778.31
684.357	28735.37
684.705	28642.27
685.053	28596.85
685.4	28571.31
685.748	28362.05
686.095	28450.41
686.443	28205.67
686.79	28275.95
687.138	28316.4
687.485	28322.28
687.832	28106.24
688.18	28308.27
688.527	28023.75
688.874	28127.48
689.221	28030.53
689.568	27917.32
689.915	27692.92
690.262	27932.91
690.609	27753.03
690.956	27725.68
691.303	27691.33
691.65	27532.69
691.997	27533.15
692.344	27366.6
692.69	27400.27
693.037	27458.35
693.383	27134.29
693.73	27249.54
694.077	27024.91
694.423	27087.96
694.769	26878.7
695.116	26849.1
695.462	26931.13
695.808	26796.22
696.155	26752.15
696.501	26592.83
696.847	26643.68
697.193	26481.87
697.539	26546.51
697.885	26286.85
698.231	26254.99
698.577	26266.29
698.923	26185.38
699.269	26064.71
699.614	25956.46
699.96	25820.2
700.306	25913.53
700.651	25755.57
700.997	25709.69
701.342	25624.5
701.688	25709.24
702.033	25527.78
702.379	25432.86
702.724	25468.34
703.069	25457.95
703.415	25257.5
703.76	25299.53
704.105	25103.38
704.45	25117.39
704.795	24995.59
705.14	24934.34
705.485	24855.7
705.83	24829.71
706.175	24784.07
706.52	24720.56
706.865	24646.22
707.209	24612.09
707.554	24554.47
707.899	24455.26
708.243	24455.71
708.588	24378.88
708.932	24290.29
709.277	24311.99
709.621	24241.93
709.966	24079.45
710.31	24121.03
710.654	23945.9
710.998	23948.38
711.342	23994.71
711.687	23882.17
712.031	23816.41
712.375	23705.9
712.719	23731.89
713.063	23707.94
713.407	23808.72
713.75	23621.84
714.094	23640.59
714.438	23461.61
714.782	23513.36
715.125	23407.6
715.469	23326.7
715.812	23274.5
716.156	23195.63
716.499	23215.75
716.843	23191.79
717.186	23049.87
717.53	23049.65
717.873	23151.79
718.216	23105.47
718.559	22904.79
718.902	22826.83
719.246	22939.14
719.589	22849.2
719.932	22743.44
720.275	22746.38
720.617	22676.55
720.96	22635.65
721.303	22626.16
721.646	22646.27
721.989	22471.81
722.331	22556.78
722.674	22471.13
723.016	22426.84
723.359	22318.37
723.701	22446.95
724.044	22229.33
724.386	22201.08
724.729	22305.71
725.071	22177.81
725.413	22198.15
725.755	22185.26
726.097	22063.91
726.439	22027.98
726.782	21958.38
727.124	22178.03
727.465	21884.03
727.807	21867.31
728.149	21802.9
728.491	21784.6
728.833	21830.47
729.175	21718.38
729.516	21724.03
729.858	21680.64
730.199	21593.42
730.541	21645.84
730.882	21565.85
731.224	21633.64
731.565	21544.38
731.906	21467.32
732.248	21505.73
732.589	21385.29
732.93	21349.35
733.271	21371.95
733.612	21385.29
733.953	21507.99
734.294	21215.8
734.635	21350.26
734.976	21343.93
735.317	21207.44
735.658	21266.87
735.999	21180.54
736.339	21112.52
736.68	21088.8
737.021	21052.64
737.361	20871.17
737.702	20967.44
738.042	20897.16
738.383	20889.03
738.723	20933.77
739.063	20872.53
739.404	20853.32
739.744	20781.46
740.084	20693.78
740.424	20667.56
740.764	20631.86
741.104	20688.35
741.444	20638.19
741.784	20556.15
742.124	20521.81
742.464	20548.25
742.804	20574.69
743.143	20388.02
743.483	20451.75
743.823	20390.96
744.162	20368.36
744.502	20395.93
744.841	20400.9
745.181	20381.7
745.52	20277.07
745.86	20249.27
746.199	20123.62
746.538	20292.21
746.877	20253.11
747.216	20144.64
747.556	20071.65
747.895	20002.27
748.234	19973.8
748.573	19972.89
748.911	20036.17
749.25	19889.05
749.589	19783.29
749.928	19877.98
750.267	19896.51
750.605	19894.7
750.944	19693.8
751.283	19644.54
751.621	19704.2
751.96	19465.11
752.298	19590.98
752.636	19541.49
752.975	19399.35
753.313	19343.08
753.651	19355.06
753.989	19295.62
754.327	19317.32
