Data from breadboard_black_back_FLMS001491_00035.txt Node
Date: Wed Feb 08 10:50:18 GMT 2017
User: dcchb
Spectrometer: FLMS00149
Trigger mode: 0
Integration Time (sec): 2.000000E-2
Scans to average: 10
Electric dark correction enabled: true
Nonlinearity correction enabled: false
Boxcar width: 0
XAxis mode: Wavelengths
Number of Pixels in Spectrum: 2048
>>>>>Begin Spectral Data<<<<<
341.393	4.08
341.776	4.08
342.16	4.08
342.543	-33.66
342.927	-65.29
343.31	-56.93
343.693	-70.72
344.077	-58.29
344.46	-49.7
344.843	-51.51
345.226	-54.9
345.61	-49.25
345.993	-19.19
346.376	-17.16
346.759	9.05
347.142	48.83
347.525	25.32
347.908	56.96
348.291	70.52
348.674	106.9
349.057	110.07
349.44	122.5
349.823	135.15
350.206	173.79
350.588	201.14
350.971	226.9
351.354	236.17
351.737	259.22
352.119	261.48
352.502	274.36
352.884	272.32
353.267	309.61
353.65	299.67
354.032	288.14
354.414	301.02
354.797	314.58
355.179	320.23
355.562	349.38
355.944	316.62
356.326	340.57
356.709	322.04
357.091	353.45
357.473	356.16
357.855	366.33
358.238	347.58
358.62	364.07
359.002	372.66
359.384	354.58
359.766	374.47
360.148	352.55
360.53	354.81
360.912	358.87
361.294	359.55
361.676	370.63
362.057	341.93
362.439	347.8
362.821	341.93
363.203	352.32
363.584	351.42
363.966	352.77
364.348	354.36
364.729	359.55
365.111	326.79
365.493	328.59
365.874	333.56
366.256	331.53
366.637	353.68
367.019	350.29
367.4	345.54
367.781	347.58
368.163	350.51
368.544	355.26
368.925	314.13
369.306	339.89
369.688	340.8
370.069	358.65
370.45	377.86
370.831	362.72
371.212	378.31
371.593	352.32
371.974	350.97
372.355	348.25
372.736	338.54
373.117	381.25
373.498	340.34
373.879	367.69
374.26	347.12
374.641	360.23
375.021	354.81
375.402	347.8
375.783	364.98
376.163	381.92
376.544	385.99
376.925	382.83
377.305	375.82
377.686	375.6
378.066	388.48
378.447	393.22
378.827	386.22
379.208	377.41
379.588	403.62
379.968	386.44
380.349	403.39
380.729	393.22
381.109	403.62
381.489	393.9
381.87	392.77
382.25	414.47
382.63	414.92
383.01	425.54
383.39	411.75
383.77	435.26
384.15	429.38
384.53	421.47
384.91	418.08
385.29	435.26
385.67	440.23
386.049	445.43
386.429	425.77
386.809	451.98
387.189	452.43
387.568	443.84
387.948	449.95
388.328	467.35
388.707	456.95
389.087	465.76
389.466	453.56
389.846	472.09
390.225	468.93
390.605	476.61
390.984	497.18
391.363	501.7
391.743	489.72
392.122	509.61
392.501	498.53
392.881	496.27
393.26	520.9
393.639	502.37
394.018	522.03
394.397	532.88
394.776	533.11
395.155	519.55
395.534	529.72
395.913	524.07
396.292	537.85
396.671	521.81
397.05	538.98
397.429	539.43
397.808	546.44
398.186	571.75
398.565	538.53
398.944	551.64
399.323	560.9
399.701	567.23
400.08	576.5
400.458	569.49
400.837	572.43
401.215	583.95
401.594	574.69
401.972	588.93
402.351	615.82
402.729	604.74
403.107	606.78
403.486	618.3
403.864	608.13
404.242	615.37
404.62	635.48
404.999	639.09
405.377	676.83
405.755	664.4
406.133	645.87
406.511	656.72
406.889	694.01
407.267	677.96
407.645	687.68
408.023	690.62
408.401	707.11
408.779	704.85
409.156	721.35
409.534	710.96
409.912	737.62
410.29	748.92
410.667	717.28
411.045	780.11
411.422	751.63
411.8	755.25
412.178	767.9
412.555	806.09
412.933	783.5
413.31	807.68
413.687	808.35
414.065	816.94
414.442	819.2
414.819	842.48
415.197	850.16
415.574	863.95
415.951	880.89
416.328	887.22
416.705	873.21
417.082	892.87
417.46	884.28
417.837	893.55
418.214	900.33
418.591	907.79
418.967	931.29
419.344	925.87
419.721	980.1
420.098	955.7
420.475	969.71
420.852	968.12
421.228	974.9
421.605	976.49
421.982	992.76
422.358	995.92
422.735	1049.93
423.111	1038.18
423.488	1017.39
423.864	1054.22
424.241	1081.79
424.617	1048.8
424.994	1085.18
425.37	1077.05
425.746	1083.83
426.123	1103.49
426.499	1095.58
426.875	1129.25
427.251	1134
427.627	1179.64
428.003	1156.82
428.379	1189.36
428.756	1152.3
429.132	1219.87
429.507	1232.07
429.883	1223.71
430.259	1275.46
430.635	1254.22
431.011	1300.77
431.387	1311.17
431.763	1307.1
432.138	1321.11
432.514	1348.23
432.89	1371.28
433.265	1394.33
433.641	1403.82
434.016	1400.2
434.392	1432.29
434.767	1455.57
435.143	1455.34
435.518	1467.55
435.894	1488.11
436.269	1518.84
436.644	1550.26
437.02	1534.89
437.395	1524.49
437.77	1588.67
438.145	1597.03
438.52	1610.14
438.895	1639.97
439.271	1613.08
439.646	1667.99
440.021	1672.96
440.395	1682.46
440.77	1666.64
441.145	1682.91
441.52	1760.65
441.895	1712.29
442.27	1727.2
442.645	1733.08
443.019	1757.71
443.394	1751.61
443.769	1776.01
444.143	1748.89
444.518	1811.49
444.892	1809.91
445.267	1849.01
445.641	1838.16
446.016	1855.11
446.39	1880.19
446.764	1866.18
447.139	1882
447.513	1900.98
447.887	1883.13
448.262	1919.74
448.636	1933.52
449.01	1954.54
449.384	1980.75
449.758	1978.04
450.132	2003.8
450.506	2013.75
450.88	2065.72
451.254	2025.27
451.628	2043.12
452.002	2100.52
452.376	2093.97
452.75	2144.14
453.123	2179.62
453.497	2207.87
453.871	2196.34
454.244	2241.09
454.618	2283.57
454.992	2283.57
455.365	2311.82
455.739	2347.3
456.112	2359.27
456.486	2396.79
456.859	2423.23
457.232	2467.52
457.606	2453.96
457.979	2481.3
458.352	2588.65
458.725	2594.07
459.099	2597.23
459.472	2694.63
459.845	2663.67
460.218	2692.6
460.591	2751.35
460.964	2709.1
461.337	2779.38
461.71	2833.61
462.083	2863.22
462.456	2857.11
462.829	2942.76
463.201	2980.05
463.574	2955.42
463.947	2986.83
464.32	3066.6
464.692	3102.08
465.065	3129.2
465.438	3145.24
465.81	3201.74
466.183	3256.88
466.555	3281.06
466.928	3375.07
467.3	3334.16
467.672	3427.72
468.045	3491.22
468.417	3480.37
468.789	3511.33
469.161	3540.71
469.534	3594.72
469.906	3693.7
470.278	3680.14
470.65	3764.21
471.022	3806.47
471.394	3890.53
471.766	3909.52
472.138	3989.97
472.51	4026.12
472.882	4158.55
473.253	4156.97
473.625	4236.06
473.997	4323.06
474.369	4340.24
474.74	4387.24
475.112	4465.43
475.484	4515.83
475.855	4581.59
476.227	4655.48
476.598	4773.22
476.97	4828.14
477.341	4984.74
477.713	5008.02
478.084	5034.01
478.455	5168.69
478.827	5232.64
479.198	5316.94
479.569	5373.88
479.94	5537.04
480.311	5569.36
480.682	5680.99
481.053	5828.34
481.424	5900.42
481.795	5968.67
482.166	6037.14
482.537	6119.63
482.908	6243.47
483.279	6334.99
483.65	6443.23
484.021	6559.16
484.391	6633.51
484.762	6677.35
485.133	6770.01
485.503	6842.77
485.874	7061.52
486.244	7110.79
486.615	7189.2
486.985	7332.48
487.356	7451.34
487.726	7492.47
488.097	7640.04
488.467	7703.77
488.837	7866.47
489.207	7920.26
489.578	8061.27
489.948	8117.77
490.318	8195.28
490.688	8273.02
491.058	8388.72
491.428	8554.59
491.798	8594.82
492.168	8758.2
492.538	8808.82
492.908	8887.69
493.278	9116.61
493.648	9058.08
494.017	9156.61
494.387	9239.77
494.757	9366.55
495.126	9450.16
495.496	9525.19
495.866	9552.08
496.235	9654.45
496.605	9724.05
496.974	9757.95
497.344	9862.13
497.713	9935.35
498.082	10049.24
498.452	10199.07
498.821	10213.98
499.19	10229.8
499.559	10290.14
499.928	10412.62
500.298	10500.98
500.667	10607.64
501.036	10594.31
501.405	10733.52
501.774	10819.62
502.143	10825.72
502.512	10908.2
502.88	10957.01
503.249	11023
503.618	11120.63
503.987	11152.26
504.356	11311.13
504.724	11326.95
505.093	11346.16
505.462	11405.82
505.83	11549.99
506.199	11697.33
506.567	11719.03
506.936	11876.31
507.304	11973.03
507.672	11981.17
508.041	12126.7
508.409	12210.09
508.777	12290.31
509.145	12443.3
509.514	12366.69
509.882	12543.19
510.25	12560.36
510.618	12644.2
510.986	12724.43
511.354	12867.92
511.722	12999.22
512.09	13077.86
512.458	13107.01
512.826	13243.06
513.193	13221.59
513.561	13291.87
513.929	13478.98
514.297	13572.31
514.664	13690.73
515.032	13707
515.4	13863.83
515.767	13928.91
516.135	14029.7
516.502	13963.49
516.869	14207.78
517.237	14260.88
517.604	14220.66
517.972	14547.43
518.339	14634.88
518.706	14533.19
519.073	14714.88
519.44	14847.53
519.808	15073.97
520.175	15055.66
520.542	15227.86
520.909	15277.8
521.276	15388.76
521.643	15551.47
522.009	15598.02
522.376	15784.68
522.743	15840.05
523.11	16133.83
523.477	16148.52
523.843	16285.46
524.21	16470.77
524.577	16538.34
524.943	16673.7
525.31	16692.91
525.676	16912.79
526.043	17021.94
526.409	17140.35
526.776	17252.89
527.142	17386.68
527.508	17419.67
527.874	17608.14
528.241	17738.08
528.607	17806.1
528.973	17971.29
529.339	17992.99
529.705	18251.96
530.071	18328.12
530.437	18433.65
530.803	18575.34
531.169	18591.62
531.535	18684.95
531.901	18795.45
532.267	18799.07
532.632	19045.39
532.998	18972.4
533.364	19194.09
533.73	19187.31
534.095	19389.33
534.461	19417.58
534.826	19516.79
535.192	19663
535.557	19761.08
535.923	19783.22
536.288	19891.02
536.653	20020.05
537.019	19924.01
537.384	20130.78
537.749	20170.78
538.114	20233.61
538.479	20255.98
538.845	20407.61
539.21	20481.51
539.575	20488.29
539.94	20470.66
540.305	20642.41
540.67	20684.67
541.034	20857.32
541.399	20900.03
541.764	20944.77
542.129	21109.06
542.494	21056.64
542.858	21215.05
543.223	21361.26
543.587	21387.25
543.952	21419.56
544.316	21383.86
544.681	21496.62
545.045	21653.68
545.41	21733.23
545.774	21763.96
546.138	21820.23
546.503	21911.98
546.867	21876.73
547.231	22197.4
547.595	22095.03
547.959	22230.84
548.324	22279.88
548.688	22366.43
549.052	22435.58
549.416	22434.9
549.779	22514.68
550.143	22627.89
550.507	22724.39
550.871	22780.66
551.235	22782.47
551.599	23077.83
551.962	23114.89
552.326	23074.89
552.689	23298.16
553.053	23228.56
553.417	23308.1
553.78	23612.5
554.143	23588.55
554.507	23726.4
554.87	23633.29
555.234	23978.59
555.597	23763.68
555.96	23969.55
556.323	24228.08
556.686	24144.46
557.05	24321.86
557.413	24468.3
557.776	24408.19
558.139	24666.48
558.502	24615.41
558.865	24770.89
559.228	24898.57
559.59	24965.01
559.953	25136.98
560.316	25312.57
560.679	25381.04
561.041	25517.08
561.404	25576.06
561.767	25776.06
562.129	25692.9
562.492	26043.62
562.854	25997.3
563.217	26035.71
563.579	26154.35
563.941	26364.29
564.304	26415.36
564.666	26538.53
565.028	26663.72
565.39	26723.38
565.753	26953.43
566.115	26961.57
566.477	27085.4
566.839	27279.75
567.201	27399.97
567.563	27406.3
567.925	27567.42
568.287	27670.47
568.648	27672.51
569.01	28009.45
569.372	27985.49
569.734	27939.39
570.095	28181.65
570.457	28143
570.819	28283.56
571.18	28250.57
571.542	28406.72
571.903	28524.69
572.265	28633.61
572.626	28804.91
572.987	28684.01
573.349	28849.43
573.71	28935.98
574.071	28848.3
574.432	29142.98
574.794	29316.08
575.155	29287.61
575.516	29260.04
575.877	29415.29
576.238	29457.77
576.599	29650.99
576.96	29624.77
577.32	29615.28
577.681	29691.44
578.042	29843.52
578.403	29824.31
578.763	29876.74
579.124	29880.81
579.485	30060.24
579.845	30094.59
580.206	29987.47
580.566	30052.78
580.927	30170.07
581.287	30199.9
581.648	30168.03
582.008	30198.99
582.368	30087.81
582.728	30328.03
583.089	30239.9
583.449	30360.57
583.809	30260.01
584.169	30307.47
584.529	30301.82
584.889	30415.94
585.249	30180.92
585.609	30278.99
585.969	30594.24
586.329	30318.31
586.688	30456.84
587.048	30338.2
587.408	30425.65
587.768	30417.07
588.127	30425.2
588.487	30384.3
588.846	30434.69
589.206	30290.97
589.565	30320.8
589.925	30588.81
590.284	30394.02
590.643	30549.95
591.003	30456.16
591.362	30602.6
591.721	30462.04
592.08	30628.81
592.44	30641.24
592.799	30740.22
593.158	30474.92
593.517	30522.15
593.876	30652.77
594.235	30624.52
594.593	30692.99
594.952	30643.28
595.311	30597.63
595.67	30664.74
596.029	30926.21
596.387	30850.28
596.746	30922.82
597.104	30796.27
597.463	30845.76
597.822	30847.34
598.18	30891.63
598.538	30778.19
598.897	31063.15
599.255	30776.15
599.613	31158.52
599.972	31041.68
600.33	31065.41
600.688	30846.66
601.046	31121
601.404	31144.96
601.762	31031.06
602.12	31159.19
602.478	31208.46
602.836	31204.39
603.194	31075.36
603.552	31271.51
603.91	31040.33
604.268	31142.02
604.625	31194.45
604.983	31323.03
605.341	31260.44
605.698	31404.16
606.056	31446.64
606.413	31446.87
606.771	31535
607.128	31499.75
607.485	31473.08
607.843	31505.17
608.2	31679.41
608.557	31758.95
608.914	31647.54
609.272	31717.82
609.629	31871.94
609.986	32044.37
610.343	31781.78
610.7	32045.73
611.057	32021.32
611.414	31919.63
611.771	31908.1
612.127	32030.36
612.484	31997.36
612.841	32090.02
613.198	32017.93
613.554	32116.91
613.911	32254.99
614.267	32384.7
614.624	32129.34
614.98	32245.04
615.337	32449.1
615.693	32267.41
616.05	32292.05
616.406	32559.61
616.762	32371.37
617.118	32434.64
617.475	32501.53
617.831	32561.19
618.187	32519.39
618.543	32604.35
618.899	32682.77
619.255	32716.67
619.611	32677.57
619.967	32731.13
620.323	32730.23
620.678	32744.92
621.034	32596.67
621.39	32651.81
621.746	32648.42
622.101	32985.81
622.457	32587.63
622.812	32618.14
623.168	32906.27
623.523	32940.16
623.879	32901.07
624.234	32652.26
624.589	32751.92
624.945	32858.81
625.3	32765.25
625.655	32813.84
626.01	32758.93
626.365	32783.33
626.72	32763.22
627.075	32753.5
627.43	32831.47
627.785	32734.75
628.14	32788.53
628.495	32663.34
628.85	32795.99
629.205	32677.57
629.559	32816.33
629.914	32618.14
630.269	32731.58
630.623	32686.84
630.978	32552.15
631.332	32722.09
631.687	32734.29
632.041	32519.16
632.396	32577.24
632.75	32506.73
633.104	32501.98
633.459	32407.98
633.813	32339.28
634.167	32271.03
634.521	32304.93
634.875	32313.97
635.229	32189.45
635.583	32314.87
635.937	32179.51
636.291	32118.27
636.645	32029.91
636.999	32075.1
637.352	32073.3
637.706	31818.84
638.06	32035.78
638.413	31978.83
638.767	31863.36
639.121	32078.49
639.474	31846.63
639.828	31749.46
640.181	31829.23
640.534	31880.31
640.888	31600.77
641.241	31651.61
641.594	31551.27
641.947	31703.81
642.301	31493.65
642.654	31537.49
643.007	31513.31
643.36	31454.78
643.713	31390.83
644.066	31473.99
644.419	31277.38
644.771	31179.99
645.124	30819.54
645.477	30845.53
645.83	30637.17
646.182	30464.52
646.535	30351.76
646.888	30280.8
647.24	30235.15
647.593	30354.24
647.945	30273.12
648.298	30100.47
648.65	30023.86
649.002	29904.54
649.355	30097.08
649.707	30120.58
650.059	30231.54
650.411	30691.64
650.763	30494.58
651.115	30742.48
651.467	30744.06
651.819	30869.94
652.171	30714.23
652.523	30655.03
652.875	30682.82
653.227	30523.51
653.578	30775.48
653.93	30532.54
654.282	30427.24
654.633	30288.03
654.985	30370.74
655.337	30353.57
655.688	30454.13
656.039	30489.38
656.391	30244.42
656.742	30298.43
657.094	30246
657.445	30431.53
657.796	30250.97
658.147	30229.73
658.498	30271.31
658.849	30305.66
659.2	30128.71
659.551	30138.43
659.902	30176.85
660.253	30091.65
660.604	30238.09
660.955	29980.47
661.306	30170.07
661.656	30161.93
662.007	30186.57
662.358	30060.69
662.708	30042.39
663.059	29937.53
663.409	29826.12
663.76	30206.68
664.11	29964.88
664.461	29983.41
664.811	29951.77
665.161	29930.75
665.511	29816.41
665.862	29947.93
666.212	29959.9
666.562	29867.03
666.912	29882.17
667.262	29712.91
667.612	29838.55
667.962	29955.16
668.312	29867.25
668.662	29906.57
669.011	29745.67
669.361	29824.31
669.711	29641.04
670.06	29746.35
670.41	29735.28
670.76	29596.3
671.109	29770.76
671.459	29651.66
671.808	29680.59
672.157	29695.28
672.507	29463.87
672.856	29467.26
673.205	29480.37
673.554	29653.92
673.904	29444.66
674.253	29634.26
674.602	29498.9
674.951	29173.48
675.3	28855.98
675.649	29355.17
675.998	29377.32
676.346	29370.09
676.695	29451.9
677.044	29138.91
677.393	29173.03
677.741	29201.51
678.09	29213.48
678.438	29131.68
678.787	29226.14
679.135	29333.25
679.484	28966.48
679.832	29129.87
680.181	28879.25
680.529	29024.56
680.877	28940.72
681.225	28774.4
681.573	29112.24
681.922	28727.85
682.27	28809.43
682.618	28788.18
682.966	28732.59
683.314	28706.38
683.661	28572.14
684.009	28551.58
684.357	28436.55
684.705	28450.79
685.053	28465.48
685.4	28340.74
685.748	28275.65
686.095	28271.81
686.443	28103.23
686.79	28010.35
687.138	28044.47
687.485	28132.38
687.832	27967.19
688.18	27971.71
688.527	27799.06
688.874	27873.86
689.221	27745.5
689.568	27558.84
689.915	27599.74
690.262	27703.92
690.609	27698.27
690.956	27462.57
691.303	27492.85
691.65	27374.21
691.997	27265.06
692.344	27147.77
692.69	27107.1
693.037	27035.91
693.383	26984.62
693.73	27046.08
694.077	26814.22
694.423	26840.66
694.769	26677.5
695.116	26632.08
695.462	26634.79
695.808	26541.46
696.155	26661.46
696.501	26449.94
696.847	26324.75
697.193	26115.49
697.539	26220.34
697.885	26039.33
698.231	26093.79
698.577	26018.31
698.923	26068.71
699.269	25854.48
699.614	25619.45
699.96	25731.77
700.306	25691.77
700.651	25486.12
700.997	25529.51
701.342	25473.92
701.688	25433.92
702.033	25319.57
702.379	25376.52
702.724	25235.73
703.069	25368.84
703.415	24952.8
703.76	24977.66
704.105	24890.89
704.45	24913.71
704.795	24727.27
705.14	24802.75
705.485	24759.59
705.83	24642.3
706.175	24609.31
706.52	24471.91
706.865	24492.48
707.209	24430.56
707.554	24377.23
707.899	24356.66
708.243	24237.79
708.588	24251.58
708.932	24065.6
709.277	24102.43
709.621	24072.6
709.966	23944.24
710.31	24027.86
710.654	23724.81
710.998	23805.04
711.342	23732.5
711.687	23694.76
712.031	23612.05
712.375	23523.69
712.719	23551.71
713.063	23474.43
713.407	23615.89
713.75	23466.29
714.094	23365.73
714.438	23327.31
714.782	23349.91
715.125	23220.65
715.469	23154.66
715.812	23082.35
716.156	22975.46
716.499	22948.79
716.843	23034.89
717.186	22853.88
717.53	22986.98
717.873	22861.11
718.216	22939.52
718.559	22781.11
718.902	22572.98
719.246	22611.85
719.589	22609.82
719.932	22517.16
720.275	22538.63
720.617	22482.59
720.96	22434.9
721.303	22397.39
721.646	22427.45
721.989	22293.67
722.331	22346.55
722.674	22283.5
723.016	22240.11
723.359	22173.67
723.701	22202.82
724.044	22113.78
724.386	21904.75
724.729	22002.83
725.071	21948.36
725.413	22011.19
725.755	21925.77
726.097	21748.14
726.439	21751.31
726.782	21804.41
727.124	21879.44
727.465	21613.01
727.807	21642.16
728.149	21640.58
728.491	21667.92
728.833	21607.13
729.175	21514.25
729.516	21524.42
729.858	21480.13
730.199	21523.97
730.541	21432.22
730.882	21329.62
731.224	21465.21
731.565	21294.37
731.906	21319.91
732.248	21288.95
732.589	21126.92
732.93	21151.55
733.271	21171.43
733.612	21159.01
733.953	21180.7
734.294	21068.39
734.635	21027.26
734.976	20999.01
735.317	21012.57
735.658	20954.49
735.999	20887.6
736.339	20946.81
736.68	20909.75
737.021	20876.3
737.361	20672.24
737.702	20678.79
738.042	20686.7
738.383	20665.01
738.723	20652.35
739.063	20542.52
739.404	20656.19
739.744	20577.78
740.084	20534.62
740.424	20512.92
740.764	20455.3
741.104	20521.73
741.444	20454.62
741.784	20277.67
742.124	20319.93
742.464	20334.62
742.804	20270.22
743.143	20270.89
743.483	20235.87
743.823	20113.84
744.162	20208.97
744.502	20136.21
744.841	20146.38
745.181	20105.93
745.52	19999.94
745.86	20134.85
746.199	19949.77
746.538	19998.81
746.877	20001.75
747.216	19879.94
747.556	19931.24
747.895	19912.03
748.234	19711.81
748.573	19854.41
748.911	19768.31
749.25	19712.72
749.589	19653.28
749.928	19596.34
750.267	19576
750.605	19471.59
750.944	19413.29
751.283	19463.68
751.621	19388.66
751.96	19286.74
752.298	19279.73
752.636	19303.69
752.975	19182.33
753.313	19171.04
753.651	19210.81
753.989	19047.2
754.327	19000.64
