Data from breadboard_white_FLMS001491_00057.txt Node
Date: Wed Feb 08 10:47:56 GMT 2017
User: dcchb
Spectrometer: FLMS00149
Trigger mode: 0
Integration Time (sec): 2.000000E-2
Scans to average: 10
Electric dark correction enabled: true
Nonlinearity correction enabled: false
Boxcar width: 0
XAxis mode: Wavelengths
Number of Pixels in Spectrum: 2048
>>>>>Begin Spectral Data<<<<<
341.393	-13.4
341.776	-13.4
342.16	-13.4
342.543	-65.61
342.927	-57.7
343.31	-82.1
343.693	-85.72
344.077	-62.44
344.46	-51.59
344.843	-62.67
345.226	-38.26
345.61	-22.89
345.993	2.42
346.376	-21.09
346.759	12.58
347.142	19.82
347.525	51.23
347.908	43.54
348.291	72.24
348.674	114.73
349.057	110.21
349.44	124.22
349.823	152.02
350.206	164.22
350.588	203.77
350.971	214.39
351.354	257.78
351.737	258.68
352.119	269.98
352.502	279.02
352.884	291.67
353.267	294.16
353.65	309.75
354.032	312.92
354.414	319.02
354.797	335.74
355.179	335.06
355.562	345.91
355.944	337.55
356.326	349.07
356.709	362.41
357.091	344.55
357.473	368.96
357.855	355.17
358.238	358.56
358.62	350.88
359.002	368.28
359.384	360.15
359.766	377.32
360.148	348.17
360.53	372.35
360.912	384.1
361.294	361.5
361.676	370.77
362.057	364.67
362.439	360.15
362.821	365.12
363.203	329.19
363.584	362.41
363.966	370.77
364.348	374.61
364.729	357.43
365.111	351.33
365.493	357.21
365.874	374.16
366.256	364.67
366.637	356.98
367.019	353.82
367.4	360.15
367.781	362.18
368.163	346.36
368.544	324.67
368.925	379.13
369.306	365.12
369.688	366.7
370.069	347.26
370.45	362.86
370.831	361.95
371.212	341.39
371.593	353.59
371.974	375.51
372.355	341.84
372.736	383.42
373.117	379.58
373.498	367.38
373.879	342.75
374.26	357.43
374.641	346.81
375.021	375.29
375.402	390.43
375.783	387.26
376.163	382.97
376.544	387.94
376.925	384.78
377.305	391.11
377.686	372.57
378.066	394.04
378.447	394.27
378.827	381.39
379.208	387.49
379.588	426.13
379.968	419.13
380.349	398.56
380.729	417.09
381.109	404.89
381.489	415.74
381.87	428.62
382.25	435.17
382.63	443.76
383.01	417.77
383.39	430.65
383.77	438.79
384.15	441.73
384.53	419.35
384.91	444.89
385.29	437.66
385.67	437.43
386.049	453.7
386.429	470.65
386.809	480.82
387.189	473.36
387.568	459.8
387.948	476.08
388.328	471.56
388.707	508.16
389.087	497.54
389.466	487.83
389.846	505.23
390.225	513.59
390.605	515.62
390.984	492.12
391.363	526.02
391.743	517.43
392.122	544.55
392.501	542.74
392.881	548.62
393.26	550.65
393.639	545.45
394.018	551.78
394.397	583.64
394.776	563.53
395.155	589.74
395.534	578.22
395.913	602.4
396.292	605.79
396.671	625.45
397.05	605.56
397.429	622.51
397.808	627.71
398.186	644.66
398.565	658.22
398.944	648.27
399.323	668.39
399.701	698.89
400.08	695.5
400.458	694.6
400.837	741.15
401.215	723.53
401.594	730.08
401.972	713.58
402.351	753.81
402.729	764.66
403.107	770.98
403.486	780.47
403.864	806.69
404.242	814.82
404.62	838.1
404.999	862.51
405.377	855.5
405.755	846.01
406.133	881.71
406.511	901.83
406.889	917.87
407.267	924.88
407.645	960.58
408.023	966.68
408.401	988.15
408.779	1023.63
409.156	1011.2
409.534	1035.38
409.912	1073.12
410.29	1095.49
410.667	1095.95
411.045	1140.92
411.422	1158.32
411.8	1178.2
412.178	1195.38
412.555	1215.26
412.933	1236.73
413.31	1274.7
413.687	1279.9
414.065	1298.65
414.442	1336.62
414.819	1342.49
415.197	1384.75
415.574	1409.38
415.951	1420.01
416.328	1434.92
416.705	1458.42
417.082	1463.17
417.46	1477.63
417.837	1525.99
418.214	1549.04
418.591	1563.05
418.967	1551.53
419.344	1574.13
419.721	1620.23
420.098	1614.8
420.475	1652.54
420.852	1702.03
421.228	1685.08
421.605	1724.4
421.982	1737.28
422.358	1749.94
422.735	1762.14
423.111	1783.16
423.488	1864.06
423.864	1844.85
424.241	1874.91
424.617	1918.97
424.994	1910.16
425.37	1947.22
425.746	1954.91
426.123	1957.62
426.499	1989.93
426.875	2023.38
427.251	2097.28
427.627	2107.22
428.003	2137.95
428.379	2151.74
428.756	2154.67
429.132	2238.06
429.507	2243.26
429.883	2277.84
430.259	2296.37
430.635	2321.45
431.011	2365.29
431.387	2391.5
431.763	2448
432.138	2489.36
432.514	2491.16
432.89	2549.69
433.265	2581.33
433.641	2651.61
434.016	2639.63
434.392	2677.37
434.767	2766.64
435.143	2745.85
435.518	2784.49
435.894	2842.57
436.269	2847.99
436.644	2903.58
437.02	2972.96
437.395	2952.39
437.77	3021.54
438.145	3035.56
438.52	3077.36
438.895	3109
439.271	3121.43
439.646	3182.9
440.021	3214.76
440.395	3248.88
440.77	3232.16
441.145	3284.81
441.52	3344.7
441.895	3320.07
442.27	3356.68
442.645	3388.99
443.019	3435.09
443.394	3426.73
443.769	3452.04
444.143	3441.65
444.518	3507.63
444.892	3517.35
445.267	3570.68
445.641	3581.3
446.016	3626.5
446.39	3643.45
446.764	3680.51
447.139	3688.19
447.513	3723.22
447.887	3730.23
448.262	3800.96
448.636	3833.5
449.01	3834.86
449.384	3880.05
449.758	3922.09
450.132	3929.09
450.506	3964.12
450.88	4035.53
451.254	4038.47
451.628	4082.53
452.002	4159.14
452.376	4169.09
452.75	4197.79
453.123	4234.62
453.497	4322.75
453.871	4363.2
454.244	4438
454.618	4499.7
454.992	4601.16
455.365	4561.39
455.739	4691.56
456.112	4715.29
456.486	4747.6
456.859	4827.37
457.232	4938.33
457.606	4936.75
457.979	4934.04
458.352	5082.51
458.725	5178.55
459.099	5185.33
459.472	5301.94
459.845	5341.71
460.218	5369.05
460.591	5421.71
460.964	5445.21
461.337	5621.93
461.71	5709.61
462.083	5758.42
462.456	5733.11
462.829	5836.39
463.201	5916.84
463.574	5974.46
463.947	6036.15
464.32	6178.07
464.692	6212.65
465.065	6242.7
465.438	6412.19
465.81	6461.45
466.183	6543.94
466.555	6732.86
466.928	6703.03
467.3	6734.22
467.672	6889.01
468.045	7016.69
468.417	7041.33
468.789	7150.02
469.161	7219.63
469.534	7379.85
469.906	7484.03
470.278	7558.15
470.65	7667.07
471.022	7778.93
471.394	8011.7
471.766	8066.16
472.138	8147.51
472.51	8326.49
472.882	8429.99
473.253	8516.77
473.625	8679.93
473.997	8836.53
474.369	8957.21
474.74	9015.51
475.112	9213.47
475.484	9356.07
475.855	9563.29
476.227	9643.07
476.598	9925.77
476.97	9905.43
477.341	10240.11
477.713	10329.15
478.084	10463.38
478.455	10696.6
478.827	10814.79
479.198	11094.1
479.569	11153.76
479.94	11449.12
480.311	11586.74
480.682	11904.48
481.053	12126.62
481.424	12262.66
481.795	12410.9
482.166	12581.52
482.537	12752.81
482.908	13069.19
483.279	13249.3
483.65	13440.25
484.021	13681.83
484.391	13842.05
484.762	14023.29
485.133	14180.35
485.503	14350.74
485.874	14706.21
486.244	14859.43
486.615	15142.58
486.985	15249.92
487.356	15546.87
487.726	15646.75
488.097	15958.15
488.467	16120.18
488.837	16307.75
489.207	16675.65
489.578	16833.16
489.948	16980.05
490.318	17259.81
490.688	17368.29
491.058	17630.88
491.428	17891.66
491.798	18142.28
492.168	18409.61
492.538	18488.26
492.908	18717.18
493.278	18962.14
493.648	19039.2
494.017	19290.27
494.387	19442.36
494.757	19732.29
495.126	19916.24
495.496	19892.74
495.866	20053.87
496.235	20241.66
496.605	20540.63
496.974	20630.12
497.344	20864.24
497.713	20978.13
498.082	21246.6
498.452	21378.12
498.821	21522.08
499.19	21526.6
499.559	21894.95
499.928	22021.72
500.298	22097.43
500.667	22396.18
501.036	22318.89
501.405	22575.83
501.774	22635.72
502.143	22849.5
502.512	22928.37
502.88	23094.24
503.249	23184.86
503.618	23444.96
503.987	23531.29
504.356	23762.47
504.724	23920.43
505.093	23918.4
505.462	24186.19
505.83	24302.12
506.199	24563.8
506.567	24781.2
506.936	24945.94
507.304	25212.15
507.672	25236.55
508.041	25378.47
508.409	25676.09
508.777	25889.42
509.145	26007.16
509.514	26068.17
509.882	26251.44
510.25	26360.82
510.618	26732.79
510.986	26689.62
511.354	27144.98
511.722	27264.3
512.09	27553.56
512.458	27408.02
512.826	27754.23
513.193	27913.55
513.561	28116.48
513.929	28280.09
514.297	28540.2
514.664	28721.66
515.032	28954.42
515.4	29198.48
515.767	29333.17
516.135	29536.33
516.502	29427.63
516.869	29843.89
517.237	30064.68
517.604	30154.39
517.972	30447.04
518.339	30538.11
518.706	30748.73
519.073	30904.65
519.44	31261.93
519.808	31455.83
520.175	31602.94
520.542	31964.74
520.909	32267.1
521.276	32194.11
521.643	32591.39
522.009	32763.59
522.376	33063.24
522.743	33261.43
523.11	33707.07
523.477	33935.53
523.843	34146.38
524.21	34437.67
524.577	34731.22
524.943	34987.03
525.31	35115.84
525.676	35499.11
526.043	35605.09
526.409	35770.51
526.776	36321.23
527.142	36247.34
527.508	36488.69
527.874	36884.61
528.241	37071.05
528.607	37125.28
528.973	37545.61
529.339	37733.63
529.705	37982.43
530.071	38259.49
530.437	38362.31
530.803	38564.57
531.169	38824.9
531.535	38881.62
531.901	39059.69
532.267	39301.72
532.632	39479.34
532.998	39545.1
533.364	39972.44
533.73	40015.15
534.095	40301.47
534.461	40511.18
534.826	40595.47
535.192	40628.47
535.557	41098.96
535.923	41047.21
536.288	41330.59
536.653	41472.96
537.019	41350.93
537.384	41681.09
537.749	41937.58
538.114	42177.13
538.479	42034.53
538.845	42354.52
539.21	42174.19
539.575	42504.57
539.94	42594.29
540.305	42893.26
540.67	42850.1
541.034	43041.96
541.399	43268.85
541.764	43444.44
542.129	43497.77
542.494	43607.37
542.858	43842.39
543.223	43841.26
543.587	44227.24
543.952	44140.01
544.316	44233.12
544.681	44307.24
545.045	44673.11
545.41	44812.54
545.774	44853.89
546.138	44886.88
546.503	45157.16
546.867	45072.42
547.231	45369.81
547.595	45391.28
547.959	45519.41
548.324	45678.28
548.688	45687.09
549.052	45939.29
549.416	46118.04
549.779	46177.7
550.143	46343.8
550.507	46640.96
550.871	46707.63
551.235	46683
551.599	47012.25
551.962	47141.51
552.326	47185.58
552.689	47400.72
553.053	47325.46
553.417	47449.53
553.78	48116.86
554.143	47831.44
554.507	48019.23
554.87	48195.05
555.234	48586
555.597	48364.76
555.96	48531.08
556.323	48804.3
556.686	48860.79
557.05	49087
557.413	49177.85
557.776	49247.22
558.139	49504.62
558.502	49607.21
558.865	49747.55
559.228	49945.96
559.59	50184.6
559.953	50119.74
560.316	50493.97
560.679	50537.58
561.041	50652.16
561.404	50870.46
561.767	51011.24
562.129	50957.91
562.492	51342.08
562.854	51344.57
563.217	51358.35
563.579	51591.12
563.941	51778.23
564.304	51931.67
564.666	51962.18
565.028	52157.65
565.39	52292.11
565.753	52391.32
566.115	52611.43
566.477	52655.27
566.839	52789.5
567.201	52962.38
567.563	53010.29
567.925	53180.68
568.287	53251.18
568.648	53238.3
569.01	53467
569.372	53669.93
569.734	53598.52
570.095	53807.55
570.457	53952.64
570.819	54021.33
571.18	53928.91
571.542	54225.85
571.903	54272.17
572.265	54369.35
572.626	54393.53
572.987	54414.54
573.349	54523.02
573.71	54716.46
574.071	54655.22
574.432	54745.83
574.794	54943.12
575.155	54986.28
575.516	54966.85
575.877	55151.25
576.238	55067.41
576.599	55263.79
576.96	55259.27
577.32	55252.49
577.681	55380.17
578.042	55423.78
578.403	55412.48
578.763	55507.85
579.124	55567.96
579.485	55617.68
579.845	55723.66
580.206	55624.46
580.566	55556.43
580.927	55697.45
581.287	55811.8
581.648	55694.96
582.008	55807.5
582.368	55751.68
582.728	55786.26
583.089	55819.25
583.449	55779.25
583.809	55840.95
584.169	55833.26
584.529	55720.05
584.889	56041.85
585.249	55802.08
585.609	55765.92
585.969	55962.3
586.329	55885.92
586.688	55919.14
587.048	55871.45
587.408	55803.21
587.768	55885.24
588.127	55927.05
588.487	55831.91
588.846	56007.04
589.206	55833.72
589.565	55908.74
589.925	55983.32
590.284	55851.57
590.643	55930.66
591.003	56038.68
591.362	56083.43
591.721	56026.48
592.08	55995.75
592.44	56078.91
592.799	56073.26
593.158	56022.41
593.517	56060.6
593.876	56091.56
594.235	56005.91
594.593	56124.56
594.952	56097.89
595.311	55963.66
595.67	56109.19
596.029	56332.46
596.387	56287.49
596.746	56306.02
597.104	56130.2
597.463	56194.61
597.822	56283.87
598.18	56168.17
598.538	56173.59
598.897	56384.66
599.255	56176.53
599.613	56517.77
599.972	56307.15
600.33	56370.42
600.688	56359.8
601.046	56452.23
601.404	56459.69
601.762	56403.19
602.12	56485
602.478	56513.02
602.836	56615.39
603.194	56494.04
603.552	56509.63
603.91	56352.8
604.268	56568.61
604.625	56463.3
604.983	56658.1
605.341	56475.05
605.698	56662.39
606.056	56692.22
606.413	56665.78
606.771	56781.26
607.128	56760.24
607.485	56621.94
607.843	56745.78
608.2	56830.53
608.557	56840.24
608.914	56861.26
609.272	56972.67
609.629	57016.74
609.986	57050.86
610.343	56917.75
610.7	57184.19
611.057	57046.57
611.414	57062.16
611.771	57101.25
612.127	57229.16
612.484	57225.77
612.841	57327.46
613.198	57160.01
613.554	57140.8
613.911	57379.89
614.267	57262.15
614.624	57300.12
614.98	57310.74
615.337	57447.46
615.693	57386.67
616.05	57451.3
616.406	57557.74
616.762	57459.44
617.118	57477.97
617.475	57467.12
617.831	57567
618.187	57579.66
618.543	57627.11
618.899	57679.09
619.255	57706.66
619.611	57660.56
619.967	57703.27
620.323	57784.62
620.678	57633.44
621.034	57624.18
621.39	57677.51
621.746	57576.72
622.101	57860.55
622.457	57655.14
622.812	57660.79
623.168	57741.24
623.523	57777.62
623.879	57803.61
624.234	57613.78
624.589	57733.55
624.945	57770.16
625.3	57753.21
625.655	57725.87
626.01	57821.69
626.365	57757.05
626.72	57590.73
627.075	57696.49
627.43	57625.53
627.785	57641.13
628.14	57714.34
628.495	57746.21
628.85	57671.63
629.205	57566.33
629.559	57765.87
629.914	57563.61
630.269	57590.51
630.623	57502.6
630.978	57551.86
631.332	57605.65
631.687	57621.92
632.041	57531.98
632.396	57530.85
632.75	57445.2
633.104	57377.63
633.459	57376.05
633.813	57393.67
634.167	57348.25
634.521	57304.19
634.875	57320
635.229	57310.51
635.583	57123.17
635.937	57178.76
636.291	57160.46
636.645	57197.75
636.999	57022.84
637.352	57138.54
637.706	56954.82
638.06	57094.7
638.413	57044.08
638.767	56944.42
639.121	57016.06
639.474	56796.18
639.828	56863.97
640.181	56830.3
640.534	56833.69
640.888	56742.62
641.241	56686.12
641.594	56726.12
641.947	56775.39
642.301	56723.41
642.654	56663.3
643.007	56650.42
643.36	56605.22
643.713	56568.16
644.066	56604.99
644.419	56420.14
644.771	56349.63
645.124	56151
645.477	56086.82
645.83	55835.3
646.182	55725.02
646.535	55616.55
646.888	55653.16
647.24	55468.08
647.593	55649.54
647.945	55480.5
648.298	55346.72
648.65	55304.01
649.002	55276.22
649.355	55373.39
649.707	55320.28
650.059	55504.68
650.411	55813.15
650.763	55831.91
651.115	56154.61
651.467	55965.24
651.819	55866.71
652.171	55831
652.523	55872.58
652.875	55775.86
653.227	55704
653.578	55925.69
653.93	55790.78
654.282	55681.4
654.633	55613.38
654.985	55689.09
655.337	55689.76
655.688	55664
656.039	55776.32
656.391	55585.13
656.742	55567.28
657.094	55541.52
657.445	55648.64
657.796	55599.6
658.147	55532.93
658.498	55514.4
658.849	55507.17
659.2	55459.04
659.551	55391.92
659.902	55473.73
660.253	55458.81
660.604	55409.09
660.955	55314.63
661.306	55400.73
661.656	55371.58
662.007	55385.59
662.358	55345.37
662.708	55339.04
663.059	55293.16
663.409	55207.07
663.76	55366.61
664.11	55304.92
664.461	55269.44
664.811	55289.1
665.161	55308.08
665.511	55102.89
665.862	55250
666.212	55187.63
666.562	55205.03
666.912	55204.58
667.262	55235.09
667.612	55108.08
667.962	55066.28
668.312	55068.76
668.662	55233.73
669.011	55099.72
669.361	55113.51
669.711	55084.13
670.06	55033.28
670.41	54976.11
670.76	54981.31
671.109	55033.51
671.459	55030.8
671.808	54904.25
672.157	54940.86
672.507	54736.8
672.856	54770.47
673.205	54881.88
673.554	54893.63
673.904	54824.93
674.253	54949.45
674.602	54907.64
674.951	54429.23
675.3	54319.18
675.649	54694.08
675.998	54651.15
676.346	54673.29
676.695	54749.68
677.044	54508.78
677.393	54583.35
677.741	54658.38
678.09	54592.84
678.438	54472.85
678.787	54536.57
679.135	54431.04
679.484	54293.42
679.832	54448.22
680.181	54329.57
680.529	54268.78
680.877	54229.69
681.225	54156.7
681.573	54337.71
681.922	54117.15
682.27	54015.23
682.618	53984.72
682.966	53921.45
683.314	54046.64
683.661	53983.59
684.009	53806.65
684.357	53731.4
684.705	53699.76
685.053	53779.76
685.4	53619.31
685.748	53508.58
686.095	53550.39
686.443	53455.47
686.79	53426.32
687.138	53401.92
687.485	53409.37
687.832	53331.18
688.18	53333.44
688.527	53138.19
688.874	53127.35
689.221	53052.77
689.568	52963.06
689.915	52834.7
690.262	52874.02
690.609	52712.67
690.956	52656.4
691.303	52644.65
691.65	52407.59
691.997	52510.87
692.344	52146.35
692.69	52210.31
693.037	52259.35
693.383	51947.49
693.73	52087.83
694.077	51829.3
694.423	51839.92
694.769	51797.21
695.116	51765.8
695.462	51686.93
695.808	51508.41
696.155	51582.3
696.501	51310.67
696.847	51368.97
697.193	51065.03
697.539	51078.13
697.885	50839.04
698.231	50788.65
698.577	50745.94
698.923	50719.27
699.269	50543.23
699.614	50378.27
699.96	50439.96
700.306	50299.85
700.651	50164.26
700.997	50056.92
701.342	50045.17
701.688	50020.99
702.033	49942.57
702.379	49836.81
702.724	49734.44
703.069	49796.36
703.415	49329.71
703.76	49336.03
704.105	49415.35
704.45	49273.44
704.795	49098.98
705.14	48919.55
705.485	48968.36
705.83	48705.32
706.175	48650.4
706.52	48687.01
706.865	48416.28
707.209	48543.51
707.554	48250.86
707.899	48351.88
708.243	48145.33
708.588	47982.17
708.932	47920.7
709.277	47962.06
709.621	47820.59
709.966	47560.26
710.31	47616.76
710.654	47366.14
710.998	47365.46
711.342	47527.95
711.687	47267.84
712.031	47091.8
712.375	46961.63
712.719	47042.31
713.063	46880.05
713.407	46999.37
713.75	46796.67
714.094	46671.47
714.438	46659.72
714.782	46638.48
715.125	46382.44
715.469	46511.47
715.812	46099.06
716.156	45977.7
716.499	46123.91
716.843	46186.96
717.186	45877.37
717.53	45997.14
717.873	45947.2
718.216	45780.19
718.559	45757.82
718.902	45250.04
719.246	45511.73
719.589	45317.38
719.932	45258.4
720.275	45190.15
720.617	45015.47
720.96	45010.05
721.303	45142.47
721.646	45064.73
721.989	44898.86
722.331	44918.07
722.674	44864.96
723.016	44708.36
723.359	44518.76
723.701	44713.1
724.044	44360.57
724.386	44181.14
724.729	44438.08
725.071	44193.8
725.413	44195.15
725.755	44114.02
726.097	43974.14
726.439	43747.25
726.782	43819.79
727.124	43973.24
727.465	43713.36
727.807	43566.47
728.149	43470.42
728.491	43434.49
728.833	43412.8
729.175	43369.64
729.516	43270.66
729.858	43232.01
730.199	43218.23
730.541	43217.55
730.882	43083.77
731.224	43114.73
731.565	42928.29
731.906	42855.75
732.248	43057.55
732.589	42615.31
732.93	42541.18
733.271	42651.01
733.612	42638.81
733.953	42496.89
734.294	42351.36
734.635	42195.43
734.976	42213.96
735.317	42101.65
735.658	42203.34
735.999	42080.18
736.339	42114.53
736.68	42088.77
737.021	41847.19
737.361	41730.81
737.702	41904.36
738.042	41583.24
738.383	41627.31
738.723	41748.44
739.063	41505.28
739.404	41556.12
739.744	41473.87
740.084	41220.31
740.424	41336.24
740.764	41259.64
741.104	41266.19
741.444	41048.79
741.784	40980.09
742.124	41001.79
742.464	41000.43
742.804	40933.77
743.143	40635.47
743.483	40814.22
743.823	40531.97
744.162	40649.93
744.502	40578.98
744.841	40332.88
745.181	40524.51
745.52	40324.74
745.86	40452.65
746.199	40287.68
746.538	40157.74
746.877	40211.53
747.216	40052.44
747.556	40017.18
747.895	39943.51
748.234	39863.74
748.573	39634.37
748.911	39658.55
749.25	39641.15
749.589	39582.17
749.928	39497.65
750.267	39507.37
750.605	39370.42
750.944	39225.11
751.283	38952.58
751.621	39104.89
751.96	38805.01
752.298	38895.4
752.636	38836.65
752.975	38540.16
