Data from breadboard_black_back_FLMS001491_00026.txt Node
Date: Wed Feb 08 10:50:10 GMT 2017
User: dcchb
Spectrometer: FLMS00149
Trigger mode: 0
Integration Time (sec): 2.000000E-2
Scans to average: 10
Electric dark correction enabled: true
Nonlinearity correction enabled: false
Boxcar width: 0
XAxis mode: Wavelengths
Number of Pixels in Spectrum: 2048
>>>>>Begin Spectral Data<<<<<
341.393	-25.21
341.776	-25.21
342.16	-25.21
342.543	-56.85
342.927	-69.5
343.31	-77.64
343.693	-60.24
344.077	-48.49
344.46	-63.63
344.843	-36.28
345.226	-30.86
345.61	-10.07
345.993	-42.16
346.376	12.3
346.759	4.84
347.142	12.75
347.525	17.27
347.908	59.31
348.291	75.13
348.674	78.06
349.057	109.7
349.44	124.84
349.823	127.78
350.206	167.1
350.588	208.68
350.971	218.17
351.354	235.57
351.737	259.98
352.119	280.32
352.502	253.65
352.884	275.57
353.267	288.68
353.65	315.34
354.032	318.73
354.414	300.88
354.797	322.8
355.179	332.97
355.562	308.79
355.944	329.81
356.326	338.17
356.709	324.84
357.091	363.48
357.473	334.1
357.855	342.01
358.238	354.67
358.62	353.31
359.002	345.85
359.384	352.86
359.766	340.88
360.148	348.56
360.53	347.66
360.912	351.5
361.294	335.01
361.676	349.02
362.057	335.01
362.439	353.08
362.821	339.75
363.203	363.03
363.584	344.95
363.966	317.38
364.348	321.9
364.729	347.21
365.111	357.15
365.493	333.2
365.874	337.04
366.256	327.55
366.637	347.66
367.019	358.96
367.4	329.58
367.781	346.53
368.163	344.5
368.544	339.75
368.925	304.27
369.306	333.65
369.688	341.11
370.069	319.86
370.45	337.27
370.831	328
371.212	333.2
371.593	356.93
371.974	336.14
372.355	326.87
372.736	343.82
373.117	357.38
373.498	335.23
373.879	343.82
374.26	345.4
374.641	350.82
375.021	359.19
375.402	349.02
375.783	356.7
376.163	370.26
376.544	370.94
376.925	367.55
377.305	357.6
377.686	386.76
378.066	380.88
378.447	363.48
378.827	378.62
379.208	350.15
379.588	402.35
379.968	392.86
380.349	397.15
380.729	380.43
381.109	409.81
381.489	390.37
381.87	400.99
382.25	395.34
382.63	381.11
383.01	406.42
383.39	411.16
383.77	423.82
384.15	421.56
384.53	419.97
384.91	428.11
385.29	417.04
385.67	429.24
386.049	447.77
386.429	437.15
386.809	455.91
387.189	449.58
387.568	430.6
387.948	440.99
388.328	436.25
388.707	464.04
389.087	466.08
389.466	457.04
389.846	470.82
390.225	456.58
390.605	467.21
390.984	478.73
391.363	469.47
391.743	488.9
392.122	471.5
392.501	459.3
392.881	469.24
393.26	489.13
393.639	473.53
394.018	499.52
394.397	510.37
394.776	537.49
395.155	505.17
395.534	506.53
395.913	537.94
396.292	536.81
396.671	531.61
397.05	549.91
397.429	522.57
397.808	529.12
398.186	564.38
398.565	570.25
398.944	564.6
399.323	542.91
399.701	573.64
400.08	568.45
400.458	576.13
400.837	573.64
401.215	577.71
401.594	583.36
401.972	583.13
402.351	610.48
402.729	615.9
403.107	607.54
403.486	598.05
403.864	636.47
404.242	643.92
404.62	635.34
404.999	642.34
405.377	631.04
405.755	653.64
406.133	638.27
406.511	679.63
406.889	679.4
407.267	697.93
407.645	678.95
408.023	682.11
408.401	699.74
408.779	697.93
409.156	704.94
409.534	727.31
409.912	732.06
410.29	728.89
410.667	745.84
411.045	765.05
411.422	758.27
411.8	772.51
412.178	811.38
412.555	782.9
412.933	815.44
413.31	810.25
413.687	815.44
414.065	822.22
414.442	820.64
414.819	843.01
415.197	843.69
415.574	863.13
415.951	863.35
416.328	879.85
416.705	884.82
417.082	883.47
417.46	894.99
417.837	901.09
418.214	890.92
418.591	909.68
418.967	927.76
419.344	945.84
419.721	941.32
420.098	936.8
420.475	970.92
420.852	987.19
421.228	985.16
421.605	986.29
421.982	987.87
422.358	983.8
422.735	1013.63
423.111	1022.22
423.488	1047.3
423.864	1031.26
424.241	1053.4
424.617	1076.91
424.994	1041.2
425.37	1081.65
425.746	1081.65
426.123	1103.12
426.499	1102.44
426.875	1109.22
427.251	1147.87
427.627	1122.33
428.003	1164.14
428.379	1181.76
428.756	1191.03
429.132	1199.62
429.507	1209.33
429.883	1242.78
430.259	1250.24
430.635	1266.28
431.011	1285.04
431.387	1278.94
431.763	1309.44
432.138	1328.2
432.514	1349.89
432.89	1371.36
433.265	1395.09
433.641	1403.45
434.016	1385.37
434.392	1431.7
434.767	1460.17
435.143	1450.68
435.518	1483.22
435.894	1506.27
436.269	1513.73
436.644	1546.05
437.02	1541.08
437.395	1523.22
437.77	1550.57
438.145	1595.09
438.52	1591.7
438.895	1634.63
439.271	1640.73
439.646	1678.25
440.021	1689.55
440.395	1646.16
440.77	1689.32
441.145	1693.39
441.52	1710.56
441.895	1707.17
442.27	1733.16
442.645	1749.88
443.019	1748.3
443.394	1754.18
443.769	1800.05
444.143	1796.89
444.518	1795.76
444.892	1811.35
445.267	1828.07
445.641	1858.81
446.016	1877.79
446.39	1845.93
446.764	1892.03
447.139	1888.64
447.513	1883.67
447.887	1897.9
448.262	1960.73
448.636	1950.1
449.01	1961.63
449.384	1973.38
449.758	2014.96
450.132	2001.85
450.506	1993.49
450.88	2057.67
451.254	2008.41
451.628	2044.34
452.002	2067.62
452.376	2121.17
452.75	2143.55
453.123	2166.14
453.497	2207.27
453.871	2201.62
454.244	2273.71
454.618	2253.15
454.992	2289.76
455.365	2295.86
455.739	2387.38
456.112	2381.73
456.486	2407.72
456.859	2426.02
457.232	2469.41
457.606	2438.68
457.979	2506.25
458.352	2596.41
458.725	2555.51
459.099	2583.99
459.472	2654.04
459.845	2627.37
460.218	2716.64
460.591	2741.72
460.964	2730.42
461.337	2836.41
461.71	2853.81
462.083	2942.39
462.456	2881.61
462.829	2905.33
463.201	2989.62
463.574	2960.25
463.947	3023.07
464.32	3068.94
464.692	3103.75
465.065	3131.32
465.438	3175.83
465.81	3228.49
466.183	3243.86
466.555	3314.59
466.928	3318.43
467.3	3348.49
467.672	3419.22
468.045	3479.1
468.417	3528.14
468.789	3557.29
469.161	3593.9
469.534	3648.59
469.906	3697.85
470.278	3700.57
470.65	3754.8
471.022	3849.26
471.394	3933.1
471.766	3943.72
472.138	3994.57
472.51	4076.83
472.882	4165.87
473.253	4168.12
473.625	4251.29
473.997	4338.29
474.369	4383.03
474.74	4435.46
475.112	4515.01
475.484	4594.33
475.855	4618.28
476.227	4664.38
476.598	4842.91
476.97	4872.74
477.341	4931.27
477.713	5033.19
478.084	5015.33
478.455	5226.85
478.827	5245.38
479.198	5358.83
479.569	5420.52
479.94	5565.83
480.311	5555.66
480.682	5750.23
481.053	5855.76
481.424	5946.38
481.795	5949.09
482.166	6119.71
482.537	6192.03
482.908	6323.1
483.279	6338.24
483.65	6480.83
484.021	6637.21
484.391	6687.38
484.762	6734.16
485.133	6817.77
485.503	6930.54
485.874	7042.85
486.244	7096.86
486.615	7297.31
486.985	7380.7
487.356	7428.38
487.726	7536.62
488.097	7649.39
488.467	7738.65
488.837	7872.43
489.207	7991.75
489.578	8068.59
489.948	8125.31
490.318	8271.75
490.688	8267
491.058	8460.44
491.428	8547.22
491.798	8657.72
492.168	8831.73
492.538	8844.61
492.908	8985.17
493.278	9052.52
493.648	9104.27
494.017	9227.65
494.387	9295.67
494.757	9438.95
495.126	9455.22
495.496	9556.01
495.866	9692.95
496.235	9697.47
496.605	9809.11
496.974	9847.75
497.344	9935.66
497.713	10020.85
498.082	10138.14
498.452	10200.06
498.821	10272.15
499.19	10309.88
499.559	10365.02
499.928	10498.81
500.298	10546.26
500.667	10673.94
501.036	10570.22
501.405	10823.32
501.774	10791.23
502.143	10889.76
502.512	10991.67
502.88	11083.65
503.249	11132.01
503.618	11224.44
503.987	11331.1
504.356	11317.99
504.724	11362.29
505.093	11403.64
505.462	11529.06
505.83	11613.8
506.199	11723.63
506.567	11897.87
506.936	11827.36
507.304	11967.02
507.672	12077.3
508.041	12075.71
508.409	12314.58
508.777	12424.18
509.145	12398.64
509.514	12363.39
509.882	12614
510.25	12612.87
510.618	12778.52
510.986	12793.21
511.354	12965.41
511.722	13084.73
512.09	13143.26
512.458	13147.78
512.826	13279.07
513.193	13350.71
513.561	13361.78
513.929	13539.18
514.297	13643.36
514.664	13858.04
515.032	13783.24
515.4	13846.51
515.767	14009.45
516.135	14160.63
516.502	14030.69
516.869	14330.12
517.237	14448.53
517.604	14407.63
517.972	14562.65
518.339	14710.9
518.706	14764
519.073	14839.93
519.44	14932.81
519.808	15123.77
520.175	15145.46
520.542	15331.67
520.909	15464.33
521.276	15454.38
521.643	15627.71
522.009	15747.48
522.376	15823.41
522.743	15884.65
523.11	16048.26
523.477	16427.69
523.843	16455.49
524.21	16578.42
524.577	16630.62
524.943	16777.06
525.31	16807.11
525.676	16999.65
526.043	17134.56
526.409	17191.06
526.776	17361.45
527.142	17435.12
527.508	17605.74
527.874	17726.41
528.241	17854.32
528.607	17896.13
528.973	18184.03
529.339	18098.61
529.705	18271.48
530.071	18471.48
530.437	18466.96
530.803	18685.71
531.169	18766.16
531.535	18755.54
531.901	18920.96
532.267	18946.72
532.632	19121.18
532.998	19124.12
533.364	19236.43
533.73	19315.75
534.095	19507.61
534.461	19470.32
534.826	19639.81
535.192	19823.53
535.557	19894.27
535.923	19845.45
536.288	20029.4
536.653	20087.25
537.019	20004.54
537.384	20110.3
537.749	20370.64
538.114	20347.81
538.479	20395.72
538.845	20520.24
539.21	20521.37
539.575	20679.78
539.94	20701.02
540.305	20792.32
540.67	20883.84
541.034	20988.47
541.399	21089.49
541.764	21023.27
542.129	21140.33
542.494	21277.28
542.858	21365.64
543.223	21384.17
543.587	21489.03
543.952	21597.05
544.316	21601.34
544.681	21607.89
545.045	21715.91
545.41	21867.77
545.774	21879.98
546.138	21957.94
546.503	21993.19
546.867	22025.06
547.231	22276.35
547.595	22345.27
547.959	22346.4
548.324	22423.01
548.688	22413.97
549.052	22554.76
549.416	22539.62
549.779	22606.51
550.143	22717.02
550.507	22925.6
550.871	23039.04
551.235	22892.15
551.599	23122.2
551.962	23145.03
552.326	23338.69
552.689	23476.77
553.053	23333.5
553.417	23430.9
553.78	23805.8
554.143	23691.68
554.507	23808.74
554.87	23860.49
555.234	24148.62
555.597	24001.5
555.96	24119.01
556.323	24310.87
556.686	24293.92
557.05	24526.69
557.413	24500.02
557.776	24666.79
558.139	24740.92
558.502	24796.96
558.865	25021.59
559.228	25006
559.59	25181.13
559.953	25209.83
560.316	25436.49
560.679	25447.57
561.041	25591.06
561.404	25770.95
561.767	25873.09
562.129	25821.34
562.492	26170.03
562.854	26112.18
563.217	26171.84
563.579	26364.15
563.941	26512.17
564.304	26591.72
564.666	26747.19
565.028	26774.31
565.39	26904.7
565.753	27007.52
566.115	27066.28
566.477	27220.85
566.839	27355.99
567.201	27574.52
567.563	27533.16
567.925	27682.08
568.287	27741.74
568.648	27847.5
569.01	27982.64
569.372	28097.67
569.734	28082.52
570.095	28310.77
570.457	28378.34
570.819	28463.31
571.18	28472.12
571.542	28640.25
571.903	28656.75
572.265	28871.43
572.626	28936.29
572.987	28963.63
573.349	29013.57
573.71	29139.9
574.071	29139.45
574.432	29354.81
574.794	29577.4
575.155	29394.58
575.516	29457.18
575.877	29527.01
576.238	29710.28
576.599	29694.69
576.96	29844.51
577.32	29728.13
577.681	29870.27
578.042	29969.71
578.403	29898.75
578.763	29986.66
579.124	30011.74
579.485	30067.56
579.845	30170.83
580.206	30139.42
580.566	30133.32
580.927	30248.57
581.287	30457.15
581.648	30142.13
582.008	30419.41
582.368	30277.04
582.728	30425.29
583.089	30429.58
583.449	30390.26
583.809	30430.49
584.169	30590.93
584.529	30474.33
584.889	30720.2
585.249	30449.02
585.609	30391.16
585.969	30545.96
586.329	30459.86
586.688	30543.93
587.048	30470.03
587.408	30547.09
587.768	30468
588.127	30415.12
588.487	30369.47
588.846	30656.24
589.206	30509.81
589.565	30482.91
589.925	30686.07
590.284	30608.56
590.643	30747.76
591.003	30708.9
591.362	30877.48
591.721	30779.4
592.08	30739.4
592.44	30804.94
592.799	30810.81
593.158	30779.18
593.517	30746.64
593.876	30869.8
594.235	30847.42
594.593	30823.47
594.952	30910.7
595.311	30745.28
595.67	30975.78
596.029	31096.23
596.387	30978.04
596.746	31088.1
597.104	30994.54
597.463	31043.58
597.822	31170.58
598.18	31097.13
598.538	31032.73
598.897	31314.98
599.255	30853.3
599.613	31331.93
599.972	31245.38
600.33	31256.23
600.688	31031.15
601.046	31237.47
601.404	31297.13
601.762	31212.84
602.12	31288.99
602.478	31419.16
602.836	31435.66
603.194	31263.68
603.552	31379.84
603.91	31320.41
604.268	31549.78
604.625	31421.65
604.983	31482.89
605.341	31366.28
605.698	31603.34
606.056	31730.56
606.413	31499.61
606.771	31668.42
607.128	31821.18
607.485	31716.1
607.843	31613.05
608.2	31855.53
608.557	31955.87
608.914	31863.22
609.272	32111.8
609.629	32005.36
609.986	32096.2
610.343	31994.51
610.7	32307.72
611.057	32255.3
611.414	32109.31
611.771	32115.64
612.127	32298.23
612.484	32273.6
612.841	32374.84
613.198	32109.31
613.554	32249.87
613.911	32467.72
614.267	32473.6
614.624	32343.88
614.98	32558.34
615.337	32579.81
615.693	32506.81
616.05	32428.85
616.406	32687.15
616.762	32742.29
617.118	32667.04
617.475	32656.42
617.831	32777.54
618.187	32736.41
618.543	32850.99
618.899	33008.27
619.255	32889.86
619.611	32723.08
619.967	33001.94
620.323	32999.91
620.678	32874.71
621.034	32747.49
621.39	32832.68
621.746	32757.66
622.101	33182.73
622.457	32769.18
622.812	32962.4
623.168	33078.78
623.523	32937.09
623.879	33135.5
624.234	32953.81
624.589	33043.52
624.945	32971.66
625.3	33151.54
625.655	33074.71
626.01	32998.1
626.365	32980.47
626.72	32972.79
627.075	32933.02
627.43	33028.16
627.785	32993.81
628.14	32995.84
628.495	32919.91
628.85	32944.09
629.205	32885.34
629.559	33078.33
629.914	32818.44
630.269	32880.59
630.623	32800.37
630.978	32775.96
631.332	32942.96
631.687	32945.45
632.041	32680.82
632.396	32815.06
632.75	32604.89
633.104	32693.48
633.459	32603.31
633.813	32475.63
634.167	32503.2
634.521	32556.53
634.875	32506.14
635.229	32495.06
635.583	32255.97
635.937	32272.02
636.291	32298.01
636.645	32256.2
636.999	32191.79
637.352	32289.42
637.706	32074.96
638.06	32284
638.413	32140.04
638.767	32056.43
639.121	32146.82
639.474	31869.32
639.828	31973.04
640.181	32071.35
640.534	31915.19
640.888	31758.59
641.241	31750.22
641.594	31783.44
641.947	31909.09
642.301	31857.79
642.654	31685.59
643.007	31648.76
643.36	31607.18
643.713	31545.71
644.066	31712.03
644.419	31643.56
644.771	31359.73
645.124	31111.82
645.477	31044.93
645.83	30747.99
646.182	30570.14
646.535	30465.96
646.888	30535.79
647.24	30324.5
647.593	30509.13
647.945	30492.63
648.298	30316.59
648.65	30166.99
649.002	30091.96
649.355	30373.54
649.707	30269.36
650.059	30340.32
650.411	30816.01
650.763	30729.91
651.115	30964.26
651.467	30947.53
651.819	30923.35
652.171	30839.51
652.523	30802.45
652.875	30732.17
653.227	30615.79
653.578	30753.64
653.93	30672.74
654.282	30526.53
654.633	30527.21
654.985	30599.07
655.337	30529.92
655.688	30574.21
656.039	30675.9
656.391	30414.44
656.742	30477.94
657.094	30554.55
657.445	30491.5
657.796	30525.4
658.147	30499.86
658.498	30418.51
658.849	30435.91
659.2	30463.7
659.551	30338.06
659.902	30440.2
660.253	30255.8
660.604	30381.9
660.955	30302.8
661.306	30379.64
661.656	30284.5
662.007	30349.58
662.358	30278.4
662.708	30148.23
663.059	30225.74
663.409	30057.84
663.76	30298.74
664.11	30115.92
664.461	30074.11
664.811	30188.23
665.161	30133.54
665.511	30123.83
665.862	29948.92
666.212	30159.76
666.562	30131.96
666.912	30111.62
667.262	30033.43
667.612	29978.52
667.962	30079.53
668.312	30004.51
668.662	30075.01
669.011	30001.34
669.361	29927
669.711	29933.32
670.06	30040.66
670.41	29915.24
670.76	29852.2
671.109	29909.59
671.459	29740.11
671.808	29804.74
672.157	29827.79
672.507	29681.13
672.856	29595.03
673.205	29702.59
673.554	29874.12
673.904	29719.32
674.253	29807.9
674.602	29702.14
674.951	29353.9
675.3	29206.11
675.649	29612.65
675.998	29595.03
676.346	29611.52
676.695	29678.19
677.044	29335.37
677.393	29472.77
677.741	29491.98
678.09	29448.59
678.438	29337.18
678.787	29512.77
679.135	29409.04
679.484	29161.14
679.832	29323.85
680.181	29050.18
680.529	29272.78
680.877	29066.68
681.225	29122.72
681.573	29229.39
681.922	29027.81
682.27	28816.97
682.618	29066.45
682.966	28978.77
683.314	28934.71
683.661	28927.25
684.009	28708.72
684.357	28587.6
684.705	28581.49
685.053	28677.08
685.4	28678.44
685.748	28446.81
686.095	28386.02
686.443	28309.19
686.79	28219.47
687.138	28272.8
687.485	28301.95
687.832	28135.18
688.18	28193.48
688.527	28122.52
688.874	28155.29
689.221	27979.25
689.568	27896.54
689.915	27819.03
690.262	27946.48
690.609	27749.88
690.956	27749.88
691.303	27644.8
691.65	27494.07
691.997	27628.52
692.344	27377.23
692.69	27398.47
693.037	27282.32
693.383	27193.73
693.73	27210.91
694.077	27064.92
694.423	27031.93
694.769	26865.83
695.116	26809.11
695.462	26915.55
695.808	26680.08
696.155	26843.91
696.501	26503.81
696.847	26593.07
697.193	26472.85
697.539	26542.45
697.885	26342.46
698.231	26192.4
698.577	26176.36
698.923	26177.49
699.269	25991.05
699.614	25905.86
699.96	25829.25
700.306	25902.69
700.651	25845.52
700.997	25662.47
701.342	25746.54
701.688	25585.64
702.033	25504.29
702.379	25447.11
702.724	25393.56
703.069	25344.07
703.415	25143.17
703.76	25169.38
704.105	25189.27
704.45	25098.65
704.795	25006.22
705.14	24874.93
705.485	24833.8
705.83	24646.68
706.175	24741.37
706.52	24758.54
706.865	24654.37
707.209	24540.92
707.554	24567.59
707.899	24582.05
708.243	24375.96
708.588	24455.73
708.932	24267.94
709.277	24222.96
709.621	24201.27
709.966	24012.57
710.31	24197.2
710.654	23980.03
710.998	23930.32
711.342	23950.88
711.687	23850.32
712.031	23788.85
712.375	23728.06
712.719	23749.08
713.063	23642.64
713.407	23716.99
713.75	23616.65
714.094	23491.01
714.438	23447.39
714.782	23561.06
715.125	23272.71
715.469	23328.98
715.812	23201.07
716.156	23080.62
716.499	23230.45
716.843	23264.12
717.186	22972.38
717.53	23153.16
717.873	23109.32
718.216	23070.23
718.559	23002.21
718.902	22815.54
719.246	22921.76
719.589	22689.45
719.932	22547.08
720.275	22695.77
720.617	22729.44
720.96	22684.7
721.303	22740.97
721.646	22562.67
721.989	22464.14
722.331	22521.77
722.674	22449.9
723.016	22467.08
723.359	22355.22
723.701	22411.94
724.044	22190.02
724.386	22088.56
724.729	22206.97
725.071	22202.68
725.413	22141.44
725.755	22084.04
726.097	22014.21
726.439	21918.39
726.782	21934.89
727.124	22102.79
727.465	21893.53
727.807	21823.93
728.149	21929.01
728.491	21817.83
728.833	21710.94
729.175	21658.96
729.516	21752.52
729.858	21722.69
730.199	21661.45
730.541	21742.8
730.882	21599.53
731.224	21536.48
731.565	21407.67
731.906	21423.94
732.248	21478.4
732.589	21381.91
732.93	21203.84
733.271	21334
733.612	21203.38
733.953	21303.95
734.294	21221.01
734.635	21169.03
734.976	21190.28
735.317	21021.92
735.658	21113.67
735.999	21007.91
736.339	21071.41
736.68	21052.65
737.021	21030.96
737.361	20871.64
737.702	20971.75
738.042	20895.82
738.383	20889.95
738.723	20913.9
739.063	20779.21
739.404	20790.51
739.744	20762.49
740.084	20667.35
740.424	20672.32
740.764	20653.12
741.104	20690.85
741.444	20494.93
741.784	20547.13
742.124	20565.66
742.464	20540.58
742.804	20470.07
743.143	20445.66
743.483	20375.61
743.823	20347.59
744.162	20314.82
744.502	20369.96
744.841	20173.81
745.181	20288.6
745.52	20235.72
745.86	20218.32
746.199	20253.8
746.538	20088.84
746.877	20177.42
747.216	20077.09
747.556	20066.01
747.895	20017.2
748.234	20082.96
748.573	20046.35
748.911	19877.99
749.25	19894.27
749.589	19739.01
749.928	19662.18
750.267	19807.94
750.605	19776.3
750.944	19693.82
751.283	19605.69
751.621	19629.41
751.96	19524.11
752.298	19441.4
752.636	19568.17
752.975	19315.52
753.313	19276.43
753.651	19371.11
753.989	19188.07
754.327	19189.2
