Data from breadboard_white_FLMS001491_00073.txt Node
Date: Wed Feb 08 10:48:14 GMT 2017
User: dcchb
Spectrometer: FLMS00149
Trigger mode: 0
Integration Time (sec): 2.000000E-2
Scans to average: 10
Electric dark correction enabled: true
Nonlinearity correction enabled: false
Boxcar width: 0
XAxis mode: Wavelengths
Number of Pixels in Spectrum: 2048
>>>>>Begin Spectral Data<<<<<
341.393	-3.79
341.776	-3.79
342.16	-3.79
342.543	-65.93
342.927	-69.09
343.31	-41.52
343.693	-63.44
344.077	-54.63
344.46	-69.32
344.843	-70
345.226	-42.65
345.61	-40.62
345.993	-24.58
346.376	0.96
346.759	10
347.142	4.12
347.525	51.58
347.908	56.1
348.291	94.74
348.674	90.68
349.057	98.58
349.44	119.38
349.823	141.3
350.206	160.96
350.588	190.11
350.971	192.59
351.354	221.75
351.737	236.43
352.119	252.25
352.502	248.86
352.884	259.94
353.267	287.05
353.65	293.83
354.032	309.65
354.414	311.46
354.797	325.02
355.179	320.73
355.562	336.77
355.944	318.92
356.326	332.03
356.709	342.19
357.091	360.27
357.473	354.17
357.855	357.11
358.238	341.52
358.62	359.6
359.002	339.48
359.384	336.77
359.766	366.6
360.148	343.55
360.53	361.4
360.912	356.88
361.294	336.54
361.676	355.53
362.057	368.41
362.439	328.41
362.821	341.52
363.203	350.56
363.584	354.4
363.966	333.38
364.348	346.26
364.729	337.9
365.111	332.93
365.493	348.52
365.874	320.73
366.256	317.11
366.637	320.05
367.019	329.77
367.4	328.86
367.781	334.51
368.163	329.54
368.544	322.99
368.925	341.74
369.306	324.12
369.688	319.14
370.069	325.7
370.45	327.73
370.831	332.03
371.212	348.75
371.593	345.81
371.974	347.17
372.355	342.42
372.736	331.8
373.117	337.22
373.498	315.3
373.879	331.12
374.26	344.68
374.641	345.58
375.021	318.92
375.402	345.13
375.783	332.03
376.163	373.15
376.544	375.64
376.925	353.72
377.305	361.4
377.686	369.54
378.066	378.35
378.447	374.74
378.827	370.44
379.208	376.09
379.588	351.01
379.968	371.35
380.349	380.16
380.729	364.11
381.109	383.1
381.489	372.25
381.87	410.22
382.25	394.62
382.63	408.18
383.01	397.56
383.39	377.67
383.77	398.92
384.15	402.53
384.53	410.67
384.91	418.58
385.29	428.75
385.67	417.9
386.049	403.66
386.429	428.52
386.809	420.84
387.189	433.27
387.568	425.58
387.948	441.63
388.328	418.8
388.707	434.62
389.087	449.99
389.466	447.73
389.846	458.35
390.225	470.33
390.605	471
390.984	463.32
391.363	475.3
391.743	496.77
392.122	493.15
392.501	485.24
392.881	483.89
393.26	479.14
393.639	501.96
394.018	514.17
394.397	497.9
394.776	520.72
395.155	531.12
395.534	547.39
395.913	528.4
396.292	534.96
396.671	550.32
397.05	562.98
397.429	573.6
397.808	579.7
398.186	572.7
398.565	581.06
398.944	566.82
399.323	603.2
399.701	592.36
400.08	594.62
400.458	629.87
400.837	611.34
401.215	622.41
401.594	639.36
401.972	659.7
402.351	647.5
402.729	689.3
403.107	663.09
403.486	702.41
403.864	686.59
404.242	725.69
404.62	728.62
404.999	729.53
405.377	752.13
405.755	741.28
406.133	779.92
406.511	792.35
406.889	803.2
407.267	816.76
407.645	867.38
408.023	860.37
408.401	855.18
408.779	849.98
409.156	872.12
409.534	898.11
409.912	923.2
410.29	964.32
410.667	970.88
411.045	983.08
411.422	1006.13
411.8	1019.24
412.178	1046.13
412.555	1047.26
412.933	1039.35
413.31	1066.92
413.687	1073.93
414.065	1131.1
414.442	1147.14
414.819	1155.51
415.197	1160.48
415.574	1188.73
415.951	1202.51
416.328	1201.38
416.705	1240.48
417.082	1273.24
417.46	1282.51
417.837	1290.64
418.214	1311.89
418.591	1329.97
418.967	1333.58
419.344	1347.37
419.721	1374.03
420.098	1391.88
420.475	1392.11
420.852	1390.08
421.228	1444.99
421.605	1436.63
421.982	1452.9
422.358	1471.43
422.735	1506.46
423.111	1539.45
423.488	1541.48
423.864	1560.47
424.241	1589.39
424.617	1581.48
424.994	1635.72
425.37	1632.1
425.746	1639.34
426.123	1690.18
426.499	1664.19
426.875	1666.68
427.251	1735.38
427.627	1798.43
428.003	1777.64
428.379	1823.96
428.756	1837.52
429.132	1873.91
429.507	1882.49
429.883	1892.44
430.259	1917.52
430.635	1963.39
431.011	1995.48
431.387	2037.52
431.763	2079.78
432.138	2059.21
432.514	2115.26
432.89	2097.63
433.265	2173.56
433.641	2202.94
434.016	2213.11
434.392	2280.22
434.767	2287.68
435.143	2311.86
435.518	2351.41
435.894	2362.25
436.269	2414.91
436.644	2425.08
437.02	2492.19
437.395	2468.47
437.77	2474.57
438.145	2573.1
438.52	2606.54
438.895	2618.52
439.271	2628.46
439.646	2667.56
440.021	2702.36
440.395	2728.8
440.77	2670.04
441.145	2701.91
441.52	2769.93
441.895	2751.4
442.27	2801.34
442.645	2806.54
443.019	2849.25
443.394	2863.26
443.769	2914.33
444.143	2854.44
444.518	2943.03
444.892	2908.23
445.267	2969.92
445.641	3006.08
446.016	3053.54
446.39	3067.77
446.764	3084.27
447.139	3063.03
447.513	3135.34
447.887	3159.07
448.262	3166.98
448.636	3190.26
449.01	3234.77
449.384	3272.96
449.758	3265.28
450.132	3352.06
450.506	3332.17
450.88	3352.51
451.254	3389.35
451.628	3401.32
452.002	3451.72
452.376	3512.73
452.75	3543.01
453.123	3575.56
453.497	3638.83
453.871	3647.42
454.244	3753.18
454.618	3757.7
454.992	3790.47
455.365	3850.12
455.739	3947.98
456.112	3958.37
456.486	4021.42
456.859	3997.24
457.232	4123.79
457.606	4083.56
457.979	4173.28
458.352	4291.92
458.725	4292.15
459.099	4282.2
459.472	4400.39
459.845	4497.34
460.218	4513.38
460.591	4548.86
460.964	4572.14
461.337	4668.63
461.71	4769.87
462.083	4816.43
462.456	4824.11
462.829	4829.99
463.201	5017.78
463.574	4983.88
463.947	5048.29
464.32	5159.24
464.692	5234.04
465.065	5278.34
465.438	5338.9
465.81	5397.43
466.183	5473.36
466.555	5616.86
466.928	5625.67
467.3	5624.99
467.672	5711.77
468.045	5862.28
468.417	5903.63
468.789	5931.65
469.161	6019.33
469.534	6108.37
469.906	6277.63
470.278	6289.16
470.65	6379.78
471.022	6533.9
471.394	6604.63
471.766	6714.91
472.138	6804.17
472.51	6906.32
472.882	6987.44
473.253	7124.61
473.625	7229.7
473.997	7378.85
474.369	7437.6
474.74	7508.33
475.112	7683.7
475.484	7806.4
475.855	7946.74
476.227	8058.15
476.598	8243.46
476.97	8298.14
477.341	8523.67
477.713	8593.95
478.084	8638.02
478.455	8937.45
478.827	9001.4
479.198	9299.92
479.569	9248.85
479.94	9560.94
480.311	9646.13
480.682	9848.84
481.053	10087.25
481.424	10306
481.795	10351.87
482.166	10513.9
482.537	10687.23
482.908	10873.44
483.279	11006.32
483.65	11191.4
484.021	11447.67
484.391	11472.75
484.762	11665.06
485.133	11782.8
485.503	11938.5
485.874	12254.65
486.244	12337.59
486.615	12646.5
486.985	12767.18
487.356	12992.71
487.726	13074.29
488.097	13400.16
488.467	13405.58
488.837	13700.94
489.207	13869.07
489.578	14018.44
489.948	14214.6
490.318	14433.8
490.688	14456.63
491.058	14819.33
491.428	14909.49
491.798	15097.51
492.168	15319.88
492.538	15451.63
492.908	15634.67
493.278	15800.77
493.648	15872.63
494.017	16095.9
494.387	16253.64
494.757	16372.06
495.126	16557.59
495.496	16612.05
495.866	16641.43
496.235	16998.48
496.605	17125.03
496.974	17191.92
497.344	17403.89
497.713	17522.99
498.082	17705.81
498.452	17876.65
498.821	17967.49
499.19	18000.26
499.559	18315.51
499.928	18290.42
500.298	18463.75
500.667	18689.28
501.036	18629.17
501.405	19056.05
501.774	19035.94
502.143	19084.3
502.512	19238.19
502.88	19491.75
503.249	19433.22
503.618	19640.44
503.987	19843.83
504.356	19880.21
504.724	19967.67
505.093	20115.91
505.462	20250.15
505.83	20390.93
506.199	20556.13
506.567	20787.08
506.936	20770.58
507.304	21094.64
507.672	21168.09
508.041	21399.27
508.409	21450.79
508.777	21612.82
509.145	21825.92
509.514	21857.11
509.882	22078.8
510.25	22130.32
510.618	22401.5
510.986	22440.6
511.354	22714.26
511.722	22830.42
512.09	23041.48
512.458	23038.77
512.826	23338.88
513.193	23420.23
513.561	23556.5
513.929	23746.78
514.297	23906.09
514.664	24139.76
515.032	24265.41
515.4	24380.88
515.767	24576.36
516.135	24803.25
516.502	24622.91
516.869	25141.77
517.237	25170.24
517.604	25241.2
517.972	25581.53
518.339	25662.21
518.706	25844.35
519.073	25954.18
519.44	26118.92
519.808	26438.91
520.175	26545.35
520.542	26906.24
520.909	27032.79
521.276	27182.39
521.643	27381.03
522.009	27511.2
522.376	27767.69
522.743	27957.74
523.11	28182.82
523.477	28476.6
523.843	28669.81
524.21	28989.35
524.577	29205.62
524.943	29304.82
525.31	29499.17
525.676	29818.71
526.043	29905.48
526.409	30179.6
526.776	30382.53
527.142	30444.91
527.508	30669.98
527.874	30932.58
528.241	31127.15
528.607	31213.47
528.973	31553.35
529.339	31590.19
529.705	31986.56
530.071	32170.96
530.437	32342.03
530.803	32527.34
531.169	32621.8
531.535	32641.01
531.901	32857.95
532.267	33088.45
532.632	33329.58
532.998	33378.39
533.364	33723.69
533.73	33773.63
534.095	33935.21
534.461	34157.8
534.826	34327.74
535.192	34475.99
535.557	34713.04
535.923	34711.23
536.288	34818.12
536.653	35040.04
537.019	34951
537.384	35121.39
537.749	35375.4
538.114	35531.33
538.479	35592.79
538.845	35709.85
539.21	35760.02
539.575	35859.9
539.94	36068.26
540.305	36262.15
540.67	36264.87
541.034	36398.65
541.399	36540.56
541.764	36650.84
542.129	36859.88
542.494	36903.94
542.858	37076.82
543.223	37124.5
543.587	37470.26
543.952	37371.28
544.316	37611.5
544.681	37438.17
545.045	37678.61
545.41	37932.39
545.774	37948.66
546.138	38084.25
546.503	37984.37
546.867	38251.93
547.231	38404.24
547.595	38647.85
547.959	38677.68
548.324	38728.76
548.688	38901.86
549.052	39063.21
549.416	38973.27
549.779	39180.72
550.143	39249.19
550.507	39659.35
550.871	39641.5
551.235	39558.79
551.599	39989.29
551.962	40060.47
552.326	40215.04
552.689	40527.58
553.053	40257.76
553.417	40391.99
553.78	40896.61
554.143	40637.18
554.507	41121.91
554.87	41060.9
555.234	41430.61
555.597	41295.47
555.96	41580.66
556.323	41678.28
556.686	41773.65
557.05	42057.48
557.413	42192.17
557.776	42379.28
558.139	42457.25
558.502	42628.77
558.865	42739.27
559.228	43097.45
559.59	43162.09
559.953	43169.32
560.316	43644.78
560.679	43661.51
561.041	43905.34
561.404	44093.36
561.767	44239.8
562.129	44233.92
562.492	44755.26
562.854	44602.27
563.217	44669.16
563.579	44845.21
563.941	45110.96
564.304	45105.54
564.666	45589.59
565.028	45662.36
565.39	45646.09
565.753	46017.6
566.115	46155.23
566.477	46273.42
566.839	46454.88
567.201	46618.94
567.563	46678.38
567.925	46945.26
568.287	46955.43
568.648	46971.7
569.01	47291.47
569.372	47382.31
569.734	47401.3
570.095	47584.12
570.457	47730.78
570.819	47839.48
571.18	47792.92
571.542	48159.47
571.903	48093.26
572.265	48273.59
572.626	48508.84
572.987	48534.6
573.349	48507.03
573.71	48803.52
574.071	48765.78
574.432	48803.97
574.794	49297.29
575.155	49161.93
575.516	49123.51
575.877	49397.85
576.238	49436.5
576.599	49463.39
576.96	49533.44
577.32	49484.86
577.681	49675.59
578.042	49709.94
578.403	49751.74
578.763	49794.91
579.124	49745.87
579.485	49921.46
579.845	50026.76
580.206	50091.85
580.566	50068.57
580.927	50040.77
581.287	50263.14
581.648	50073.99
582.008	50377.49
582.368	50192.86
582.728	50310.15
583.089	50232.86
583.449	50256.14
583.809	50238.74
584.169	50326.87
584.529	50105.18
584.889	50446.87
585.249	50179.3
585.609	50094.56
585.969	50408.67
586.329	50327.77
586.688	50283.25
587.048	50401.44
587.408	50216.59
587.768	50266.53
588.127	50235.57
588.487	50312.41
588.846	50526.86
589.206	50210.94
589.565	50227.66
589.925	50457.26
590.284	50339.52
590.643	50422.69
591.003	50411.61
591.362	50620.87
591.721	50495.23
592.08	50325.29
592.44	50613.64
592.799	50554.66
593.158	50443.93
593.517	50545.17
593.876	50506.3
594.235	50434.44
594.593	50585.85
594.952	50647.09
595.311	50415.68
595.67	50599.18
596.029	50835.1
596.387	50727.08
596.746	50830.13
597.104	50648.22
597.463	50636.92
597.822	50767.76
598.18	50683.02
598.538	50645.96
598.897	50876.68
599.255	50655.45
599.613	51097.02
599.972	50858.15
600.33	50918.72
600.688	50803.24
601.046	50854.76
601.404	51012.05
601.762	51073.29
602.12	51065.15
602.478	51086.85
602.836	51177.92
603.194	50960.07
603.552	51072.16
603.91	50864.93
604.268	51186.73
604.625	51064.7
604.983	51265.15
605.341	51067.64
605.698	51271.7
606.056	51250.46
606.413	51232.38
606.771	51375.2
607.128	51499.49
607.485	51317.35
607.843	51401.87
608.2	51566.61
608.557	51515.76
608.914	51402.55
609.272	51700.39
609.629	51709.43
609.986	51835.98
610.343	51547.63
610.7	51787.62
611.057	51795.76
611.414	51772.25
611.771	51827.85
612.127	51886.15
612.484	51841.41
612.841	52009.08
613.198	51855.87
613.554	51862.87
613.911	52076.43
614.267	52135.63
614.624	52077.11
614.98	52219.47
615.337	52430.09
615.693	52209.08
616.05	52174.05
616.406	52315.74
616.762	52235.52
617.118	52170.21
617.475	52308.29
617.831	52408.4
618.187	52351.9
618.543	52424.67
618.899	52591.44
619.255	52461.28
619.611	52363.2
619.967	52582.4
620.323	52560.26
620.678	52502.86
621.034	52458.11
621.39	52522.97
621.746	52372.69
622.101	52765.45
622.457	52495.63
622.812	52548.73
623.168	52621.95
623.523	52554.38
623.879	52715.96
624.234	52487.94
624.589	52673.47
624.945	52682.97
625.3	52718.22
625.655	52611.1
626.01	52597.32
626.365	52588.96
626.72	52588.28
627.075	52574.27
627.43	52490.65
627.785	52522.74
628.14	52529.52
628.495	52498.79
628.85	52451.78
629.205	52428.96
629.559	52518.22
629.914	52415.18
630.269	52475.51
630.623	52290.66
630.978	52260.83
631.332	52407.94
631.687	52459.47
632.041	52266.7
632.396	52378.34
632.75	52113.71
633.104	52270.32
633.459	52119.14
633.813	51975.64
634.167	52065.81
634.521	52073.72
634.875	52196.42
635.229	52028.52
635.583	51935.64
635.937	51951.91
636.291	51726.38
636.645	51804.57
636.999	51681.86
637.352	51747.62
637.706	51550.57
638.06	51777.9
638.413	51726.61
638.767	51691.35
639.121	51605.03
639.474	51412.04
639.828	51394.64
640.181	51605.03
640.534	51435.31
640.888	51288.43
641.241	51270.12
641.594	51352.38
641.947	51308.09
642.301	51248.88
642.654	51231.7
643.007	51255.66
643.36	51135.44
643.713	50969.79
644.066	51079.39
644.419	50980.64
644.771	50812.73
645.124	50539.52
645.477	50548.56
645.83	50304.72
646.182	50054.33
646.535	49902.02
646.888	49932.3
647.24	49699.31
647.593	49901.12
647.945	49740.44
648.298	49473.56
648.65	49501.35
649.002	49399.66
649.355	49552.2
649.707	49582.48
650.059	49840.33
650.411	50139.53
650.763	50095.24
651.115	50482.57
651.467	50225.18
651.819	50396.25
652.171	50172.75
652.523	50094.11
652.875	50087.33
653.227	49918.52
653.578	50218.17
653.93	50014.56
654.282	49888.46
654.633	49684.4
654.985	49858.63
655.337	49851.18
655.688	49891.17
656.039	50098.63
656.391	49728.01
656.742	49848.92
657.094	49843.49
657.445	49891.63
657.796	49625.19
658.147	49694.57
658.498	49608.24
658.849	49755.36
659.2	49656.15
659.551	49576.38
659.902	49753.78
660.253	49573.22
660.604	49596.94
660.955	49342.49
661.306	49501.13
661.656	49461.13
662.007	49543.61
662.358	49465.65
662.708	49440.79
663.059	49337.97
663.409	49231.3
663.76	49445.31
664.11	49262.94
664.461	49362.37
664.811	49300.91
665.161	49288.93
665.511	49242.83
665.862	49318.08
666.212	49293.45
666.562	49367.12
666.912	49297.07
667.262	49177.97
667.612	49146.33
667.962	49146.33
668.312	49089.84
668.662	49286.67
669.011	49192.89
669.361	49062.72
669.711	49169.61
670.06	49014.81
670.41	49054.81
670.76	48982.95
671.109	49067.24
671.459	49034.47
671.808	48969.39
672.157	48979.33
672.507	48641.94
672.856	48681.71
673.205	48881.94
673.554	48893.46
673.904	48816.17
674.253	48871.31
674.602	48643.75
674.951	48153.82
675.3	48003.31
675.649	48600.36
675.998	48545.9
676.346	48531.66
676.695	48589.29
677.044	48299.13
677.393	48501.15
677.741	48516.07
678.09	48374.38
678.438	48292.35
678.787	48261.61
679.135	48342.97
679.484	48092.58
679.832	48214.83
680.181	48094.61
680.529	48142.52
680.877	48000.15
681.225	48048.96
681.573	48185
681.922	47888.51
682.27	47717.22
682.618	47842.87
682.966	47610.1
683.314	47779.37
683.661	47631.35
684.009	47402.43
684.357	47363.78
684.705	47128.08
685.053	47291.92
685.4	47223
685.748	47044.24
686.095	46981.65
686.443	46885.83
686.79	46780.3
687.138	46814.42
687.485	46757.25
687.832	46598.61
688.18	46707.53
688.527	46493.52
688.874	46468.21
689.221	46311.83
689.568	46301.89
689.915	46244.49
690.262	46211.04
690.609	45905.97
690.956	45876.82
691.303	45800.21
691.65	45711.4
691.997	45733.09
692.344	45505.75
692.69	45348.47
693.037	45473.21
693.383	45023.05
693.73	45204.74
694.077	44952.77
694.423	44977.18
694.769	44940.57
695.116	44830.52
695.462	44759.33
695.808	44568.38
696.155	44565.66
696.501	44290.42
696.847	44343.75
697.193	43944.89
697.539	44092.23
697.885	43808.85
698.231	43653.37
698.577	43673.03
698.923	43631.68
699.269	43422.19
699.614	43236.66
699.96	43071.01
700.306	43199.6
700.651	42933.84
700.997	42782.43
701.342	42970
701.688	42757.35
702.033	42700.4
702.379	42619.5
702.724	42454.08
703.069	42528.43
703.415	42106.07
703.76	42232.84
704.105	42102
704.45	42026.75
704.795	41796.47
705.14	41695.23
705.485	41675.34
705.83	41352.42
706.175	41326.43
706.52	41277.84
706.865	41196.26
707.209	41131.63
707.554	41001.92
707.899	41085.98
708.243	40780.68
708.588	40828.36
708.932	40647.8
709.277	40467.24
709.621	40455.49
709.966	40300.47
710.31	40341.37
710.654	39937.09
710.998	39974.82
711.342	40134.59
711.687	39916.3
712.031	39698.45
712.375	39679.92
712.719	39677.88
713.063	39486.93
713.407	39674.04
713.75	39407.16
714.094	39260.04
714.438	39092.36
714.782	39325.8
715.125	39168.29
715.469	39163.55
715.812	39033.15
716.156	38653.73
716.499	38758.36
716.843	38780.51
717.186	38595.88
717.53	38694.63
717.873	38638.59
718.216	38472.49
718.559	38422.55
718.902	38217.36
719.246	38076.12
719.589	38070.92
719.932	38070.24
720.275	37983.69
720.617	37855.11
720.96	37839.74
721.303	37905.73
721.646	37821.21
721.989	37565.4
722.331	37743.02
722.674	37497.6
723.016	37463.48
723.359	37415.57
723.701	37471.16
724.044	37085.64
724.386	37012.19
724.729	37136.03
725.071	36942.14
725.413	36963.38
725.755	36888.8
726.097	36716.15
726.439	36556.61
726.782	36653.78
727.124	36685.42
727.465	36470.96
727.807	36572.65
728.149	36407.23
728.491	36468.93
728.833	36464.63
729.175	36153
729.516	36201.36
729.858	36189.16
730.199	36233.91
730.541	36117.52
730.882	36044.31
731.224	36172.66
731.565	35823.52
731.906	35760.92
732.248	35876.63
732.589	35673.69
732.93	35663.53
733.271	35721.83
733.612	35674.37
733.953	35654.49
734.294	35456.07
734.635	35332.69
734.976	35323.87
735.317	35168.85
735.658	35233.48
735.999	35202.29
736.339	34979.25
736.68	35047.27
737.021	35062.86
737.361	34904.9
737.702	35012.24
738.042	34922.53
738.383	34841.17
738.723	34824.45
739.063	34702.42
739.404	34758.69
739.744	34671.46
740.084	34468.3
740.424	34592.14
740.764	34314.63
741.104	34478.25
741.444	34308.08
741.784	34217.69
742.124	34195.54
742.464	34024.92
742.804	34179.5
743.143	34020.86
743.483	34038.71
743.823	33786.29
744.162	33852.05
744.502	33887.08
744.841	33599.17
745.181	33737.93
745.52	33613.18
745.86	33669.91
746.199	33568.44
746.538	33445.28
746.877	33486.18
747.216	33488.44
747.556	33468.33
747.895	33406.18
748.234	33160.77
748.573	33140.2
748.911	33108.79
749.25	33044.61
749.589	32890.49
749.928	32888.68
750.267	32956.48
750.605	32748.12
750.944	32751.74
751.283	32457.28
751.621	32650.95
751.96	32320.56
752.298	32491.63
752.636	32282.15
752.975	32196.95
753.313	32192.2
