Data from breadboard_white_FLMS001491_00098.txt Node
Date: Wed Feb 08 10:48:34 GMT 2017
User: dcchb
Spectrometer: FLMS00149
Trigger mode: 0
Integration Time (sec): 2.000000E-2
Scans to average: 10
Electric dark correction enabled: true
Nonlinearity correction enabled: false
Boxcar width: 0
XAxis mode: Wavelengths
Number of Pixels in Spectrum: 2048
>>>>>Begin Spectral Data<<<<<
341.393	-19.15
341.776	-19.15
342.16	-19.15
342.543	-51.92
342.927	-67.96
343.31	-60.51
343.693	-71.81
344.077	-41.3
344.46	-92.6
344.843	-50.34
345.226	-43.78
345.61	0.73
345.993	-38.36
346.376	-3.56
346.759	17.23
347.142	19.94
347.525	46.83
347.908	49.55
348.291	73.73
348.674	85.25
349.057	108.98
349.44	109.66
349.823	135.87
350.206	149.66
350.588	190.79
350.971	199.83
351.354	233.27
351.737	235.08
352.119	261.07
352.502	265.13
352.884	259.71
353.267	292.48
353.65	289.31
354.032	308.3
354.414	292.03
354.797	326.6
355.179	327.73
355.562	298.13
355.944	301.07
356.326	332.7
356.709	352.82
357.091	336.09
357.473	352.59
357.855	348.52
358.238	341.97
358.62	354.17
359.002	344.91
359.384	348.52
359.766	357.79
360.148	357.79
360.53	344.45
360.912	354.85
361.294	338.58
361.676	340.84
362.057	322.76
362.439	345.36
362.821	322.08
363.203	342.65
363.584	332.48
363.966	319.14
364.348	335.41
364.729	321.18
365.111	325.7
365.493	346.71
365.874	313.04
366.256	315.98
366.637	322.53
367.019	342.65
367.4	342.87
367.781	330.9
368.163	341.97
368.544	320.5
368.925	318.92
369.306	340.39
369.688	312.36
370.069	325.7
370.45	299.48
370.831	321.18
371.212	318.24
371.593	351.46
371.974	324.57
372.355	342.65
372.736	338.8
373.117	340.16
373.498	315.53
373.879	340.61
374.26	321.18
374.641	320.5
375.021	327.73
375.402	342.65
375.783	358.01
376.163	361.63
376.544	351.23
376.925	338.13
377.305	344.91
377.686	352.59
378.066	355.53
378.447	369.99
378.827	353.49
379.208	369.76
379.588	365.24
379.968	368.18
380.349	375.19
380.729	388.52
381.109	363.21
381.489	371.12
381.87	383.1
382.25	368.63
382.63	387.16
383.01	377.67
383.39	358.92
383.77	379.26
384.15	384.91
384.53	414.73
384.91	402.53
385.29	394.85
385.67	407.5
386.049	401.63
386.429	412.7
386.809	411.35
387.189	408.86
387.568	411.8
387.948	428.97
388.328	428.52
388.707	418.35
389.087	438.92
389.466	430.55
389.846	438.69
390.225	436.43
390.605	441.4
390.984	466.03
391.363	440.95
391.743	474.17
392.122	475.52
392.501	484.34
392.881	478.24
393.26	474.17
393.639	501.06
394.018	496.09
394.397	499.25
394.776	528.86
395.155	514.85
395.534	540.83
395.913	528.63
396.292	522.3
396.671	535.18
397.05	529.31
397.429	540.83
397.808	555.52
398.186	561.62
398.565	585.35
398.944	569.76
399.323	590.78
399.701	575.63
400.08	578.12
400.458	597.78
400.837	589.65
401.215	614.05
401.594	632.58
401.972	646.14
402.351	665.8
402.729	650.43
403.107	661.28
403.486	674.39
403.864	680.04
404.242	684.78
404.62	707.83
404.999	714.16
405.377	682.07
405.755	724.33
406.133	732.47
406.511	746.25
406.889	765.23
407.267	787.38
407.645	789.19
408.023	813.59
408.401	805.46
408.779	841.16
409.156	840.94
409.534	837.1
409.912	899.24
410.29	911.9
410.667	929.3
411.045	918
411.422	927.94
411.8	961.16
412.178	993.02
412.555	1000.93
412.933	1008.17
413.31	1024.21
413.687	1070.08
414.065	1070.31
414.442	1074.38
414.819	1114.38
415.197	1112.8
415.574	1140.82
415.951	1152.79
416.328	1128.39
416.705	1170.42
417.082	1212.45
417.46	1236.63
417.837	1241.38
418.214	1241.61
418.591	1266.24
418.967	1235.5
419.344	1288.61
419.721	1315.28
420.098	1311.21
420.475	1331.32
420.852	1337.42
421.228	1372
421.605	1390.08
421.982	1363.86
422.358	1391.21
422.735	1439.79
423.111	1431.21
423.488	1480.92
423.864	1473.69
424.241	1472.79
424.617	1516.4
424.994	1548.49
425.37	1549.17
425.746	1542.61
426.123	1600.69
426.499	1590.52
426.875	1638.43
427.251	1671.65
427.627	1673.91
428.003	1703.97
428.379	1742.38
428.756	1768.15
429.132	1762.95
429.507	1790.74
429.883	1809.5
430.259	1830.06
430.635	1860.35
431.011	1871.87
431.387	1936.95
431.763	1963.85
432.138	1955.03
432.514	2013.34
432.89	2023.96
433.265	2081.81
433.641	2096.95
434.016	2121.81
434.392	2144.63
434.767	2186.67
435.143	2181.92
435.518	2209.04
435.894	2253.1
436.269	2281.35
436.644	2279.77
437.02	2310.05
437.395	2323.16
437.77	2379.43
438.145	2406.32
438.52	2416.72
438.895	2464.4
439.271	2452.2
439.646	2573.55
440.021	2561.12
440.395	2563.83
440.77	2570.61
441.145	2594.56
441.52	2651.29
441.895	2622.59
442.27	2644.05
442.645	2627.56
443.019	2710.95
443.394	2690.83
443.769	2736.71
444.143	2741.91
444.518	2817.38
444.892	2756.14
445.267	2802.92
445.641	2833.88
446.016	2850.15
446.39	2864.84
446.764	2921.34
447.139	2895.57
447.513	2975.8
447.887	2952.97
448.262	2997.27
448.636	2967.89
449.01	3067.09
449.384	3083.59
449.758	3076.59
450.132	3109.81
450.506	3129.47
450.88	3208.56
451.254	3185.96
451.628	3254.21
452.002	3277.71
452.376	3305.28
452.75	3343.92
453.123	3381.89
453.497	3420.31
453.871	3434.99
454.244	3499.4
454.618	3484.48
454.992	3608.55
455.365	3616.23
455.739	3703.46
456.112	3739.85
456.486	3747.98
456.859	3816.91
457.232	3911.37
457.606	3880.41
457.979	3947.98
458.352	4014.87
458.725	4062.32
459.099	4140.74
459.472	4152.72
459.845	4146.16
460.218	4241.07
460.591	4265.93
460.964	4299.15
461.337	4418.47
461.71	4498.92
462.083	4532.82
462.456	4503.67
462.829	4598.13
463.201	4673.15
463.574	4677.45
463.947	4787.28
464.32	4889.87
464.692	4897.55
465.065	4932.58
465.438	5072.92
465.81	5104.78
466.183	5146.81
466.555	5238.56
466.928	5323.31
467.3	5255.51
467.672	5412.57
468.045	5479.23
468.417	5479.01
468.789	5588.16
469.161	5650.08
469.534	5743.18
469.906	5871.54
470.278	5905.21
470.65	6036.96
471.022	6138.2
471.394	6186.56
471.766	6303.17
472.138	6357.4
472.51	6506.55
472.882	6623.39
473.253	6655.7
473.625	6778.41
473.997	6921.91
474.369	7012.53
474.74	7046.2
475.112	7155.12
475.484	7354.44
475.855	7443.25
476.227	7465.85
476.598	7732.73
476.97	7767.08
477.341	7992.39
477.713	8022.9
478.084	8121.65
478.455	8385.37
478.827	8394.19
479.198	8687.51
479.569	8704.46
479.94	8965.47
480.311	9022.87
480.682	9214.96
481.053	9438
481.424	9559.35
481.795	9681.61
482.166	9795.51
482.537	9924.32
482.908	10124.99
483.279	10320.01
483.65	10464.87
484.021	10694.01
484.391	10711.64
484.762	10888.58
485.133	11079.99
485.503	11184.17
485.874	11443.6
486.244	11612.86
486.615	11801.78
486.985	11907.09
487.356	12172.62
487.726	12293.74
488.097	12441.09
488.467	12543.68
488.837	12811.92
489.207	12974.63
489.578	13134.4
489.948	13258.92
490.318	13497.33
490.688	13500.27
491.058	13742.29
491.428	13875.4
491.798	14069.97
492.168	14352.45
492.538	14391.09
492.908	14602.61
493.278	14758.31
493.648	14870.17
494.017	14987.01
494.387	15200.79
494.757	15289.6
495.126	15528.24
495.496	15619.98
495.866	15666.99
496.235	15886.64
496.605	16004.38
496.974	16111.27
497.344	16175.9
497.713	16412.51
498.082	16542.67
498.452	16678.49
498.821	16802.33
499.19	16904.02
499.559	17107.4
499.928	17122.32
500.298	17243.22
500.667	17498.58
501.036	17341.97
501.405	17580.84
501.774	17645.47
502.143	17878.46
502.512	17945.12
502.88	18075.29
503.249	18140.14
503.618	18378.33
503.987	18389.4
504.356	18519.57
504.724	18667.59
505.093	18864.87
505.462	18854.02
505.83	18967.02
506.199	19258.76
506.567	19482.71
506.936	19441.81
507.304	19737.84
507.672	19853.77
508.041	19810.84
508.409	20065.97
508.777	20164.5
509.145	20319.75
509.514	20399.29
509.882	20646.52
510.25	20611.27
510.618	20772.62
510.986	20982.33
511.354	21113.4
511.722	21403.79
512.09	21452.83
512.458	21480.17
512.826	21695.98
513.193	21869.09
513.561	22062.98
513.929	22208.74
514.297	22358.34
514.664	22439.47
515.032	22617.31
515.4	22848.95
515.767	22900.92
516.135	23130.3
516.502	23111.54
516.869	23495.03
517.237	23539.55
517.604	23510.85
517.972	23867.9
518.339	23982.48
518.706	24115.81
519.073	24328.23
519.44	24452.52
519.808	24793.98
520.175	24671.27
520.542	25052.05
520.909	25231.94
521.276	25234.42
521.643	25603.9
522.009	25790.56
522.376	25973.16
522.743	26111.69
523.11	26375.18
523.477	26658.79
523.843	26751.22
524.21	26994.83
524.577	27242.96
524.943	27393.23
525.31	27600.23
525.676	27768.37
526.043	28036.61
526.409	28123.84
526.776	28480.21
527.142	28617.16
527.508	28710.94
527.874	28977.37
528.241	29029.58
528.607	29292.39
528.973	29613.52
529.339	29628.88
529.705	29999.04
530.071	30099.38
530.437	30319.71
530.803	30481.06
531.169	30472.93
531.535	30600.16
531.901	30743.43
532.267	30970.77
532.632	31176.19
532.998	31299.57
533.364	31477.65
533.73	31582.95
534.095	31860.91
534.461	31935.49
534.826	32113.79
535.192	32184.52
535.557	32367.34
535.923	32422.93
536.288	32709.25
536.653	32824.5
537.019	32860.21
537.384	32918.74
537.749	33078.51
538.114	33217.94
538.479	33381.78
538.845	33492.06
539.21	33558.5
539.575	33563.02
539.94	33783.12
540.305	34171.81
540.67	33916.45
541.034	34171.36
541.399	34185.82
541.764	34475.31
542.129	34550.33
542.494	34694.96
542.858	34745.81
543.223	34756.88
543.587	35019.7
543.952	35003.66
544.316	35134.73
544.681	35125.46
545.045	35359.58
545.41	35576.07
545.774	35624.66
546.138	35527.26
546.503	35879.34
546.867	35766.12
547.231	36077.3
547.595	36240.23
547.959	36324.3
548.324	36281.81
548.688	36389.83
549.052	36652.88
549.416	36787.11
549.779	36707.34
550.143	36860.56
550.507	37106.88
550.871	37152.53
551.235	37285.18
551.599	37637.03
551.962	37501.44
552.326	37831.15
552.689	37868.21
553.053	37867.08
553.417	37990.92
553.78	38455.09
554.143	38397.46
554.507	38573.73
554.87	38757.23
555.234	39057.33
555.597	38928.3
555.96	38971.91
556.323	39344.56
556.686	39372.35
557.05	39682.85
557.413	39587.49
557.776	39838.56
558.139	40098.44
558.502	40121.49
558.865	40257.76
559.228	40557.63
559.59	40593.57
559.953	40697.52
560.316	41306.32
560.679	41136.15
561.041	41343.38
561.404	41506.31
561.767	41809.13
562.129	41568.23
562.492	42028.33
562.854	42151.26
563.217	42101.77
563.579	42333.86
563.941	42612.04
564.304	42869.89
564.666	42959.38
565.028	43108.75
565.39	43259.48
565.753	43376.54
566.115	43575.86
566.477	43851.56
566.839	43923.42
567.201	44144.21
567.563	44200.02
567.925	44386.46
568.287	44400.7
568.648	44500.13
569.01	44826.67
569.372	45047.46
569.734	44787.35
570.095	45223.73
570.457	45351.86
570.819	45461.69
571.18	45409.48
571.542	45733.77
571.903	45840.66
572.265	45958.17
572.626	46001.78
572.987	46219.63
573.349	46077.26
573.71	46440.19
574.071	46404.26
574.432	46626.4
574.794	46803.57
575.155	46786.17
575.516	46817.13
575.877	46918.14
576.238	46993.17
576.599	47131.7
576.96	47168.31
577.32	47153.39
577.681	47308.64
578.042	47273.39
578.403	47432.48
578.763	47499.15
579.124	47435.87
579.485	47588.18
579.845	47653.94
580.206	47574.17
580.566	47565.59
580.927	47700.95
581.287	47946.82
581.648	47726.94
582.008	47932.81
582.368	47911.79
582.728	47990.43
583.089	47833.15
583.449	47866.14
583.809	47901.17
584.169	48024.33
584.529	47973.71
584.889	48195.4
585.249	48014.16
585.609	47845.58
585.969	48139.81
586.329	47989.76
586.688	48044.89
587.048	48015.07
587.408	47934.62
587.768	48027.27
588.127	47914.5
588.487	47901.85
588.846	48270.2
589.206	47959.02
589.565	48064.56
589.925	48180.26
590.284	48031.79
590.643	48093.48
591.003	48348.62
591.362	48288.73
591.721	48231.1
592.08	48302.29
592.44	48293.7
592.799	48400.37
593.158	48367.6
593.517	48316.98
593.876	48283.31
594.235	48375.06
594.593	48343.42
594.952	48380.48
595.311	48263.87
595.67	48455.05
596.029	48512.68
596.387	48573.69
596.746	48665.44
597.104	48438.1
597.463	48575.73
597.822	48699.11
598.18	48521.04
598.538	48454.15
598.897	48649.62
599.255	48407.37
599.613	48936.17
599.972	48743.18
600.33	48734.37
600.688	48627.93
601.046	48780.69
601.404	48874.7
601.762	48836.06
602.12	48982.27
602.478	48905.89
602.836	49004.19
603.194	48789.06
603.552	49045.77
603.91	48878.32
604.268	49144.08
604.625	48863.4
604.983	49142.95
605.341	48852.56
605.698	49220.01
606.056	49282.38
606.413	49189.5
606.771	49293.68
607.128	49349.27
607.485	49170.29
607.843	49218.42
608.2	49397.18
608.557	49492.77
608.914	49340.45
609.272	49511.07
609.629	49633.55
609.986	49652.31
610.343	49616.6
610.7	49752.19
611.057	49645.3
611.414	49705.87
611.771	49763.27
612.127	49817.05
612.484	49798.07
612.841	50022.7
613.198	49814.11
613.554	49922.13
613.911	50170.94
614.267	50066.99
614.624	50016.59
614.98	50200.54
615.337	50255.46
615.693	50179.08
616.05	50172.52
616.406	50303.37
616.762	50145.4
617.118	50168.45
617.475	50220.66
617.831	50325.74
618.187	50450.71
618.543	50478.73
618.899	50601.21
619.255	50477.83
619.611	50504.49
619.967	50668.33
620.323	50561.21
620.678	50488.9
621.034	50452.06
621.39	50434.89
621.746	50534.09
622.101	50862
622.457	50558.05
622.812	50619.74
623.168	50656.13
623.523	50733.64
623.879	50713.07
624.234	50635.79
624.589	50669.01
624.945	50752.85
625.3	50652.96
625.655	50650.25
626.01	50715.56
626.365	50671.04
626.72	50631.04
627.075	50578.39
627.43	50652.51
627.785	50533.87
628.14	50590.82
628.495	50632.85
628.85	50634.66
629.205	50504.94
629.559	50639.4
629.914	50446.87
630.269	50510.37
630.623	50454.32
630.978	50333.65
631.332	50484.6
631.687	50500.88
632.041	50345.63
632.396	50318.51
632.75	50200.09
633.104	50292.75
633.459	50175.46
633.813	50184.95
634.167	50128.68
634.521	50112.19
634.875	50076.93
635.229	50099.76
635.583	49850.27
635.937	49926.43
636.291	49850.05
636.645	49848.01
636.999	49728.24
637.352	49783.61
637.706	49624.06
638.06	49843.04
638.413	49798.97
638.767	49489.83
639.121	49517.17
639.474	49344.07
639.828	49466.78
640.181	49377.74
640.534	49527.79
640.888	49264.07
641.241	49201.93
641.594	49349.27
641.947	49193.57
642.301	49198.54
642.654	49239.21
643.007	49128.03
643.36	49085.77
643.713	48996.51
644.066	49145.88
644.419	48812.56
644.771	48829.06
645.124	48400.37
645.477	48377.99
645.83	48048.74
646.182	47868.85
646.535	47764
646.888	47663.66
647.24	47569.88
647.593	47777.11
647.945	47577.11
648.298	47442.42
648.65	47323.56
649.002	47193.17
649.355	47354.52
649.707	47275.42
650.059	47550.44
650.411	47944.11
650.763	48157.21
651.115	48412.79
651.467	48062.75
651.819	48119.92
652.171	48103.65
652.523	47870.89
652.875	47921.06
653.227	47780.5
653.578	47970.32
653.93	47941.62
654.282	47792.7
654.633	47712.93
654.985	47757.9
655.337	47798.8
655.688	47851.45
656.039	47926.71
656.391	47545.02
656.742	47586.6
657.094	47615.08
657.445	47708.63
657.796	47515.19
658.147	47448.75
658.498	47549.77
658.849	47600.39
659.2	47462.31
659.551	47410.34
659.902	47571.46
660.253	47398.13
660.604	47466.61
660.955	47078.82
661.306	47450.79
661.656	47210.11
662.007	47162.88
662.358	47317.23
662.708	47295.08
663.059	47071.36
663.409	46941.2
663.76	47257.57
664.11	47206.95
664.461	47204.01
664.811	47183.9
665.161	47147.07
665.511	47023.68
665.862	47001.98
666.212	47193.84
666.562	47096.22
666.912	47138.48
667.262	46968.77
667.612	47113.17
667.962	47113.17
668.312	46878.82
668.662	47180.06
669.011	47025.71
669.361	46958.82
669.711	46951.36
670.06	46909.56
670.41	46862.33
670.76	46737.36
671.109	46812.16
671.459	46902.55
671.808	46686.51
672.157	46752.73
672.507	46503.47
672.856	46459.85
673.205	46481.77
673.554	46602.67
673.904	46601.77
674.253	46742.33
674.602	46620.53
674.951	46102.12
675.3	45694.67
675.649	46194.32
675.998	46378.72
676.346	46379.18
676.695	46482.45
677.044	46263.47
677.393	46357.48
677.741	46327.65
678.09	46098.73
678.438	46157.03
678.787	46041.33
679.135	46069.58
679.484	45877.72
679.832	46068.9
680.181	45702.58
680.529	46001.11
680.877	45728.12
681.225	45704.17
681.573	46065.51
681.922	45717.72
682.27	45504.4
682.618	45450.16
682.966	45370.84
683.314	45551.63
683.661	45449.48
684.009	45185.31
684.357	45003.17
684.705	45051.75
685.053	44993
685.4	45086.33
685.748	44805.21
686.095	44834.58
686.443	44675.94
686.79	44553.91
687.138	44658.09
687.485	44611.09
687.832	44496.74
688.18	44437.98
688.527	44259.46
688.874	44252.45
689.221	44136.3
689.568	43895.17
689.915	43887.49
690.262	43908.05
690.609	43838
690.956	43656.76
691.303	43687.04
691.65	43421.74
691.997	43468.74
692.344	43270.56
692.69	43145.14
693.037	43199.15
693.383	42658.82
693.73	42868.53
694.077	42595.32
694.423	42546.06
694.769	42514.19
695.116	42403.46
695.462	42393.07
695.808	42254.54
696.155	42332.73
696.501	42010.25
696.847	41974.55
697.193	41845.06
697.539	41909.91
697.885	41690.49
698.231	41510.83
698.577	41450.27
698.923	41364.62
699.269	41299.54
699.614	41041.01
699.96	40996.94
700.306	41072.2
700.651	40829.27
700.997	40705.88
701.342	40642.38
701.688	40471.53
702.033	40360.13
702.379	40414.59
702.724	40191.54
703.069	40461.82
703.415	39866.58
703.76	40015.73
704.105	39935.05
704.45	39840.82
704.795	39479.92
705.14	39493.93
705.485	39439.02
705.83	39331
706.175	39429.75
706.52	39183.43
706.865	39086.49
707.209	39109.08
707.554	38797.23
707.899	38935.3
708.243	38669.32
708.588	38697.12
708.932	38374.87
709.277	38387.75
709.621	38320.18
709.966	38131.71
710.31	38271.59
710.654	37809.46
710.998	38016.68
711.342	37926.97
711.687	37876.57
712.031	37649.01
712.375	37505.06
712.719	37574.44
713.063	37500.77
713.407	37513.65
713.75	37356.59
714.094	37318.4
714.438	37164.95
714.782	37134.45
715.125	36929.71
715.469	37071.62
715.812	36881.12
716.156	36729.94
716.499	36833.66
716.843	36754.12
717.186	36503.28
717.53	36677.74
717.873	36726.55
718.216	36513.22
718.559	36382.83
718.902	36010.86
719.246	36172.21
719.589	36190.74
719.932	35974.7
720.275	36015.38
720.617	35840.24
720.96	35865.1
721.303	35820.81
721.646	35828.27
721.989	35509.63
722.331	35758.21
722.674	35446.58
723.016	35531.78
723.359	35455.4
723.701	35431.22
724.044	35210.88
724.386	35026.71
724.729	35192.35
725.071	35078.68
725.413	35049.76
725.755	35085.46
726.097	34846.15
726.439	34677.11
726.782	34734.06
727.124	34767.28
727.465	34644.8
727.807	34646.15
728.149	34506.72
728.491	34354.41
728.833	34430.79
729.175	34281.64
729.516	34325.93
729.858	34144.24
730.199	34306.95
730.541	34086.62
730.882	34144.92
731.224	34103.34
731.565	33849.34
731.906	33875.78
732.248	33833.74
732.589	33803.46
732.93	33683.46
733.271	33641.66
733.612	33610.47
733.953	33589.68
734.294	33312.17
734.635	33550.81
734.976	33624.48
735.317	33427.43
735.658	33455.9
735.999	33182.91
736.339	33157.15
736.68	33344.04
737.021	33115.34
737.361	32999.64
737.702	33118.06
738.042	33082.12
738.383	32845.29
738.723	32858.4
739.063	32829.7
739.404	32834.45
739.744	32668.12
740.084	32589.48
740.424	32592.65
740.764	32520.56
741.104	32546.32
741.444	32354.91
741.784	32469.03
742.124	32256.61
742.464	32228.14
742.804	32265.65
743.143	32283.73
743.483	32169.83
743.823	32017.07
744.162	31998.76
744.502	32125.77
744.841	31766.45
745.181	31980.91
745.52	31831.54
745.86	31756.06
746.199	31653.01
746.538	31613.24
746.877	31682.61
747.216	31464.31
747.556	31429.29
747.895	31509.96
748.234	31308.16
748.573	31296.86
748.911	31440.81
749.25	31202.63
749.589	31109.07
749.928	31160.37
750.267	31147.94
750.605	30962.63
750.944	30831.11
751.283	30840.6
751.621	30980.48
751.96	30627.95
752.298	30619.82
752.636	30641.06
752.975	30462.31
