Data from breadboard_black_back_FLMS001491_00050.txt Node
Date: Wed Feb 08 10:50:27 GMT 2017
User: dcchb
Spectrometer: FLMS00149
Trigger mode: 0
Integration Time (sec): 2.000000E-2
Scans to average: 10
Electric dark correction enabled: true
Nonlinearity correction enabled: false
Boxcar width: 0
XAxis mode: Wavelengths
Number of Pixels in Spectrum: 2048
>>>>>Begin Spectral Data<<<<<
341.393	-7.71
341.776	-7.71
342.16	-7.71
342.543	-69.86
342.927	-73.92
343.31	-64.89
343.693	-68.5
344.077	-70.53
344.46	-58.56
344.843	-47.71
345.226	-22.17
345.61	-27.15
345.993	-26.47
346.376	-12.91
346.759	6.3
347.142	40.2
347.525	26.41
347.908	46.3
348.291	75.45
348.674	97.82
349.057	106.41
349.44	112.29
349.823	147.99
350.206	166.52
350.588	190.48
350.971	189.57
351.354	223.24
351.737	235.9
352.119	262.56
352.502	288.55
352.884	268.89
353.267	290.59
353.65	283.81
354.032	320.19
354.414	306.86
354.797	305.73
355.179	317.7
355.562	330.13
355.944	323.13
356.326	350.92
356.709	346.63
357.091	349.34
357.473	360.64
357.855	355.44
358.238	341.21
358.62	337.59
359.002	347.08
359.384	332.62
359.766	346.86
360.148	344.14
360.53	342.79
360.912	347.31
361.294	346.18
361.676	343.47
362.057	349.57
362.439	336.91
362.821	352.5
363.203	325.16
363.584	331.04
363.966	343.69
364.348	340.08
364.729	357.7
365.111	321.55
365.493	337.14
365.874	359.96
366.256	337.82
366.637	331.71
367.019	301.88
367.4	334.2
367.781	339.85
368.163	337.82
368.544	312.96
368.925	322.9
369.306	356.57
369.688	336.46
370.069	346.86
370.45	340.3
370.831	349.12
371.212	350.7
371.593	335.78
371.974	353.86
372.355	359.06
372.736	334.88
373.117	329.91
373.498	347.08
373.879	346.4
374.26	351.6
374.641	343.92
375.021	350.7
375.402	343.69
375.783	372.39
376.163	385.5
376.544	378.04
376.925	360.19
377.305	370.36
377.686	340.98
378.066	385.5
378.447	377.36
378.827	371.94
379.208	392.28
379.588	380.3
379.968	358.83
380.349	373.97
380.729	400.64
381.109	398.15
381.489	404.03
381.87	392.5
382.25	375.78
382.63	394.99
383.01	393.18
383.39	387.98
383.77	401.09
384.15	386.85
384.53	418.04
384.91	420.75
385.29	427.08
385.67	424.14
386.049	435.21
386.429	417.14
386.809	417.36
387.189	436.8
387.568	453.75
387.948	454.88
388.328	441.99
388.707	442.67
389.087	449.23
389.466	453.29
389.846	463.46
390.225	449.23
390.605	461.2
390.984	456.46
391.363	492.84
391.743	457.36
392.122	484.25
392.501	479.51
392.881	495.55
393.26	497.81
393.639	515.66
394.018	502.33
394.397	515.21
394.776	488.09
395.155	506.63
395.534	512.27
395.913	529.22
396.292	527.87
396.671	531.26
397.05	553.4
397.429	540.75
397.808	535.55
398.186	521.09
398.565	561.31
398.944	542.56
399.323	567.41
399.701	542.1
400.08	551.6
400.458	567.87
400.837	577.81
401.215	558.38
401.594	575.78
401.972	601.99
402.351	579.39
402.729	599.05
403.107	611.48
403.486	601.31
403.864	613.51
404.242	620.07
404.62	601.54
404.999	626.85
405.377	631.14
405.755	616.23
406.133	659.62
406.511	664.59
406.889	648.77
407.267	687.64
407.645	696.68
408.023	668.2
408.401	682.89
408.779	693.74
409.156	705.94
409.534	720.4
409.912	709.78
410.29	720.18
410.667	735.55
411.045	767.64
411.422	783.23
411.8	748.65
412.178	757.47
412.555	763.34
412.933	770.8
413.31	784.81
413.687	776.22
414.065	796.56
414.442	810.12
414.819	804.92
415.197	841.53
415.574	863.68
415.951	861.87
416.328	853.73
416.705	853.96
417.082	863
417.46	890.12
417.837	875.88
418.214	865.26
418.591	905.48
418.967	902.32
419.344	907.52
419.721	946.16
420.098	930.12
420.475	945.71
420.852	959.95
421.228	953.62
421.605	945.71
421.982	952.04
422.358	955.88
422.735	992.04
423.111	975.09
423.488	1011.24
423.864	1021.64
424.241	1033.16
424.617	1037.68
424.994	1031.58
425.37	1039.27
425.746	1045.59
426.123	1077.68
426.499	1077.01
426.875	1077.91
427.251	1103.45
427.627	1136.44
428.003	1161.52
428.379	1136.89
428.756	1172.14
429.132	1186.61
429.507	1190.9
429.883	1221.18
430.259	1234.52
430.635	1238.36
431.011	1248.07
431.387	1283.1
431.763	1319.03
432.138	1300.5
432.514	1334.4
432.89	1342.99
433.265	1349.99
433.641	1394.51
434.016	1394.06
434.392	1401.06
434.767	1439.26
435.143	1443.32
435.518	1460.72
435.894	1456.43
436.269	1459.37
436.644	1478.8
437.02	1532.13
437.395	1495.75
437.77	1534.17
438.145	1542.3
438.52	1573.26
438.895	1595.86
439.271	1590.66
439.646	1582.53
440.021	1628.18
440.395	1643.32
440.77	1629.08
441.145	1640.15
441.52	1677.44
441.895	1681.74
442.27	1708.85
442.645	1701.62
443.019	1745.46
443.394	1727.38
443.769	1776.65
444.143	1759.47
444.518	1801.28
444.892	1764.9
445.267	1812.58
445.641	1821.17
446.016	1836.08
446.39	1813.03
446.764	1855.52
447.139	1824.78
447.513	1901.84
447.887	1884.89
448.262	1904.78
448.636	1912.46
449.01	1924.44
449.384	1926.02
449.758	1963.99
450.132	1959.47
450.506	1987.26
450.88	2032.69
451.254	1980.48
451.628	2063.65
452.002	2053.7
452.376	2076.75
452.75	2099.58
453.123	2115.62
453.497	2137.09
453.871	2181.61
454.244	2180.93
454.618	2212.79
454.992	2240.36
455.365	2284.66
455.739	2300.25
456.112	2347.48
456.486	2356.97
456.859	2401.49
457.232	2398.78
457.606	2402.17
457.979	2452.34
458.352	2483.3
458.725	2550.19
459.099	2558.55
459.472	2600.81
459.845	2642.16
460.218	2641.03
460.591	2698.66
460.964	2731.43
461.337	2725.78
461.71	2810.52
462.083	2813.68
462.456	2821.37
462.829	2862.04
463.201	2924.64
463.574	2915.83
463.947	3007.58
464.32	3011.42
464.692	3053.45
465.065	3090.51
465.438	3122.38
465.81	3179.55
466.183	3196.05
466.555	3255.03
466.928	3289.15
467.3	3308.36
467.672	3343.61
468.045	3412.99
468.417	3464.97
468.789	3501.57
469.161	3504.29
469.534	3568.01
469.906	3654.79
470.278	3663.15
470.65	3680.55
471.022	3743.15
471.394	3848.68
471.766	3857.95
472.138	3880.1
472.51	4047.77
472.882	4098.17
473.253	4112.63
473.625	4199.86
473.997	4229.01
474.369	4274.89
474.74	4325.96
475.112	4403.25
475.484	4484.6
475.855	4558.5
476.227	4630.36
476.598	4738.6
476.97	4819.96
477.341	4883.01
477.713	4938.6
478.084	4934.08
478.455	5110.12
478.827	5192.6
479.198	5324.35
479.569	5300.4
479.94	5452.71
480.311	5457.46
480.682	5587.85
481.053	5716.21
481.424	5816.09
481.795	5859.48
482.166	5924.11
482.537	6054.05
482.908	6170.66
483.279	6252.69
483.65	6324.33
484.021	6475.51
484.391	6520.7
484.762	6684.99
485.133	6651.77
485.503	6755.5
485.874	6881.37
486.244	7002.95
486.615	7097.41
486.985	7230.97
487.356	7368.14
487.726	7396.39
488.097	7568.81
488.467	7648.36
488.837	7778.75
489.207	7813.1
489.578	7953.89
489.948	8072.53
490.318	8089.25
490.688	8123.83
491.058	8299.64
491.428	8388.45
491.798	8437.72
492.168	8642.68
492.538	8744.6
492.908	8836.35
493.278	8964.71
493.648	8945.95
494.017	9063.46
494.387	9167.64
494.757	9236.57
495.126	9311.14
495.496	9362.89
495.866	9422.32
496.235	9519.04
496.605	9615.54
496.974	9622.77
497.344	9773.05
497.713	9868.64
498.082	9974.85
498.452	10022.76
498.821	10001.97
499.19	10188.86
499.559	10294.39
499.928	10311.34
500.298	10423.65
500.667	10516.76
501.036	10506.36
501.405	10676.08
501.774	10620.48
502.143	10732.57
502.512	10771.21
502.88	10958.78
503.249	10965.56
503.618	11003.07
503.987	11089.4
504.356	11145.89
504.724	11248.94
505.093	11321.93
505.462	11338.88
505.83	11440.12
506.199	11576.62
506.567	11678.99
506.936	11681.47
507.304	11782.94
507.672	11896.61
508.041	11995.36
508.409	12078.07
508.777	12045.76
509.145	12232.64
509.514	12309.93
509.882	12384.96
510.25	12490.26
510.618	12591.05
510.986	12546.76
511.354	12723.93
511.722	12857.49
512.09	12998.95
512.458	12990.82
512.826	13087.99
513.193	13178.16
513.561	13146.29
513.929	13356.46
514.297	13467.41
514.664	13527.53
515.032	13565.26
515.4	13803.68
515.767	13842.55
516.135	13930.68
516.502	13860.85
516.869	14188.07
517.237	14249.54
517.604	14223.78
517.972	14384
518.339	14543.32
518.706	14504.45
519.073	14589.87
519.44	14781.05
519.808	14887.49
520.175	14926.81
520.542	15129.29
520.909	15154.38
521.276	15261.72
521.643	15452.22
522.009	15548.04
522.376	15572.44
522.743	15769.27
523.11	15924.98
523.477	15977.4
523.843	16164.07
524.21	16332.42
524.577	16494.68
524.943	16537.16
525.31	16566.99
525.676	16828.91
526.043	16956.59
526.409	17031.84
526.776	17247.88
527.142	17291.49
527.508	17384.37
527.874	17459.17
528.241	17672.95
528.607	17676.57
528.973	17869.56
529.339	17811.48
529.705	17989.78
530.071	18189.78
530.437	18324.69
530.803	18385.7
531.169	18549.09
531.535	18541.86
531.901	18566.94
532.267	18751.8
532.632	18840.38
532.998	18847.61
533.364	18971.22
533.73	19097.55
534.095	19336.86
534.461	19394.49
534.826	19522.62
535.192	19528.95
535.557	19701.6
535.923	19678.32
536.288	19829.51
536.653	19893.91
537.019	19814.14
537.384	19986.11
537.749	20155.37
538.114	20149.72
538.479	20135.26
538.845	20385.42
539.21	20289.61
539.575	20406.89
539.94	20507.91
540.305	20618.41
540.67	20510.84
541.034	20699.54
541.399	20836.71
541.764	20855.47
542.129	21017.05
542.494	20994.45
542.858	21127.78
543.223	21224.72
543.587	21292.75
543.952	21247.1
544.316	21401.44
544.681	21379.97
545.045	21490.71
545.41	21577.48
545.774	21642.57
546.138	21713.98
546.503	21780.19
546.867	21853.41
547.231	21934.08
547.595	22199.16
547.959	22078.04
548.324	22165.04
548.688	22237.58
549.052	22299.5
549.416	22444.13
549.779	22369.78
550.143	22556.44
550.507	22676.44
550.871	22722.31
551.235	22770.22
551.599	22873.49
551.962	22925.92
552.326	23044.34
552.689	23190.77
553.053	23115.3
553.417	23247.04
553.78	23629.18
554.143	23335.86
554.507	23616.75
554.87	23699.01
555.234	23912.11
555.597	23743.08
555.96	23890.42
556.323	24040.02
556.686	23983.52
557.05	24195.04
557.413	24413.12
557.776	24367.47
558.139	24553.68
558.502	24623.96
558.865	24614.47
559.228	24880.67
559.59	24901.46
559.953	25017.85
560.316	25268.69
560.679	25231.85
561.041	25444.73
561.404	25565.63
561.767	25714.1
562.129	25574.44
562.492	25945.96
562.854	25830.48
563.217	25992.96
563.579	26014.88
563.941	26127.87
564.304	26360.41
564.666	26504.59
565.028	26641.98
565.39	26571.25
565.753	26785.03
566.115	26889.89
566.477	27022.76
566.839	27071.12
567.201	27305.24
567.563	27336.2
567.925	27413.26
568.287	27486.03
568.648	27608.29
569.01	27805.57
569.372	27917.43
569.734	27790.88
570.095	28020.93
570.457	28131.89
570.819	28143.19
571.18	28255.5
571.542	28404.42
571.903	28449.85
572.265	28636.05
572.626	28618.2
572.987	28666.11
573.349	28818.88
573.71	28858.2
574.071	28841.02
574.432	29066.78
574.794	29258.41
575.155	29167.57
575.516	29165.98
575.877	29275.13
576.238	29335.25
576.599	29384.51
576.96	29426.54
577.32	29504.05
577.681	29672.86
578.042	29687.55
578.403	29782.01
578.763	29710.15
579.124	29655.24
579.485	29928.68
579.845	30118.28
580.206	30006.87
580.566	29948.11
580.927	30035.57
581.287	30213.19
581.648	30006.87
582.008	30102.23
582.368	30182.91
582.728	30170.25
583.089	30179.74
583.449	30248.89
583.809	30306.97
584.169	30195.79
584.529	30264.26
584.889	30420.41
585.249	30225.39
585.609	30236.92
585.969	30428.78
586.329	30363.92
586.688	30335.22
587.048	30380.87
587.408	30239.85
587.768	30343.13
588.127	30350.36
588.487	30316.46
588.846	30507.19
589.206	30182.45
589.565	30314.65
589.925	30543.12
590.284	30380.64
590.643	30370.92
591.003	30547.64
591.362	30515.33
591.721	30524.14
592.08	30553.07
592.44	30648.66
592.799	30591.26
593.158	30559.85
593.517	30487.08
593.876	30551.26
594.235	30590.58
594.593	30596
594.952	30598.94
595.311	30642.56
595.67	30661.09
596.029	30864.92
596.387	30898.82
596.746	30979.04
597.104	30760.07
597.463	30649.11
597.822	30859.95
598.18	30901.98
598.538	30868.09
598.897	30974.52
599.255	30744.02
599.613	31255.2
599.972	30849.78
600.33	30996.22
600.688	30863.57
601.046	30911.7
601.404	31003.68
601.762	31080.96
602.12	31276.44
602.478	31248.87
602.836	31253.16
603.194	31183.78
603.552	31106.5
603.91	31149.21
604.268	31322.99
604.625	31167.29
604.983	31342.42
605.341	31160.06
605.698	31463.78
606.056	31505.58
606.413	31260.84
606.771	31569.54
607.128	31537.9
607.485	31465.59
607.843	31615.86
608.2	31692.25
608.557	31776.54
608.914	31609.54
609.272	31773.83
609.629	31803.88
609.986	31963.43
610.343	31740.38
610.7	32087.26
611.057	32022.63
611.414	31978.79
611.771	31913.71
612.127	32113.93
612.484	32073.93
612.841	32208.16
613.198	31979.92
613.554	32196.19
613.911	32255.39
614.267	32211.1
614.624	32203.87
614.98	32296.3
615.337	32348.95
615.693	32342.4
616.05	32385.33
616.406	32499.91
616.762	32489.96
617.118	32557.08
617.475	32435.05
617.831	32553.24
618.187	32567.25
618.543	32589.85
618.899	32850.18
619.255	32754.59
619.611	32550.98
619.967	32776.96
620.323	32804.31
620.678	32790.75
621.034	32559.34
621.39	32717.08
621.746	32660.13
622.101	33050.18
622.457	32721.82
622.812	32714.37
623.168	32868.71
623.523	32955.72
623.879	32971.76
624.234	32705.1
624.589	32945.32
624.945	32887.24
625.3	32969.73
625.655	32884.98
626.01	32806.57
626.365	32997.3
626.72	32853.35
627.075	32802.5
627.43	32859.67
627.785	32766.12
628.14	32750.75
628.495	32925.89
628.85	32834.14
629.205	32774.7
629.559	32981.25
629.914	32751.65
630.269	32771.31
630.623	32646.34
630.978	32576.06
631.332	32717.98
631.687	32701.71
632.041	32589.85
632.396	32607.02
632.75	32513.92
633.104	32610.41
633.459	32442.73
633.813	32464.88
634.167	32498.55
634.521	32386.92
634.875	32507.14
635.229	32332.91
635.583	32245.9
635.937	32131.78
636.291	32250.2
636.645	32250.65
636.999	32117.55
637.352	32327.03
637.706	32035.06
638.06	32162.52
638.413	32040.26
638.767	32018.34
639.121	32044.78
639.474	31737.22
639.828	31866.93
640.181	31800.49
640.534	31827.16
640.888	31872.35
641.241	31738.57
641.594	31730.89
641.947	31829.87
642.301	31746.26
642.654	31637.78
643.007	31744.45
643.36	31670.1
643.713	31573.6
644.066	31684.11
644.419	31407.73
644.771	31118.93
645.124	31049.55
645.477	30929.78
645.83	30645.27
646.182	30642.1
646.535	30483.24
646.888	30538.15
647.24	30219.52
647.593	30438.49
647.945	30391.26
648.298	30162.34
648.65	30106.3
649.002	30106.3
649.355	30254.09
649.707	30187.65
650.059	30443.47
650.411	30711.93
650.763	30739.05
651.115	30989.21
651.467	30814.98
651.819	30786.28
652.171	30730.69
652.523	30727.75
652.875	30620.64
653.227	30571.6
653.578	30687.98
653.93	30689.56
654.282	30572.28
654.633	30464.71
654.985	30415.44
655.337	30557.36
655.688	30555.55
656.039	30627.64
656.391	30402.34
656.742	30412.05
657.094	30448.89
657.445	30565.04
657.796	30429.91
658.147	30324.15
658.498	30333.19
658.849	30403.01
659.2	30365.73
659.551	30190.59
659.902	30433.52
660.253	30253.64
660.604	30306.75
660.955	30079.63
661.306	30288.44
661.656	30281.44
662.007	30141.78
662.358	30191.72
662.708	30105.17
663.059	30180.87
663.409	30061.55
663.76	30208.67
664.11	30196.69
664.461	30179.29
664.811	30142.23
665.161	30114.43
665.511	29998.51
665.862	29972.07
666.212	30145.62
666.562	30046.87
666.912	30047.09
667.262	30112.4
667.612	29972.74
667.962	29966.19
668.312	30008.22
668.662	30101.33
669.011	30027.66
669.361	30019.97
669.711	29986.75
670.06	29890.71
670.41	29867.66
670.76	29862.46
671.109	29832.86
671.459	29872.18
671.808	29816.59
672.157	29865.63
672.507	29606.88
672.856	29691.39
673.205	29837.38
673.554	29833.09
673.904	29643.03
674.253	29815.68
674.602	29694.56
674.951	29236.94
675.3	29062.26
675.649	29565.3
675.998	29533.88
676.346	29476.48
676.695	29709.47
677.044	29400.78
677.393	29454.79
677.741	29514.22
678.09	29479.42
678.438	29316.26
678.787	29436.03
679.135	29365.53
679.484	29136.15
679.832	29251.41
680.181	29142.26
680.529	29228.13
680.877	29016.84
681.225	28968.93
681.573	29198.3
681.922	28954.69
682.27	28831.08
682.618	28942.26
682.966	28843.96
683.314	28902.71
683.661	28847.12
684.009	28746.56
684.357	28505.89
684.705	28586.56
685.053	28667.69
685.4	28563.29
685.748	28268.61
686.095	28478.54
686.443	28261.83
686.79	28250.53
687.138	28342.96
687.485	28257.99
687.832	28117.2
688.18	28285.1
688.527	28018.22
688.874	28034.26
689.221	27941.38
689.568	27890.99
689.915	27808.96
690.262	27791.56
690.609	27712.69
690.956	27717.44
691.303	27576.87
691.65	27382.53
691.997	27518.34
692.344	27288.07
692.69	27180.05
693.037	27194.74
693.383	27132.59
693.73	27209.88
694.077	27068.19
694.423	27032.03
694.769	26913.16
695.116	26834.75
695.462	26923.56
695.808	26814.18
696.155	26766.05
696.501	26670.23
696.847	26526.51
697.193	26278.38
697.539	26427.98
697.885	26291.94
698.231	26234.54
698.577	26200.19
698.923	26139.4
699.269	26023.02
699.614	25909.12
699.96	25898.05
700.306	25858.27
700.651	25735.34
700.997	25725.4
701.342	25698.73
701.688	25546.42
702.033	25537.15
702.379	25514.1
702.724	25428.68
703.069	25469.58
703.415	25131.97
703.76	25260.32
704.105	25104.17
704.45	25001.12
704.795	24912.76
705.14	24926.77
705.485	24901.01
705.83	24767.23
706.175	24874.8
706.52	24652.66
706.865	24569.72
707.209	24637.52
707.554	24570.63
707.899	24541.93
708.243	24367.01
708.588	24254.7
708.932	24203.63
709.277	24326.56
709.621	24301.93
709.966	24133.8
710.31	24179.9
710.654	23911.89
710.998	23962.05
711.342	23797.54
711.687	23792.57
712.031	23717.99
712.375	23684.77
712.719	23710.31
713.063	23769.97
713.407	23756.18
713.75	23546.92
714.094	23581.5
714.438	23430.77
714.782	23460.15
715.125	23371.79
715.469	23452.69
715.812	23352.35
716.156	23168.63
716.499	23199.59
716.843	23167.5
717.186	23119.14
717.53	23143.54
717.873	23175.63
718.216	22967.5
718.559	23036.65
718.902	22811.12
719.246	22757.79
719.589	22750.56
719.932	22681.18
720.275	22723.89
720.617	22715.76
720.96	22647.96
721.303	22699.71
721.646	22713.05
721.989	22561.19
722.331	22590.11
722.674	22397.57
723.016	22446.16
723.359	22389.67
723.701	22475.54
724.044	22155.77
724.386	22206.85
724.729	22313.74
725.071	22257.47
725.413	22174.3
725.755	22083.68
726.097	22022.67
726.439	21977.02
726.782	21992.61
727.124	22124.14
727.465	22055.66
727.807	21979.96
728.149	21786.52
728.491	21779.06
728.833	21803.01
729.175	21724.6
729.516	21750.36
729.858	21798.95
730.199	21740.42
730.541	21685.96
730.882	21534.09
731.224	21601.44
731.565	21412.97
731.906	21460.88
732.248	21507.65
732.589	21354.89
732.93	21305.17
733.271	21360.77
733.612	21416.13
733.953	21349.24
734.294	21149.92
734.635	21163.48
734.976	21213.88
735.317	21141.11
735.658	21183.14
735.999	21197.61
736.339	21056.37
736.68	21137.95
737.021	21069.93
737.361	20893.89
737.702	21077.38
738.042	20978.63
738.383	20794
738.723	21031.51
739.063	20798.07
739.404	20896.15
739.744	20767.11
740.084	20633.78
740.424	20678.98
740.764	20824.73
741.104	20677.17
741.444	20561.01
741.784	20468.36
742.124	20502.03
742.464	20491.41
742.804	20462.03
743.143	20441.24
743.483	20460.9
743.823	20374.35
744.162	20361.92
744.502	20400.57
744.841	20231.53
745.181	20338.87
745.52	20178.42
745.86	20180.23
746.199	20275.37
746.538	20165.09
746.877	20249.83
747.216	20111.53
747.556	20079.67
747.895	20118.54
748.234	19884.87
748.573	19953.8
748.911	19849.85
749.25	19842.39
749.589	19773.69
749.928	19751.77
750.267	19829.05
750.605	19702.28
750.944	19662.96
751.283	19624.77
751.621	19573.92
751.96	19567.59
752.298	19513.58
752.636	19472
752.975	19340.71
753.313	19409.4
753.651	19391.33
753.989	19287.83
