Data from breadboard_black_back_FLMS001491_00054.txt Node
Date: Wed Feb 08 10:50:35 GMT 2017
User: dcchb
Spectrometer: FLMS00149
Trigger mode: 0
Integration Time (sec): 2.000000E-2
Scans to average: 10
Electric dark correction enabled: true
Nonlinearity correction enabled: false
Boxcar width: 0
XAxis mode: Wavelengths
Number of Pixels in Spectrum: 2048
>>>>>Begin Spectral Data<<<<<
341.393	-17.27
341.776	-17.27
342.16	-17.27
342.543	-61.11
342.927	-61.11
343.31	-75.8
343.693	-72.41
344.077	-85.07
344.46	-68.35
344.843	-62.02
345.226	-36.93
345.61	-19.31
345.993	-0.78
346.376	-12.75
346.759	24.53
347.142	38.54
347.525	23.18
347.908	70.41
348.291	90.29
348.674	88.49
349.057	97.98
349.44	119.22
349.823	166.68
350.206	187.01
350.588	200.8
350.971	216.84
351.354	235.15
351.737	238.09
352.119	260.69
352.502	280.57
352.884	284.41
353.267	297.75
353.65	298.88
354.032	312.89
354.414	324.64
354.797	311.98
355.179	339.33
355.562	334.81
355.944	342.72
356.326	335.94
356.709	345.43
357.091	357.18
357.473	341.59
357.855	342.49
358.238	360.12
358.62	350.63
359.002	340.91
359.384	343.85
359.766	359.44
360.148	348.59
360.53	367.35
360.912	353.11
361.294	348.59
361.676	348.37
362.057	355.37
362.439	334.81
362.821	332.77
363.203	358.31
363.584	343.62
363.966	343.17
364.348	326.22
364.729	352.66
365.111	346.33
365.493	351.53
365.874	343.17
366.256	362.15
366.637	349.5
367.019	361.02
367.4	339.55
367.781	345.2
368.163	325.09
368.544	334.36
368.925	331.64
369.306	329.38
369.688	323.06
370.069	335.71
370.45	327.12
370.831	356.28
371.212	368.03
371.593	352.21
371.974	349.5
372.355	353.34
372.736	356.95
373.117	362.38
373.498	347.91
373.879	356.95
374.26	352.43
374.641	333.45
375.021	357.18
375.402	355.82
375.783	348.37
376.163	381.13
376.544	383.39
376.925	375.26
377.305	360.57
377.686	371.64
378.066	378.65
378.447	385.88
378.827	384.07
379.208	380.68
379.588	381.13
379.968	358.54
380.349	380.91
380.729	409.16
381.109	387.46
381.489	411.42
381.87	398.08
382.25	394.02
382.63	403.96
383.01	403.96
383.39	391.53
383.77	425.88
384.15	395.82
384.53	418.87
384.91	432.88
385.29	426.33
385.67	441.25
386.049	434.24
386.429	416.39
386.809	406.22
387.189	452.09
387.568	455.26
387.948	428.59
388.328	433.56
388.707	474.24
389.087	436.95
389.466	448.25
389.846	467.01
390.225	458.42
390.605	469.27
390.984	451.19
391.363	463.17
391.743	490.51
392.122	477.4
392.501	489.83
392.881	487.35
393.26	481.92
393.639	481.92
394.018	495.48
394.397	500.68
394.776	514.24
395.155	501.81
395.534	509.49
395.913	516.95
396.292	512.66
396.671	502.03
397.05	526.44
397.429	523.05
397.808	521.24
398.186	535.03
398.565	539.77
398.944	521.7
399.323	570.73
399.701	522.6
400.08	549.94
400.458	560.34
400.837	552.65
401.215	554.01
401.594	544.52
401.972	592.2
402.351	582.48
402.729	577.74
403.107	584.52
403.486	608.25
403.864	576.84
404.242	602.37
404.62	610.96
404.999	615.25
405.377	622.71
405.755	623.16
406.133	615.7
406.511	632.2
406.889	638.53
407.267	659.32
407.645	664.74
408.023	663.84
408.401	656.83
408.779	656.16
409.156	689.37
409.534	703.16
409.912	716.72
410.29	713.33
410.667	705.87
411.045	707.45
411.422	727.57
411.8	718.07
412.178	754.68
412.555	758.53
412.933	766.43
413.31	787.68
413.687	772.31
414.065	783.61
414.442	817.05
414.819	805.3
415.197	806.66
415.574	837.17
415.951	833.33
416.328	834.23
416.705	836.26
417.082	865.87
417.46	851.63
417.837	866.09
418.214	896.15
418.591	881.23
418.967	908.8
419.344	912.65
419.721	924.85
420.098	904.28
420.475	923.04
420.852	937.96
421.228	935.92
421.605	952.19
421.982	958.29
422.358	961.68
422.735	963.49
423.111	953.1
423.488	1008.69
423.864	1012.08
424.241	1006.88
424.617	987.45
424.994	1040.78
425.37	1015.47
425.746	1036.03
426.123	1036.26
426.499	1074.68
426.875	1082.58
427.251	1081.23
427.627	1106.99
428.003	1128.69
428.379	1123.94
428.756	1154.67
429.132	1144.28
429.507	1180.44
429.883	1183.37
430.259	1220.21
430.635	1205.75
431.011	1204.84
431.387	1194.67
431.763	1256.37
432.138	1271.05
432.514	1288.91
432.89	1290.26
433.265	1319.41
433.641	1329.13
434.016	1363.26
434.392	1351.73
434.767	1384.27
435.143	1386.53
435.518	1399.41
435.894	1431.5
436.269	1429.92
436.644	1448.68
437.02	1467.66
437.395	1462.69
437.77	1477.38
438.145	1511.05
438.52	1506.3
438.895	1536.13
439.271	1540.43
439.646	1591.05
440.021	1574.55
440.395	1588.33
440.77	1587.88
441.145	1598.05
441.52	1639.63
441.895	1617.49
442.27	1652.06
442.645	1671.5
443.019	1673.53
443.394	1677.82
443.769	1688.67
444.143	1678.73
444.518	1735
444.892	1718.73
445.267	1726.41
445.641	1760.98
446.016	1757.37
446.39	1759.85
446.764	1792.62
447.139	1769.8
447.513	1787.88
447.887	1800.31
448.262	1824.03
448.636	1836.69
449.01	1859.74
449.384	1876.01
449.758	1867.2
450.132	1916.01
450.506	1924.6
450.88	1937.25
451.254	1942.45
451.628	1951.04
452.002	1980.41
452.376	2003.69
452.75	2013.63
453.123	2020.86
453.497	2109.9
453.871	2084.14
454.244	2123.01
454.618	2126.85
454.992	2145.83
455.365	2170.92
455.739	2256.11
456.112	2255.66
456.486	2274.64
456.859	2299.95
457.232	2365.26
457.606	2313.51
457.979	2367.97
458.352	2371.14
458.725	2406.84
459.099	2444.13
459.472	2496.78
459.845	2514.41
460.218	2550.12
460.591	2561.42
460.964	2555.54
461.337	2654.97
461.71	2704.01
462.083	2723.45
462.456	2750.11
462.829	2767.96
463.201	2766.16
463.574	2792.14
463.947	2825.14
464.32	2931.8
464.692	2955.08
465.065	2943.55
465.438	2987.17
465.81	3057.45
466.183	3032.36
466.555	3151.91
466.928	3150.78
467.3	3158.46
467.672	3222.42
468.045	3302.41
468.417	3286.82
468.789	3338.12
469.161	3394.61
469.534	3438.91
469.906	3486.59
470.278	3477.55
470.65	3545.8
471.022	3623.53
471.394	3688.17
471.766	3746.7
472.138	3760.93
472.51	3804.32
472.882	3949.4
473.253	3945.56
473.625	4032.11
473.997	4086.8
474.369	4147.81
474.74	4175.84
475.112	4216.51
475.484	4285.44
475.855	4365.44
476.227	4392.33
476.598	4528.6
476.97	4560.23
477.341	4670.96
477.713	4706.9
478.084	4715.94
478.455	4903.5
478.827	4927
479.198	5076.83
479.569	5113.44
479.94	5207.22
480.311	5277.05
480.682	5369.7
481.053	5485.63
481.424	5609.02
481.795	5673.88
482.166	5745.74
482.537	5821.89
482.908	5934.21
483.279	5986.18
483.65	6036.58
484.021	6200.64
484.391	6256.01
484.762	6339.17
485.133	6349.11
485.503	6506.62
485.874	6645.83
486.244	6672.49
486.615	6831.59
486.985	6855.31
487.356	7053.05
487.726	7114.52
488.097	7195.64
488.467	7225.93
488.837	7424.34
489.207	7478.12
489.578	7567.84
489.948	7652.13
490.318	7794.72
490.688	7826.14
491.058	7948.62
491.428	8097.77
491.798	8183.19
492.168	8256.18
492.538	8386.57
492.908	8400.81
493.278	8538.21
493.648	8540.92
494.017	8722.61
494.387	8770.97
494.757	8811.87
495.126	8924.19
495.496	8979.1
495.866	9003.51
496.235	9062.71
496.605	9175.03
496.974	9305.19
497.344	9331.63
497.713	9456.6
498.082	9450.5
498.452	9668.12
498.821	9656.82
499.19	9692.3
499.559	9849.81
499.928	9935.91
500.298	9941.56
500.667	10066.98
501.036	10022.46
501.405	10132.06
501.774	10154.89
502.143	10271.72
502.512	10351.27
502.88	10467.65
503.249	10454.77
503.618	10537.7
503.987	10646.85
504.356	10693.63
504.724	10763.23
505.093	10767.75
505.462	10844.81
505.83	10954.19
506.199	11124.35
506.567	11210.23
506.936	11141.3
507.304	11354.63
507.672	11404.35
508.041	11417.68
508.409	11520.73
508.777	11664.91
509.145	11716.43
509.514	11729.99
509.882	11851.11
510.25	11939.7
510.618	11963.88
510.986	12157.77
511.354	12193.03
511.722	12298.56
512.09	12354.6
512.458	12406.58
512.826	12485
513.193	12633.02
513.561	12641.6
513.929	12872.11
514.297	12901.71
514.664	12984.64
515.032	13048.6
515.4	13180.8
515.767	13268.93
516.135	13385.09
516.502	13321.36
516.869	13547.79
517.237	13558.87
517.604	13542.14
517.972	13772.65
518.339	13940.33
518.706	13897.16
519.073	13997.5
519.44	14082.47
519.808	14289.92
520.175	14305.74
520.542	14430.03
520.909	14527.2
521.276	14549.58
521.643	14708.67
522.009	14832.28
522.376	14989.56
522.743	15117.24
523.11	15255.77
523.477	15380.06
523.843	15444.01
524.21	15663.44
524.577	15706.15
524.943	15759.03
525.31	15879.48
525.676	16019.59
526.043	16114.96
526.409	16209.19
526.776	16438.11
527.142	16513.59
527.508	16650.99
527.874	16675.17
528.241	16866.8
528.607	16846.46
528.973	17070.19
529.339	17156.29
529.705	17319.9
530.071	17504.53
530.437	17501.59
530.803	17599.89
531.169	17733.22
531.535	17700.68
531.901	17860.22
532.267	17994.91
532.632	18109.48
532.998	18206.88
533.364	18239.87
533.73	18231.06
534.095	18399.19
534.461	18541.56
534.826	18633.54
535.192	18648
535.557	18858.39
535.923	18886.86
536.288	18931.15
536.653	19041.43
537.019	18979.29
537.384	19099.29
537.749	19177.02
538.114	19312.84
538.479	19316.91
538.845	19516.45
539.21	19469.22
539.575	19685.94
539.94	19542.89
540.305	19747.63
540.67	19754.18
541.034	19921.19
541.399	19939.26
541.764	19967.29
542.129	20036.21
542.494	20097.68
542.858	20243.66
543.223	20307.84
543.587	20435.52
543.952	20379.25
544.316	20551
544.681	20494.73
545.045	20688.4
545.41	20759.13
545.774	20881.61
546.138	20853.14
546.503	20920.71
546.867	21041.16
547.231	21088.16
547.595	21154.37
547.959	21266.01
548.324	21291.54
548.688	21323.18
549.052	21395.5
549.416	21457.42
549.779	21449.96
550.143	21698.09
550.507	21825.99
550.871	21807.46
551.235	21761.14
551.599	21947.57
551.962	22048.13
552.326	22136.72
552.689	22313.89
553.053	22143.05
553.417	22326.32
553.78	22503.72
554.143	22487.67
554.507	22566.77
554.87	22674.56
555.234	22917.72
555.597	22943.93
555.96	22912.52
556.323	23054.21
556.686	23018.73
557.05	23238.39
557.413	23263.02
557.776	23416.91
558.139	23558.83
558.502	23571.48
558.865	23779.16
559.228	23809.67
559.59	23931.93
559.953	23902.32
560.316	24274.97
560.679	24282.88
561.041	24434.51
561.404	24511.57
561.767	24675.41
562.129	24652.59
562.492	24927.16
562.854	24786.59
563.217	24944.56
563.579	25034.5
563.941	25169.18
564.304	25245.34
564.666	25425
565.028	25444.66
565.39	25543.64
565.753	25709.06
566.115	25722.61
566.477	25899.56
566.839	26003.96
567.201	26222.94
567.563	26130.97
567.925	26410.73
568.287	26570.28
568.648	26462.71
569.01	26603.72
569.372	26851.85
569.734	26688.69
570.095	26899.76
570.457	27042.13
570.819	27193.31
571.18	27108.34
571.542	27279.41
571.903	27348.56
572.265	27529.8
572.626	27513.75
572.987	27524.83
573.349	27633.52
573.71	27850.24
574.071	27873.97
574.432	27910.81
574.794	28050.46
575.155	28051.59
575.516	28086.39
575.877	28303.79
576.238	28231.25
576.599	28381.53
576.96	28392.83
577.32	28429.89
577.681	28409.55
578.042	28679.82
578.403	28560.96
578.763	28593.73
579.124	28706.72
579.485	28783.78
579.845	28787.62
580.206	28957.11
580.566	28753.72
580.927	28865.58
581.287	29023.54
581.648	28888.41
582.008	28995.52
582.368	28900.61
582.728	29052.7
583.089	28955.52
583.449	28975.64
583.809	29066.48
584.169	29195.29
584.529	29065.8
584.889	29302.63
585.249	29121.62
585.609	28998.46
585.969	29222.18
586.329	29179.25
586.688	29090.89
587.048	29120.72
587.408	29152.13
587.768	29042.3
588.127	29136.31
588.487	29052.47
588.846	29315.51
589.206	29170.66
589.565	29134.5
589.925	29346.25
590.284	29240.26
590.643	29208.85
591.003	29172.24
591.362	29422.86
591.721	29341.28
592.08	29337.66
592.44	29363.42
592.799	29416.75
593.158	29308.06
593.517	29431.9
593.876	29475.28
594.235	29434.38
594.593	29409.52
594.952	29447.04
595.311	29322.07
595.67	29504.89
596.029	29640.93
596.387	29577.2
596.746	29586.24
597.104	29606.81
597.463	29541.5
597.822	29703.98
598.18	29592.8
598.538	29677.09
598.897	29818.33
599.255	29547.15
599.613	29953.01
599.972	29683.19
600.33	29851.09
600.688	29727.48
601.046	29796.86
601.404	30048.6
601.762	29931.54
602.12	30100.13
602.478	30078.88
602.836	29971.77
603.194	29808.16
603.552	30092.22
603.91	29914.14
604.268	30122.72
604.625	30093.12
604.983	30157.53
605.341	29917.31
605.698	30085.66
606.056	30343.51
606.413	30184.42
606.771	30310.52
607.128	30362.94
607.485	30134.93
607.843	30339.89
608.2	30459.89
608.557	30526.1
608.914	30503.73
609.272	30629.6
609.629	30602.26
609.986	30711.41
610.343	30618.31
610.7	30847
611.057	30815.36
611.414	30772.2
611.771	30828.24
612.127	30897.62
612.484	30822.59
612.841	30962.02
613.198	30837.28
613.554	30829.15
613.911	31014.45
614.267	31130.83
614.624	30951.63
614.98	31109.14
615.337	31330.38
615.693	31175.58
616.05	31054.68
616.406	31317.27
616.762	31289.7
617.118	31218.29
617.475	31235.92
617.831	31281.11
618.187	31388
618.543	31476.36
618.899	31653.31
619.255	31648.11
619.611	31491.73
619.967	31589.58
620.323	31622.35
620.678	31537.15
621.034	31600.2
621.39	31522.91
621.746	31416.48
622.101	31689.69
622.457	31494.67
622.812	31606.08
623.168	31795.45
623.523	31723.59
623.879	31789.12
624.234	31510.94
624.589	31699.63
624.945	31760.42
625.3	31806.97
625.655	31736.02
626.01	31726.3
626.365	31700.76
626.72	31624.61
627.075	31616.02
627.43	31697.6
627.785	31656.02
628.14	31663.7
628.495	31664.38
628.85	31512.97
629.205	31508.23
629.559	31660.09
629.914	31525.85
630.269	31581.22
630.623	31518.85
630.978	31380.77
631.332	31553.2
631.687	31613.08
632.041	31495.8
632.396	31476.59
632.75	31330.38
633.104	31421.9
633.459	31323.15
633.813	31352.52
634.167	31367.21
634.521	31188.91
634.875	31381.22
635.229	31206.76
635.583	31163.6
635.937	31094
636.291	31066.43
636.645	31117.5
636.999	31012.42
637.352	31082.25
637.706	30878.86
638.06	30911.4
638.413	30900.11
638.767	30886.77
639.121	30814.46
639.474	30739.66
639.828	30856.72
640.181	30837.28
640.534	30785.31
640.888	30550.28
641.241	30439.55
641.594	30555.03
641.947	30643.16
642.301	30494.01
642.654	30696.27
643.007	30578.08
643.36	30420.8
643.713	30364.53
644.066	30400.68
644.419	30329.05
644.771	30101.93
645.124	29868.49
645.477	29812
645.83	29652.23
646.182	29487.04
646.535	29290.2
646.888	29428.05
647.24	29247.04
647.593	29350.32
647.945	29275.29
648.298	29227.16
648.65	29016.99
649.002	28960.95
649.355	29163.2
649.707	29183.54
650.059	29362.52
650.411	29683.41
650.763	29607.26
651.115	29909.62
651.467	29779.91
651.819	29801.38
652.171	29742.85
652.523	29715.73
652.875	29728.61
653.227	29572.46
653.578	29557.09
653.93	29559.8
654.282	29408.62
654.633	29447.71
654.985	29567.49
655.337	29389.41
655.688	29548.5
656.039	29594.15
656.391	29358.9
656.742	29322.29
657.094	29469.18
657.445	29461.05
657.796	29483.19
658.147	29298.11
658.498	29353.93
658.849	29331.33
659.2	29273.03
659.551	29338.11
659.902	29405.68
660.253	29194.16
660.604	29308.51
660.955	29159.81
661.306	29257.44
661.656	29061.96
662.007	29167.27
662.358	29130.43
662.708	29090.66
663.059	29231.9
663.409	28861.06
663.76	29194.16
664.11	28948.97
664.461	29045.24
664.811	29104.9
665.161	29141.28
665.511	29029.19
665.862	28935.86
666.212	29045.01
666.562	29111.45
666.912	28895.19
667.262	28879.14
667.612	28953.04
667.962	28929.08
668.312	28953.04
668.662	29146.71
669.011	28892.25
669.361	28835.53
669.711	28955.75
670.06	28824
670.41	28765.02
670.76	28704.68
671.109	28819.93
671.459	28727.28
671.808	28688.41
672.157	28905.58
672.507	28584.69
672.856	28578.36
673.205	28701.75
673.554	28663.1
673.904	28574.07
674.253	28806.83
674.602	28644.12
674.951	28255.43
675.3	28111.93
675.649	28524.35
675.998	28445.03
676.346	28445.93
676.695	28681.86
677.044	28305.6
677.393	28370.91
677.741	28320.51
678.09	28392.83
678.438	28279.16
678.787	28305.15
679.135	28263.34
679.484	28178.6
679.832	28271.47
680.181	28141.31
680.529	28207.75
680.877	28041.2
681.225	28029.22
681.573	28378.14
681.922	28075.77
682.27	27967.08
682.618	27928.66
682.966	27879.62
683.314	27904.25
683.661	27898.15
684.009	27792.16
684.357	27608.89
684.705	27696.57
685.053	27624.03
685.4	27514.88
685.748	27489.35
686.095	27487.54
686.443	27383.14
686.79	27365.74
687.138	27245.06
687.485	27437.15
687.832	27285.51
688.18	27363.02
688.527	27146.08
688.874	27005.29
689.221	27087.1
689.568	26932.75
689.915	26875.8
690.262	26885.3
690.609	26807.78
690.956	26802.36
691.303	26654.34
691.65	26563.04
691.997	26619.99
692.344	26457.51
692.69	26484.63
693.037	26400.11
693.383	26160.8
693.73	26227.91
694.077	26128.25
694.423	26096.16
694.769	25971.87
695.116	25986.34
695.462	25827.24
695.808	25826.11
696.155	25783.18
696.501	25632.22
696.847	25632.45
697.193	25461.83
697.539	25589.51
697.885	25378.44
698.231	25286.69
698.577	25182.29
698.923	25269.29
699.269	25220.25
699.614	25037.66
699.96	25002.86
700.306	24999.7
700.651	24871.79
700.997	24818.01
701.342	24759.93
701.688	24694.62
702.033	24637.9
702.379	24605.58
702.724	24641.06
703.069	24679.03
703.415	24320.84
703.76	24368.3
704.105	24233.61
704.45	24300.96
704.795	24101.87
705.14	24060.51
705.485	24103.22
705.83	23924.47
706.175	23955.43
706.52	23911.36
706.865	23823
707.209	23753.4
707.554	23645.61
707.899	23744.81
708.243	23561.77
708.588	23524.71
708.932	23472.96
709.277	23399.06
709.621	23530.81
709.966	23245.17
710.31	23433.64
710.654	23088.11
710.998	23108.45
711.342	23152.06
711.687	23176.92
712.031	22976.92
712.375	22962.24
712.719	22924.95
713.063	22849.24
713.407	22904.38
713.75	22705.97
714.094	22776.03
714.438	22726.31
714.782	22728.34
715.125	22651.51
715.469	22566.54
715.812	22463.49
716.156	22385.98
716.499	22395.02
716.843	22439.09
717.186	22171.75
717.53	22423.72
717.873	22365.19
718.216	22220.56
718.559	22250.84
718.902	22020.11
719.246	22104.86
719.589	22091.98
719.932	22010.62
720.275	22043.84
720.617	21976.95
720.96	21915.26
721.303	21992.77
721.646	21945.54
721.989	21781.93
722.331	21817.86
722.674	21840.91
723.016	21722.95
723.359	21702.83
723.701	21714.36
724.044	21549.84
724.386	21504.87
724.729	21521.14
725.071	21357.76
725.413	21466.23
725.755	21433.01
726.097	21413.35
726.439	21227.14
726.782	21276.18
727.124	21392.11
727.465	21191.66
727.807	21274.82
728.149	21113.7
728.491	21106.69
728.833	21006.35
729.175	21037.77
729.516	21041.16
729.858	21090.87
730.199	21050.42
730.541	20913.02
730.882	20840.71
731.224	20826.47
731.565	20772.69
731.906	20870.76
732.248	20819.01
732.589	20735.63
732.93	20658.12
733.271	20714.84
733.612	20703.99
733.953	20656.08
734.294	20503.77
734.635	20484.79
734.976	20528.85
735.317	20462.64
735.658	20470.78
735.999	20435.52
736.339	20378.57
736.68	20313.04
737.021	20363.21
737.361	20232.14
737.702	20250.67
738.042	20246.37
738.383	20196.21
738.723	20326.82
739.063	20141.52
739.404	20255.41
739.744	20182.65
740.084	20134.96
740.424	20056.1
740.764	19978.81
741.104	20121.86
741.444	19953.05
741.784	19947.4
742.124	19938.36
742.464	19960.28
742.804	19890.9
743.143	19785.14
743.483	19826.05
743.823	19714.64
744.162	19676.22
744.502	19725.03
744.841	19557.8
745.181	19684.81
745.52	19576.11
745.86	19582.89
746.199	19522.78
746.538	19505.38
746.877	19513.06
747.216	19530.69
747.556	19428.77
747.895	19420.41
748.234	19339.96
748.573	19240.98
748.911	19309.68
749.25	19271.48
749.589	19115.78
749.928	19220.64
750.267	19156.91
750.605	19107.65
750.944	19090.02
751.283	19010.02
751.621	18921.89
751.96	18860.2
752.298	18864.49
752.636	18850.03
752.975	18708.79
753.313	18755.34
753.651	18799.63
753.989	18722.8
754.327	18642.8
754.666	18598.96
