Data from breadboard_black_back_FLMS001491_00017.txt Node
Date: Wed Feb 08 10:50:01 GMT 2017
User: dcchb
Spectrometer: FLMS00149
Trigger mode: 0
Integration Time (sec): 2.000000E-2
Scans to average: 10
Electric dark correction enabled: true
Nonlinearity correction enabled: false
Boxcar width: 0
XAxis mode: Wavelengths
Number of Pixels in Spectrum: 2048
>>>>>Begin Spectral Data<<<<<
341.393	12.78
341.776	12.78
342.16	12.78
342.543	-66.31
342.927	-72.87
343.31	-83.94
343.693	-64.96
344.077	-62.24
344.46	-55.01
344.843	-30.15
345.226	-47.56
345.61	-41.91
345.993	-8.23
346.376	-14.56
346.759	6.68
347.142	31.99
347.525	53.91
347.908	50.75
348.291	80.13
348.674	86.23
349.057	98.88
349.44	118.32
349.823	129.84
350.206	163.06
350.588	217.52
350.971	216.84
351.354	230.4
351.737	233.34
352.119	272.44
352.502	258.2
352.884	271.98
353.267	273.34
353.65	316.5
354.032	291.42
354.414	311.98
354.797	319.89
355.179	330.51
355.562	327.58
355.944	331.87
356.326	336.84
356.709	336.39
357.091	339.55
357.473	355.37
357.855	330.97
358.238	348.14
358.62	352.43
359.002	349.04
359.384	350.4
359.766	347.91
360.148	334.81
360.53	342.04
360.912	357.63
361.294	319.21
361.676	340.23
362.057	335.71
362.439	344.3
362.821	357.18
363.203	354.92
363.584	325.54
363.966	340.01
364.348	344.98
364.729	345.2
365.111	332.77
365.493	337.97
365.874	336.16
366.256	316.28
366.637	351.98
367.019	323.73
367.4	335.26
367.781	337.52
368.163	344.75
368.544	327.35
368.925	335.03
369.306	347.24
369.688	343.17
370.069	337.07
370.45	353.56
370.831	352.66
371.212	334.13
371.593	353.11
371.974	339.55
372.355	351.53
372.736	352.43
373.117	332.32
373.498	342.49
373.879	343.62
374.26	367.35
374.641	365.77
375.021	335.26
375.402	358.08
375.783	370.06
376.163	363.73
376.544	369.83
376.925	354.47
377.305	389.72
377.686	373.9
378.066	365.09
378.447	387.46
378.827	388.59
379.208	380.46
379.588	383.85
379.968	375.94
380.349	376.39
380.729	387.01
381.109	401.47
381.489	385.43
381.87	425.2
382.25	418.2
382.63	418.2
383.01	416.39
383.39	401.47
383.77	409.16
384.15	422.26
384.53	414.81
384.91	414.81
385.29	425.43
385.67	423.17
386.049	433.79
386.429	460.23
386.809	454.58
387.189	459.32
387.568	437.86
387.948	459.1
388.328	448.25
388.707	460.45
389.087	474.01
389.466	471.98
389.846	468.59
390.225	469.72
390.605	477.18
390.984	481.92
391.363	477.85
391.743	484.86
392.122	466.78
392.501	490.74
392.881	525.76
393.26	505.88
393.639	511.98
394.018	528.93
394.397	519.66
394.776	542.26
395.155	519.89
395.534	523.5
395.913	525.31
396.292	535.48
396.671	525.31
397.05	548.59
397.429	562.15
397.808	546.55
398.186	568.02
398.565	570.06
398.944	583.16
399.323	565.54
399.701	572.09
400.08	579.32
400.458	599.43
400.837	591.75
401.215	572.77
401.594	584.07
401.972	602.37
402.351	610.51
402.729	617.96
403.107	615.93
403.486	628.13
403.864	652.77
404.242	647.34
404.62	642.82
404.999	651.64
405.377	664.06
405.755	642.6
406.133	657.06
406.511	655.7
406.889	700.22
407.267	689.15
407.645	692.99
408.023	707
408.401	730.96
408.779	708.13
409.156	721.01
409.534	725.08
409.912	742.03
410.29	739.09
410.667	774.34
411.045	771.86
411.422	793.1
411.8	808.47
412.178	796.26
412.555	801.91
412.933	807.79
413.31	809.6
413.687	808.47
414.065	837.17
414.442	837.39
414.819	854.34
415.197	875.58
415.574	868.58
415.951	893.66
416.328	890.27
416.705	897.73
417.082	889.6
417.46	898.86
417.837	924.17
418.214	928.69
418.591	926.88
418.967	955.81
419.344	937.28
419.721	973.66
420.098	974.56
420.475	972.08
420.852	983.15
421.228	994.9
421.605	1004.85
421.982	1017.5
422.358	1029.93
422.735	1029.25
423.111	1057.73
423.488	1031.74
423.864	1079.19
424.241	1067.9
424.617	1047.33
424.994	1098.4
425.37	1102.25
425.746	1107.67
426.123	1101.12
426.499	1131.85
426.875	1144.73
427.251	1168.23
427.627	1170.04
428.003	1190.15
428.379	1222.69
428.756	1197.16
429.132	1237.83
429.507	1242.81
429.883	1276.93
430.259	1284.84
430.635	1299.08
431.011	1302.92
431.387	1341.79
431.763	1365.74
432.138	1356.48
432.514	1379.53
432.89	1422.46
433.265	1417.49
433.641	1453.42
434.016	1441.45
434.392	1473.31
434.767	1503.36
435.143	1495.91
435.518	1493.42
435.894	1544.04
436.269	1542.23
436.644	1563.02
437.02	1604.38
437.395	1623.14
437.77	1641.21
438.145	1633.53
438.52	1634.21
438.895	1647.99
439.271	1690.93
439.646	1704.26
440.021	1716.69
440.395	1744.71
440.77	1692.29
441.145	1728.9
441.52	1759.4
441.895	1769.57
442.27	1804.6
442.645	1775
443.019	1819.74
443.394	1802.57
443.769	1851.38
444.143	1824.94
444.518	1846.86
444.892	1860.19
445.267	1900.19
445.641	1896.8
446.016	1907.2
446.39	1902
446.764	1929.12
447.139	1933.41
447.513	1977.7
447.887	1942
448.262	1979.06
448.636	2005.27
449.01	2040.75
449.384	2020.64
449.758	2056.57
450.132	2073.52
450.506	2085.5
450.88	2122.56
451.254	2120.07
451.628	2157.36
452.002	2167.08
452.376	2185.83
452.75	2191.93
453.123	2243.23
453.497	2226.51
453.871	2279.84
454.244	2336.11
454.618	2306.73
454.992	2377.92
455.365	2356.45
455.739	2421.76
456.112	2475.54
456.486	2505.6
456.859	2478.03
457.232	2537.46
457.606	2546.73
457.979	2588.08
458.352	2628.31
458.725	2672.15
459.099	2689.1
459.472	2774.07
459.845	2755.08
460.218	2788.75
460.591	2827.17
460.964	2791.92
461.337	2854.29
461.71	2936.77
462.083	2955.08
462.456	2977.22
462.829	3041.4
463.201	3069.65
463.574	3027.17
463.947	3098.35
464.32	3176.31
464.692	3212.02
465.065	3246.14
465.438	3244.56
465.81	3329.08
466.183	3366.37
466.555	3404.56
466.928	3449.08
467.3	3454.5
467.672	3519.13
468.045	3619.02
468.417	3622.18
468.789	3614.04
469.161	3719.35
469.534	3748.05
469.906	3841.83
470.278	3869.63
470.65	3926.58
471.022	3984.66
471.394	4017.2
471.766	4061.04
472.138	4149.4
472.51	4209.06
472.882	4258.77
473.253	4345.1
473.625	4384.42
473.997	4489.27
474.369	4472.1
474.74	4526.34
475.112	4638.65
475.484	4750.51
475.855	4786.44
476.227	4839.1
476.598	4979.66
476.97	5030.28
477.341	5112.54
477.713	5198.18
478.084	5194.34
478.455	5388.46
478.827	5410.38
479.198	5537.83
479.569	5580.55
479.94	5712.97
480.311	5838.17
480.682	5932.17
481.053	6038.39
481.424	6160.64
481.795	6204.03
482.166	6232.05
482.537	6357.25
482.908	6452.61
483.279	6580.29
483.65	6709.78
484.021	6783.68
484.391	6845.14
484.762	6914.97
485.133	7043.11
485.503	7126.95
485.874	7246.04
486.244	7391.35
486.615	7509.53
486.985	7617.55
487.356	7695.97
487.726	7805.35
488.097	7958.34
488.467	7992.69
488.837	8132.57
489.207	8195.39
489.578	8382.73
489.948	8458.66
490.318	8549.05
490.688	8606.68
491.058	8706.56
491.428	8799.44
491.798	8944.75
492.168	9079.66
492.538	9211.86
492.908	9188.81
493.278	9377.28
493.648	9354.46
494.017	9509.03
494.387	9684.84
494.757	9686.2
495.126	9770.04
495.496	9876.7
495.866	9934.33
496.235	9983.82
496.605	10119.18
496.974	10189.46
497.344	10266.52
497.713	10360.31
498.082	10440.98
498.452	10505.16
498.821	10611.83
499.19	10678.26
499.559	10813.63
499.928	10874.64
500.298	10871.25
500.667	11035.32
501.036	11024.24
501.405	11180.4
501.774	11270.79
502.143	11295.2
502.512	11355.76
502.88	11446.38
503.249	11457
503.618	11537.45
503.987	11666.04
504.356	11756.88
504.724	11786.03
505.093	11886.37
505.462	11883.2
505.83	12023.77
506.199	12154.38
506.567	12302.4
506.936	12336.98
507.304	12383.3
507.672	12438.67
508.041	12568.38
508.409	12693.8
508.777	12781.26
509.145	12853.35
509.514	12907.58
509.882	12991.65
510.25	13014.93
510.618	13143.51
510.986	13153.23
511.354	13292.21
511.722	13412.88
512.09	13656.49
512.458	13616.49
512.826	13764.96
513.193	13800.44
513.561	13878.18
513.929	14015.35
514.297	14123.82
514.664	14242.01
515.032	14297.38
515.4	14451.72
515.767	14482.91
516.135	14587.54
516.502	14558.16
516.869	14776.46
517.237	14872.96
517.604	14857.36
517.972	15044.25
518.339	15212.38
518.706	15205.38
519.073	15324.02
519.44	15456.9
519.808	15639.26
520.175	15695.99
520.542	15900.73
520.909	15982.31
521.276	15995.19
521.643	16137.33
522.009	16283.77
522.376	16370.32
522.743	16488.51
523.11	16657.54
523.477	16927.59
523.843	16979.34
524.21	17117.64
524.577	17235.38
524.943	17269.73
525.31	17389.05
525.676	17590.85
526.043	17704.07
526.409	17766.67
526.776	17944.29
527.142	18074.45
527.508	18146.77
527.874	18324.84
528.241	18406.65
528.607	18522.8
528.973	18739.3
529.339	18775.45
529.705	19040.08
530.071	19099.96
530.437	19142.9
530.803	19230.13
531.169	19209.34
531.535	19457.92
531.901	19536.56
532.267	19671.25
532.632	19744.01
532.998	19840.51
533.364	19955.76
533.73	19983.33
534.095	20197.34
534.461	20146.94
534.826	20411.12
535.192	20395.98
535.557	20565.24
535.923	20567.95
536.288	20699.02
536.653	20791.67
537.019	20785.34
537.384	20840.03
537.749	20911.67
538.114	21138.78
538.479	21138.78
538.845	21241.6
539.21	21212.9
539.575	21330.87
539.94	21516.62
540.305	21652.67
540.67	21548.26
541.034	21692.21
541.399	21670.52
541.764	21910.06
542.129	21939.89
542.494	21935.6
542.858	22038.42
543.223	22128.36
543.587	22216.94
543.952	22234.34
544.316	22326.32
544.681	22213.1
545.045	22534
545.41	22624.84
545.774	22612.87
546.138	22668.23
546.503	22802.01
546.867	22778.96
547.231	22953.42
547.595	23036.13
547.959	23184.6
548.324	23145.51
548.688	23092.63
549.052	23390.25
549.416	23425.95
549.779	23425.05
550.143	23532.39
550.507	23693.06
550.871	23760.63
551.235	23776
551.599	23987.74
551.962	23956.11
552.326	24176.44
552.689	24155.88
553.053	24109.1
553.417	24226.83
553.78	24583.89
554.143	24482.42
554.507	24600.84
554.87	24705.92
555.234	24910.43
555.597	24823.2
555.96	24935.06
556.323	25112.01
556.686	25220.93
557.05	25416.18
557.413	25490.53
557.776	25324.66
558.139	25636.52
558.502	25687.81
558.865	25713.35
559.228	26008.26
559.59	26146.11
559.953	26057.3
560.316	26340
560.679	26383.39
561.041	26522.82
561.404	26617.73
561.767	26915.8
562.129	26823.6
562.492	27012.3
562.854	26989.93
563.217	27106.98
563.579	27267.43
563.941	27426.07
564.304	27561.66
564.666	27732.96
565.028	27671.26
565.39	27848.89
565.753	27965.04
566.115	28032.38
566.477	28127.3
566.839	28264.47
567.201	28590.56
567.563	28474.18
567.925	28693.84
568.287	28696.55
568.648	28795.98
569.01	28989.42
569.372	29112.13
569.734	29005.24
570.095	29287.49
570.457	29367.72
570.819	29454.04
571.18	29500.59
571.542	29653.13
571.903	29647.03
572.265	29797.08
572.626	29817.87
572.987	29966.34
573.349	30115.49
573.71	30097.87
574.071	30244.53
574.432	30350.74
574.794	30589.61
575.155	30510.74
575.516	30312.55
575.877	30588.48
576.238	30694.01
576.599	30754.8
576.96	30823.05
577.32	30801.58
577.681	30940.56
578.042	31127.9
578.403	31076.82
578.763	31172.41
579.124	31144.62
579.485	31304.16
579.845	31472.07
580.206	31227.55
580.566	31346.65
580.927	31435.68
581.287	31509.81
581.648	31309.59
582.008	31579.41
582.368	31334.9
582.728	31553.42
583.089	31449.47
583.449	31538.28
583.809	31435.68
584.169	31602.46
584.529	31559.52
584.889	31878.84
585.249	31448.57
585.609	31510.03
585.969	31754.32
586.329	31545.29
586.688	31707.99
587.048	31559.3
587.408	31588.22
587.768	31600.43
588.127	31573.99
588.487	31618.96
588.846	31815.79
589.206	31614.66
589.565	31605.85
589.925	31686.75
590.284	31654.66
590.643	31703.25
591.003	31750.25
591.362	31833.64
591.721	31860.53
592.08	31830.7
592.44	31880.19
592.799	32010.58
593.158	31845.62
593.517	31749.8
593.876	31917.93
594.235	31854.88
594.593	31904.15
594.952	31905.73
595.311	31788.9
595.67	32054.2
596.029	32153.41
596.387	32107.53
596.746	32223.46
597.104	32095.78
597.463	32018.49
597.822	32155.67
598.18	31992.05
598.538	31924.26
598.897	32151.6
599.255	32000.87
599.613	32525.6
599.972	32201.54
600.33	32234.08
600.688	32175.33
601.046	32293.29
601.404	32505.94
601.762	32279.28
602.12	32541.19
602.478	32463.91
602.836	32613.28
603.194	32449.22
603.552	32506.17
603.91	32501.65
604.268	32648.99
604.625	32384.36
604.983	32708.87
605.341	32416.22
605.698	32704.13
606.056	32783.9
606.413	32707.06
606.771	32935.08
607.128	32766.27
607.485	32793.84
607.843	32692.15
608.2	32916.1
608.557	33007.85
608.914	33042.65
609.272	33138.24
609.629	33250.1
609.986	33092.14
610.343	32992.48
610.7	33322.87
611.057	33228.18
611.414	33192.93
611.771	33350.44
612.127	33280.38
612.484	33327.61
612.841	33482.64
613.198	33456.65
613.554	33436.08
613.911	33560.6
614.267	33509.3
614.624	33432.69
614.98	33597.66
615.337	33732.8
615.693	33719.47
616.05	33535.52
616.406	33940.93
616.762	33898.44
617.118	33708.17
617.475	33771.22
617.831	33892.12
618.187	33812.57
618.543	33896.41
618.899	34121.94
619.255	34036.29
619.611	33987.71
619.967	33986.13
620.323	34168.49
620.678	33924.66
621.034	33910.42
621.39	34050.08
621.746	33985.22
622.101	34331.43
622.457	33979.35
622.812	34045.56
623.168	34209.85
623.523	34168.72
623.879	34255.5
624.234	34063.86
624.589	34238.55
624.945	34314.93
625.3	34230.19
625.655	34159
626.01	34169.4
626.365	34163.52
626.72	34104.54
627.075	34019.8
627.43	33989.97
627.785	34084.2
628.14	34068.38
628.495	34114.94
628.85	34154.26
629.205	33961.04
629.559	34156.74
629.914	33906.13
630.269	33966.24
630.623	34028.61
630.978	33974.15
631.332	34047.82
631.687	34047.14
632.041	33759.01
632.396	33872.68
632.75	33814.83
633.104	33811.44
633.459	33685.34
633.813	33642.41
634.167	33632.69
634.521	33514.27
634.875	33642.86
635.229	33544.78
635.583	33410.55
635.937	33274.73
636.291	33408.97
636.645	33424.11
636.999	33327.61
637.352	33430.66
637.706	33271.79
638.06	33459.13
638.413	33279.7
638.767	33081.74
639.121	33152.7
639.474	33113.61
639.828	33061.18
640.181	33117.9
640.534	32990.67
640.888	32967.62
641.241	32786.61
641.594	32886.95
641.947	32873.84
642.301	32821.41
642.654	32913.39
643.007	32831.81
643.36	32761.3
643.713	32640.17
644.066	32733.73
644.419	32531.48
644.771	32336.23
645.124	32073.18
645.477	32101.2
645.83	31850.82
646.182	31907.31
646.535	31465.51
646.888	31619.86
647.24	31448.34
647.593	31507.1
647.945	31542.57
648.298	31364.95
648.65	31223.94
649.002	31099.65
649.355	31411.28
649.707	31328.57
650.059	31534.89
650.411	31900.31
650.763	31759.07
651.115	32169.45
651.467	32034.09
651.819	32098.49
652.171	31964.48
652.523	31814.88
652.875	31814.88
653.227	31773.53
653.578	31920.42
653.93	31759.97
654.282	31645.4
654.633	31611.73
654.985	31618.73
655.337	31758.61
655.688	31667.77
656.039	31733.08
656.391	31523.82
656.742	31557.94
657.094	31486.76
657.445	31645.85
657.796	31496.93
658.147	31477.04
658.498	31392.75
658.849	31563.82
659.2	31411.5
659.551	31384.39
659.902	31492.18
660.253	31385.74
660.604	31409.92
660.955	31301.9
661.306	31273.88
661.656	31413.09
662.007	31260.32
662.358	31270.49
662.708	31327.66
663.059	31155.92
663.409	31141.23
663.76	31319.76
664.11	31155.92
664.461	31237.5
664.811	31317.5
665.161	31196.82
665.511	31182.81
665.862	31094
666.212	31226.65
666.562	31200.44
666.912	31084.73
667.262	31150.95
667.612	30990.5
667.962	31116.82
668.312	30900.11
668.662	31122.25
669.011	31130.61
669.361	31009.26
669.711	30967.22
670.06	30998.18
670.41	30909.37
670.76	30885.87
671.109	30944.62
671.459	30850.84
671.808	30823.05
672.157	30921.57
672.507	30702.37
672.856	30724.74
673.205	30717.29
673.554	30893.78
673.904	30712.31
674.253	30870.95
674.602	30678.19
674.951	30304.87
675.3	30239.78
675.649	30831.18
675.998	30620.11
676.346	30664.63
676.695	30679.09
677.044	30345.54
677.393	30427.12
677.741	30432.1
678.09	30475.94
678.438	30350.74
678.787	30447.69
679.135	30353.68
679.484	30162.27
679.832	30257.64
680.181	30166.57
680.529	30144.87
680.877	30094.03
681.225	30077.98
681.573	30206.34
681.922	30048.38
682.27	29807.48
682.618	29962.73
682.966	29864.2
683.314	30033.69
683.661	29836.63
684.009	29790.3
684.357	29640.03
684.705	29589.86
685.053	29757.08
685.4	29620.59
685.748	29442.52
686.095	29373.14
686.443	29319.58
686.79	29216.53
687.138	29382.18
687.485	29362.52
687.832	29216.31
688.18	29264.89
688.527	29047.72
688.874	28992.59
689.221	28959.14
689.568	28886.83
689.915	28817
690.262	28792.36
690.609	28786.26
690.956	28755.98
691.303	28696.55
691.65	28499.72
691.997	28443.9
692.344	28259.5
692.69	28374.07
693.037	28278.03
693.383	28155.09
693.73	28205.94
694.077	28090.46
694.423	27939.96
694.769	27818.38
695.116	27854.08
695.462	27850.24
695.808	27754.88
696.155	27876
696.501	27529.57
696.847	27483.7
697.193	27324.83
697.539	27430.82
697.885	27160.32
698.231	27110.37
698.577	27132.75
698.923	27119.19
699.269	26874.67
699.614	26880.78
699.96	26884.17
700.306	26767.11
700.651	26749.03
700.997	26643.27
701.342	26625.19
701.688	26578.19
702.033	26445.76
702.379	26375.03
702.724	26245.09
703.069	26331.19
703.415	26070.85
703.76	25944.3
704.105	26087.12
704.45	25918.32
704.795	25867.47
705.14	25721.94
705.485	25787.02
705.83	25604.88
706.175	25612.56
706.52	25511.09
706.865	25513.13
707.209	25494.6
707.554	25452.34
707.899	25310.42
708.243	25253.25
708.588	25216.41
708.932	25154.04
709.277	25109.75
709.621	25270.2
709.966	24922.86
710.31	25028.85
710.654	24757.89
710.998	24838.12
711.342	24760.61
711.687	24759.93
712.031	24620.95
712.375	24502.76
712.719	24569.65
713.063	24527.84
713.407	24627.05
713.75	24311.58
714.094	24311.35
714.438	24290.79
714.782	24300.28
715.125	24124.01
715.469	24215.08
715.812	24059.83
716.156	23974.41
716.499	23968.54
716.843	24008.08
717.186	23782.33
717.53	23907.75
717.873	24077.46
718.216	23845.83
718.559	23724.7
718.902	23618.04
719.246	23651.93
719.589	23543.91
719.932	23505.05
720.275	23476.8
720.617	23384.6
720.96	23531.94
721.303	23402.68
721.646	23336.24
721.989	23208.78
722.331	23375.11
722.674	23194.55
723.016	23229.8
723.359	23244.49
723.701	23136.92
724.044	23039.52
724.386	22922.91
724.729	22978.73
725.071	22997.04
725.413	22875.91
725.755	22988.9
726.097	22771.28
726.439	22589.36
726.782	22755.01
727.124	22859.87
727.465	22569.7
727.807	22629.59
728.149	22618.29
728.491	22451.51
728.833	22659.64
729.175	22538.07
729.516	22399.76
729.858	22436.83
730.199	22431.63
730.541	22395.02
730.882	22330.61
731.224	22291.52
731.565	22241.58
731.906	22268.47
732.248	22172.88
732.589	22101.01
732.93	22123.16
733.271	22085.87
733.612	22075.48
733.953	22103.27
734.294	21901.02
734.635	21945.99
734.976	22010.4
735.317	21847.69
735.658	21838.2
735.999	21851.3
736.339	21708.03
736.68	21788.03
737.021	21684.53
737.361	21580.8
737.702	21825.09
738.042	21615.83
738.383	21648.6
738.723	21502.61
739.063	21589.62
739.404	21537.64
739.744	21461.26
740.084	21417.64
740.424	21488.83
740.764	21391.2
741.104	21431.43
741.444	21211.55
741.784	21234.6
742.124	21256.07
742.464	21280.47
742.804	21239.57
743.143	21114.15
743.483	21170.87
743.823	20960.25
744.162	21019.91
744.502	21035.28
744.841	20951.89
745.181	21014.04
745.52	20862.18
745.86	20872.12
746.199	20842.97
746.538	20832.8
746.877	20870.99
747.216	20803.65
747.556	20691.56
747.895	20754.16
748.234	20669.19
748.573	20624.22
748.911	20592.13
749.25	20536.08
749.589	20452.7
749.928	20449.76
750.267	20483.88
750.605	20348.74
750.944	20349.87
751.283	20305.36
751.621	20359.82
751.96	20291.34
752.298	20089.54
752.636	20098.36
752.975	20009.32
753.313	19910.56
753.651	19968.87
753.989	19879.15
754.327	19779.95
754.666	19748.08
