Data from breadboard_white_FLMS001491_00096.txt Node
Date: Wed Feb 08 10:48:33 GMT 2017
User: dcchb
Spectrometer: FLMS00149
Trigger mode: 0
Integration Time (sec): 2.000000E-2
Scans to average: 10
Electric dark correction enabled: true
Nonlinearity correction enabled: false
Boxcar width: 0
XAxis mode: Wavelengths
Number of Pixels in Spectrum: 2048
>>>>>Begin Spectral Data<<<<<
341.393	-38.63
341.776	-38.63
342.16	-38.63
342.543	-56.26
342.927	-65.97
343.31	-52.19
343.693	-58.97
344.077	-47.44
344.46	-70.49
344.843	-32.08
345.226	-56.48
345.61	-46.54
345.993	-21.45
346.376	-11.74
346.759	14.93
347.142	29.62
347.525	28.26
347.908	54.48
348.291	53.12
348.674	97.64
349.057	119.33
349.44	113.46
349.823	134.25
350.206	152.78
350.588	209.95
350.971	215.6
351.354	242.27
351.737	255.15
352.119	259.89
352.502	260.8
352.884	293.11
353.267	294.92
353.65	296.5
354.032	301.93
354.414	327.92
354.797	336.28
355.179	347.58
355.562	344.41
355.944	353.68
356.326	340.57
356.709	337.18
357.091	350.51
357.473	343.28
357.855	357.74
358.238	359.33
358.62	343.51
359.002	359.1
359.384	336.73
359.766	346.67
360.148	353.45
360.53	345.32
360.912	353.9
361.294	370.63
361.676	333.34
362.057	344.86
362.439	344.19
362.821	339.89
363.203	367.46
363.584	352.55
363.966	331.98
364.348	346.9
364.729	336.95
365.111	308.71
365.493	331.76
365.874	333.56
366.256	352.77
366.637	329.72
367.019	320.23
367.4	312.77
367.781	354.81
368.163	339.44
368.544	314.36
368.925	335.37
369.306	340.8
369.688	348.03
370.069	339.67
370.45	322.72
370.831	333.79
371.212	346.45
371.593	353.45
371.974	342.38
372.355	361.81
372.736	333.34
373.117	330.63
373.498	344.64
373.879	339.67
374.26	322.49
374.641	339.21
375.021	347.8
375.402	343.28
375.783	358.2
376.163	363.17
376.544	354.58
376.925	388.48
377.305	351.19
377.686	385.54
378.066	360
378.447	364.07
378.827	357.07
379.208	357.74
379.588	371.08
379.968	392.32
380.349	355.71
380.729	366.56
381.109	371.76
381.489	385.09
381.87	386.9
382.25	403.62
382.63	394.58
383.01	404.07
383.39	385.09
383.77	389.16
384.15	393.68
384.53	405.88
384.91	383.73
385.29	396.39
385.67	416.5
386.049	415.6
386.429	421.7
386.809	406.56
387.189	423.51
387.568	421.25
387.948	413.79
388.328	426.22
388.707	423.73
389.087	438.42
389.466	446.78
389.846	462.37
390.225	457.4
390.605	451.3
390.984	460.12
391.363	465.54
391.743	474.13
392.122	481.81
392.501	477.29
392.881	473.22
393.26	472.77
393.639	489.94
394.018	505.99
394.397	500.57
394.776	517.51
395.155	527.01
395.534	516.84
395.913	518.42
396.292	535.14
396.671	518.87
397.05	548.47
397.429	556.16
397.808	534.01
398.186	560.23
398.565	578.53
398.944	566.78
399.323	559.1
399.701	589.83
400.08	600.9
400.458	604.29
400.837	578.98
401.215	632.31
401.594	627.79
401.972	649.04
402.351	647.45
402.729	660.56
403.107	666.21
403.486	674.12
403.864	673.44
404.242	663.95
404.62	697.85
404.999	722.93
405.377	720.22
405.755	755.47
406.133	763.16
406.511	763.38
406.889	783.5
407.267	774.01
407.645	792.99
408.023	807.22
408.401	809.71
408.779	840.22
409.156	835.7
409.534	879.31
409.912	890.39
410.29	897.17
410.667	922.7
411.045	923.61
411.422	959.08
411.8	984.4
412.178	984.17
412.555	999.31
412.933	979.65
413.31	1027.11
413.687	1035.24
414.065	1079.08
414.442	1080.66
414.819	1114.79
415.197	1107.78
415.574	1131.28
415.951	1163.15
416.328	1168.12
416.705	1203.15
417.082	1184.39
417.46	1223.48
417.837	1224.39
418.214	1250.15
418.591	1250.6
418.967	1251.05
419.344	1291.96
419.721	1301.67
420.098	1307.32
420.475	1338.74
420.852	1363.59
421.228	1377.83
421.605	1412.86
421.982	1412.18
422.358	1424.61
422.735	1441.11
423.111	1435
423.488	1442.46
423.864	1497.83
424.241	1508.22
424.617	1534.66
424.994	1535.34
425.37	1550.26
425.746	1550.93
426.123	1588.67
426.499	1597.94
426.875	1600.42
427.251	1654.66
427.627	1667.54
428.003	1722.91
428.379	1712.74
428.756	1737.6
429.132	1764.04
429.507	1772.17
429.883	1821.44
430.259	1855.56
430.635	1854.65
431.011	1896.69
431.387	1958.61
431.763	1965.39
432.138	1998.83
432.514	1985.95
432.89	2000.41
433.265	2076.8
433.641	2112.95
434.016	2109.79
434.392	2149.56
434.767	2172.84
435.143	2243.8
435.518	2239.5
435.894	2272.5
436.269	2271.14
436.644	2345.94
437.02	2356.11
437.395	2330.8
437.77	2424.13
438.145	2426.39
438.52	2463.45
438.895	2466.62
439.271	2506.39
439.646	2555.43
440.021	2567.18
440.395	2567.18
440.77	2519.95
441.145	2594.07
441.52	2653.73
441.895	2636.78
442.27	2650.79
442.645	2695.54
443.019	2735.54
443.394	2717.91
443.769	2755.2
444.143	2757.68
444.518	2793.39
444.892	2818.25
445.267	2797.68
445.641	2867.74
446.016	2864.12
446.39	2895.98
446.764	2896.44
447.139	2879.49
447.513	2987.51
447.887	2956.55
448.262	2968.75
448.636	3035.19
449.01	3070.89
449.384	3100.72
449.758	3124.68
450.132	3150.89
450.506	3150.89
450.88	3199.25
451.254	3201.06
451.628	3254.84
452.002	3300.72
452.376	3297.1
452.75	3359.93
453.123	3383.65
453.497	3410.77
453.871	3456.87
454.244	3522.41
454.618	3557.21
454.992	3615.06
455.365	3641.5
455.739	3723.08
456.112	3758.11
456.486	3761.5
456.859	3796.75
457.232	3909.06
457.606	3899.57
457.979	3940.7
458.352	4033.81
458.725	4068.16
459.099	4100.25
459.472	4179.79
459.845	4185.67
460.218	4264.08
460.591	4262.27
460.964	4298.43
461.337	4443.06
461.71	4532.1
462.083	4553.79
462.456	4535.94
462.829	4580.23
463.201	4637.18
463.574	4693.9
463.947	4739.78
464.32	4836.72
464.692	4954.23
465.065	4935.48
465.438	4993.78
465.81	5084.4
466.183	5123.72
466.555	5271.74
466.928	5305.64
467.3	5311.51
467.672	5391.06
468.045	5516.25
468.417	5541.79
468.789	5531.85
469.161	5652.07
469.534	5733.2
469.906	5878.28
470.278	5968.22
470.65	6020.87
471.022	6099.06
471.394	6284.82
471.766	6344.03
472.138	6380.86
472.51	6523.46
472.882	6599.61
473.253	6690.01
473.625	6790.57
473.997	6963.45
474.369	6935.2
474.74	7092.71
475.112	7176.1
475.484	7313.49
475.855	7483.66
476.227	7482.3
476.598	7719.36
476.97	7798.45
477.341	8037.09
477.713	8115.28
478.084	8172.68
478.455	8403.18
478.827	8409.06
479.198	8676.62
479.569	8696.96
479.94	8966.11
480.311	9142.15
480.682	9274.8
481.053	9443.61
481.424	9659.42
481.795	9629.14
482.166	9881.79
482.537	9958.85
482.908	10225.06
483.279	10369.23
483.65	10412.85
484.021	10708.43
484.391	10834.31
484.762	10927.18
485.133	11067.97
485.503	11208.08
485.874	11450.11
486.244	11550.9
486.615	11801.74
486.985	11857.78
487.356	12210.77
487.726	12225.68
488.097	12468.61
488.467	12617.99
488.837	12863.18
489.207	12941.82
489.578	13202.6
489.948	13319.44
490.318	13453.45
490.688	13534.35
491.058	13734.57
491.428	13923.94
491.798	14124.16
492.168	14384.04
492.538	14439.41
492.908	14661.32
493.278	14794.88
493.648	14859.74
494.017	15058.15
494.387	15181.76
494.757	15389.21
495.126	15482.09
495.496	15550.79
495.866	15657.46
496.235	15855.19
496.605	16023.1
496.974	16096.09
497.344	16301.05
497.713	16346.03
498.082	16515.96
498.452	16682.51
498.821	16789.18
499.19	16769.97
499.559	17019.23
499.928	17142.61
500.298	17271.88
500.667	17389.16
501.036	17442.49
501.405	17609.95
501.774	17757.29
502.143	17860.79
502.512	17916.83
502.88	18171.97
503.249	18047
503.618	18366.76
503.987	18406.54
504.356	18622.12
504.724	18659.41
505.093	18711.61
505.462	18918.61
505.83	19010.36
506.199	19245.61
506.567	19399.28
506.936	19446.96
507.304	19720.63
507.672	19604.47
508.041	19892.82
508.409	20003.78
508.777	20227.05
509.145	20352.7
509.514	20386.82
509.882	20647.83
510.25	20655.06
510.618	20787.26
510.986	20980.93
511.354	21160.14
511.722	21300.92
512.09	21440.81
512.458	21572.1
512.826	21739.33
513.193	21891.87
513.561	21936.16
513.929	22280.33
514.297	22379.76
514.664	22570.49
515.032	22731.62
515.4	22874.89
515.767	22907.43
516.135	23092.97
516.502	23056.81
516.869	23537.7
517.237	23500.19
517.604	23570.69
517.972	23875.54
518.339	24110.57
518.706	24104.69
519.073	24283.22
519.44	24398.69
519.808	24811.34
520.175	24785.13
520.542	24998.45
520.909	25303.76
521.276	25276.19
521.643	25661.03
522.009	25828.04
522.376	25916.39
522.743	26168.59
523.11	26347.12
523.477	26670.73
523.843	26821.23
524.21	27107.78
524.577	27232.52
524.943	27384.83
525.31	27533.75
525.676	27886.74
526.043	28096.68
526.409	28123.79
526.776	28466.84
527.142	28617.57
527.508	28784.12
527.874	29029.99
528.241	29211.68
528.607	29271.11
528.973	29589.52
529.339	29580.03
529.705	29860.92
530.071	30114.93
530.437	30314.47
530.803	30414.13
531.169	30568.93
531.535	30632.43
531.901	30854.34
532.267	30925.3
532.632	31281.45
532.998	31204.17
533.364	31431.73
533.73	31563.7
534.095	31705.85
534.461	31867.42
534.826	32029.68
535.192	32256.12
535.557	32449.78
535.923	32532.04
536.288	32636.67
536.653	32917.79
537.019	32830.79
537.384	33025.59
537.749	33171.57
538.114	33212.47
538.479	33305.81
538.845	33479.36
539.21	33600.71
539.575	33610.2
539.94	33756.87
540.305	33973.13
540.67	33864.43
541.034	34207.02
541.399	34261.49
541.764	34398.88
542.129	34530.18
542.494	34552.78
542.858	34788.7
543.223	34884.29
543.587	35050.62
543.952	35045.65
544.316	35220.33
544.681	35149.15
545.045	35490.15
545.41	35540.55
545.774	35519.76
546.138	35841.56
546.503	35794.33
546.867	35917.26
547.231	36127.43
547.595	36166.97
547.959	36361.54
548.324	36383.69
548.688	36504.59
549.052	36699.61
549.416	36675.66
549.779	36709.33
550.143	36903.9
550.507	37120.62
550.871	37248.98
551.235	37162.2
551.599	37663.88
551.962	37512.02
552.326	37808.96
552.689	38011.22
553.053	37864.56
553.417	37947.72
553.78	38448.72
554.143	38363.53
554.507	38566.91
554.87	38674.93
555.234	39082.15
555.597	38890.97
555.96	39152.43
556.323	39261.81
556.686	39286.21
557.05	39653.21
557.413	39662.25
557.776	39855.24
558.139	40053.2
558.502	40037.15
558.865	40358.27
559.228	40620.19
559.59	40566.63
559.953	40773.63
560.316	41134.75
560.679	41129.55
561.041	41434.86
561.404	41664.46
561.767	41705.58
562.129	41683.89
562.492	42045.91
562.854	42091.79
563.217	42059.47
563.579	42396.64
563.941	42616.07
564.304	42832.56
564.666	43116.39
565.028	43077.3
565.39	43209.27
565.753	43477.29
566.115	43586.66
566.477	43805.19
566.839	43802.7
567.201	44156.37
567.563	44055.58
567.925	44454.89
568.287	44399.07
568.648	44536.47
569.01	44785.28
569.372	44956.12
569.734	44892.17
570.095	45181.2
570.457	45369.67
570.819	45526.27
571.18	45493.96
571.542	45851.46
571.903	45817.57
572.265	45905.93
572.626	46150.89
572.987	46177.56
573.349	46281.51
573.71	46423.88
574.071	46434.05
574.432	46554.04
574.794	46758.56
575.155	46738.45
575.516	46811.44
575.877	47003.07
576.238	47003.98
576.599	47144.09
576.96	47283.74
577.32	47108.61
577.681	47394.47
578.042	47376.85
578.403	47506.11
578.763	47286.45
579.124	47546.79
579.485	47620
579.845	47727.35
580.206	47678.08
580.566	47684.41
580.927	47702.04
581.287	47869.49
581.648	47674.69
582.008	47930.28
582.368	47849.6
582.728	47980.45
583.089	47844.86
583.449	47881.47
583.809	47904.29
584.169	48087.56
584.529	47909.71
584.889	48175.47
585.249	47901.35
585.609	47914.69
585.969	48118.07
586.329	48082.14
586.688	48092.76
587.048	48104.96
587.408	47923.27
587.768	47958.75
588.127	48013.44
588.487	47897.29
588.846	48384.28
589.206	47902.71
589.565	48075.36
589.925	48222.93
590.284	48079.2
590.643	48044.63
591.003	48193.55
591.362	48302.25
591.721	48285.07
592.08	48285.3
592.44	48412.53
592.799	48333.66
593.158	48361.68
593.517	48365.3
593.876	48444.84
594.235	48309.7
594.593	48361.23
594.952	48443.94
595.311	48252.98
595.67	48327.56
596.029	48648
596.387	48606.87
596.746	48696.36
597.104	48571.84
597.463	48524.39
597.822	48673.54
598.18	48539.08
598.538	48444.84
598.897	48752.18
599.255	48400.78
599.613	48890.93
599.972	48722.8
600.33	48722.35
600.688	48634.44
601.046	48796.02
601.404	48850.48
601.762	48826.75
602.12	49036.46
602.478	48975.45
602.836	49149.46
603.194	48924.6
603.552	48953.98
603.91	48895.68
604.268	49036.46
604.625	48923.02
604.983	49108.55
605.341	48919.63
605.698	49149.68
606.056	49204.37
606.413	49125.05
606.771	49264.26
607.128	49284.14
607.485	49233.97
607.843	49266.06
608.2	49276.23
608.557	49434.87
608.914	49389.45
609.272	49473.74
609.629	49662.21
609.986	49767.75
610.343	49524.81
610.7	49736.56
611.057	49768.42
611.414	49724.58
611.771	49745.37
612.127	49934.75
612.484	49920.74
612.841	49890.68
613.198	49865.6
613.554	50040.51
613.911	50123.44
614.267	50098.36
614.624	50030.11
614.98	50111.46
615.337	50333.15
615.693	50225.13
616.05	50201.41
616.406	50351.01
616.762	50217.45
617.118	50250.44
617.475	50354.85
617.831	50348.07
618.187	50381.97
618.543	50491.57
618.899	50663.77
619.255	50520.72
619.611	50562.07
619.967	50574.05
620.323	50654.05
620.678	50511.45
621.034	50477.33
621.39	50443.89
621.746	50390.1
622.101	50809.07
622.457	50465.58
622.812	50632.13
623.168	50755.97
623.523	50722.52
623.879	50742.63
624.234	50605.92
624.589	50671.68
624.945	50659.7
625.3	50686.82
625.655	50738.57
626.01	50658.57
626.365	50761.39
626.72	50555.3
627.075	50675.29
627.43	50645.91
627.785	50627.61
628.14	50633.26
628.495	50647.72
628.85	50575.86
629.205	50409.08
629.559	50694.95
629.914	50405.92
630.269	50517.56
630.623	50393.94
630.978	50441.85
631.332	50502.42
631.687	50571.57
632.041	50321.4
632.396	50416.54
632.75	50286.83
633.104	50300.16
633.459	50035.76
633.813	50143.1
634.167	50117.57
634.521	50107.4
634.875	50088.64
635.229	50073.5
635.583	49838.25
635.937	50035.31
636.291	49870.79
636.645	49894.07
636.999	49678.71
637.352	49907.18
637.706	49622.66
638.06	49724.81
638.413	49666.96
638.767	49514.87
639.121	49570.46
639.474	49360.07
639.828	49394.65
640.181	49381.77
640.534	49381.77
640.888	49288.66
641.241	49129.34
641.594	49215.9
641.947	49226.74
642.301	49128.44
642.654	49189
643.007	49084.15
643.36	48999.18
643.713	48979.52
644.066	49117.14
644.419	48967.99
644.771	48788.34
645.124	48378.63
645.477	48515.57
645.83	48041.24
646.182	47917.62
646.535	47745.43
646.888	47710.17
647.24	47568.48
647.593	47667.46
647.945	47704.3
648.298	47502.04
648.65	47360.8
649.002	47275.83
649.355	47464.53
649.707	47346.11
650.059	47492.55
650.411	47868.81
650.763	47896.83
651.115	48360.78
651.467	48126.88
651.819	48207.11
652.171	48034.91
652.523	48046.21
652.875	48020.9
653.227	47764.18
653.578	48163.72
653.93	47909.71
654.282	47781.81
654.633	47622.49
654.985	47931.64
655.337	47863.39
655.688	47844.63
656.039	47779.55
656.391	47507.24
656.742	47501.14
657.094	47647.57
657.445	47695.26
657.796	47586.33
658.147	47496.84
658.498	47476.51
658.849	47473.57
659.2	47507.47
659.551	47448.94
659.902	47428.82
660.253	47441.7
660.604	47447.35
660.955	47166.23
661.306	47401.71
661.656	47303.63
662.007	47336.62
662.358	47281.26
662.708	47203.97
663.059	47176.85
663.409	46990.19
663.76	47399.22
664.11	47367.36
664.461	47245.78
664.811	47231.31
665.161	47181.6
665.511	46973.02
665.862	47024.54
666.212	47135.5
666.562	47170.98
666.912	47122.16
667.262	47096.63
667.612	46904.54
667.962	47196.29
668.312	46953.58
668.662	47102.5
669.011	46978.89
669.361	46997.2
669.711	46945.67
670.06	46933.7
670.41	46879.91
670.76	46785
671.109	46984.54
671.459	46795.17
671.808	46708.62
672.157	46756.98
672.507	46512.46
672.856	46596.76
673.205	46489.41
673.554	46695.96
673.904	46474.27
674.253	46674.04
674.602	46540.71
674.951	45998.35
675.3	45785.7
675.649	46484.22
675.998	46261.17
676.346	46380.26
676.695	46425.46
677.044	46102.53
677.393	46289.42
677.741	46329.64
678.09	46129.2
678.438	46092.59
678.787	46092.14
679.135	46027.05
679.484	45728.08
679.832	45930.78
680.181	45840.39
680.529	45943.89
680.877	45724.01
681.225	45642.66
681.573	45983.89
681.922	45613.96
682.27	45544.81
682.618	45545.94
682.966	45449.44
683.314	45505.71
683.661	45312.95
684.009	45213.06
684.357	45144.59
684.705	45056.46
685.053	45156.79
685.4	45017.14
685.748	44761.32
686.095	44882.68
686.443	44680.2
686.79	44573.31
687.138	44779.18
687.485	44641.1
687.832	44522.23
688.18	44613.3
688.527	44253.09
688.874	44305.06
689.221	44110.27
689.568	44021.23
689.915	44018.07
690.262	43858.75
690.609	43737.17
690.956	43745.08
691.303	43661.01
691.65	43498.98
691.997	43530.17
692.344	43159.78
692.69	43190.97
693.037	43149.61
693.383	42888.38
693.73	42941.94
694.077	42720.47
694.423	42735.61
694.769	42625.33
695.116	42492.68
695.462	42365.91
695.808	42270.54
696.155	42198.45
696.501	42103.99
696.847	41935.18
697.193	41803.21
697.539	41906.26
697.885	41540.84
698.231	41516.44
698.577	41457.91
698.923	41400.73
699.269	41149.67
699.614	41085.71
699.96	40979.73
700.306	41060.4
700.651	40685.95
700.997	40652.28
701.342	40690.02
701.688	40547.42
702.033	40429.69
702.379	40445.28
702.724	40248.9
703.069	40406.64
703.415	39923.48
703.76	39933.43
704.105	39947.66
704.45	39861.56
704.795	39534.12
705.14	39422.93
705.485	39390.84
705.83	39348.81
706.175	39251.86
706.52	39113.11
706.865	39179.77
707.209	39122.83
707.554	38914.92
707.899	39031.08
708.243	38617.08
708.588	38687.58
708.932	38385.22
709.277	38476.97
709.621	38379.34
709.966	38279.91
710.31	38127.15
710.654	37892.35
710.998	37985.23
711.342	37991.33
711.687	37858.68
712.031	37700.27
712.375	37650.32
712.719	37457.11
713.063	37455.98
713.407	37603.55
713.75	37370.1
714.094	37326.26
714.438	37077.46
714.782	37130.11
715.125	37053.28
715.469	36982.54
715.812	36931.02
716.156	36729.44
716.499	36734.42
716.843	36785.94
717.186	36470.92
717.53	36707.75
717.873	36639.95
718.216	36649.22
718.559	36398.61
718.902	36156.13
719.246	36252.85
719.589	35988.45
719.932	35972.18
720.275	36037.71
720.617	35896.25
720.96	35964.94
721.303	35977.6
721.646	35926.75
721.989	35622.13
722.331	35636.59
722.674	35632.98
723.016	35607.67
723.359	35430.27
723.701	35416.26
724.044	35207.68
724.386	35077.06
724.729	35117.28
725.071	35064.4
725.413	35081.58
725.755	34910.96
726.097	34901.7
726.439	34701.7
726.782	34631.87
727.124	34905.09
727.465	34610.18
727.807	34472.33
728.149	34595.71
728.491	34466.9
728.833	34531.54
729.175	34305.78
729.516	34261.03
729.858	34233.01
730.199	34308.72
730.541	34058.78
730.882	34124.54
731.224	34122.28
731.565	33841.38
731.906	33944.66
732.248	34054.49
732.589	33796.64
732.93	33656.08
733.271	33787.83
733.612	33752.35
733.953	33650.43
734.294	33480.49
734.635	33447.95
734.976	33510.77
735.317	33408.85
735.658	33293.83
735.999	33308.06
736.339	33255.18
736.68	33303.77
737.021	33096.32
737.361	32949.88
737.702	33046.6
738.042	32901.97
738.383	32809.55
738.723	32964.35
739.063	32782.43
739.404	32806.84
739.744	32659.49
740.084	32566.84
740.424	32620.85
740.764	32623.79
741.104	32475.54
741.444	32327.53
741.784	32334.98
742.124	32346.51
742.464	32442.1
742.804	32220.41
743.143	32137.93
743.483	32116.91
743.823	32085.95
744.162	32148.77
744.502	32042.34
744.841	31815.45
745.181	31958.5
745.52	31767.31
745.86	31788.33
746.199	31710.37
746.538	31610.71
746.877	31677.83
747.216	31556.02
747.556	31284.16
747.895	31588.11
748.234	31336.59
748.573	31240.77
748.911	31354.67
749.25	31169.82
749.589	31165.97
749.928	31203.04
750.267	31048.01
750.605	31119.87
750.944	30918.75
751.283	30886.21
751.621	30885.53
751.96	30746.32
752.298	30690.05
752.636	30575.93
752.975	30564.86
