Data from breadboard_black_back_FLMS001491_00091.txt Node
Date: Wed Feb 08 10:51:10 GMT 2017
User: dcchb
Spectrometer: FLMS00149
Trigger mode: 0
Integration Time (sec): 2.000000E-2
Scans to average: 10
Electric dark correction enabled: true
Nonlinearity correction enabled: false
Boxcar width: 0
XAxis mode: Wavelengths
Number of Pixels in Spectrum: 2048
>>>>>Begin Spectral Data<<<<<
341.393	-22.12
341.776	-22.12
342.16	-22.12
342.543	-63.92
342.927	-59.86
343.31	-72.74
343.693	-66.41
344.077	-53.08
344.46	-58.73
344.843	-42.68
345.226	-44.94
345.61	-36.58
345.993	-28.45
346.376	5.9
346.759	14.27
347.142	19.01
347.525	45.9
347.908	51.33
348.291	72.34
348.674	88.16
349.057	106.69
349.44	141.04
349.823	142.62
350.206	167.71
350.588	192.57
350.971	221.94
351.354	219.23
351.737	227.37
352.119	237.76
352.502	254.26
352.884	288.16
353.267	282.05
353.65	277.76
354.032	304.43
354.414	318.66
354.797	319.12
355.179	329.51
355.562	328.83
355.944	324.09
356.326	334.26
356.709	338.32
357.091	334.93
357.473	350.75
357.855	350.98
358.238	322.73
358.62	335.61
359.002	355.05
359.384	352.56
359.766	360.02
360.148	341.49
360.53	358.66
360.912	351.21
361.294	339
361.676	334.71
362.057	353.24
362.439	356.86
362.821	322.05
363.203	356.18
363.584	347.14
363.966	315.5
364.348	339.68
364.729	338.1
365.111	332.45
365.493	339.23
365.874	335.39
366.256	331.09
366.637	342.39
367.019	332.67
367.4	329.74
367.781	310.3
368.163	319.79
368.544	348.27
368.925	330.87
369.306	348.49
369.688	347.59
370.069	346.46
370.45	329.51
370.831	334.03
371.212	345.1
371.593	344.43
371.974	311.43
372.355	310.53
372.736	337.19
373.117	318.89
373.498	346.23
373.879	355.05
374.26	361.37
374.641	340.13
375.021	358.66
375.402	343.3
375.783	351.43
376.163	341.04
376.544	373.35
376.925	354.14
377.305	374.71
377.686	351.66
378.066	378.78
378.447	373.35
378.827	365.89
379.208	375.84
379.588	380.81
379.968	366.35
380.349	380.36
380.729	379.68
381.109	375.39
381.489	375.16
381.87	378.55
382.25	372.9
382.63	384.88
383.01	379.23
383.39	376.74
383.77	367.25
384.15	397.98
384.53	391.2
384.91	421.71
385.29	402.05
385.67	382.39
386.049	417.87
386.429	385.1
386.809	414.25
387.189	425.33
387.568	433.01
387.948	419
388.328	436.85
388.707	409.28
389.087	440.69
389.466	415.61
389.846	436.63
390.225	444.76
390.605	447.02
390.984	437.08
391.363	457.42
391.743	454.71
392.122	461.26
392.501	478.66
392.881	456.74
393.26	496.74
393.639	482.05
394.018	469.17
394.397	464.2
394.776	484.99
395.155	496.74
395.534	472.33
395.913	505.55
396.292	500.81
396.671	494.93
397.05	522.05
397.429	512.78
397.808	503.29
398.186	508.94
398.565	517.75
398.944	518.88
399.323	511.88
399.701	514.14
400.08	527.25
400.458	529.28
400.837	522.73
401.215	554.14
401.594	550.07
401.972	559.56
402.351	546.91
402.729	566.12
403.107	577.64
403.486	551.65
403.864	562.05
404.242	588.49
404.62	578.77
404.999	597.3
405.377	573.12
405.755	598.43
406.133	598.88
406.511	601.37
406.889	609.5
407.267	597.07
407.645	633.68
408.023	637.53
408.401	630.07
408.779	645.44
409.156	659.67
409.534	647.69
409.912	661.93
410.29	692.89
410.667	658.77
411.045	682.04
411.422	683.17
411.8	707.81
412.178	715.72
412.555	714.81
412.933	708.94
413.31	697.64
413.687	710.74
414.065	744.87
414.442	750.29
414.819	737.64
415.197	753
415.574	760.91
415.951	749.84
416.328	788.03
416.705	795.26
417.082	794.81
417.46	807.46
417.837	784.87
418.214	832.1
418.591	811.76
418.967	815.37
419.344	843.85
419.721	863.28
420.098	858.31
420.475	832.55
420.852	846.79
421.228	876.84
421.605	906.45
421.982	896.05
422.358	898.08
422.735	889.04
423.111	910.74
423.488	925.88
423.864	937.4
424.241	928.14
424.617	938.31
424.994	966.1
425.37	962.71
425.746	964.75
426.123	992.32
426.499	988.48
426.875	1002.94
427.251	998.87
427.627	1039.32
428.003	1033.9
428.379	1055.14
428.756	1061.92
429.132	1081.13
429.507	1083.62
429.883	1103.73
430.259	1144.18
430.635	1085.88
431.011	1138.08
431.387	1161.58
431.763	1165.65
432.138	1163.61
432.514	1187.34
432.89	1198.19
433.265	1246.1
433.641	1224.85
434.016	1253.78
434.392	1241.35
434.767	1289.71
435.143	1285.42
435.518	1300.33
435.894	1335.13
436.269	1311.63
436.644	1363.16
437.02	1371.97
437.395	1375.81
437.77	1371.97
438.145	1413.78
438.52	1400.22
438.895	1413.1
439.271	1439.31
439.646	1458.52
440.021	1470.27
440.395	1460.78
440.77	1452.87
441.145	1471.4
441.52	1539.87
441.895	1536.94
442.27	1523.83
442.645	1539.42
443.019	1524.96
443.394	1537.39
443.769	1589.59
444.143	1580.1
444.518	1600.66
444.892	1594.34
445.267	1594.56
445.641	1636.82
446.016	1593.21
446.39	1636.6
446.764	1656.71
447.139	1667.56
447.513	1656.48
447.887	1660.78
448.262	1673.66
448.636	1700.32
449.01	1741
449.384	1734.67
449.758	1744.39
450.132	1757.95
450.506	1738.06
450.88	1782.35
451.254	1771.28
451.628	1824.39
452.002	1843.37
452.376	1838.85
452.75	1859.64
453.123	1895.12
453.497	1905.74
453.871	1921.56
454.244	1965.17
454.618	1975.8
454.992	2024.61
455.365	2013.53
455.739	2043.14
456.112	2072.06
456.486	2097.6
456.859	2090.14
457.232	2138.73
457.606	2144.38
457.979	2198.84
458.352	2218.28
458.725	2224.6
459.099	2244.26
459.472	2303.24
459.845	2366.29
460.218	2343.24
460.591	2377.37
460.964	2396.58
461.337	2447.87
461.71	2481.54
462.083	2491.94
462.456	2494.65
462.829	2550.7
463.201	2546.63
463.574	2592.73
463.947	2619.85
464.32	2691.71
464.692	2725.15
465.065	2729.22
465.438	2752.95
465.81	2827.07
466.183	2812.61
466.555	2884.7
466.928	2930.57
467.3	2909.33
467.672	2971.02
468.045	3016.9
468.417	3024.36
468.789	3105.71
469.161	3125.6
469.534	3129.89
469.906	3222.09
470.278	3273.84
470.65	3293.95
471.022	3321.3
471.394	3413.95
471.766	3423.44
472.138	3468.19
472.51	3523.33
472.882	3597.9
473.253	3610.55
473.625	3707.05
473.997	3770.78
474.369	3771.23
474.74	3823.2
475.112	3934.61
475.484	3940.04
475.855	4004.67
476.227	4057.55
476.598	4168.05
476.97	4185.91
477.341	4324.89
477.713	4361.5
478.084	4412.57
478.455	4514.49
478.827	4529.4
479.198	4707.25
479.569	4673.13
479.94	4819.34
480.311	4845.32
480.682	4961.03
481.053	5083.51
481.424	5201.47
481.795	5213.45
482.166	5253.68
482.537	5369.83
482.908	5536.38
483.279	5557.4
483.65	5629.71
484.021	5676.26
484.391	5803.04
484.762	5870.61
485.133	5851.4
485.503	5969.59
485.874	6109.47
486.244	6177.49
486.615	6309.47
486.985	6386.75
487.356	6478.73
487.726	6516.24
488.097	6724.82
488.467	6701.32
488.837	6881.43
489.207	6921.43
489.578	7002.1
489.948	7085.49
490.318	7167.75
490.688	7267.18
491.058	7382.43
491.428	7468.98
491.798	7504.24
492.168	7710.56
492.538	7687.96
492.908	7780.39
493.278	7866.49
493.648	7941.97
494.017	7994.85
494.387	8132.7
494.757	8184.9
495.126	8271.45
495.496	8310.32
495.866	8387.6
496.235	8490.43
496.605	8537.2
496.974	8589.41
497.344	8667.14
497.713	8725.22
498.082	8803.41
498.452	8866.46
498.821	8951.21
499.19	8966.35
499.559	9064.65
499.928	9175.83
500.298	9288.15
500.667	9281.59
501.036	9290.86
501.405	9478.42
501.774	9395.71
502.143	9605.65
502.512	9537.18
502.88	9732.2
503.249	9625.31
503.618	9799.32
503.987	9830.73
504.356	9802.26
504.724	9928.13
505.093	10082.02
505.462	10048.35
505.83	10101.23
506.199	10237.5
506.567	10344.39
506.936	10392.75
507.304	10516.81
507.672	10506.42
508.041	10634.55
508.409	10668.9
508.777	10793.64
509.145	10930.81
509.514	10913.41
509.882	11006.74
510.25	11020.76
510.618	11067.53
510.986	11176.23
511.354	11277.47
511.722	11416.45
512.09	11500.06
512.458	11406.28
512.826	11678.59
513.193	11717.01
513.561	11708.19
513.929	11873.39
514.297	11966.49
514.664	12052.37
515.032	12048.3
515.4	12167.17
515.767	12264.56
516.135	12347.95
516.502	12219.82
516.869	12586.82
517.237	12637.89
517.604	12643.99
517.972	12759.92
518.339	12840.59
518.706	12943.19
519.073	12992
519.44	13092.34
519.808	13212.56
520.175	13247.14
520.542	13419.11
520.909	13558.77
521.276	13599.9
521.643	13680.35
522.009	13826.78
522.376	13905.88
522.743	14018.64
523.11	14238.52
523.477	14259.77
523.843	14382.02
524.21	14438.29
524.577	14674.9
524.943	14667.44
525.31	14791.96
525.676	14914.89
526.043	15034.44
526.409	15166.18
526.776	15275.78
527.142	15365.5
527.508	15558.72
527.874	15594.42
528.241	15700.86
528.607	15672.16
528.973	15867.41
529.339	15949.89
529.705	16058.59
530.071	16266.95
530.437	16299.49
530.803	16328.64
531.169	16369.54
531.535	16472.59
531.901	16585.58
532.267	16723.88
532.632	16828.51
532.998	16818.12
533.364	16874.16
533.73	16995.97
534.095	17141.5
534.461	17183.98
534.826	17354.6
535.192	17357.31
535.557	17465.33
535.923	17545.56
536.288	17607.93
536.653	17716.4
537.019	17667.13
537.384	17786
537.749	17941.03
538.114	17884.08
538.479	17990.97
538.845	18174.92
539.21	18120.46
539.575	18237.06
539.94	18275.25
540.305	18372.65
540.67	18357.51
541.034	18452.88
541.399	18536.49
541.764	18538.75
542.129	18687.45
542.494	18767.9
542.858	18701.01
543.223	18851.51
543.587	18946.87
543.952	18953.65
544.316	19144.84
544.681	19063.03
545.045	19255.34
545.41	19318.16
545.774	19378.73
546.138	19300.54
546.503	19453.53
546.867	19469.8
547.231	19616.91
547.595	19695.33
547.959	19764.25
548.324	19854.65
548.688	19778.94
549.052	20006.96
549.416	19956.11
549.779	20082.44
550.143	20103.23
550.507	20213.96
550.871	20266.84
551.235	20288.99
551.599	20407.4
551.962	20540.28
552.326	20593.61
552.689	20778.01
553.053	20787.28
553.417	20824.79
553.78	21072.47
554.143	20957.9
554.507	21131.68
554.87	21147.95
555.234	21506.58
555.597	21364.66
555.96	21425.91
556.323	21590.2
556.686	21664.77
557.05	21732.11
557.413	21763.98
557.776	21796.52
558.139	22017.75
558.502	22049.62
558.865	22106.34
559.228	22260.91
559.59	22457.06
559.953	22354.02
560.316	22655.48
560.679	22566.89
561.041	22773.67
561.404	22854.57
561.767	23019.54
562.129	23027.22
562.492	23270.6
562.854	23190.15
563.217	23272.86
563.579	23398.74
563.941	23600.99
564.304	23679.18
564.666	23759.63
565.028	23864.71
565.39	23946.07
565.753	24100.64
566.115	24143.35
566.477	24309.22
566.839	24333.85
567.201	24487.29
567.563	24440.97
567.925	24661.75
568.287	24670.79
568.648	24743.56
569.01	24859.04
569.372	25081.85
569.734	24913.27
570.095	25195.52
570.457	25386.03
570.819	25361.62
571.18	25392.81
571.542	25494.05
571.903	25639.35
572.265	25713.02
572.626	25822.63
572.987	25855.62
573.349	25950.98
573.71	26093.35
574.071	26110.53
574.432	26192.79
574.794	26381.03
575.155	26384.19
575.516	26300.81
575.877	26326.12
576.238	26522.95
576.599	26554.81
576.96	26563.85
577.32	26601.36
577.681	26698.08
578.042	26695.37
578.403	26841.13
578.763	26769.27
579.124	26891.98
579.485	26921.58
579.845	27055.14
580.206	26910.96
580.566	26983.5
580.927	27003.61
581.287	27257.62
581.648	26955.03
582.008	27277.73
582.368	27225.75
582.728	27330.38
583.089	27211.52
583.449	27134
583.809	27211.97
584.169	27300.33
584.529	27223.04
584.889	27523.6
585.249	27336.71
585.609	27207.22
585.969	27439.08
586.329	27414.45
586.688	27366.99
587.048	27350.5
587.408	27369.48
587.768	27357.05
588.127	27373.55
588.487	27323.38
588.846	27417.39
589.206	27319.76
589.565	27428.69
589.925	27566.31
590.284	27423.94
590.643	27564.95
591.003	27494.45
591.362	27703.93
591.721	27557.95
592.08	27609.25
592.44	27651.96
592.799	27677.94
593.158	27576.25
593.517	27584.16
593.876	27698.06
594.235	27648.34
594.593	27544.61
594.952	27676.81
595.311	27678.4
595.67	27794.78
596.029	27891.05
596.387	27862.12
596.746	27974.89
597.104	27871.16
597.463	27771.73
597.822	27968.11
598.18	27945.51
598.538	27871.84
598.897	28014.88
599.255	27795.46
599.613	28194.99
599.972	27957.94
600.33	28055.11
600.688	27954.1
601.046	28192.51
601.404	28239.51
601.762	28105.5
602.12	28136.69
602.478	28286.29
602.836	28254.88
603.194	28216.24
603.552	28295.33
603.91	28190.7
604.268	28339.62
604.625	28198.16
604.983	28438.38
605.341	28321.32
605.698	28368.32
606.056	28434.08
606.413	28502.78
606.771	28478.83
607.128	28618.71
607.485	28565.38
607.843	28543.68
608.2	28793.4
608.557	28760.18
608.914	28645.38
609.272	28759.72
609.629	28955.43
609.986	28896.44
610.343	28853.96
610.7	28948.42
611.057	28991.13
611.414	28905.71
611.771	28953.62
612.127	29006.05
612.484	29156.1
612.841	29239.71
613.198	29103.9
613.554	29115.19
613.911	29214.63
614.267	29306.38
614.624	29281.97
614.98	29394.51
615.337	29416.2
615.693	29380.95
616.05	29295.53
616.406	29508.18
616.762	29538.46
617.118	29501.63
617.475	29486.94
617.831	29526.94
618.187	29620.49
618.543	29691
618.899	29777.32
619.255	29693.26
619.611	29611
619.967	29627.95
620.323	29892.35
620.678	29742.75
621.034	29599.25
621.39	29686.03
621.746	29593.83
622.101	29963.76
622.457	29611.68
622.812	29878.79
623.168	29858.9
623.523	29873.82
623.879	29949.3
624.234	29692.35
624.589	29912.46
624.945	29904.1
625.3	29876.08
625.655	29901.61
626.01	29872.92
626.365	29798.57
626.72	29918.56
627.075	29897.77
627.43	29908.62
627.785	29773.71
628.14	29854.61
628.495	29959.47
628.85	29761.51
629.205	29736.65
629.559	30087.82
629.914	29748.85
630.269	29821.62
630.623	29794.5
630.978	29770.32
631.332	29858.9
631.687	29790.21
632.041	29704.11
632.396	29753.82
632.75	29543.88
633.104	29711.79
633.459	29446.71
633.813	29556.09
634.167	29447.39
634.521	29482.19
634.875	29487.39
635.229	29449.2
635.583	29327.62
635.937	29430.21
636.291	29375.08
636.645	29236.1
636.999	29194.97
637.352	29274.06
637.706	29227.96
638.06	29221.18
638.413	29152.93
638.767	29185.7
639.121	29337.56
639.474	28896.44
639.828	29044.69
640.181	28961.53
640.534	29019.6
640.888	28937.35
641.241	28818.25
641.594	28950
641.947	28913.39
642.301	28729.67
642.654	28752.94
643.007	28872.72
643.36	28785.94
643.713	28712.95
644.066	28753.85
644.419	28628.43
644.771	28520.41
645.124	28311.6
645.477	28170.36
645.83	27918.62
646.182	27783.48
646.535	27788.22
646.888	27719.07
647.24	27616.93
647.593	27758.17
647.945	27702.12
648.298	27460.1
648.65	27451.51
649.002	27416.93
649.355	27656.02
649.707	27519.08
650.059	27676.36
650.411	27919.07
650.763	28107.99
651.115	28312.96
651.467	28184.15
651.819	28149.12
652.171	28009.24
652.523	28043.36
652.875	28123.13
653.227	27870.93
653.578	28169.23
653.93	27950.48
654.282	27819.41
654.633	27871.84
654.985	27797.72
655.337	27863.7
655.688	27843.36
656.039	28021.21
656.391	27754.33
656.742	27867.09
657.094	27768.79
657.445	27830.26
657.796	27764.5
658.147	27858.96
658.498	27636.14
658.849	27742.58
659.2	27636.36
659.551	27628
659.902	27707.1
660.253	27658.06
660.604	27832.06
660.955	27609.92
661.306	27594.78
661.656	27622.13
662.007	27662.8
662.358	27571.96
662.708	27526.76
663.059	27601.79
663.409	27456.26
663.76	27634.56
664.11	27524.05
664.461	27542.35
664.811	27535.58
665.161	27549.36
665.511	27465.75
665.862	27447.44
666.212	27558.17
666.562	27582.13
666.912	27372.87
667.262	27432.3
667.612	27344.39
667.962	27462.58
668.312	27367.9
668.662	27511.85
669.011	27458.97
669.361	27400.89
669.711	27444.05
670.06	27369.25
670.41	27301.68
670.76	27159.31
671.109	27306.2
671.459	27264.85
671.808	27218.97
672.157	27319.99
672.507	27077.51
672.856	27240.22
673.205	27212.42
673.554	27266.43
673.904	27101.69
674.253	27277.5
674.602	27089.71
674.951	26769.04
675.3	26676.61
675.649	27162.7
675.998	27016.72
676.346	27071.86
676.695	27091.97
677.044	26776.5
677.393	26885.87
677.741	26938.98
678.09	26906.44
678.438	26818.08
678.787	26958.87
679.135	27026.66
679.484	26652.21
679.832	26851.75
680.181	26694.92
680.529	26788.25
680.877	26618.76
681.225	26632.77
681.573	26825.99
681.922	26687.46
682.27	26489.95
682.618	26559.1
682.966	26496.96
683.314	26481.14
683.661	26484.08
684.009	26281.37
684.357	26280.92
684.705	26228.04
685.053	26297.64
685.4	26231.2
685.748	26118.66
686.095	26092.22
686.443	25935.39
686.79	25922.74
687.138	25923.19
687.485	25954.37
687.832	25892.45
688.18	25919.57
688.527	25757.09
688.874	25761.61
689.221	25702.86
689.568	25512.8
689.915	25557.55
690.262	25539.24
690.609	25459.25
690.956	25363.88
691.303	25355.97
691.65	25247.5
691.997	25215.86
692.344	25010.9
692.69	25017
693.037	25100.61
693.383	24834.86
693.73	25024.46
694.077	24791.69
694.423	24794.4
694.769	24725.03
695.116	24549.67
695.462	24645.93
695.808	24537.01
696.155	24605.03
696.501	24398.03
696.847	24350.12
697.193	24170.69
697.539	24190.58
697.885	24164.59
698.231	24011.15
698.577	24087.08
698.923	24003.01
699.269	23936.57
699.614	23761.66
699.96	23729.57
700.306	23744.71
700.651	23697.71
700.997	23612.97
701.342	23504.04
701.688	23535.23
702.033	23471.95
702.379	23407.77
702.724	23348.11
703.069	23477.38
703.415	23086.65
703.76	23096.82
704.105	23096.37
704.45	23057.95
704.795	22967.79
705.14	22867.9
705.485	22907.45
705.83	22720.56
706.175	22806.89
706.52	22651.64
706.865	22609.38
707.209	22576.84
707.554	22489.61
707.899	22501.58
708.243	22477.63
708.588	22413.22
708.932	22228.14
709.277	22349.72
709.621	22325.09
709.966	22206.68
710.31	22175.04
710.654	22020.47
710.998	22042.39
711.342	21956.74
711.687	21884.88
712.031	21893.24
712.375	21821.38
712.719	21852.56
713.063	21900.24
713.407	21813.01
713.75	21718.55
714.094	21683.3
714.438	21572.12
714.782	21637.65
715.125	21491.89
715.469	21485.11
715.812	21461.61
716.156	21303.65
716.499	21369.18
716.843	21354.27
717.186	21142.75
717.53	21255.97
717.873	21255.51
718.216	21264.78
718.559	21184.56
718.902	21030.66
719.246	21036.09
719.589	20919.93
719.932	20846.03
720.275	20940.95
720.617	20895.3
720.96	20890.33
721.303	20851.46
721.646	20763.55
721.989	20736.43
722.331	20685.81
722.674	20552.71
723.016	20576.66
723.359	20619.15
723.701	20658.02
724.044	20401.75
724.386	20410.79
724.729	20420.06
725.071	20466.83
725.413	20368.31
725.755	20401.07
726.097	20332.83
726.439	20198.37
726.782	20288.53
727.124	20257.57
727.465	20176.22
727.807	20237.69
728.149	20112.04
728.491	20077.47
728.833	20104.13
729.175	20039.73
729.516	20072.27
729.858	19986.85
730.199	19935.78
730.541	19936.23
730.882	19914.08
731.224	19921.54
731.565	19783.69
731.906	19785.04
732.248	19897.36
732.589	19649.91
732.93	19703.24
733.271	19744.82
733.612	19715.22
733.953	19759.28
734.294	19622.34
734.635	19642
734.976	19651.26
735.317	19504.15
735.658	19462.34
735.999	19477.03
736.339	19356.81
736.68	19490.36
737.021	19402.91
737.361	19330.59
737.702	19282.01
738.042	19324.04
738.383	19427.54
738.723	19288.56
739.063	19246.98
739.404	19232.06
739.744	19202.24
740.084	19169.02
740.424	19213.76
740.764	19076.59
741.104	19185.51
741.444	19040.66
741.784	19050.6
742.124	18953.88
742.464	18952.98
742.804	18830.27
743.143	18814
743.483	19046.76
743.823	18736.94
744.162	18778.52
744.502	18803.38
744.841	18726.99
745.181	18788.91
745.52	18738.07
745.86	18720.44
746.199	18613.32
746.538	18651.74
746.877	18714.11
747.216	18601.8
747.556	18546.89
747.895	18563.16
748.234	18478.86
748.573	18399.09
748.911	18401.58
749.25	18349.38
749.589	18296.5
749.928	18347.79
750.267	18221.47
750.605	18274.35
750.944	18205.2
751.283	18084.98
751.621	18178.53
751.96	18056.05
752.298	17982.61
752.636	18020.12
752.975	17891.08
753.313	17831.88
753.651	17921.82
753.989	17834.81
754.327	17817.19
754.666	17777.64
755.004	17748.49
