Data from breadboard_white_FLMS001491_00077.txt Node
Date: Wed Feb 08 10:48:15 GMT 2017
User: dcchb
Spectrometer: FLMS00149
Trigger mode: 0
Integration Time (sec): 2.000000E-2
Scans to average: 10
Electric dark correction enabled: true
Nonlinearity correction enabled: false
Boxcar width: 0
XAxis mode: Wavelengths
Number of Pixels in Spectrum: 2048
>>>>>Begin Spectral Data<<<<<
341.393	2.44
341.776	2.44
342.16	2.44
342.543	-73.71
342.927	-64.22
343.31	-73.94
343.693	-82.07
344.077	-43.66
344.46	-63.54
344.843	-52.24
345.226	-58.12
345.61	-26.71
345.993	-12.02
346.376	1.77
346.759	16
347.142	46.06
347.525	66.4
347.908	52.39
348.291	57.13
348.674	69.33
349.057	103.23
349.44	119.5
349.823	168.77
350.206	164.47
350.588	200.86
350.971	207.64
351.354	229.33
351.737	234.75
352.119	264.58
352.502	266.84
352.884	291.02
353.267	293.74
353.65	296
354.032	312.49
354.414	308.2
354.797	323.34
355.179	313.4
355.562	341.42
355.944	365.15
356.326	339.61
356.709	327.86
357.091	351.81
357.473	355.43
357.855	354.75
358.238	347.52
358.62	360.85
359.002	354.3
359.384	355.65
359.766	357.69
360.148	353.39
360.53	339.84
360.912	361.08
361.294	335.09
361.676	353.62
362.057	369.44
362.439	363.11
362.821	326.28
363.203	354.52
363.584	349.33
363.966	335.99
364.348	323.79
364.729	355.65
365.111	337.12
365.493	329.21
365.874	336.67
366.256	328.31
366.637	335.99
367.019	345.71
367.4	337.12
367.781	337.58
368.163	340.29
368.544	349.78
368.925	323.56
369.306	353.17
369.688	309.78
370.069	349.1
370.45	332.83
370.831	327.18
371.212	369.89
371.593	342.55
371.974	335.54
372.355	342.77
372.736	331.25
373.117	347.07
373.498	347.29
373.879	338.48
374.26	351.13
374.641	353.17
375.021	347.52
375.402	363.34
375.783	344.58
376.163	359.04
376.544	379.61
376.925	361.98
377.305	359.72
377.686	371.25
378.066	357.69
378.447	382.55
378.827	361.53
379.208	378.93
379.588	368.76
379.968	376.22
380.349	366.73
380.729	368.76
381.109	387.29
381.489	383
381.87	382.77
382.25	377.35
382.63	411.25
383.01	393.62
383.39	416.22
383.77	402.66
384.15	419.83
384.53	409.66
384.91	393.17
385.29	436.78
385.67	430.45
386.049	429.1
386.429	416.44
386.809	406.95
387.189	419.16
387.568	428.87
387.948	431.81
388.328	453.05
388.707	452.38
389.087	446.05
389.466	447.18
389.846	471.81
390.225	474.52
390.605	452.38
390.984	472.94
391.363	503.9
391.743	484.46
392.122	491.24
392.501	480.4
392.881	482.88
393.26	516.1
393.639	508.64
394.018	518.36
394.397	531.7
394.776	530.57
395.155	537.34
395.534	552.26
395.913	547.97
396.292	558.59
396.671	564.91
397.05	567.63
397.429	592.26
397.808	565.37
398.186	583.45
398.565	572.15
398.944	598.13
399.323	614.86
399.701	592.03
400.08	639.04
400.458	625.7
400.837	625.93
401.215	642.88
401.594	630
401.972	644.23
402.351	682.2
402.729	665.48
403.107	664.57
403.486	710
403.864	701.63
404.242	729.66
404.62	733.05
404.999	743.89
405.377	747.73
405.755	744.57
406.133	751.12
406.511	794.51
406.889	818.24
407.267	830.44
407.645	838.13
408.023	863.66
408.401	845.36
408.779	873.61
409.156	900.72
409.534	920.39
409.912	929.42
410.29	953.38
410.667	970.33
411.045	994.51
411.422	999.25
411.8	985.47
412.178	1049.87
412.555	1059.36
412.933	1069.31
413.31	1108.4
413.687	1110.44
414.065	1109.76
414.442	1131.23
414.819	1144.56
415.197	1165.58
415.574	1197.44
415.951	1194.28
416.328	1210.55
416.705	1250.09
417.082	1250.77
417.46	1272.24
417.837	1296.65
418.214	1288.29
418.591	1309.98
418.967	1314.95
419.344	1335.52
419.721	1364.22
420.098	1380.94
420.475	1387.72
420.852	1429.98
421.228	1437.89
421.605	1450.09
421.982	1470.65
422.358	1492.12
422.735	1521.5
423.111	1513.36
423.488	1564.44
423.864	1535.51
424.241	1561.05
424.617	1605.57
424.994	1610.54
425.37	1608.95
425.746	1646.69
426.123	1647.82
426.499	1665.45
426.875	1722.17
427.251	1734.83
427.627	1772.34
428.003	1783.41
428.379	1841.27
428.756	1862.28
429.132	1875.39
429.507	1885.56
429.883	1929.85
430.259	1947.48
430.635	1966.01
431.011	1958.78
431.387	2035.84
431.763	2050.53
432.138	2099.79
432.514	2107.7
432.89	2125.1
433.265	2197.87
433.641	2188.83
434.016	2262.95
434.392	2265.89
434.767	2315.83
435.143	2297.75
435.518	2351.31
435.894	2344.98
436.269	2456.62
436.644	2449.84
437.02	2463.62
437.395	2470.18
437.77	2519.67
438.145	2543.85
438.52	2612.54
438.895	2604.63
439.271	2648.48
439.646	2647.35
440.021	2688.25
440.395	2709.49
440.77	2728.02
441.145	2748.36
441.52	2791.75
441.895	2806.44
442.27	2829.71
442.645	2823.61
443.019	2858.64
443.394	2884.85
443.769	2938.64
444.143	2965.08
444.518	2989.94
444.892	2961.69
445.267	2977.28
445.641	3014.12
446.016	3024.28
446.39	3070.84
446.764	3099.99
447.139	3094.11
447.513	3148.12
447.887	3155.13
448.262	3188.57
448.636	3193.09
449.01	3243.49
449.384	3293.88
449.758	3265.41
450.132	3334.33
450.506	3335.01
450.88	3375.91
451.254	3369.13
451.628	3448.91
452.002	3461.79
452.376	3494.33
452.75	3574.78
453.123	3579.52
453.497	3650.94
453.871	3676.47
454.244	3722.12
454.618	3777.94
454.992	3806.86
455.365	3840.99
455.739	3942.9
456.112	3933.41
456.486	3995.78
456.859	4064.26
457.232	4104.48
457.606	4120.98
457.979	4178.83
458.352	4260.64
458.725	4304.93
459.099	4346.74
459.472	4439.61
459.845	4507.41
460.218	4565.71
460.591	4545.83
460.964	4598.48
461.337	4703.79
461.71	4786.05
462.083	4833.28
462.456	4830.79
462.829	4849.55
463.201	4947.85
463.574	4989.66
463.947	5075.08
464.32	5182.19
464.692	5233.04
465.065	5255.19
465.438	5359.59
465.81	5403.21
466.183	5410.21
466.555	5581.05
466.928	5689.3
467.3	5634.84
467.672	5739.47
468.045	5884.55
468.417	5878.9
468.789	5936.07
469.161	6017.2
469.534	6143.3
469.906	6289.74
470.278	6331.77
470.65	6353.69
471.022	6553.68
471.394	6611.99
471.766	6709.61
472.138	6791.19
472.51	6960.9
472.882	7025.08
473.253	7059.88
473.625	7226.21
473.997	7421.01
474.369	7450.16
474.74	7541.91
475.112	7684.73
475.484	7774.67
475.855	8049.69
476.227	8020.09
476.598	8237.93
476.97	8329.68
477.341	8475.89
477.713	8597.25
478.084	8700.97
478.455	8933.51
478.827	9049.89
479.198	9254.4
479.569	9306.83
479.94	9586.82
480.311	9621.63
480.682	9845.57
481.053	10055.29
481.424	10219.12
481.795	10398.78
482.166	10547.93
482.537	10695.5
482.908	10901.59
483.279	10970.29
483.65	11169.83
484.021	11489.6
484.391	11577.96
484.762	11684.62
485.133	11829.93
485.503	11970.94
485.874	12288.45
486.244	12376.36
486.615	12592.39
486.985	12748.32
487.356	13079.61
487.726	13184.7
488.097	13422.88
488.467	13445.25
488.837	13767.73
489.207	13857.9
489.578	14091.34
489.948	14259.02
490.318	14496.3
490.688	14476.41
491.058	14604.09
491.428	14920.92
491.798	15030.75
492.168	15358.65
492.538	15428.03
492.908	15657.4
493.278	15872.99
493.648	15851.07
494.017	16107.1
494.387	16303.26
494.757	16359.75
495.126	16588.67
495.496	16594.78
495.866	16759.52
496.235	16924.94
496.605	17137.13
496.974	17217.58
497.344	17461.87
497.713	17549.1
498.082	17740.06
498.452	17926.49
498.821	18011.24
499.19	18123.1
499.559	18274.51
499.928	18313.37
500.298	18594.04
500.667	18669.3
501.036	18721.05
501.405	18958.56
501.774	19000.59
502.143	19135.73
502.512	19325.1
502.88	19403.06
503.249	19475.38
503.618	19664.07
503.987	19757.86
504.356	19916.27
504.724	19984.52
505.093	20117.17
505.462	20227.67
505.83	20301.57
506.199	20539.53
506.567	20832.4
506.936	20855.68
507.304	20966.86
507.672	21199.4
508.041	21306.74
508.409	21492.73
508.777	21572.95
509.145	21848.87
509.514	21859.5
509.882	22214.97
510.25	22097.68
510.618	22431.46
510.986	22446.15
511.354	22668.97
511.722	22899.24
512.09	23059.24
512.458	23099.69
512.826	23420.81
513.193	23470.98
513.561	23529.28
513.929	23824.64
514.297	23977.41
514.664	24057.18
515.032	24278.64
515.4	24371.07
515.767	24595.92
516.135	24651.06
516.502	24572.64
516.869	25093.76
517.237	25233.42
517.604	25349.12
517.972	25673.63
518.339	25713.41
518.706	25823.23
519.073	26075.88
519.44	26160.17
519.808	26561.07
520.175	26535.98
520.542	26923.09
520.909	27085.35
521.276	27130.54
521.643	27415.51
522.009	27597.2
522.376	27761.26
522.743	27955.83
523.11	28126.45
523.477	28508.59
523.843	28665.87
524.21	29097.95
524.577	29205.52
524.943	29323.25
525.31	29452.97
525.676	29818.38
526.043	29836.01
526.409	30052.5
526.776	30494.98
527.142	30588.98
527.508	30758.7
527.874	30833.27
528.241	31283.2
528.607	31140.83
528.973	31563.42
529.339	31696.98
529.705	32040.02
530.071	32179.22
530.437	32303.97
530.803	32594.58
531.169	32700.57
531.535	32706.22
531.901	32956.38
532.267	33062.37
532.632	33365.41
532.998	33465.97
533.364	33693.76
533.73	33688.11
534.095	34049.01
534.461	34165.16
534.826	34296.01
535.192	34481.31
535.557	34636.11
535.923	34690.8
536.288	34922.43
536.653	35060.5
537.019	35024.35
537.384	35189.31
537.749	35456.43
538.114	35543.2
538.479	35594.95
538.845	35745.46
539.21	35900.26
539.575	35916.3
539.94	36105
540.305	36474.25
540.67	36421.82
541.034	36503.18
541.399	36769.61
541.764	36722.16
542.129	36948.59
542.494	37046.67
542.858	37083.28
543.223	37256.15
543.587	37356.26
543.952	37345.19
544.316	37533.43
544.681	37547.44
545.045	37851.17
545.41	38043.03
545.774	38011.61
546.138	38074.89
546.503	38204.38
546.867	38210.7
547.231	38596.46
547.595	38762.33
547.959	38684.36
548.324	38709
548.688	38972.72
549.052	38956.22
549.416	39207.74
549.779	39179.72
550.143	39319.38
550.507	39606.6
550.871	39811.79
551.235	39765.92
551.599	40096.53
551.962	40114.38
552.326	40145.12
552.689	40463.07
553.053	40390.08
553.417	40539.68
553.78	40933.12
554.143	40855.38
554.507	40954.81
554.87	41132.21
555.234	41514.35
555.597	41320.23
555.96	41500.79
556.323	41632.76
556.686	41755.02
557.05	42209.7
557.413	42164.05
557.776	42281.33
558.139	42554.54
558.502	42608.33
558.865	42707.31
559.228	43140.07
559.59	43272.94
559.953	43249.22
560.316	43633.16
560.679	43724.46
561.041	43885.81
561.404	44058.46
561.767	44378.45
562.129	44191.56
562.492	44577.54
562.854	44488.05
563.217	44641.95
563.579	44875.84
563.941	45180.46
564.304	45377.3
564.666	45503.39
565.028	45608.93
565.39	45785.65
565.753	45909.94
566.115	46161.46
566.477	46387.44
566.839	46461.33
567.201	46727.09
567.563	46680.09
567.925	46956.01
568.287	46950.14
568.648	47071.26
569.01	47137.02
569.372	47490.23
569.734	47369.11
570.095	47631.02
570.457	47819.94
570.819	47823.56
571.18	47838.93
571.542	48108.07
571.903	48200.27
572.265	48418.57
572.626	48474.39
572.987	48530.66
573.349	48612.69
573.71	48752.8
574.071	48999.57
574.432	48850.88
574.794	49177.42
575.155	49153.24
575.516	49189.85
575.877	49328.6
576.238	49350.3
576.599	49559.11
576.96	49475.94
577.32	49560.69
577.681	49741.93
578.042	49840
578.403	49813.56
578.763	49909.83
579.124	49928.14
579.485	50025.99
579.845	50051.75
580.206	50024.18
580.566	50127.23
580.927	50056.95
581.287	50357.28
581.648	50198.86
582.008	50355.02
582.368	50317.73
582.728	50331.52
583.089	50342.14
583.449	50298.75
583.809	50345.53
584.169	50340.78
584.529	50294.68
584.889	50500.32
585.249	50281.35
585.609	50263.27
585.969	50534.9
586.329	50246.09
586.688	50345.07
587.048	50422.13
587.408	50239.09
587.768	50371.97
588.127	50350.05
588.487	50245.87
588.846	50561.57
589.206	50264.85
589.565	50266.88
589.925	50540.32
590.284	50368.12
590.643	50392.53
591.003	50472.08
591.362	50611.51
591.721	50580.77
592.08	50547.78
592.44	50642.69
592.799	50614.45
593.158	50570.15
593.517	50516.82
593.876	50606.31
594.235	50435.24
594.593	50531.51
594.952	50636.14
595.311	50539.87
595.67	50654.67
596.029	50869.35
596.387	50872.29
596.746	50846.76
597.104	50627.1
597.463	50765.4
597.822	50858.73
598.18	50760.88
598.538	50760.66
598.897	51016.02
599.255	50662.81
599.613	51110.7
599.972	50884.27
600.33	50942.8
600.688	50842.24
601.046	50907.32
601.404	51043.81
601.762	50954.1
602.12	51152.74
602.478	51085.85
602.836	51110.03
603.194	51073.64
603.552	51184.83
603.91	50996.13
604.268	51162.68
604.625	51071.16
604.983	51244.71
605.341	51047.88
605.698	51304.6
606.056	51266.86
606.413	51347.08
606.771	51406.97
607.128	51482.9
607.485	51403.58
607.843	51364.71
608.2	51680.18
608.557	51622.56
608.914	51420.98
609.272	51697.36
609.629	51677.02
609.986	51877.46
610.343	51688.09
610.7	51903.68
611.057	51879.27
611.414	51808.31
611.771	51853.06
612.127	51964.24
612.484	51917.01
612.841	52010.79
613.198	51886.95
613.554	51912.04
613.911	52195.2
614.267	52114.29
614.624	52141.19
614.98	52255.76
615.337	52277.45
615.693	52264.12
616.05	52118.59
616.406	52376.66
616.762	52233.84
617.118	52345.25
617.475	52302.54
617.831	52277.91
618.187	52394.74
618.543	52436.32
618.899	52561.29
619.255	52429.31
619.611	52475.41
619.967	52545.02
620.323	52652.81
620.678	52448.3
621.034	52432.03
621.39	52463.21
621.746	52507.96
622.101	52864.1
622.457	52450.56
622.812	52630.44
623.168	52672.02
623.523	52714.5
623.879	52800.15
624.234	52532.14
624.589	52698.23
624.945	52660.95
625.3	52681.06
625.655	52528.97
626.01	52634.73
626.365	52724
626.72	52616.43
627.075	52588.18
627.43	52623.43
627.785	52401.74
628.14	52527.16
628.495	52561.74
628.85	52519.71
629.205	52414.62
629.559	52562.64
629.914	52371.91
630.269	52563.1
630.623	52310.9
630.978	52344.34
631.332	52566.26
631.687	52451.69
632.041	52343.67
632.396	52296.44
632.75	52220.96
633.104	52275.42
633.459	52095.99
633.813	52116.55
634.167	52082.66
634.521	52104.12
634.875	52121.07
635.229	52075.2
635.583	51896.9
635.937	51884.24
636.291	51898.48
636.645	51779.84
636.999	51833.62
637.352	51802.44
637.706	51628.43
638.06	51787.3
638.413	51787.52
638.767	51662.78
639.121	51634.31
639.474	51549.11
639.828	51512.5
640.181	51564.7
640.534	51526.06
640.888	51380.3
641.241	51220.53
641.594	51324.71
641.947	51436.12
642.301	51242.45
642.654	51279.97
643.007	51313.64
643.36	51183.92
643.713	51166.52
644.066	51190.02
644.419	51042.68
644.771	50929.24
645.124	50580.55
645.477	50550.04
645.83	50396.6
646.182	50070.05
646.535	49830.51
646.888	49819.89
647.24	49644.98
647.593	49870.06
647.945	49776.28
648.298	49562.5
648.65	49544.19
649.002	49538.77
649.355	49547.36
649.707	49622.83
650.059	49937.85
650.411	50207.9
650.763	50193.89
651.115	50587.78
651.467	50370.61
651.819	50279.54
652.171	50143.05
652.523	50170.39
652.875	50146.21
653.227	49966.1
653.578	50269.14
653.93	50207.23
654.282	49986.89
654.633	49815.6
654.985	49938.76
655.337	49864.18
655.688	49918.87
656.039	50097.4
656.391	49764.98
656.742	49835.71
657.094	49745.77
657.445	49899.66
657.796	49883.84
658.147	49676.17
658.498	49741.25
658.849	49765.43
659.2	49778.08
659.551	49650.4
659.902	49625.32
660.253	49627.13
660.604	49531.76
660.955	49508.49
661.306	49653.57
661.656	49413.35
662.007	49522.27
662.358	49539.67
662.708	49446.34
663.059	49434.36
663.409	49255.84
663.76	49401.14
664.11	49356.63
664.461	49319.79
664.811	49371.31
665.161	49358.21
665.511	49193.92
665.862	49275.95
666.212	49374.25
666.562	49361.37
666.912	49280.7
667.262	49183.3
667.612	49119.57
667.962	49255.16
668.312	49031.66
668.662	49225.56
669.011	49176.74
669.361	49088.38
669.711	49103.53
670.06	49060.36
670.41	48989.4
670.76	49118.89
671.109	49130.42
671.459	49113.24
671.808	49007.48
672.157	48965.22
672.507	48895.4
672.856	48866.7
673.205	48774.95
673.554	48891.78
673.904	48832.8
674.253	48929.07
674.602	48767.71
674.951	48305.81
675.3	48043.89
675.649	48675.06
675.998	48503.32
676.346	48709.86
676.695	48684.1
677.044	48397.1
677.393	48534.27
677.741	48647.94
678.09	48447.5
678.438	48410.89
678.787	48523.43
679.135	48405.01
679.484	48132.25
679.832	48343.77
680.181	48064.23
680.529	48326.14
680.877	48101.29
681.225	48066.94
681.573	48281.17
681.922	47906.49
682.27	47781.53
682.618	47855.42
682.966	47828.08
683.314	47864.91
683.661	47596.45
684.009	47394.64
684.357	47401.65
684.705	47300.86
685.053	47384.25
685.4	47233.52
685.748	46936.8
686.095	47009.34
686.443	46931.38
686.79	46853.87
687.138	46887.09
687.485	46792.63
687.832	46746.75
688.18	46791.5
688.527	46503.37
688.874	46574.55
689.221	46387.21
689.568	46273.09
689.915	46240.78
690.262	46130.72
690.609	46042.36
690.956	45984.96
691.303	45846.44
691.65	45680.11
691.997	45722.6
692.344	45421.59
692.69	45452.77
693.037	45362.83
693.383	45107.25
693.73	45331.87
694.077	45107.25
694.423	45079.22
694.769	45014.59
695.116	44715.17
695.462	44872.9
695.808	44600.59
696.155	44771.66
696.501	44238.34
696.847	44331.22
697.193	44066.82
697.539	44245.35
697.885	43795.64
698.231	43593.61
698.577	43765.59
698.923	43545.48
699.269	43392.49
699.614	43310.68
699.96	43151.82
700.306	43234.98
700.651	43090.35
700.997	42985.27
701.342	42910.24
701.688	42743.47
702.033	42712.51
702.379	42770.81
702.724	42588.89
703.069	42633.64
703.415	42006.99
703.76	42265.06
704.105	42016.03
704.45	41865.07
704.795	41749.59
705.14	41806.09
705.485	41583.05
705.83	41537.85
706.175	41417.4
706.52	41404.74
706.865	41158.2
707.209	41073
707.554	41020.35
707.899	41009.73
708.243	40752.11
708.588	40892.67
708.932	40580.81
709.277	40546.01
709.621	40659.91
709.966	40315.06
710.31	40410.65
710.654	39958.45
710.998	40140.37
711.342	40047.94
711.687	39932.69
712.031	39780.61
712.375	39693.15
712.719	39706.26
713.063	39615.64
713.407	39577.45
713.75	39488.64
714.094	39408.41
714.438	39221.07
714.782	39369.77
715.125	39178.81
715.469	39148.08
715.812	38952.61
716.156	38702.89
716.499	38693.18
716.843	38821.99
717.186	38603.24
717.53	38760.07
717.873	38610.69
718.216	38615.44
718.559	38344.49
718.902	38048.9
719.246	38215.45
719.589	38105.17
719.932	38016.59
720.275	38064.04
720.617	37949.69
720.96	37895.91
721.303	37900.2
721.646	37794.44
721.989	37483.04
722.331	37621.12
722.674	37636.48
723.016	37499.31
723.359	37505.41
723.701	37429.03
724.044	37136.83
724.386	37075.59
724.729	37221.35
725.071	37032.66
725.413	36899.1
725.755	36927.8
726.097	36811.42
726.439	36625.44
726.782	36664.76
727.124	36898.2
727.465	36582.72
727.807	36542.73
728.149	36558.54
728.491	36333.47
728.833	36441.26
729.175	36266.35
729.516	36086.47
729.858	36250.53
730.199	36290.75
730.541	36029.29
730.882	35937.54
731.224	36164.43
731.565	35869.3
731.906	35816.42
732.248	35877.66
732.589	35692.35
732.93	35620.49
733.271	35634.5
733.612	35607.38
733.953	35563.99
734.294	35475.64
734.635	35349.54
734.976	35361.97
735.317	35153.84
735.658	35333.04
735.999	35074.06
736.339	35060.05
736.68	35186.15
737.021	34971.02
737.361	34799.49
737.702	34984.35
738.042	34848.08
738.383	34930.79
738.723	34878.36
739.063	34667.97
739.404	34714.53
739.744	34683.57
740.084	34531.71
740.424	34485.15
740.764	34429.79
741.104	34348.88
741.444	34237.7
741.784	34097.37
742.124	34329.68
742.464	34213.3
742.804	34163.13
743.143	34070.7
743.483	34146.86
743.823	33856.92
744.162	33853.08
744.502	33842.23
744.841	33745.29
745.181	33826.19
745.52	33693.53
745.86	33630.94
746.199	33684.72
746.538	33469.13
746.877	33485.4
747.216	33529.92
747.556	33230.95
747.895	33334.45
748.234	33286.54
748.573	33197.95
748.911	33039.77
749.25	33078.64
749.589	32796.16
749.928	33033.67
750.267	32994.57
750.605	32793.67
750.944	32615.6
751.283	32526.33
751.621	32639.78
751.96	32415.38
752.298	32377.86
752.636	32416.96
752.975	32220.13
753.313	32197.98
