Data from breadboard_white_FLMS001491_00087.txt Node
Date: Wed Feb 08 10:48:24 GMT 2017
User: dcchb
Spectrometer: FLMS00149
Trigger mode: 0
Integration Time (sec): 2.000000E-2
Scans to average: 10
Electric dark correction enabled: true
Nonlinearity correction enabled: false
Boxcar width: 0
XAxis mode: Wavelengths
Number of Pixels in Spectrum: 2048
>>>>>Begin Spectral Data<<<<<
341.393	-17.26
341.776	-17.26
342.16	-17.26
342.543	-50.25
342.927	-53.19
343.31	-80.31
343.693	-75.56
344.077	-78.5
344.46	-74.89
344.843	-47.32
345.226	-52.51
345.61	-35.56
345.993	-5.73
346.376	11.21
346.759	15.06
347.142	25.45
347.525	48.73
347.908	74.72
348.291	72.91
348.674	101.38
349.057	100.93
349.44	120.82
349.823	127.82
350.206	166.46
350.588	206.01
350.971	221.38
351.354	248.27
351.737	265.44
352.119	263.86
352.502	283.3
352.884	297.76
353.267	284.88
353.65	314.71
354.032	320.81
354.414	337.99
354.797	311.32
355.179	348.38
355.562	347.48
355.944	351.09
356.326	345.67
356.709	375.5
357.091	370.75
357.473	358.78
357.855	378.66
358.238	378.44
358.62	358.78
359.002	347.7
359.384	369.62
359.766	369.62
360.148	349.06
360.53	352.9
360.912	349.51
361.294	369.4
361.676	352.22
362.057	352.67
362.439	354.26
362.821	349.96
363.203	353.58
363.584	355.16
363.966	366.01
364.348	352.45
364.729	348.38
365.111	359.68
365.493	365.78
365.874	344.31
366.256	327.59
366.637	340.25
367.019	342.05
367.4	368.49
367.781	328.27
368.163	334.82
368.544	326.23
368.925	343.41
369.306	360.81
369.688	339.34
370.069	341.83
370.45	348.83
370.831	330.08
371.212	358.78
371.593	361.49
371.974	358.32
372.355	361.26
372.736	346.8
373.117	356.97
373.498	348.38
373.879	345.44
374.26	364.65
374.641	350.64
375.021	356.29
375.402	377.31
375.783	372.11
376.163	367.59
376.544	385.44
376.925	378.89
377.305	362.17
377.686	371.2
378.066	388.15
378.447	377.53
378.827	376.63
379.208	378.89
379.588	387.93
379.968	405.78
380.349	397.87
380.729	368.04
381.109	400.58
381.489	393.13
381.87	414.59
382.25	417.98
382.63	395.39
383.01	407.14
383.39	419.79
383.77	428.83
384.15	429.06
384.53	422.5
384.91	428.38
385.29	440.58
385.67	442.39
386.049	434.03
386.429	448.49
386.809	471.32
387.189	452.78
387.568	458.89
387.948	465.89
388.328	450.75
388.707	475.83
389.087	458.66
389.466	467.93
389.846	479.22
390.225	505.66
390.605	508.6
390.984	507.02
391.363	516.29
391.743	497.98
392.122	495.72
392.501	520.81
392.881	532.33
393.26	513.8
393.639	536.17
394.018	535.04
394.397	565.55
394.776	547.47
395.155	562.16
395.534	538.88
395.913	587.02
396.292	554.48
396.671	612.1
397.05	583.63
397.429	611.42
397.808	590.18
398.186	586.34
398.565	618.66
398.944	625.44
399.323	615.72
399.701	635.6
400.08	646
400.458	661.14
400.837	653.91
401.215	666.56
401.594	682.38
401.972	678.77
402.351	681.03
402.729	706.56
403.107	719.44
403.486	733.91
403.864	741.59
404.242	753.57
404.62	753.34
404.999	774.13
405.377	783.4
405.755	814.81
406.133	846.22
406.511	837.86
406.889	830.63
407.267	850.51
407.645	872.66
408.023	893.23
408.401	905.88
408.779	924.41
409.156	927.57
409.534	937.52
409.912	981.13
410.29	977.97
410.667	1014.13
411.045	1021.13
411.422	1019.1
411.8	1033.11
412.178	1081.69
412.555	1088.93
412.933	1107.68
413.31	1128.93
413.687	1178.64
414.065	1205.76
414.442	1223.16
414.819	1179.77
415.197	1242.82
415.574	1267
415.951	1290.73
416.328	1303.61
416.705	1300.45
417.082	1314.91
417.46	1366.66
417.837	1351.74
418.214	1355.59
418.591	1401.69
418.967	1411.18
419.344	1445.98
419.721	1456.15
420.098	1464.74
420.475	1491.4
420.852	1488.01
421.228	1534.34
421.605	1519.65
421.982	1581.12
422.358	1569.14
422.735	1593.77
423.111	1583.38
423.488	1611.62
423.864	1643.71
424.241	1652.53
424.617	1711.28
424.994	1673.09
425.37	1703.15
425.746	1746.54
426.123	1751.96
426.499	1750.83
426.875	1791.28
427.251	1814.33
427.627	1856.14
428.003	1859.08
428.379	1917.83
428.756	1925.97
429.132	1945.4
429.507	1975
429.883	1963.48
430.259	2060.43
430.635	2087.54
431.011	2097.94
431.387	2177.49
431.763	2173.87
432.138	2180.87
432.514	2233.53
432.89	2230.14
433.265	2322.11
433.641	2336.13
434.016	2339.74
434.392	2375.22
434.767	2419.96
435.143	2417.03
435.518	2463.13
435.894	2471.71
436.269	2522.33
436.644	2543.13
437.02	2618.83
437.395	2591.94
437.77	2598.04
438.145	2689.11
438.52	2724.14
438.895	2727.08
439.271	2745.38
439.646	2746.96
440.021	2804.81
440.395	2836.22
440.77	2815.66
441.145	2829.45
441.52	2918.48
441.895	2921.42
442.27	2939.27
442.645	2950.12
443.019	2993.06
443.394	2988.76
443.769	3007.07
444.143	3021.98
444.518	3101.75
444.892	3105.82
445.267	3092.94
445.641	3177.68
446.016	3186.95
446.39	3175.65
446.764	3253.39
447.139	3220.4
447.513	3235.76
447.887	3267.4
448.262	3268.98
448.636	3330.9
449.01	3369.77
449.384	3367.28
449.758	3384.69
450.132	3447.06
450.506	3458.36
450.88	3475.08
451.254	3499.26
451.628	3525.02
452.002	3597.11
452.376	3628.29
452.75	3640.05
453.123	3667.84
453.497	3773.83
453.871	3818.12
454.244	3888.4
454.618	3885.91
454.992	3941.28
455.365	3971.79
455.739	4059.47
456.112	4105.57
456.486	4121.61
456.859	4165.91
457.232	4255.4
457.606	4276.64
457.979	4290.42
458.352	4374.49
458.725	4440.25
459.099	4498.33
459.472	4582.62
459.845	4620.13
460.218	4667.36
460.591	4692
460.964	4702.84
461.337	4780.58
461.71	4908.26
462.083	4979.22
462.456	4983.74
462.829	5031.65
463.201	5112.32
463.574	5181.93
463.947	5248.59
464.32	5364.07
464.692	5365.88
465.065	5445.87
465.438	5517.28
465.81	5554.57
466.183	5615.81
466.555	5772.64
466.928	5809.48
467.3	5832.53
467.672	5882.02
468.045	6058.51
468.417	6093.77
468.789	6102.35
469.161	6216.7
469.534	6319.98
469.906	6489.46
470.278	6540.53
470.65	6607.43
471.022	6689
471.394	6825.27
471.766	6926.51
472.138	6962.9
472.51	7181.65
472.882	7225.04
473.253	7300.29
473.625	7452.83
473.997	7581.86
474.369	7623.22
474.74	7711.35
475.112	7915.64
475.484	7975.98
475.855	8171.9
476.227	8251
476.598	8425.46
476.97	8576.19
477.341	8735.5
477.713	8842.85
478.084	8896.18
478.455	9170.52
478.827	9224.98
479.198	9481.93
479.569	9472.66
479.94	9808.47
480.311	9951.29
480.682	10102.02
481.053	10349.25
481.424	10565.74
481.795	10596.25
482.166	10793.08
482.537	10896.58
482.908	11144.93
483.279	11233.74
483.65	11479.16
484.021	11679.61
484.391	11839.6
484.762	11904.46
485.133	12107.39
485.503	12237.79
485.874	12558
486.244	12643.2
486.615	12892.46
486.985	13075.96
487.356	13399.79
487.726	13340.81
488.097	13645.21
488.467	13658.54
488.837	14006.1
489.207	14205.87
489.578	14351.4
489.948	14477.95
490.318	14765.18
490.688	14840.2
491.058	14995.23
491.428	15195.9
491.798	15307.99
492.168	15762.66
492.538	15724.02
492.908	15946.16
493.278	16067.97
493.648	16200.62
494.017	16439.26
494.387	16570.1
494.757	16692.58
495.126	16904.78
495.496	16936.42
495.866	17078.34
496.235	17313.13
496.605	17388.16
496.974	17591.32
497.344	17711.77
497.713	17887.81
498.082	18015.26
498.452	18242.37
498.821	18352.2
499.19	18311.52
499.559	18556.72
499.928	18780.89
500.298	18743.38
500.667	19011.62
501.036	19040.77
501.405	19255.23
501.774	19274.21
502.143	19452.06
502.512	19560.53
502.88	19725.72
503.249	19723.69
503.618	19932.72
503.987	20047.07
504.356	20216.11
504.724	20309.21
505.093	20424.24
505.462	20440.51
505.83	20718.69
506.199	20858.12
506.567	21091.79
506.936	20968.18
507.304	21382.18
507.672	21487.03
508.041	21642.06
508.409	21781.26
508.777	22019
509.145	22207.69
509.514	22140.58
509.882	22343.28
510.25	22448.14
510.618	22727.68
510.986	22742.82
511.354	23031.17
511.722	23173.77
512.09	23329.02
512.458	23440.88
512.826	23646.75
513.193	23759.52
513.561	23820.53
513.929	24230.69
514.297	24278.15
514.664	24456.67
515.032	24650.11
515.4	24893.05
515.767	24927.4
516.135	25091.68
516.502	24940.28
516.869	25485.35
517.237	25549.75
517.604	25538.23
517.972	25983.19
518.339	26126.23
518.706	26157.42
519.073	26273.57
519.44	26593.57
519.808	26815.03
520.175	26902.71
520.542	27271.29
520.909	27359.42
521.276	27499.08
521.643	27734.33
522.009	27896.13
522.376	28094.32
522.743	28456.34
523.11	28604.81
523.477	28935.88
523.843	29099.04
524.21	29373.15
524.577	29608.85
524.943	29733.14
525.31	29880.03
525.676	30188.05
526.043	30367.25
526.409	30463.97
526.776	30863.74
527.142	31037.07
527.508	31209.94
527.874	31388.02
528.241	31614.9
528.607	31804.95
528.973	32120.43
529.339	32162.01
529.705	32500.53
530.071	32623.01
530.437	32829.79
530.803	33013.51
531.169	33197.69
531.535	33275.88
531.901	33362.2
532.267	33545.7
532.632	33678.13
532.998	33831.79
533.364	34186.81
533.73	34300.71
534.095	34501.15
534.461	34576.18
534.826	34802.16
535.192	34876.29
535.557	35193.34
535.923	35224.3
536.288	35384.07
536.653	35530.05
537.019	35448.7
537.384	35775.47
537.749	35781.12
538.114	35913.1
538.479	36169.13
538.845	36317.6
539.21	36266.76
539.575	36371.39
539.94	36533.87
540.305	36795.33
540.67	36687.31
541.034	36936.35
541.399	37093.86
541.764	37242.55
542.129	37423.56
542.494	37450.46
542.858	37666.04
543.223	37578.59
543.587	38052.02
543.952	37913.95
544.316	38213.37
544.681	37991.68
545.045	38248.63
545.41	38510.09
545.774	38643.19
546.138	38666.24
546.503	38777.2
546.867	38871.21
547.231	39212.22
547.595	39147.59
547.959	39266
548.324	39231.2
548.688	39561.81
549.052	39703.05
549.416	39737.85
549.779	39797.51
550.143	39870.05
550.507	40252.42
550.871	40300.32
551.235	40335.13
551.599	40733.31
551.962	40792.29
552.326	40928.33
552.689	41204.03
553.053	41038.61
553.417	41162.45
553.78	41589.1
554.143	41453.29
554.507	41762.88
554.87	41796.56
555.234	42182.31
555.597	42205.13
555.96	42260.27
556.323	42436.31
556.686	42611.45
557.05	42953.36
557.413	42934.83
557.776	43150.65
558.139	43350.41
558.502	43527.13
558.865	43551.09
559.228	43851.87
559.59	43973
559.953	44143.61
560.316	44521.91
560.679	44539.99
561.041	44807.78
561.404	44829.02
561.767	45097.03
562.129	44976.59
562.492	45414.09
562.854	45416.12
563.217	45644.82
563.579	45788.32
563.941	46075.54
564.304	46136.56
564.666	46499.03
565.028	46553.95
565.39	46608.86
565.753	46868.29
566.115	47052.46
566.477	47239.13
566.839	47272.34
567.201	47531.55
567.563	47621.49
567.925	47762.28
568.287	47930.18
568.648	47924.76
569.01	48180.57
569.372	48556.6
569.734	48330.17
570.095	48731.06
570.457	48651.97
570.819	48718.18
571.18	48760.44
571.542	49116.82
571.903	49097.83
572.265	49364.94
572.626	49399.07
572.987	49377.37
573.349	49558.39
573.71	49611.27
574.071	49726.52
574.432	49893.07
574.794	50045.61
575.155	50098.94
575.516	50051.48
575.877	50162.21
576.238	50302.32
576.599	50291.47
576.96	50362.66
577.32	50504.8
577.681	50524.24
578.042	50573.05
578.403	50583.9
578.763	50636.1
579.124	50771.91
579.485	50856.66
579.845	50967.61
580.206	50967.39
580.566	50898.69
580.927	51004.9
581.287	51067.05
581.648	50945.69
582.008	51132.81
582.368	51102.98
582.728	51218.46
583.089	51104.56
583.449	51131.9
583.809	51126.25
584.169	51194.05
584.529	51107.27
584.889	51353.37
585.249	51224.78
585.609	51179.59
585.969	51288.28
586.329	51188.63
586.688	51240.38
587.048	51218.91
587.408	51240.83
587.768	51225.46
588.127	51182.52
588.487	51176.42
588.846	51372.35
589.206	51158.57
589.565	51184.56
589.925	51425.46
590.284	51251.67
590.643	51318.11
591.003	51345.68
591.362	51452.57
591.721	51472.46
592.08	51535.74
592.44	51496.64
592.799	51484.44
593.158	51501.84
593.517	51511.33
593.876	51538.45
594.235	51479.24
594.593	51460.48
594.952	51559.46
595.311	51478.56
595.67	51578.67
596.029	51622.74
596.387	51661.16
596.746	51691.66
597.104	51584.1
597.463	51617.09
597.822	51726.69
598.18	51546.13
598.538	51760.14
598.897	51820.25
599.255	51646.69
599.613	52001.94
599.972	51891.66
600.33	51872.22
600.688	51790.42
601.046	51817.31
601.404	52002.84
601.762	51860.02
602.12	52110.18
602.478	52028.6
602.836	52126.68
603.194	51946.35
603.552	52029.51
603.91	51999.9
604.268	52195.15
604.625	52060.02
604.983	52212.1
605.341	52030.86
605.698	52225.66
606.056	52257.07
606.413	52191.76
606.771	52339.78
607.128	52358.54
607.485	52276.05
607.843	52328.03
608.2	52302.27
608.557	52551.3
608.914	52478.31
609.272	52611.87
609.629	52666.55
609.986	52820.22
610.343	52574.35
610.7	52800.33
611.057	52786.1
611.414	52770.51
611.771	52755.82
612.127	52927.56
612.484	52876.49
612.841	53010.72
613.198	52820
613.554	52858.41
613.911	53067.67
614.267	53075.58
614.624	53030.61
614.98	53065.86
615.337	53167.1
615.693	53061.57
616.05	53050.05
616.406	53272.64
616.762	53224.05
617.118	53173.66
617.475	53212.08
617.831	53243.49
618.187	53317.38
618.543	53308.8
618.899	53481.67
619.255	53371.62
619.611	53411.17
619.967	53412.3
620.323	53524.16
620.678	53438.51
621.034	53433.09
621.39	53461.11
621.746	53345.41
622.101	53704.49
622.457	53424.5
622.812	53505.85
623.168	53638.5
623.523	53610.93
623.879	53727.77
624.234	53401.67
624.589	53522.35
624.945	53598.73
625.3	53577.72
625.655	53574.55
626.01	53528
626.365	53575.91
626.72	53490.94
627.075	53574.55
627.43	53577.49
627.785	53512.41
628.14	53525.06
628.495	53439.64
628.85	53560.09
629.205	53322.13
629.559	53548.79
629.914	53317.61
630.269	53397.83
630.623	53287.55
630.978	53282.13
631.332	53428.34
631.687	53370.72
632.041	53208.91
632.396	53262.7
632.75	53253.43
633.104	53285.97
633.459	53185.64
633.813	53136.37
634.167	53062.02
634.521	53194.45
634.875	53200.78
635.229	53065.41
635.583	52846.21
635.937	52922.14
636.291	52922.37
636.645	52899.09
636.999	52838.3
637.352	52850.73
637.706	52687.12
638.06	52826.32
638.413	52745.65
638.767	52650.96
639.121	52658.19
639.474	52470.85
639.828	52587.91
640.181	52574.58
640.534	52518.53
640.888	52420.46
641.241	52319.22
641.594	52360.57
641.947	52390.18
642.301	52373.45
642.654	52391.08
643.007	52186.79
643.36	52164.65
643.713	52105.44
644.066	52236.51
644.419	52130.52
644.771	51874.94
645.124	51618.67
645.477	51550.2
645.83	51316.31
646.182	51159.47
646.535	51051.68
646.888	51070.21
647.24	50917.9
647.593	51154.05
647.945	50966.26
648.298	50930.33
648.65	50746.38
649.002	50703.21
649.355	50675.42
649.707	50666.61
650.059	51011.46
650.411	51292.35
650.763	51331.9
651.115	51604.43
651.467	51429.98
651.819	51409.18
652.171	51388.62
652.523	51266.82
652.875	51267.72
653.227	51181.39
653.578	51327.83
653.93	51228.85
654.282	51098.68
654.633	50956.54
654.985	51126.48
655.337	51020.72
655.688	50956.77
656.039	51146.82
656.391	50865.92
656.742	50915.64
657.094	50954.96
657.445	51021.62
657.796	50900.72
658.147	50849.65
658.498	50771.46
658.849	50876.32
659.2	50873.83
659.551	50824.34
659.902	50976.43
660.253	50758.35
660.604	50855.98
660.955	50674.06
661.306	50832.93
661.656	50748.41
662.007	50659.83
662.358	50736.89
662.708	50749.54
663.059	50556.1
663.409	50385.26
663.76	50676.55
664.11	50599.94
664.461	50661.63
664.811	50596.32
665.161	50574.63
665.511	50394.07
665.862	50518.81
666.212	50616.66
666.562	50512.03
666.912	50587.74
667.262	50401.75
667.612	50443.11
667.962	50349.55
668.312	50385.48
668.662	50570.79
669.011	50440.62
669.361	50338.48
669.711	50375.31
670.06	50340.96
670.41	50249.22
670.76	50180.06
671.109	50283.34
671.459	50247.41
671.808	50169.9
672.157	50265.94
672.507	49987.08
672.856	49980.97
673.205	50112.95
673.554	50058.49
673.904	50083.12
674.253	50256.67
674.602	50108.2
674.951	49644.94
675.3	49308.68
675.649	49867.08
675.998	49877.47
676.346	49768.78
676.695	49968.54
677.044	49649.68
677.393	49847.42
677.741	49893.97
678.09	49691.04
678.438	49595
678.787	49661.66
679.135	49688.55
679.484	49347.09
679.832	49542.79
680.181	49400.2
680.529	49570.14
680.877	49386.87
681.225	49307.55
681.573	49547.99
681.922	49198.62
682.27	49157.94
682.618	49125.18
682.966	48969.7
683.314	49160.43
683.661	49011.28
684.009	48851.51
684.357	48758.18
684.705	48598.41
685.053	48686.54
685.4	48505.76
685.748	48479.32
686.095	48488.36
686.443	48342.15
686.79	48277.74
687.138	48333.33
687.485	48321.36
687.832	48168.14
688.18	48190.51
688.527	48011.31
688.874	47898.32
689.221	47706.23
689.568	47653.58
689.915	47590.08
690.262	47554.6
690.609	47472.34
690.956	47470.98
691.303	47304.89
691.65	47165.45
691.997	47133.14
692.344	46840.94
692.69	46764.34
693.037	46784
693.383	46503.33
693.73	46634.4
694.077	46444.8
694.423	46564.57
694.769	46399.6
695.116	46270.34
695.462	46235.76
695.808	45920.97
696.155	46152.83
696.501	45639.39
696.847	45755.77
697.193	45516.23
697.539	45670.13
697.885	45375.67
698.231	45177.94
698.577	45317.37
698.923	45119.86
699.269	45008.45
699.614	44826.53
699.96	44591.51
700.306	44645.75
700.651	44431.52
700.997	44405.98
701.342	44371.86
701.688	44318.98
702.033	44009.83
702.379	44182.03
702.724	43902.04
703.069	44111.07
703.415	43648.49
703.76	43616.85
704.105	43565.55
704.45	43423.18
704.795	43286.69
705.14	43089.86
705.485	43135.5
705.83	42944.1
706.175	42936.41
706.52	43036.98
706.865	42842.18
707.209	42628.85
707.554	42340.95
707.899	42606.48
708.243	42379.37
708.588	42329.88
708.932	42112.25
709.277	42127.17
709.621	42037.91
709.966	41786.84
710.31	41862.09
710.654	41479.95
710.998	41723.34
711.342	41660.74
711.687	41423.91
712.031	41275.44
712.375	41214.88
712.719	41204.48
713.063	41152.51
713.407	41263.01
713.75	40971.27
714.094	40932.17
714.438	40697.38
714.782	40821.21
715.125	40693.08
715.469	40784.61
715.812	40421
716.156	40198.41
716.499	40274.79
716.843	40319.31
717.186	39992.99
717.53	40169.71
717.873	40160.89
718.216	39957.96
718.559	39938.07
718.902	39690.85
719.246	39641.81
719.589	39555.94
719.932	39547.12
720.275	39537.18
720.617	39514.81
720.96	39357.3
721.303	39396.39
721.646	39264.65
721.989	39071.2
722.331	39095.84
722.674	38976.07
723.016	39012.67
723.359	38859.23
723.701	38944.2
724.044	38525.91
724.386	38420.6
724.729	38763.87
725.071	38583.99
725.413	38475.97
725.755	38387.38
726.097	38293.82
726.439	37990.33
726.782	38191.23
727.124	38222.41
727.465	38138.12
727.807	38026.26
728.149	37859.26
728.491	37870.11
728.833	37762.76
729.175	37651.58
729.516	37634.63
729.858	37706.04
730.199	37652.94
730.541	37459.5
730.882	37533.62
731.224	37556.22
731.565	37197.13
731.906	37291.36
732.248	37229.67
732.589	37194.64
732.93	36946.97
733.271	37088.66
733.612	36979.28
733.953	37055.89
734.294	36834.2
734.635	36772.73
734.976	36858.16
735.317	36665.17
735.658	36693.41
735.999	36623.13
736.339	36457.71
736.68	36677.59
737.021	36425.17
737.361	36258.62
737.702	36430.6
738.042	36253.2
738.383	36267.21
738.723	36310.37
739.063	36147.44
739.404	36051.85
739.744	35993.32
740.084	35963.04
740.424	35922.59
740.764	35866.99
741.104	35903.38
741.444	35790.16
741.784	35603.95
742.124	35667.23
742.464	35503.39
742.804	35471.07
743.143	35351.98
743.483	35388.82
743.823	35263.62
744.162	35182.27
744.502	35291.64
744.841	35009.39
745.181	35163.06
745.52	34956.51
745.86	35019.56
746.199	34863.18
746.538	34816.63
746.877	35021.59
747.216	34805.55
747.556	34665.67
747.895	34692.79
748.234	34499.12
748.573	34487.14
748.911	34504.77
749.25	34458.22
749.589	34128.96
749.928	34321.05
750.267	34304.55
750.605	34115.4
750.944	33979.36
751.283	33917.67
751.621	33851
751.96	33750.89
752.298	33666.15
752.636	33757.45
752.975	33526.94
