Data from breadboard_black_back_FLMS001491_00073.txt Node
Date: Wed Feb 08 10:50:53 GMT 2017
User: dcchb
Spectrometer: FLMS00149
Trigger mode: 0
Integration Time (sec): 2.000000E-2
Scans to average: 10
Electric dark correction enabled: true
Nonlinearity correction enabled: false
Boxcar width: 0
XAxis mode: Wavelengths
Number of Pixels in Spectrum: 2048
>>>>>Begin Spectral Data<<<<<
341.393	-7.57
341.776	-7.57
342.16	-7.57
342.543	-56.38
342.927	-67.91
343.31	-66.55
343.693	-78.53
344.077	-61.81
344.46	-61.13
344.843	-50.51
345.226	-42.15
345.61	-35.37
345.993	-18.64
346.376	-5.99
346.759	18.42
347.142	17.74
347.525	44.63
347.908	79.21
348.291	70.62
348.674	79.88
349.057	110.17
349.44	133.22
349.823	152.43
350.206	181.35
350.588	213.44
350.971	215.7
351.354	241.24
351.737	274
352.119	250.95
352.502	268.35
352.884	276.26
353.267	282.59
353.65	314
354.032	322.82
354.414	309.94
354.797	327.79
355.179	321.46
355.562	332.99
355.944	339.99
356.326	351.52
356.709	343.15
357.091	354
357.473	346.54
357.855	366.88
358.238	354.23
358.62	345.64
359.002	357.39
359.384	368.46
359.766	361.01
360.148	348.13
360.53	357.62
360.912	352.19
361.294	337.73
361.676	356.71
362.057	343.61
362.439	348.13
362.821	347.9
363.203	334.34
363.584	368.92
363.966	358.52
364.348	364.85
364.729	336.6
365.111	341.12
365.493	351.29
365.874	345.41
366.256	366.88
366.637	356.49
367.019	335.92
367.4	344.06
367.781	357.39
368.163	336.83
368.544	332.08
368.925	359.43
369.306	358.75
369.688	360.33
370.069	325.53
370.45	342.25
370.831	354.91
371.212	341.57
371.593	331.18
371.974	343.15
372.355	357.39
372.736	359.2
373.117	380.89
373.498	364.17
373.879	365.75
374.26	334.34
374.641	349.48
375.021	354.68
375.402	363.49
375.783	387.67
376.163	404.17
376.544	381.57
376.925	393.1
377.305	379.54
377.686	387.22
378.066	382.7
378.447	382.02
378.827	376.37
379.208	398.29
379.588	403.04
379.968	379.99
380.349	394.68
380.729	399.65
381.109	386.09
381.489	405.75
381.87	413.66
382.25	387.67
382.63	412.31
383.01	403.49
383.39	425.64
383.77	404.85
384.15	422.47
384.53	410.27
384.91	410.05
385.29	446.2
385.67	408.01
386.049	443.72
386.429	434
386.809	427.45
387.189	421.34
387.568	453.21
387.948	448.24
388.328	435.36
388.707	436.26
389.087	458.63
389.466	466.32
389.846	475.35
390.225	480.1
390.605	497.05
390.984	465.86
391.363	483.49
391.743	480.55
392.122	490.72
392.501	488.24
392.881	510.83
393.26	506.09
393.639	527.33
394.018	486.88
394.397	512.87
394.776	511.29
395.155	519.87
395.534	544.05
395.913	529.59
396.292	532.08
396.671	541.12
397.05	538.18
397.429	568.23
397.808	525.97
398.186	546.77
398.565	555.35
398.944	547.44
399.323	561
399.701	546.77
400.08	572.53
400.458	575.47
400.837	570.27
401.215	581.79
401.594	585.86
401.972	600.1
402.351	612.98
402.729	607.1
403.107	623.6
403.486	633.32
403.864	625.18
404.242	634.45
404.62	631.06
404.999	653.43
405.377	646.88
405.755	632.86
406.133	663.37
406.511	655.01
406.889	678.29
407.267	666.54
407.645	669.25
408.023	683.48
408.401	686.87
408.779	723.26
409.156	714.67
409.534	741.11
409.912	726.87
410.29	712.86
410.667	754.44
411.045	760.32
411.422	763.48
411.8	754.44
412.178	762.13
412.555	794.67
412.933	779.75
413.31	794.44
413.687	828.79
414.065	812.3
414.442	837.15
414.819	835.8
415.197	832.86
415.574	846.19
415.951	846.42
416.328	846.87
416.705	844.38
417.082	873.99
417.46	877.83
417.837	898.17
418.214	925.29
418.591	920.31
418.967	911.05
419.344	912.18
419.721	942.91
420.098	933.42
420.475	970.48
420.852	951.5
421.228	957.38
421.605	964.83
421.982	999.63
422.358	979.97
422.735	1021.33
423.111	999.18
423.488	1016.81
423.864	1045.06
424.241	1037.15
424.617	1050.93
424.994	1050.03
425.37	1060.42
425.746	1082.8
426.123	1100.2
426.499	1098.16
426.875	1115.56
427.251	1134.77
427.627	1163.02
428.003	1170.7
428.379	1156.47
428.756	1186.07
429.132	1186.07
429.507	1219.97
429.883	1233.75
430.259	1259.97
430.635	1257.48
431.011	1262.9
431.387	1281.89
431.763	1310.59
432.138	1334.09
432.514	1331.6
432.89	1341.77
433.265	1384.94
433.641	1413.18
434.016	1418.61
434.392	1403.01
434.767	1407.76
435.143	1443.46
435.518	1455.67
435.894	1494.54
436.269	1494.76
436.644	1524.59
437.02	1534.08
437.395	1517.81
437.77	1581.77
438.145	1589.45
438.52	1573.18
438.895	1600.97
439.271	1622.44
439.646	1636.45
440.021	1642.78
440.395	1632.39
440.77	1634.42
441.145	1644.82
441.52	1692.05
441.895	1711.48
442.27	1708.54
442.645	1732.04
443.019	1748.32
443.394	1737.47
443.769	1772.5
444.143	1776.34
444.518	1781.08
444.892	1806.85
445.267	1799.16
445.641	1817.92
446.016	1830.35
446.39	1881.42
446.764	1866.05
447.139	1885.94
447.513	1873.51
447.887	1887.07
448.262	1911.7
448.636	1922.32
449.01	1953.28
449.384	1915.32
449.758	1989.67
450.132	2001.64
450.506	2033.96
450.88	2025.14
451.254	2062.21
451.628	2049.32
452.002	2080.74
452.376	2094.52
452.75	2132.71
453.123	2117.57
453.497	2147.63
453.871	2180.17
454.244	2238.7
454.618	2216.1
454.992	2270.56
455.365	2260.39
455.739	2351.92
456.112	2361.86
456.486	2362.08
456.859	2384.68
457.232	2446.83
457.606	2451.57
457.979	2509.88
458.352	2539.71
458.725	2598.69
459.099	2580.16
459.472	2628.29
459.845	2659.48
460.218	2605.24
460.591	2703.09
460.964	2711.68
461.337	2765.46
461.71	2845.91
462.083	2870.09
462.456	2862.41
462.829	2882.07
463.201	2921.17
463.574	2929.3
463.947	2990.99
464.32	3038.23
464.692	3074.38
465.065	3103.99
465.438	3159.35
465.81	3163.42
466.183	3241.16
466.555	3316.86
466.928	3267.6
467.3	3319.57
467.672	3395.73
468.045	3476.41
468.417	3479.57
468.789	3487.25
469.161	3515.27
469.534	3610.19
469.906	3682.28
470.278	3713.24
470.65	3749.39
471.022	3795.72
471.394	3871.2
471.766	3897.86
472.138	3951.2
472.51	4081.36
472.882	4098.54
473.253	4142.83
473.625	4182.15
473.997	4275.71
474.369	4329.26
474.74	4388.47
475.112	4442.26
475.484	4566.09
475.855	4585.08
476.227	4644.51
476.598	4734
476.97	4847.67
477.341	4930.15
477.713	4985.29
478.084	5028
478.455	5147.1
478.827	5203.59
479.198	5291.27
479.569	5377.37
479.94	5526.52
480.311	5520.87
480.682	5695.33
481.053	5744.59
481.424	5903.69
481.795	5936.68
482.166	6030.24
482.537	6128.09
482.908	6261.87
483.279	6294.41
483.65	6429.32
484.021	6531.01
484.391	6598.13
484.762	6708.86
485.133	6681.07
485.503	6853.72
485.874	7013.26
486.244	7089.19
486.615	7207.61
486.985	7227.49
487.356	7392.24
487.726	7473.14
488.097	7651.21
488.467	7712.9
488.837	7832.9
489.207	7869.96
489.578	8027.47
489.948	8064.99
490.318	8218.2
490.688	8292.55
491.058	8374.36
491.428	8473.34
491.798	8529.83
492.168	8725.99
492.538	8795.81
492.908	8903.61
493.278	8999.2
493.648	9095.69
494.017	9170.27
494.387	9200.32
494.757	9415.46
495.126	9398.74
495.496	9498.85
495.866	9578.39
496.235	9582.46
496.605	9749.69
496.974	9832.17
497.344	9918.95
497.713	9987.2
498.082	9943.58
498.452	10111.71
498.821	10255.89
499.19	10193.97
499.559	10318.71
499.928	10410.23
500.298	10513.28
500.667	10589.89
501.036	10629.89
501.405	10724.12
501.774	10743.11
502.143	10730.23
502.512	10950.33
502.88	11045.02
503.249	11040.05
503.618	11068.52
503.987	11269.65
504.356	11239.82
504.724	11320.04
505.093	11369.53
505.462	11453.15
505.83	11476.2
506.199	11638.9
506.567	11813.81
506.936	11757.77
507.304	11965.45
507.672	12001.61
508.041	12129.74
508.409	12233.24
508.777	12295.38
509.145	12418.32
509.514	12384.65
509.882	12482.95
510.25	12559.33
510.618	12629.61
510.986	12726.11
511.354	12847.46
511.722	12989.83
512.09	13127.9
512.458	13032.54
512.826	13129.49
513.193	13266.66
513.561	13404.51
513.929	13442.25
514.297	13580.32
514.664	13706.87
515.032	13754.33
515.4	13921.78
515.767	13981.44
516.135	13996.58
516.502	14019.41
516.869	14286.74
517.237	14373.75
517.604	14335.1
517.972	14577.36
518.339	14647.86
518.706	14608.09
519.073	14781.19
519.44	14831.59
519.808	15055.54
520.175	15132.82
520.542	15207.17
520.909	15375.98
521.276	15404.91
521.643	15562.19
522.009	15696.88
522.376	15760.15
522.743	15920.15
523.11	16075.85
523.477	16217.77
523.843	16248.5
524.21	16452.11
524.577	16613.01
524.943	16678.32
525.31	16808.48
525.676	16954.02
526.043	17075.82
526.409	17080.12
526.776	17312.2
527.142	17439.2
527.508	17539.31
527.874	17634.45
528.241	17827.44
528.607	17823.83
528.973	17971.62
529.339	17958.96
529.705	18238.96
530.071	18341.78
530.437	18529.8
530.803	18569.57
531.169	18587.42
531.535	18553.98
531.901	18823.8
532.267	18842.78
532.632	18999.16
532.998	19089.33
533.364	19094.07
533.73	19184.47
534.095	19351.24
534.461	19394.41
534.826	19565.47
535.192	19594.63
535.557	19864.45
535.923	19775.41
536.288	19871.23
536.653	20072.58
537.019	19963.43
537.384	20118.45
537.749	20073.48
538.114	20294.27
538.479	20339.92
538.845	20475.73
539.21	20514.6
539.575	20565.67
539.94	20640.25
540.305	20728.16
540.67	20700.13
541.034	20878.43
541.399	20920.24
541.764	21152.55
542.129	21045.21
542.494	21074.14
542.858	21308.03
543.223	21360.23
543.587	21387.57
543.952	21392.77
544.316	21558.87
544.681	21516.16
545.045	21773.55
545.41	21822.36
545.774	21841.35
546.138	21900.1
546.503	21992.76
546.867	21859.88
547.231	22288.57
547.595	22227.55
547.959	22211.05
548.324	22262.35
548.688	22306.19
549.052	22543.25
549.416	22543.25
549.779	22623.25
550.143	22608.78
550.507	22830.93
550.871	22884.93
551.235	22904.37
551.599	23092.16
551.962	23108.43
552.326	23196.11
552.689	23399.05
553.053	23234.53
553.417	23510.91
553.78	23583.45
554.143	23494.64
554.507	23705.25
554.87	23835.87
555.234	23991.12
555.597	23871.35
555.96	24041.51
556.323	24226.82
556.686	24156.77
557.05	24347.04
557.413	24407.38
557.776	24435.85
558.139	24661.16
558.502	24721.5
558.865	24801.27
559.228	25015.95
559.59	25019.57
559.953	25069.06
560.316	25387.24
560.679	25401.03
561.041	25583.17
561.404	25713.56
561.767	25842.15
562.129	25644.41
562.492	25982.71
562.854	26039.88
563.217	25999.66
563.579	26151.06
563.941	26438.29
564.304	26542.01
564.666	26713.31
565.028	26731.16
565.39	26782.91
565.753	26948.33
566.115	26997.37
566.477	27154.65
566.839	27214.09
567.201	27447.53
567.563	27396.23
567.925	27638.03
568.287	27680.06
568.648	27650.01
569.01	27916.44
569.372	28017
569.734	27930.68
570.095	28155.08
570.457	28323.21
570.819	28307.39
571.18	28335.19
571.542	28448.4
571.903	28537.89
572.265	28638.91
572.626	28734.27
572.987	28642.98
573.349	28904.21
573.71	28967.94
574.071	29098.56
574.432	29165.22
574.794	29248.61
575.155	29297.87
575.516	29365.44
575.877	29480.47
576.238	29468.49
576.599	29591.88
576.96	29648.6
577.32	29666.45
577.681	29879.55
578.042	29831.19
578.403	29787.13
578.763	29752.33
579.124	29952.55
579.485	30083.39
579.845	30197.29
580.206	29951.42
580.566	30106.67
580.927	30155.03
581.287	30276.38
581.648	30179.66
582.008	30261.92
582.368	30330.39
582.728	30395.25
583.089	30301.69
583.449	30329.26
583.809	30455.81
584.169	30425.75
584.529	30377.62
584.889	30571.06
585.249	30376.72
585.609	30367.45
585.969	30547.11
586.329	30548.91
586.688	30528.35
587.048	30392.76
587.408	30340.33
587.768	30376.49
588.127	30429.37
588.487	30299.66
588.846	30673.43
589.206	30355.47
589.565	30456.94
589.925	30597.95
590.284	30437.05
590.643	30576.94
591.003	30717.05
591.362	30806.76
591.721	30561.12
592.08	30513.43
592.44	30731.51
592.799	30637.95
593.158	30648.57
593.517	30638.18
593.876	30679.08
594.235	30621.23
594.593	30784.84
594.952	30771.96
595.311	30753.88
595.67	30853.09
596.029	31109.8
596.387	30969.24
596.746	31045.17
597.104	30826.2
597.463	30901.45
597.822	30964.72
598.18	30927.44
598.538	30856.02
598.897	31057.15
599.255	30986.42
599.613	31191.16
599.972	31071.16
600.33	31184.6
600.688	31118.84
601.046	31101.22
601.404	31094.66
601.762	31151.84
602.12	31427.76
602.478	31368.1
602.836	31347.31
603.194	31095.11
603.552	31235.45
603.91	31178.73
604.268	31360.87
604.625	31263.92
604.983	31403.81
605.341	31348.89
605.698	31421.66
606.056	31468.66
606.413	31542.11
606.771	31650.13
607.128	31590.47
607.485	31591.82
607.843	31555.44
608.2	31825.04
608.557	31842.44
608.914	31702.56
609.272	31871.82
609.629	31932.38
609.986	32074.52
610.343	31938.26
610.7	32134.64
611.057	31959.95
611.414	31991.36
611.771	32062.09
612.127	32046.28
612.484	32190
612.841	32187.29
613.198	32063.68
613.554	32184.13
613.911	32362.88
614.267	32250.34
614.624	32285.14
614.98	32470.9
615.337	32488.75
615.693	32439.26
616.05	32524
616.406	32517.45
616.762	32535.98
617.118	32558.58
617.475	32453.04
617.831	32548.86
618.187	32692.13
618.543	32773.26
618.899	32922.86
619.255	32784.11
619.611	32785.47
619.967	32824.56
620.323	32850.1
620.678	32768.52
621.034	32720.83
621.39	32636.09
621.746	32638.58
622.101	33153.59
622.457	32818.46
622.812	32886.48
623.168	33023.65
623.523	32847.16
623.879	33011
624.234	32836.54
624.589	32889.19
624.945	32917.89
625.3	33125.34
625.655	33076.53
626.01	33011
626.365	33056.64
626.72	32898.01
627.075	32991.56
627.43	32871.57
627.785	32897.55
628.14	32847.16
628.495	32884.9
628.85	32873.6
629.205	32853.26
629.559	32902.07
629.914	32787.27
630.269	32854.16
630.623	32671.57
630.978	32773.71
631.332	32809.87
631.687	32892.13
632.041	32727.39
632.396	32882.86
632.75	32603.55
633.104	32743.66
633.459	32570.78
633.813	32462.08
634.167	32445.36
634.521	32430.9
634.875	32584.11
635.229	32416.21
635.583	32279.94
635.937	32284.24
636.291	32327.17
636.645	32232.94
636.999	32153.17
637.352	32268.64
637.706	32030.46
638.06	32277.23
638.413	32131.25
638.767	32077.91
639.121	32150.23
639.474	31958.59
639.828	32018.03
640.181	31994.98
640.534	31947.52
640.888	31807.19
641.241	31661.88
641.594	31740.75
641.947	31825.72
642.301	31698.04
642.654	31693.74
643.007	31734.65
643.36	31665.72
643.713	31387.54
644.066	31686.06
644.419	31493.52
644.771	31306.41
645.124	31128.11
645.477	31037.94
645.83	30808.57
646.182	30573.32
646.535	30477.5
646.888	30582.36
647.24	30308.47
647.593	30459.65
647.945	30305.98
648.298	30174.91
648.65	30186.21
649.002	30107.34
649.355	30306.43
649.707	30143.95
650.059	30336.94
650.411	30761.79
650.763	30763.37
651.115	31212.63
651.467	31006.08
651.819	30927.44
652.171	30820.09
652.523	30722.24
652.875	30684.28
653.227	30656.03
653.578	30805.4
653.93	30781.45
654.282	30616.71
654.633	30498.52
654.985	30524.96
655.337	30679.76
655.688	30578.07
656.039	30666.65
656.391	30356.38
656.742	30443.83
657.094	30505.98
657.445	30517.5
657.796	30494.68
658.147	30367.9
658.498	30477.28
658.849	30392.31
659.2	30391.86
659.551	30271.41
659.902	30488.12
660.253	30315.25
660.604	30303.05
660.955	30053.56
661.306	30390.73
661.656	30151.18
662.007	30284.06
662.358	30192.31
662.708	30309.6
663.059	30195.25
663.409	30095.59
663.76	30199.32
664.11	30187.57
664.461	30185.99
664.811	30132.43
665.161	30164.97
665.511	30042.03
665.862	30132.43
666.212	30144.41
666.562	30115.71
666.912	30148.47
667.262	29952.09
667.612	30036.84
667.962	30064.18
668.312	29928.82
668.662	30224.18
669.011	30038.19
669.361	29887.24
669.711	29976.73
670.06	29841.59
670.41	29843.62
670.76	29865.32
671.109	29865.99
671.459	29879.55
671.808	29764.3
672.157	29883.62
672.507	29725.89
672.856	29774.7
673.205	29672.33
673.554	29915.26
673.904	29731.53
674.253	29764.3
674.602	29614.48
674.951	29347.36
675.3	29130.87
675.649	29554.82
675.998	29483.41
676.346	29537.64
676.695	29651.99
677.044	29345.33
677.393	29438.21
677.741	29579
678.09	29448.6
678.438	29317.08
678.787	29409.06
679.135	29420.13
679.484	29025.56
679.832	29329.51
680.181	29182.17
680.529	29250.42
680.877	29123.64
681.225	29146.47
681.573	29251.1
681.922	28950.54
682.27	28928.84
682.618	29081.38
682.966	29048.16
683.314	28878.45
683.661	28849.52
684.009	28713.48
684.357	28723.88
684.705	28533.37
685.053	28666.03
685.4	28482.3
685.748	28531.11
686.095	28510.55
686.443	28285.47
686.79	28217.22
687.138	28214.96
687.485	28318.92
687.832	28249.99
688.18	28303.32
688.527	28078.24
688.874	28137.68
689.221	28023.1
689.568	27971.35
689.915	27882.54
690.262	27830.57
690.609	27796.9
690.956	27755.99
691.303	27752.6
691.65	27560.74
691.997	27530.24
692.344	27413.86
692.69	27326.85
693.037	27415.21
693.383	27122.11
693.73	27292.5
694.077	26967.31
694.423	27026.97
694.769	26929.57
695.116	26903.81
695.462	26876.92
695.808	26740.88
696.155	26680.77
696.501	26582.69
696.847	26557.61
697.193	26459.3
697.539	26538.85
697.885	26215.02
698.231	26203.72
698.577	26254.79
698.923	26114.45
699.269	26071.07
699.614	25980.22
699.96	25897.96
700.306	25874.01
700.651	25757.85
700.997	25681.47
701.342	25748.14
701.688	25758.08
702.033	25444.19
702.379	25552.44
702.724	25488.03
703.069	25536.16
703.415	25231.77
703.76	25238.55
704.105	25195.38
704.45	25029.74
704.795	24897.54
705.14	24895.73
705.485	24923.75
705.83	24808.27
706.175	24758.56
706.52	24745.45
706.865	24579.13
707.209	24629.75
707.554	24457.32
707.899	24521.05
708.243	24513.37
708.588	24332.58
708.932	24282.19
709.277	24280.38
709.621	24258.01
709.966	24159.03
710.31	24218.91
710.654	23956.77
710.998	24089.2
711.342	24014.85
711.687	23957.9
712.031	23853.05
712.375	23691.47
712.719	23721.98
713.063	23719.49
713.407	23837.45
713.75	23564.01
714.094	23648.98
714.438	23493.28
714.782	23424.58
715.125	23376.9
715.469	23349.78
715.812	23245.38
716.156	23233.4
716.499	23206.96
716.843	23198.37
717.186	23116.34
717.53	23163.12
717.873	23122.22
718.216	23126.51
718.559	22846.29
718.902	22876.12
719.246	22867.53
719.589	22816.01
719.932	22740.08
720.275	22682
720.617	22688.1
720.96	22666.18
721.303	22578.73
721.646	22633.64
721.989	22452.63
722.331	22592.29
722.674	22411.28
723.016	22457.6
723.359	22335.57
723.701	22448.11
724.044	22324.5
724.386	22095.8
724.729	22380.09
725.071	22246.31
725.413	22290.83
725.755	22206.31
726.097	22089.48
726.439	22005.18
726.782	22030.27
727.124	22141
727.465	21896.03
727.807	21908.92
728.149	21819.2
728.491	21799.54
728.833	21816.71
729.175	21717.28
729.516	21745.76
729.858	21651.97
730.199	21727
730.541	21675.48
730.882	21592.31
731.224	21625.08
731.565	21523.39
731.906	21483.16
732.248	21594.35
732.589	21327.46
732.93	21472.77
733.271	21396.84
733.612	21324.75
733.953	21385.31
734.294	21227.8
734.635	21209.5
734.976	21440.68
735.317	21195.26
735.658	21093.34
735.999	21219.67
736.339	21117.75
736.68	21136.96
737.021	21041.37
737.361	20967.47
737.702	21057.41
738.042	20984.19
738.383	20875.5
738.723	20896.06
739.063	20866.23
739.404	20948.49
739.744	20678.44
740.084	20756.4
740.424	20754.37
740.764	20691.55
741.104	20715.05
741.444	20571.55
741.784	20480.03
742.124	20586.24
742.464	20684.54
742.804	20474.15
743.143	20414.04
743.483	20407.26
743.823	20308.51
744.162	20497.88
744.502	20385.79
744.841	20261.95
745.181	20323.19
745.52	20301.27
745.86	20313.93
746.199	20165.01
746.538	20241.39
746.877	20245.23
747.216	20173.82
747.556	20118.45
747.895	20073.03
748.234	20012.69
748.573	19983.54
748.911	19858.35
749.25	19840.95
749.589	19816.09
749.928	19777.67
750.267	19835.52
750.605	19782.19
750.944	19611.57
751.283	19689.31
751.621	19650.44
751.96	19619.71
752.298	19581.07
752.636	19482.31
752.975	19364.58
753.313	19294.97
753.651	19383.56
753.989	19324.12
754.327	19248.87
