Data from breadboard_white_FLMS001491_00056.txt Node
Date: Wed Feb 08 10:47:56 GMT 2017
User: dcchb
Spectrometer: FLMS00149
Trigger mode: 0
Integration Time (sec): 2.000000E-2
Scans to average: 10
Electric dark correction enabled: true
Nonlinearity correction enabled: false
Boxcar width: 0
XAxis mode: Wavelengths
Number of Pixels in Spectrum: 2048
>>>>>Begin Spectral Data<<<<<
341.393	-9.36
341.776	-9.36
342.16	-9.36
342.543	-49.82
342.927	-62.24
343.31	-78.06
343.693	-62.02
344.077	-53.43
344.46	-39.65
344.843	-36.93
345.226	-36.03
345.61	-37.61
345.993	-7.78
346.376	-18.86
346.759	3.29
347.142	4.87
347.525	54.59
347.908	40.13
348.291	74.25
348.674	90.29
349.057	102.95
349.44	119.22
349.823	130.97
350.206	159.67
350.588	207.13
350.971	231.08
351.354	250.97
351.737	234.02
352.119	272.44
352.502	301.14
352.884	269.27
353.267	283.51
353.65	297.07
354.032	309.72
354.414	330.06
354.797	339.33
355.179	328.25
355.562	358.76
355.944	316.95
356.326	338.65
356.709	361.25
357.091	347.01
357.473	340.23
357.855	360.8
358.238	354.69
358.62	355.37
359.002	362.6
359.384	380.68
359.766	371.42
360.148	360.34
360.53	357.18
360.912	367.35
361.294	356.5
361.676	360.34
362.057	368.7
362.439	355.82
362.821	369.16
363.203	352.66
363.584	369.61
363.966	368.03
364.348	355.82
364.729	363.28
365.111	354.92
365.493	359.89
365.874	354.47
366.256	341.59
366.637	341.14
367.019	352.21
367.4	348.37
367.781	359.44
368.163	341.81
368.544	333.9
368.925	344.3
369.306	343.39
369.688	347.69
370.069	345.2
370.45	364.64
370.831	364.86
371.212	370.74
371.593	328.71
371.974	355.82
372.355	365.32
372.736	365.09
373.117	376.39
373.498	365.99
373.879	368.7
374.26	371.19
374.641	356.28
375.021	377.07
375.402	366.9
375.783	374.13
376.163	391.53
376.544	377.29
376.925	384.98
377.305	377.07
377.686	383.39
378.066	391.98
378.447	384.07
378.827	398.99
379.208	386.33
379.588	407.35
379.968	409.61
380.349	384.07
380.729	394.47
381.109	409.61
381.489	394.69
381.87	422.26
382.25	438.76
382.63	436.73
383.01	425.88
383.39	419.1
383.77	434.47
384.15	420.91
384.53	427.91
384.91	433.79
385.29	436.05
385.67	449.61
386.049	439.44
386.429	456.61
386.809	462.49
387.189	456.16
387.568	455.26
387.948	472.88
388.328	456.16
388.707	464.52
389.087	466.1
389.466	480.34
389.846	497.29
390.225	489.61
390.605	514.92
390.984	522.83
391.363	488.02
391.743	521.7
392.122	534.12
392.501	556.72
392.881	556.5
393.26	550.62
393.639	570.96
394.018	574.35
394.397	579.09
394.776	570.06
395.155	603.05
395.534	589.72
395.913	598.76
396.292	611.41
396.671	614.57
397.05	625.2
397.429	634.91
397.808	603.05
398.186	650.51
398.565	645.76
398.944	651.41
399.323	655.03
399.701	707.45
400.08	685.53
400.458	700.9
400.837	726.21
401.215	719.43
401.594	732.76
401.972	730.5
402.351	765.76
402.729	737.96
403.107	756.49
403.486	797.39
403.864	792.87
404.242	830.39
404.62	837.17
404.999	841.01
405.377	862.03
405.755	859.99
406.133	894.11
406.511	900.67
406.889	914.68
407.267	934.57
407.645	951.29
408.023	962.81
408.401	978.18
408.779	978.63
409.156	1047.33
409.534	1029.93
409.912	1064.96
410.29	1083.49
410.667	1102.92
411.045	1148.12
411.422	1158.06
411.8	1162.81
412.178	1204.16
412.555	1231.28
412.933	1228.8
413.31	1278.29
413.687	1297.95
414.065	1309.47
414.442	1316.7
414.819	1348.34
415.197	1371.16
415.574	1376.81
415.951	1396.47
416.328	1412.52
416.705	1453.2
417.082	1433.31
417.46	1496.81
417.837	1494.78
418.214	1541.1
418.591	1548.33
418.967	1554.89
419.344	1612.51
419.721	1631.04
420.098	1614.1
420.475	1645.96
420.852	1671.27
421.228	1655.9
421.605	1718.73
421.982	1733.87
422.358	1764.6
422.735	1775.67
423.111	1776.8
423.488	1803.02
423.864	1869.68
424.241	1858.16
424.617	1896.57
424.994	1898.16
425.37	1915.11
425.746	1928.21
426.123	2001.66
426.499	1978.83
426.875	2003.01
427.251	2068.1
427.627	2097.93
428.003	2119.62
428.379	2171.6
428.756	2181.99
429.132	2223.12
429.507	2231.48
429.883	2247.07
430.259	2344.47
430.635	2326.85
431.011	2371.82
431.387	2403
431.763	2463.11
432.138	2457.24
432.514	2506.95
432.89	2539.5
433.265	2611.36
433.641	2624.92
434.016	2678.25
434.392	2691.81
434.767	2719.83
435.143	2752.15
435.518	2792.14
435.894	2798.7
436.269	2859.49
436.644	2925.93
437.02	2937.68
437.395	2967.51
437.77	2996.21
438.145	3041.18
438.52	3065.81
438.895	3111.23
439.271	3104.45
439.646	3224.9
440.021	3236.65
440.395	3203.43
440.77	3215.64
441.145	3242.75
441.52	3352.13
441.895	3350.77
442.27	3358
442.645	3387.38
443.019	3428.06
443.394	3422.41
443.769	3467.83
444.143	3448.62
444.518	3547.6
444.892	3483.65
445.267	3554.38
445.641	3601.61
446.016	3612.24
446.39	3654.49
446.764	3673.25
447.139	3694.95
447.513	3771.1
447.887	3765.68
448.262	3789.86
448.636	3791.44
449.01	3852.23
449.384	3867.6
449.758	3903.08
450.132	3950.98
450.506	3946.46
450.88	4068.95
451.254	4071.21
451.628	4055.61
452.002	4154.82
452.376	4160.47
452.75	4202.28
453.123	4232.11
453.497	4343.74
453.871	4334.93
454.244	4427.58
454.618	4459.22
454.992	4521.14
455.365	4561.14
455.739	4707.57
456.112	4671.64
456.486	4736.05
456.859	4828.7
457.232	4876.38
457.606	4893.33
457.979	4933.1
458.352	5073.89
458.725	5114.12
459.099	5204.74
459.472	5300.1
459.845	5352.3
460.218	5420.78
460.591	5441.34
460.964	5472.98
461.337	5634.1
461.71	5670.94
462.083	5778.96
462.456	5786.64
462.829	5841.78
463.201	5970.37
463.574	5987.31
463.947	6072.74
464.32	6176.46
464.692	6207.2
465.065	6257.82
465.438	6373.97
465.81	6449
466.183	6505.49
466.555	6670.91
466.928	6760.18
467.3	6716.56
467.672	6875.88
468.045	7082.2
468.417	7051.47
468.789	7099.15
469.161	7185.7
469.534	7370.55
469.906	7498.91
470.278	7559.93
470.65	7663.65
471.022	7835.18
471.394	7948.39
471.766	8013.25
472.138	8182.74
472.51	8345.9
472.882	8441.94
473.253	8513.8
473.625	8636.96
473.997	8804.64
474.369	8954.24
474.74	9013
475.112	9163.28
475.484	9367.34
475.855	9493.21
476.227	9597.61
476.598	9828.8
476.97	9964.38
477.341	10209.8
477.713	10387.88
478.084	10404.83
478.455	10753.97
478.827	10742.9
479.198	11141.76
479.569	11173.17
479.94	11386.95
480.311	11530.9
480.682	11863.77
481.053	12184.67
481.424	12322.97
481.795	12463.75
482.166	12672.79
482.537	12817.87
482.908	13083.4
483.279	13168.59
483.65	13452.65
484.021	13741.23
484.391	13869.82
484.762	13989.59
485.133	14145.29
485.503	14366.3
485.874	14655.79
486.244	14740.08
486.615	15086.06
486.985	15293.28
487.356	15529.66
487.726	15793.61
488.097	16071.79
488.467	16139.14
488.837	16454.61
489.207	16610.54
489.578	16919.91
489.948	17030.19
490.318	17198.09
490.688	17355.83
491.058	17596.73
491.428	17940.22
491.798	18018.18
492.168	18437.61
492.538	18528.45
492.908	18629.02
493.278	18985.62
493.648	19022.9
494.017	19307.42
494.387	19464.25
494.757	19560.29
495.126	19913.73
495.496	19927.51
495.866	20099.94
496.235	20259.03
496.605	20488.18
496.974	20642.3
497.344	20761.84
497.713	20941.5
498.082	21094.26
498.452	21397.3
498.821	21531.31
499.19	21595.94
499.559	21866.44
499.928	22009.49
500.298	22117.96
500.667	22415.36
501.036	22314.57
501.405	22554.56
501.774	22604.5
502.143	22957.94
502.512	23016.25
502.88	23165.39
503.249	23227.09
503.618	23413.07
503.987	23501.2
504.356	23660.3
504.724	23924.02
505.093	24072.04
505.462	24013.06
505.83	24297.57
506.199	24565.13
506.567	24838.12
506.936	24826.37
507.304	25207.37
507.672	25262.51
508.041	25422.51
508.409	25566.69
508.777	25883.74
509.145	26029.5
509.514	26098.2
509.882	26242.6
510.25	26403.95
510.618	26653.44
510.986	26819.08
511.354	27055.69
511.722	27215
512.09	27468.11
512.458	27471.95
512.826	27737.25
513.193	27891.6
513.561	27946.51
513.929	28248.88
514.297	28550.56
514.664	28778.58
515.032	28895.86
515.4	29215.4
515.767	29363.65
516.135	29577.88
516.502	29377.66
516.869	29911.66
517.237	30031.65
517.604	30070.07
517.972	30498.08
518.339	30722.48
518.706	30880.22
519.073	31012.19
519.44	31268.23
519.808	31534.21
520.175	31655.57
520.542	31978.27
520.909	32315.66
521.276	32178.49
521.643	32465.49
522.009	32898.47
522.376	33168.29
522.743	33203.1
523.11	33621.84
523.477	33980.48
523.843	34067.93
524.21	34520.12
524.577	34711.76
524.943	34934.8
525.31	35181.8
525.676	35365.75
526.043	35508.8
526.409	35792.18
526.776	36197.14
527.142	36282.56
527.508	36517.59
527.874	36883
528.241	37138.59
528.607	37154.18
528.973	37481.85
529.339	37607.05
529.705	37947.38
530.071	38130.65
530.437	38517.76
530.803	38698.54
531.169	38820.8
531.535	38863.96
531.901	39067.57
532.267	39175.59
532.632	39498.98
532.998	39586.2
533.364	39803.15
533.73	40020.09
534.095	40404.26
534.461	40423.02
534.826	40619.62
535.192	40644.26
535.557	41105.26
535.923	41116.79
536.288	41318.59
536.653	41444.46
537.019	41512.48
537.384	41834.96
537.749	41926.48
538.114	41978.23
538.479	42098.68
538.845	42295.74
539.21	42267.26
539.575	42442.17
539.94	42550.42
540.305	42930.75
540.67	42869.73
541.034	43178.2
541.399	43275.37
541.764	43363.73
542.129	43425.65
542.494	43556.5
542.858	43852.99
543.223	43707.23
543.587	44160.32
543.952	44199.87
544.316	44330.03
544.681	44384.04
545.045	44595.56
545.41	44846.41
545.774	44884.37
546.138	45063.35
546.503	45029.9
546.867	45100.18
547.231	45409.55
547.595	45412.94
547.959	45576.78
548.324	45599.61
548.688	45801.63
549.052	46005.47
549.416	45997.56
549.779	46136.09
550.143	46298.12
550.507	46588.51
550.871	46723.87
551.235	46694.27
551.599	47038.66
551.962	46986.46
552.326	47070.3
552.689	47409.28
553.053	47367.02
553.417	47438.88
553.78	48091.29
554.143	47842.26
554.507	48029.37
554.87	48173.78
555.234	48522.02
555.597	48311.63
555.96	48538.96
556.323	48708.9
556.686	48800.43
557.05	49151.38
557.413	49127.42
557.776	49355.44
558.139	49430.24
558.502	49630.91
558.865	49625.49
559.228	50005.59
559.59	50096.66
559.953	50130.56
560.316	50492.58
560.679	50600.6
561.041	50779.58
561.404	50848.96
561.767	51118.11
562.129	50927.6
562.492	51395.39
562.854	51395.84
563.217	51441.26
563.579	51589.28
563.941	51814.58
564.304	51875.83
564.666	52083.28
565.028	52184.74
565.39	52271.97
565.753	52479.43
566.115	52525.07
566.477	52663.83
566.839	52699.76
567.201	53002.35
567.563	52936.59
567.925	53266.98
568.287	53230.37
568.648	53272.62
569.01	53432.62
569.372	53678.72
569.734	53530.7
570.095	53820.18
570.457	53876.45
570.819	53860.41
571.18	53989.67
571.542	54207.29
571.903	54267.63
572.265	54283.9
572.626	54420.62
572.987	54458.13
573.349	54523.89
573.71	54652.7
574.071	54734.28
574.432	54859.93
574.794	55025.12
575.155	54970.21
575.516	54962.3
575.877	55074.61
576.238	55113.71
576.599	55243.42
576.96	55227.6
577.32	55196.64
577.681	55368.39
578.042	55467.6
578.403	55423.75
578.763	55397.54
579.124	55542.4
579.485	55668.95
579.845	55654.48
580.206	55594.37
580.566	55596.18
580.927	55610.87
581.287	55766.12
581.648	55765.89
582.008	55808.15
582.368	55726.57
582.728	55824.87
583.089	55854.25
583.449	55782.16
583.809	55818.32
584.169	55830.98
584.529	55802.28
584.889	55989.62
585.249	55844.08
585.609	55763.18
585.969	55911.65
586.329	55808.38
586.688	55872.56
587.048	55863.52
587.408	55883.4
587.768	55845.44
588.127	55900.35
588.487	55825.33
588.846	56070.97
589.206	55850.64
589.565	55890.63
589.925	56037.52
590.284	55921.37
590.643	55900.13
591.003	56010.18
591.362	56058.99
591.721	56056.51
592.08	56106.22
592.44	56072.78
592.799	56072.1
593.158	56020.58
593.517	56075.49
593.876	56062.38
594.235	55988.03
594.593	56037.3
594.952	56122.95
595.311	56088.37
595.67	56165.2
596.029	56286.56
596.387	56207.01
596.746	56248.37
597.104	56213.11
597.463	56114.81
597.822	56292.21
598.18	56184.41
598.538	56153
598.897	56376.05
599.255	56173.57
599.613	56456.72
599.972	56344.41
600.33	56379.66
600.688	56265.77
601.046	56442.48
601.404	56563.39
601.762	56422.15
602.12	56610.84
602.478	56571.3
602.836	56477.06
603.194	56455.82
603.552	56571.52
603.91	56370.4
604.268	56613.78
604.625	56519.54
604.983	56646.77
605.341	56520.9
605.698	56602.25
606.056	56668.02
606.413	56723.16
606.771	56709.6
607.128	56786.66
607.485	56731.97
607.843	56745.98
608.2	56898.74
608.557	56926.99
608.914	56817.84
609.272	56926.54
609.629	56977.39
609.986	57073.43
610.343	56968.57
610.7	57138.96
611.057	57082.69
611.414	57106.42
611.771	57127.44
612.127	57240.2
612.484	57204.27
612.841	57264.16
613.198	57196.36
613.554	57177.15
613.911	57382.35
614.267	57418.73
614.624	57327.89
614.98	57399.3
615.337	57449.46
615.693	57383.48
616.05	57359.75
616.406	57550.25
616.762	57420.76
617.118	57442.23
617.475	57483.81
617.831	57482.46
618.187	57545.05
618.543	57576.01
618.899	57693.53
619.255	57675.67
619.611	57594.09
619.967	57705.28
620.323	57722
620.678	57692.17
621.034	57616.92
621.39	57634.09
621.746	57608.1
622.101	57853.75
622.457	57607.65
622.812	57707.08
623.168	57717.71
623.523	57705.5
623.879	57796.57
624.234	57667.09
624.589	57730.59
624.945	57790.7
625.3	57715.45
625.655	57762.68
626.01	57743.24
626.365	57747.08
626.72	57712.73
627.075	57702.79
627.43	57732.62
627.785	57667.99
628.14	57761.32
628.495	57731.26
628.85	57682.23
629.205	57588.22
629.559	57681.55
629.914	57581.21
630.269	57631.15
630.623	57548.22
630.978	57544.6
631.332	57600.42
631.687	57609.69
632.041	57485.4
632.396	57550.7
632.75	57357.49
633.104	57449.24
633.459	57385.51
633.813	57339.41
634.167	57355.23
634.521	57299.41
634.875	57362.69
635.229	57291.05
635.583	57117.95
635.937	57178.74
636.291	57116.59
636.645	57152.07
636.999	57083.6
637.352	57158.17
637.706	56992.07
638.06	57152.3
638.413	56990.04
638.767	57038.85
639.121	56996.37
639.474	56796.6
639.828	56881.57
640.181	56876.6
640.534	56843.6
640.888	56770.39
641.241	56618.3
641.594	56766.32
641.947	56729.26
642.301	56643.61
642.654	56688.35
643.007	56659.65
643.36	56560.9
643.713	56533.1
644.066	56655.13
644.419	56518.87
644.771	56397.29
645.124	56133.57
645.477	56120.46
645.83	55851.99
646.182	55697.87
646.535	55602.73
646.888	55591.66
647.24	55538.78
647.593	55663.52
647.945	55577.65
648.298	55436.64
648.65	55353.93
649.002	55227.15
649.355	55386.47
649.707	55334.04
650.059	55537.88
650.411	55828.26
650.763	55865.1
651.115	56118.65
651.467	55992.33
651.819	55977.64
652.171	55907.13
652.523	55861.26
652.875	55805.44
653.227	55660.13
653.578	55866.23
653.93	55759.34
654.282	55684.54
654.633	55594.37
654.985	55673.47
655.337	55678.21
655.688	55612.9
656.039	55779.23
656.391	55507.59
656.742	55591.89
657.094	55580.81
657.445	55604.77
657.796	55559.34
658.147	55533.13
658.498	55592.11
658.849	55494.94
659.2	55446.13
659.551	55483.64
659.902	55507.59
660.253	55380.59
660.604	55438.9
660.955	55376.3
661.306	55448.84
661.656	55346.24
662.007	55360.71
662.358	55360.03
662.708	55279.8
663.059	55330.42
663.409	55140.15
663.76	55446.58
664.11	55323.87
664.461	55289.97
664.811	55315.96
665.161	55282.97
665.511	55186.7
665.862	55187.38
666.212	55285.68
666.562	55301.27
666.912	55143.99
667.262	55138.79
667.612	55224.66
667.962	55112.58
668.312	55080.94
668.662	55199.58
669.011	55122.97
669.361	55105.8
669.711	55083.88
670.06	55045.46
670.41	55052.92
670.76	54996.42
671.109	55066.25
671.459	55012.69
671.808	54973.14
672.157	55040.49
672.507	54701.29
672.856	54867.39
673.205	54776.54
673.554	54976.31
673.904	54670.1
674.253	54998.46
674.602	54864
674.951	54412.48
675.3	54289.32
675.649	54759.82
675.998	54653.83
676.346	54691.57
676.695	54802.53
677.044	54556.21
677.393	54613.61
677.741	54643.21
678.09	54539.48
678.438	54497.23
678.787	54528.18
679.135	54437.79
679.484	54306.04
679.832	54425.59
680.181	54251.58
680.529	54376.78
680.877	54215.42
681.225	54238.7
681.573	54377.91
681.922	54176.56
682.27	54108.53
682.618	54147.63
682.966	53897.24
683.314	54019.95
683.661	53904.02
684.009	53805.04
684.357	53705.38
684.705	53612.95
685.053	53694.08
685.4	53691.82
685.748	53451.6
686.095	53474.43
686.443	53308.56
686.79	53323.24
687.138	53432.17
687.485	53304.71
687.832	53277.6
688.18	53274.66
688.527	53071.05
688.874	53118.28
689.221	53035.12
689.568	52888
689.915	52756.03
690.262	52856.14
690.609	52648.46
690.956	52629.48
691.303	52619.08
691.65	52402.59
691.997	52460.89
692.344	52247.57
692.69	52254.57
693.037	52180.68
693.383	51927.58
693.73	52127.34
694.077	51928.03
694.423	51834.47
694.769	51745.66
695.116	51622.72
695.462	51602.61
695.808	51505.67
696.155	51540.69
696.501	51240.81
696.847	51374.37
697.193	51025.45
697.539	51247.14
697.885	50849.19
698.231	50810.32
698.577	50870.43
698.923	50760.37
699.269	50601.51
699.614	50427.05
699.96	50323.55
700.306	50241.07
700.651	50216.89
700.997	50098.47
701.342	50103.67
701.688	49997.23
702.033	49741.87
702.379	49837.01
702.724	49705.03
703.069	49881.08
703.415	49335.55
703.76	49421.65
704.105	49288.32
704.45	49242.22
704.795	48900.76
705.14	48923.36
705.485	48934.66
705.83	48751.16
706.175	48807.43
706.52	48574.22
706.865	48554.56
707.209	48480.89
707.554	48270.5
707.899	48320.66
708.243	48137.84
708.588	48074.57
708.932	47848.13
709.277	47923.16
709.621	47817.4
709.966	47623.06
710.31	47695.6
710.654	47325.66
710.998	47399.11
711.342	47428.71
711.687	47259.9
712.031	47033.01
712.375	46925.45
712.719	47075.95
713.063	46962.06
713.407	47035.05
713.75	46723.42
714.094	46664.21
714.438	46588.96
714.782	46559.35
715.125	46481.84
715.469	46440.04
715.812	46309.64
716.156	46128.63
716.499	45937.45
716.843	46044.79
717.186	45804.8
717.53	46047.05
717.873	45939.71
718.216	45774.97
718.559	45537.46
718.902	45370.69
719.246	45538.36
719.589	45278.71
719.932	45290.24
720.275	45223.12
720.617	45196
720.96	45091.82
721.303	44892.73
721.646	45116
721.989	44800.08
722.331	44794.2
722.674	44682.34
723.016	44661.55
723.359	44555.79
723.701	44610.03
724.044	44340.43
724.386	44249.59
724.729	44437.83
725.071	44255.69
725.413	44190.15
725.755	44002.36
726.097	44069.93
726.439	43822.03
726.782	43881.46
727.124	44019.76
727.465	43670.62
727.807	43584.97
728.149	43484.41
728.491	43476.27
728.833	43617.29
729.175	43370.06
729.516	43166
729.858	43281.47
730.199	43206.22
730.541	43174.13
730.882	42999.67
731.224	43034.25
731.565	42813.46
731.906	42850.98
732.248	42863.86
732.589	42704.09
732.93	42622.28
733.271	42590.65
733.612	42517.65
733.953	42536.41
734.294	42350.65
734.635	42238.34
734.976	42431.33
735.317	42211.22
735.658	42312.23
735.999	42130.32
736.339	42049.64
736.68	42143.88
737.021	41873.38
737.361	41800.84
737.702	41803.32
738.042	41643.1
738.383	41716.09
738.723	41688.07
739.063	41678.81
739.404	41530.11
739.744	41418.93
740.084	41319.49
740.424	41171.7
740.764	41279.04
741.104	41385.71
741.444	41084.47
741.784	40914.98
742.124	41065.04
742.464	40977.58
742.804	40786.4
743.143	40735.78
743.483	40945.27
743.823	40465.05
744.162	40507.54
744.502	40523.81
744.841	40480.42
745.181	40461.89
745.52	40376.01
745.86	40354.32
746.199	40229.35
746.538	40237.49
746.877	40288.79
747.216	40192.52
747.556	40012.86
747.895	40047.21
748.234	39752.75
748.573	39809.7
748.911	39679.31
749.25	39611.74
749.589	39486.09
749.928	39501.46
750.267	39460.78
750.605	39252.88
750.944	39223.05
751.283	39111.64
751.621	39103.51
751.96	38949.16
752.298	38706.23
752.636	38793.91
752.975	38673.69
753.313	38492.45
