Data from breadboard_black_back_FLMS001491_00016.txt Node
Date: Wed Feb 08 10:50:01 GMT 2017
User: dcchb
Spectrometer: FLMS00149
Trigger mode: 0
Integration Time (sec): 2.000000E-2
Scans to average: 10
Electric dark correction enabled: true
Nonlinearity correction enabled: false
Boxcar width: 0
XAxis mode: Wavelengths
Number of Pixels in Spectrum: 2048
>>>>>Begin Spectral Data<<<<<
341.393	-21.04
341.776	-21.04
342.16	-21.04
342.543	-62.17
342.927	-71.66
343.31	-71.44
343.693	-52.23
344.077	-56.98
344.46	-54.49
344.843	-69.18
345.226	-28.28
345.61	-25.79
345.993	-25.56
346.376	-22.85
346.759	9.91
347.142	28.45
347.525	51.95
347.908	56.92
348.291	77.94
348.674	74.32
349.057	107.31
349.44	103.7
349.823	131.04
350.206	162.45
350.588	194.09
350.971	201.77
351.354	228.67
351.737	239.74
352.119	260.53
352.502	264.82
352.884	289.68
353.267	291.94
353.65	313.18
354.032	311.83
354.414	314.09
354.797	310.25
355.179	322
355.562	323.13
355.944	338.04
356.326	329.68
356.709	320.87
357.091	344.82
357.473	352.05
357.855	346.86
358.238	347.53
358.62	347.31
359.002	363.58
359.384	357.48
359.766	353.41
360.148	340.98
360.53	334.2
360.912	325.61
361.294	344.37
361.676	344.82
362.057	338.27
362.439	332.39
362.821	344.6
363.203	353.41
363.584	347.99
363.966	336.01
364.348	333.52
364.729	322.9
365.111	338.27
365.493	333.75
365.874	345.27
366.256	348.89
366.637	340.08
367.019	343.01
367.4	357.7
367.781	332.39
368.163	337.59
368.544	358.61
368.925	348.89
369.306	364.71
369.688	347.53
370.069	336.69
370.45	341.88
370.831	346.18
371.212	345.27
371.593	348.44
371.974	346.63
372.355	339.62
372.736	338.72
373.117	340.75
373.498	338.27
373.879	341.66
374.26	338.95
374.641	353.41
375.021	341.88
375.402	342.79
375.783	347.53
376.163	384.82
376.544	369.45
376.925	374.43
377.305	367.87
377.686	391.15
378.066	367.42
378.447	373.52
378.827	385.05
379.208	382.11
379.588	382.56
379.968	391.37
380.349	411.49
380.729	400.87
381.109	389.57
381.489	396.57
381.87	408.77
382.25	398.15
382.63	387.53
383.01	440.19
383.39	409
383.77	404.03
384.15	416.91
384.53	404.25
384.91	436.34
385.29	418.49
385.67	413.97
386.049	435.44
386.429	465.95
386.809	440.64
387.189	435.67
387.568	425.72
387.948	450.36
388.328	445.38
388.707	441.32
389.087	456
389.466	463.91
389.846	468.43
390.225	493.07
390.605	485.61
390.984	476.57
391.363	469.56
391.743	490.58
392.122	481.77
392.501	484.93
392.881	511.6
393.26	515.66
393.639	519.28
394.018	517.92
394.397	515.44
394.776	541.2
395.155	544.82
395.534	548.66
395.913	538.04
396.292	540.97
396.671	550.47
397.05	554.99
397.429	570.8
397.808	560.18
398.186	557.02
398.565	560.63
398.944	572.84
399.323	558.83
399.701	590.92
400.08	606.28
400.458	576.23
400.837	588.2
401.215	599.28
401.594	579.17
401.972	612.61
402.351	621.2
402.729	601.09
403.107	617.81
403.486	620.07
403.864	641.76
404.242	639.73
404.62	648.09
404.999	673.63
405.377	637.7
405.755	675.43
406.133	657.58
406.511	655.77
406.889	687.86
407.267	704.36
407.645	707.07
408.023	692.61
408.401	728.31
408.779	721.31
409.156	721.53
409.534	710.46
409.912	720.86
410.29	749.56
410.667	770.57
411.045	785.49
411.422	754.3
411.8	785.04
412.178	802.89
412.555	822.55
412.933	823.23
413.31	842.44
413.687	844.24
414.065	839.27
414.442	836.56
414.819	870.23
415.197	854.64
415.574	863.68
415.951	876.33
416.328	902.55
416.705	886.95
417.082	883.11
417.46	901.87
417.837	931.92
418.214	938.48
418.591	963.34
418.967	933.96
419.344	941.64
419.721	956.33
420.098	964.69
420.475	982.09
420.852	970.12
421.228	1021.87
421.605	1025.48
421.982	1013.5
422.358	1010.57
422.735	1063.22
423.111	1048.08
423.488	1080.85
423.864	1081.3
424.241	1062.54
424.617	1075.42
424.994	1086.95
425.37	1108.42
425.746	1098.25
426.123	1135.76
426.499	1137.57
426.875	1144.12
427.251	1143.9
427.627	1194.29
428.003	1209.88
428.379	1223.22
428.756	1227.51
429.132	1269.99
429.507	1263.22
429.883	1259.37
430.259	1262.99
430.635	1303.67
431.011	1305.25
431.387	1342.76
431.763	1342.31
432.138	1369.65
432.514	1380.5
432.89	1395.42
433.265	1416.43
433.641	1401.97
434.016	1439.03
434.392	1469.54
434.767	1509.08
435.143	1502.31
435.518	1521.97
435.894	1531.23
436.269	1521.29
436.644	1548.41
437.02	1571.91
437.395	1573.94
437.77	1602.19
438.145	1619.36
438.52	1636.09
438.895	1661.4
439.271	1653.71
439.646	1711.57
440.021	1703.88
440.395	1708.85
440.77	1726.03
441.145	1740.94
441.52	1769.42
441.895	1756.31
442.27	1762.19
442.645	1805.57
443.019	1823.88
443.394	1829.3
443.769	1846.48
444.143	1833.82
444.518	1840.6
444.892	1851.22
445.267	1881.28
445.641	1929.86
446.016	1923.76
446.39	1929.64
446.764	1932.58
447.139	1959.02
447.513	1959.47
447.887	1952.69
448.262	1989.75
448.636	1959.47
449.01	2042.63
449.384	2034.49
449.758	2039.01
450.132	2086.47
450.506	2108.62
450.88	2123.08
451.254	2110.65
451.628	2113.36
452.002	2152.68
452.376	2175.51
452.75	2220.25
453.123	2229.52
453.497	2244.21
453.871	2267.93
454.244	2333.92
454.618	2330.53
454.992	2363.98
455.365	2401.94
455.739	2412.79
456.112	2467.7
456.486	2484.65
456.859	2498.21
457.232	2543.86
457.606	2536.18
457.979	2569.17
458.352	2616.17
458.725	2637.42
459.099	2664.53
459.472	2719.45
459.845	2743.85
460.218	2768.26
460.591	2798.54
460.964	2833.34
461.337	2886.9
461.71	2933.91
462.083	2959.89
462.456	2976.39
462.829	3057.74
463.201	3068.37
463.574	3062.94
463.947	3111.98
464.32	3174.58
464.692	3240.34
465.065	3234.01
465.438	3266.33
465.81	3331.18
466.183	3329.83
466.555	3427.9
466.928	3455.02
467.3	3447.34
467.672	3510.84
468.045	3561.01
468.417	3593.1
468.789	3623.61
469.161	3672.87
469.534	3762.13
469.906	3820.44
470.278	3857.72
470.65	3874.45
471.022	3953.54
471.394	4054.33
471.766	4081.67
472.138	4122.58
472.51	4186.75
472.882	4242.57
473.253	4324.15
473.625	4362.57
473.997	4462
474.369	4529.8
474.74	4530.47
475.112	4623.35
475.484	4688.44
475.855	4777.7
476.227	4824.25
476.598	4967.98
476.97	4994.19
477.341	5133.4
477.713	5167.07
478.084	5226.5
478.455	5332.03
478.827	5396.44
479.198	5513.95
479.569	5610.45
479.94	5724.12
480.311	5770.89
480.682	5905.13
481.053	5986.48
481.424	6126.59
481.795	6205.68
482.166	6318.45
482.537	6342.18
482.908	6512.79
483.279	6571.78
483.65	6720.47
484.021	6781.04
484.391	6885.67
484.762	6957.53
485.133	7074.36
485.503	7107.81
485.874	7273.45
486.244	7348.25
486.615	7463.73
486.985	7557.29
487.356	7689.49
487.726	7777.17
488.097	7960.21
488.467	7953.21
488.837	8092.64
489.207	8259.19
489.578	8347.1
489.948	8416.7
490.318	8512.29
490.688	8619.18
491.058	8704.83
491.428	8870.25
491.798	8937.36
492.168	9193.4
492.538	9189.33
492.908	9288.77
493.278	9303.46
493.648	9409.89
494.017	9521.76
494.387	9670.45
494.757	9689.66
495.126	9785.7
495.496	9852.14
495.866	9965.81
496.235	10042.65
496.605	10101.4
496.974	10174.39
497.344	10285.35
497.713	10285.8
498.082	10368.29
498.452	10565.34
498.821	10634.95
499.19	10671.78
499.559	10703.19
499.928	10796.75
500.298	10882.17
500.667	11056.18
501.036	11033.81
501.405	11107.48
501.774	11227.47
502.143	11310.41
502.512	11316.96
502.88	11483.74
503.249	11478.31
503.618	11572.77
503.987	11631.98
504.356	11608.71
504.724	11809.38
505.093	11885.31
505.462	11866.55
505.83	12068.58
506.199	12130.5
506.567	12353.55
506.936	12291.17
507.304	12386.99
507.672	12482.58
508.041	12517.83
508.409	12768
508.777	12701.33
509.145	12888.67
509.514	12848.45
509.882	13057.48
510.25	13027.65
510.618	13127.31
510.986	13240.08
511.354	13392.61
511.722	13514.42
512.09	13614.3
512.458	13549.45
512.826	13748.31
513.193	13763.23
513.561	13831.92
513.929	13989.21
514.297	14146.49
514.664	14172.25
515.032	14315.98
515.4	14462.42
515.767	14518.46
516.135	14643.65
516.502	14594.16
516.869	14802.97
517.237	14889.98
517.604	14912.8
517.972	15138.33
518.339	15143.08
518.706	15145.56
519.073	15371.54
519.44	15424.2
519.808	15688.15
520.175	15560.92
520.542	15843.4
520.909	16013.11
521.276	16045.65
521.643	16218.53
522.009	16274.57
522.376	16432.76
522.743	16492.87
523.11	16681.34
523.477	16818.74
523.843	17014.89
524.21	17136.02
524.577	17239.74
524.943	17315.67
525.31	17363.36
525.676	17582.56
526.043	17663.46
526.409	17840.18
526.776	18045.82
527.142	18012.83
527.508	18167.4
527.874	18404.01
528.241	18430
528.607	18482.65
528.973	18681.29
529.339	18693.27
529.705	19022.52
530.071	19066.59
530.437	19172.8
530.803	19303.19
531.169	19371.89
531.535	19296.41
531.901	19544.09
532.267	19594.71
532.632	19798.77
532.998	19787.47
533.364	19918.32
533.73	19984.08
534.095	20070.4
534.461	20150.63
534.826	20289.83
535.192	20388.81
535.557	20533.9
535.923	20543.61
536.288	20688.47
536.653	20687.79
537.019	20764.62
537.384	20900.67
537.749	21014.11
538.114	21042.13
538.479	21068.12
538.845	21168
539.21	21255.01
539.575	21308.34
539.94	21419.3
540.305	21499.75
540.67	21557.37
541.034	21660.87
541.399	21896.12
541.764	21809.34
542.129	21902.45
542.494	21923.24
542.858	22034.19
543.223	22134.98
543.587	22223.34
543.952	22157.13
544.316	22298.37
544.681	22350.57
545.045	22527.97
545.41	22673.27
545.774	22682.54
546.138	22644.57
546.503	22821.52
546.867	22787.17
547.231	23008.86
547.595	22989.65
547.959	23096.09
548.324	23152.36
548.688	23196.42
549.052	23370.2
549.416	23377.21
549.779	23465.57
550.143	23419.92
550.507	23656.98
550.871	23658.56
551.235	23776.52
551.599	23965.22
551.962	24028.49
552.326	24047.25
552.689	24376.28
553.053	24146.23
553.417	24286.79
553.78	24600.91
554.143	24475.94
554.507	24611.08
554.87	24732.88
555.234	24989.37
555.597	24894.01
555.96	24965.64
556.323	25077.73
556.686	25147.79
557.05	25274.79
557.413	25390.49
557.776	25417.61
558.139	25710.26
558.502	25647.88
558.865	25683.59
559.228	25936.24
559.59	26154.99
559.953	26031.83
560.316	26325.38
560.679	26399.73
561.041	26532.16
561.404	26693.73
561.767	26672.04
562.129	26742.32
562.492	26959.71
562.854	27052.14
563.217	27082.88
563.579	27187.28
563.941	27529.87
564.304	27520.15
564.666	27691.9
565.028	27642.41
565.39	27777.09
565.753	28013.92
566.115	27995.17
566.477	28204.88
566.839	28302.96
567.201	28502.05
567.563	28471.31
567.925	28702.95
568.287	28776.39
568.648	28862.04
569.01	29020
569.372	29147
569.734	29036.95
570.095	29199.88
570.457	29375.47
570.819	29487.33
571.18	29412.98
571.542	29668.8
571.903	29682.13
572.265	29832.41
572.626	29897.49
572.987	30023.36
573.349	30082.34
573.71	30167.77
574.071	30253.64
574.432	30305.62
574.794	30502.22
575.155	30533.41
575.516	30477.81
575.877	30705.38
576.238	30660.63
576.599	30856.11
576.96	30812.72
577.32	30939.95
577.681	30831.03
578.042	31123.9
578.403	31165.71
578.763	31070.79
579.124	31170.23
579.485	31286.15
579.845	31376.55
580.206	31276.66
580.566	31315.98
580.927	31278.47
581.287	31551.91
581.648	31330.45
582.008	31497.9
582.368	31531.57
582.728	31555.98
583.089	31540.61
583.449	31393.72
583.809	31479.37
584.169	31565.24
584.529	31510.33
584.889	31826.03
585.249	31498.13
585.609	31577.9
585.969	31663.32
586.329	31588.29
586.688	31592.81
587.048	31576.54
587.408	31478.92
587.768	31565.24
588.127	31609.54
588.487	31544.23
588.846	31857.89
589.206	31696.54
589.565	31623.32
589.925	31706.71
590.284	31751.23
590.643	31701.06
591.003	31764.11
591.362	31855.63
591.721	31824.67
592.08	31905.12
592.44	31841.17
592.799	31885.46
593.158	31912.8
593.517	31908.74
593.876	31849.3
594.235	31875.29
594.593	31908.06
594.952	32015.18
595.311	31875.52
595.67	31889.08
596.029	32169.75
596.387	32153.25
596.746	32312.34
597.104	32131.56
597.463	32075.74
597.822	32159.58
598.18	31971.33
598.538	31990.32
598.897	32245.23
599.255	31882.75
599.613	32447.48
599.972	32160.26
600.33	32323.42
600.688	32226.47
601.046	32313.02
601.404	32415.39
601.762	32347.37
602.12	32544.88
602.478	32396.86
602.836	32529.06
603.194	32404.54
603.552	32577.42
603.91	32428.72
604.268	32556.4
604.625	32580.81
604.983	32594.37
605.341	32450.19
605.698	32742.84
606.056	32762.05
606.413	32760.01
606.771	32685.67
607.128	32951.2
607.485	32837.98
607.843	32765.44
608.2	32971.99
608.557	32940.35
608.914	32811.09
609.272	33070.74
609.629	33269.15
609.986	33243.62
610.343	32940.8
610.7	33295.14
611.057	33269.61
611.414	33223.96
611.771	33213.79
612.127	33316.84
612.484	33459.88
612.841	33285.42
613.198	33268.93
613.554	33436.83
613.911	33554.12
614.267	33552.54
614.624	33520.9
614.98	33631.63
615.337	33634.34
615.693	33752.76
616.05	33716.37
616.406	33900.1
616.762	33799.54
617.118	33814.22
617.475	33665.53
617.831	33879.53
618.187	33963.37
618.543	33898.29
618.899	34159.07
619.255	34005.41
619.611	33969.47
619.967	34052.41
620.323	34146.19
620.678	33960.21
621.034	33873.21
621.39	33906.65
621.746	33932.64
622.101	34370.14
622.457	33969.93
622.812	34077.72
623.168	34253.31
623.523	34149.81
623.879	34150.49
624.234	33927.89
624.589	34066.42
624.945	34258.51
625.3	34178.73
625.655	34072.97
626.01	34181.45
626.365	34120.43
626.72	34074.1
627.075	34146.64
627.43	34189.81
627.785	34029.13
628.14	34111.62
628.495	34192.52
628.85	34101.22
629.205	33964.5
629.559	34160.2
629.914	33978.74
630.269	33982.13
630.623	33954.11
630.978	33888.35
631.332	33872.3
631.687	33956.37
632.041	33885.41
632.396	33981
632.75	33756.15
633.104	33729.03
633.459	33669.59
633.813	33618.52
634.167	33678.86
634.521	33620.33
634.875	33639.99
635.229	33607.22
635.583	33334.69
635.937	33433.67
636.291	33430.73
636.645	33321.13
636.999	33280.9
637.352	33252.88
637.706	33165.88
638.06	33365.65
638.413	33247.23
638.767	33297.4
639.121	33184.86
639.474	33051.53
639.828	33084.3
640.181	33063.51
640.534	32976.96
640.888	32897.41
641.241	32707.59
641.594	32928.82
641.947	32879.33
642.301	32844.98
642.654	32845.66
643.007	32821.26
643.36	32663.29
643.713	32651.77
644.066	32790.97
644.419	32612.67
644.771	32391.66
645.124	32167.26
645.477	32031.22
645.83	31793.94
646.182	31634.39
646.535	31663.09
646.888	31641.4
647.24	31336.77
647.593	31575.19
647.945	31544.91
648.298	31287.51
648.65	31283.67
649.002	31237.57
649.355	31506.94
649.707	31284.35
650.059	31472.82
650.411	31802.3
650.763	31981.96
651.115	32157.54
651.467	32011.11
651.819	32015.63
652.171	31916.65
652.523	31846.37
652.875	31840.26
653.227	31725.24
653.578	31911
653.93	31765.24
654.282	31648.41
654.633	31764.56
654.985	31664.22
655.337	31607.28
655.688	31634.85
656.039	31637.78
656.391	31414.06
656.742	31632.36
657.094	31477.11
657.445	31605.92
657.796	31582.87
658.147	31391.24
658.498	31367.73
658.849	31451.12
659.2	31489.54
659.551	31466.71
659.902	31342.65
660.253	31338.81
660.604	31476.88
660.955	31269.66
661.306	31383.33
661.656	31257.23
662.007	31278.92
662.358	31217.91
662.708	31281.86
663.059	31203.45
663.409	31150.11
663.76	31314.4
664.11	31251.13
664.461	31246.16
664.811	31231.69
665.161	31246.61
665.511	31100.62
665.862	31162.32
666.212	31239.6
666.562	31132.26
666.912	31165.25
667.262	31085.03
667.612	31085.93
667.962	30986.73
668.312	31090.23
668.662	31183.33
669.011	31039.16
669.361	30948.99
669.711	30981.76
670.06	30888.43
670.41	30927.07
670.76	30970.23
671.109	31002.77
671.459	30859.05
671.808	30751.25
672.157	30931.59
672.507	30652.95
672.856	30826.05
673.205	30695.89
673.554	30716.9
673.904	30641.88
674.253	30901.98
674.602	30791.48
674.951	30166.64
675.3	30180.87
675.649	30569.79
675.998	30557.36
676.346	30660.86
676.695	30518.72
677.044	30266.75
677.393	30603.23
677.741	30534.31
678.09	30320.98
678.438	30391.04
678.787	30440.53
679.135	30365.28
679.484	30163.7
679.832	30363.47
680.181	30193.3
680.529	30223.81
680.877	30130.7
681.225	30111.27
681.573	30246.86
681.922	30013.42
682.27	29819.98
682.618	30016.81
682.966	29892.52
683.314	29934.55
683.661	29851.39
684.009	29708.34
684.357	29619.31
684.705	29661.34
685.053	29627.22
685.4	29587.89
685.748	29499.08
686.095	29489.82
686.443	29336.15
686.79	29205.31
687.138	29187.23
687.485	29189.71
687.832	29065.42
688.18	29144.74
688.527	29079.21
688.874	29014.8
689.221	28904.75
689.568	28950.62
689.915	28737.75
690.262	28793.56
690.609	28775.71
690.956	28763.06
691.303	28565.32
691.65	28440.81
691.997	28550.63
692.344	28253.69
692.69	28233.81
693.037	28293.01
693.383	28189.74
693.73	28224.54
694.077	28017.99
694.423	28006.69
694.769	27916.98
695.116	27693.03
695.462	27768.28
695.808	27772.12
696.155	27648.06
696.501	27564.67
696.847	27538.91
697.193	27234.96
697.539	27370.78
697.885	27200.39
698.231	27014.18
698.577	27182.76
698.923	27118.58
699.269	26940.05
699.614	26784.13
699.96	26732.38
700.306	26873.16
700.651	26701.42
700.997	26462.1
701.342	26520.86
701.688	26479.73
702.033	26421.65
702.379	26460.29
702.724	26185.27
703.069	26354.08
703.415	26048.1
703.76	26062.11
704.105	25998.84
704.45	25993.19
704.795	25761.78
705.14	25783.02
705.485	25827.77
705.83	25602.46
706.175	25617.15
706.52	25523.59
706.865	25510.49
707.209	25473.43
707.554	25450.6
707.899	25484.73
708.243	25333.32
708.588	25237.5
708.932	25128.35
709.277	25127.45
709.621	25110.27
709.966	24899.43
710.31	24981.91
710.654	24858.98
710.998	24837.96
711.342	24829.6
711.687	24653.56
712.031	24635.26
712.375	24487.01
712.719	24636.16
713.063	24412.21
713.407	24548.03
713.75	24375.6
714.094	24375.15
714.438	24221.26
714.782	24308.26
715.125	24068.04
715.469	24157.75
715.812	24040.7
716.156	23942.85
716.499	23959.12
716.843	24010.64
717.186	23850.19
717.53	23920.25
717.873	23904.65
718.216	23864.43
718.559	23753.25
718.902	23678.22
719.246	23757.99
719.589	23603.42
719.932	23495.17
720.275	23507.6
720.617	23553.7
720.96	23365.46
721.303	23373.37
721.646	23438.23
721.989	23267.38
722.331	23346.02
722.674	23296.99
723.016	23302.41
723.359	23133.6
723.701	23085.24
724.044	23103.09
724.386	22861.29
724.729	23045.47
725.071	22901.74
725.413	22946.71
725.755	22962.53
726.097	22863.55
726.439	22729.09
726.782	22694.52
727.124	22831.01
727.465	22756.66
727.807	22555.54
728.149	22470.12
728.491	22529.77
728.833	22580.39
729.175	22398.93
729.516	22542.88
729.858	22460.85
730.199	22484.8
730.541	22468.99
730.882	22406.84
731.224	22361.42
731.565	22091.82
731.906	22252.04
732.248	22241.87
732.589	22085.27
732.93	22107.19
733.271	22074.87
733.612	22036.45
733.953	22078.49
734.294	22058.37
734.635	21892.5
734.976	21951.71
735.317	21846.63
735.658	21838.04
735.999	21826.97
736.339	21704.03
736.68	21810.92
737.021	21644.83
737.361	21686.63
737.702	21798.04
738.042	21650.02
738.383	21532.96
738.723	21563.92
739.063	21614.77
739.404	21552.4
739.744	21448.9
740.084	21436.7
740.424	21503.14
740.764	21400.54
741.104	21461.33
741.444	21267.21
741.784	21318.73
742.124	21242.8
742.464	21272.63
742.804	21156.03
743.143	21208
743.483	21073.99
743.823	20997.39
744.162	21036.93
744.502	21139.53
744.841	20928.24
745.181	21058.4
745.52	20911.51
745.86	20993.54
746.199	20864.28
746.538	20830.84
746.877	20764.4
747.216	20900.21
747.556	20829.48
747.895	20718.3
748.234	20563.27
748.573	20604.63
748.911	20572.31
749.25	20575.48
749.589	20432.88
749.928	20475.14
750.267	20484.63
750.605	20354.92
750.944	20285.54
751.283	20371.64
751.621	20338.42
751.96	20203.96
752.298	20124.41
752.636	20088.03
752.975	20031.08
753.313	19976.4
753.651	20066.34
753.989	19879.68
