Data from breadboard_black_back_FLMS001491_00025.txt Node
Date: Wed Feb 08 10:50:10 GMT 2017
User: dcchb
Spectrometer: FLMS00149
Trigger mode: 0
Integration Time (sec): 2.000000E-2
Scans to average: 10
Electric dark correction enabled: true
Nonlinearity correction enabled: false
Boxcar width: 0
XAxis mode: Wavelengths
Number of Pixels in Spectrum: 2048
>>>>>Begin Spectral Data<<<<<
341.393	-16.19
341.776	-16.19
342.16	-16.19
342.543	-69.97
342.927	-74.26
343.31	-76.07
343.693	-74.94
344.077	-54.38
344.46	-50.76
344.843	-52.34
345.226	-50.54
345.61	-20.03
345.993	-41.5
346.376	-13.47
346.759	17.26
347.142	31.95
347.525	46.64
347.908	55.22
348.291	84.15
348.674	98.84
349.057	99.97
349.44	104.94
349.823	132.28
350.206	179.29
350.588	203.7
350.971	217.48
351.354	212.73
351.737	238.5
352.119	258.61
352.502	260.87
352.884	272.17
353.267	287.08
353.65	296.8
354.032	292.51
354.414	310.59
354.797	330.92
355.179	342.9
355.562	335.67
355.944	323.69
356.326	331.83
356.709	326.18
357.091	365.95
357.473	330.47
357.855	343.13
358.238	363.92
358.62	333.86
359.002	346.06
359.384	360.08
359.766	356.69
360.148	369.79
360.53	341.77
360.912	365.5
361.294	354.65
361.676	362.11
362.057	332.96
362.439	349.91
362.821	349.91
363.203	332.51
363.584	348.32
363.966	336.12
364.348	325.95
364.729	337.48
365.111	349.45
365.493	332.96
365.874	324.14
366.256	345.16
366.637	322.11
367.019	357.82
367.4	335.22
367.781	312.62
368.163	362.34
368.544	330.25
368.925	339.28
369.306	351.04
369.688	344.71
370.069	365.27
370.45	333.64
370.831	351.49
371.212	352.62
371.593	378.38
371.974	347.42
372.355	372.28
372.736	342.45
373.117	347.19
373.498	364.59
373.879	355.56
374.26	366.4
374.641	358.72
375.021	357.59
375.402	357.82
375.783	346.74
376.163	371.6
376.544	375.67
376.925	365.72
377.305	358.49
377.686	354.88
378.066	373.41
378.447	389
378.827	412.05
379.208	367.08
379.588	375.67
379.968	393.75
380.349	393.75
380.729	385.84
381.109	384.93
381.489	385.84
381.87	390.13
382.25	400.07
382.63	408.44
383.01	396.91
383.39	432.39
383.77	426.74
384.15	430.58
384.53	425.38
384.91	423.8
385.29	418.15
385.67	433.97
386.049	422.67
386.429	445.72
386.809	430.58
387.189	429.68
387.568	451.6
387.948	433.75
388.328	462.67
388.707	450.24
389.087	442.78
389.466	469.9
389.846	473.52
390.225	474.87
390.605	463.58
390.984	479.17
391.363	476.91
391.743	484.37
392.122	492.5
392.501	482.11
392.881	488.43
393.26	512.84
393.639	494.31
394.018	517.13
394.397	508.77
394.776	519.85
395.155	513.74
395.534	534.08
395.913	503.12
396.292	520.3
396.671	555.1
397.05	512.61
397.429	535.21
397.808	552.84
398.186	541.31
398.565	576.34
398.944	553.29
399.323	558.04
399.701	570.24
400.08	587.19
400.458	572.05
400.837	568.88
401.215	587.64
401.594	585.83
401.972	589.9
402.351	591.48
402.729	617.02
403.107	605.04
403.486	626.28
403.864	598.49
404.242	614.76
404.62	632.61
404.999	652.95
405.377	651.37
405.755	646.85
406.133	624.25
406.511	657.02
406.889	652.72
407.267	667.19
407.645	693.4
408.023	686.85
408.401	681.2
408.779	703.8
409.156	699.73
409.534	716
409.912	740.63
410.29	758.71
410.667	754.64
411.045	753.06
411.422	777.69
411.8	772.49
412.178	777.92
412.555	793.06
412.933	770.23
413.31	800.29
413.687	792.83
414.065	820.63
414.442	810.68
414.819	849.1
415.197	850.68
415.574	841.19
415.951	847.29
416.328	880.74
416.705	898.59
417.082	912.15
417.46	895.65
417.837	904.47
418.214	891.13
418.591	932.26
418.967	907.41
419.344	922.32
419.721	953.28
420.098	961.64
420.475	970.91
420.852	948.76
421.228	985.82
421.605	992.83
421.982	999.61
422.358	1003.22
422.735	1037.8
423.111	1015.43
423.488	1048.42
423.864	1030.79
424.241	1073.95
424.617	1088.19
424.994	1076.67
425.37	1080.06
425.746	1082.99
426.123	1094.75
426.499	1107.17
426.875	1116.89
427.251	1134.74
427.627	1143.56
428.003	1166.38
428.379	1197.34
428.756	1194.4
429.132	1201.86
429.507	1221.97
429.883	1233.27
430.259	1267.62
430.635	1235.98
431.011	1251.8
431.387	1318.47
431.763	1349.2
432.138	1340.84
432.514	1348.98
432.89	1360.5
433.265	1377.9
433.641	1406.38
434.016	1400.95
434.392	1432.36
434.767	1447.28
435.143	1478.92
435.518	1485.02
435.894	1515.3
436.269	1492.7
436.644	1537.9
437.02	1535.64
437.395	1548.29
437.77	1591.68
438.145	1598.69
438.52	1637.33
438.895	1624.9
439.271	1623.09
439.646	1634.62
440.021	1662.64
440.395	1669.65
440.77	1691.57
441.145	1688.63
441.52	1708.51
441.895	1739.25
442.27	1758.46
442.645	1725.46
443.019	1748.97
443.394	1785.12
443.769	1764.33
444.143	1787.83
444.518	1846.59
444.892	1785.8
445.267	1833.71
445.641	1831.9
446.016	1854.95
446.39	1858.79
446.764	1877.1
447.139	1889.53
447.513	1887.49
447.887	1938.11
448.262	1931.11
448.636	1921.84
449.01	1994.61
449.384	1988.51
449.758	1973.37
450.132	2030.54
450.506	2040.48
450.88	2057.21
451.254	2076.64
451.628	2090.43
452.002	2074.61
452.376	2147.37
452.75	2137.88
453.123	2187.37
453.497	2179.69
453.871	2200.93
454.244	2225.56
454.618	2292.68
454.992	2320.48
455.365	2311.21
455.739	2383.52
456.112	2399.57
456.486	2401.83
456.859	2438.44
457.232	2439.34
457.606	2472.79
457.979	2498.55
458.352	2575.61
458.725	2609.28
459.099	2594.14
459.472	2678.43
459.845	2678.21
460.218	2677.75
460.591	2738.32
460.964	2745.78
461.337	2798.43
461.71	2854.47
462.083	2901.93
462.456	2899.22
462.829	2896.28
463.201	2951.65
463.574	2971.98
463.947	3025.54
464.32	3109.16
464.692	3122.49
465.065	3112.09
465.438	3215.37
465.81	3232.09
466.183	3266.44
466.555	3302.37
466.928	3368.13
467.3	3349.83
467.672	3392.31
468.045	3502.14
468.417	3507.79
468.789	3522.03
469.161	3545.08
469.534	3640.67
469.906	3701.68
470.278	3710.95
470.65	3763.6
471.022	3874.56
471.394	3919.98
471.766	3936.7
472.138	4045.18
472.51	4118.62
472.882	4103.48
473.253	4155.68
473.625	4266.64
473.997	4353.19
474.369	4390.25
474.74	4418.73
475.112	4481.32
475.484	4551.15
475.855	4667.53
476.227	4700.75
476.598	4804.25
476.97	4875.89
477.341	4911.59
477.713	5014.19
478.084	5095.32
478.455	5192.72
478.827	5260.51
479.198	5379.6
479.569	5422.99
479.94	5543.44
480.311	5622.31
480.682	5734.85
481.053	5794.28
481.424	5964
481.795	5994.28
482.166	6087.83
482.537	6205.57
482.908	6295.29
483.279	6349.97
483.65	6458.22
484.021	6602.17
484.391	6687.59
484.762	6782.73
485.133	6770.53
485.503	6975.49
485.874	7000.8
486.244	7137.75
486.615	7275.37
486.985	7315.6
487.356	7490.51
487.726	7567.57
488.097	7674.91
488.467	7687.57
488.837	7871.97
489.207	7955.13
489.578	8096.14
489.948	8162.13
490.318	8271.73
490.688	8277.16
491.058	8420.2
491.428	8571.61
491.798	8643.02
492.168	8815.67
492.538	8822
492.908	8981.54
493.278	9088.89
493.648	9073.29
494.017	9254.3
494.387	9331.59
494.757	9390.8
495.126	9547.63
495.496	9492.49
495.866	9687.29
496.235	9678.93
496.605	9790.11
496.974	9863.55
497.344	9989.88
497.713	10067.62
498.082	10073.49
498.452	10264.9
498.821	10307.38
499.19	10310.32
499.559	10379.7
499.928	10509.86
500.298	10540.37
500.667	10711.67
501.036	10672.35
501.405	10695.17
501.774	10764.55
502.143	10955.05
502.512	10980.14
502.88	11140.36
503.249	11099.45
503.618	11160.02
503.987	11309.62
504.356	11303.06
504.724	11409.28
505.093	11507.58
505.462	11522.49
505.83	11574.02
506.199	11708.48
506.567	11859.43
506.936	11904.63
507.304	11999.77
507.672	12059.88
508.041	12164.74
508.409	12190.05
508.777	12335.81
509.145	12445.63
509.514	12492.19
509.882	12525.41
510.25	12631.84
510.618	12697.83
510.986	12807.21
511.354	12942.8
511.722	13118.38
512.09	13153.86
512.458	13120.42
512.826	13252.84
513.193	13345.72
513.561	13421.88
513.929	13493.29
514.297	13619.84
514.664	13834.52
515.032	13889.21
515.4	13910.91
515.767	13997.23
516.135	14112.48
516.502	14074.29
516.869	14382.76
517.237	14384.11
517.604	14413.94
517.972	14628.63
518.339	14698.91
518.706	14735.52
519.073	14871.33
519.44	14966.02
519.808	15144.77
520.175	15139.12
520.542	15359.68
520.909	15387.93
521.276	15461.15
521.643	15557.19
522.009	15718.09
522.376	15841.7
522.743	16008.7
523.11	16144.74
523.477	16294.35
523.843	16363.5
524.21	16651.4
524.577	16688.23
524.943	16713.77
525.31	16887.78
525.676	17101.78
526.043	17113.76
526.409	17222.46
526.776	17413.19
527.142	17523.69
527.508	17596.01
527.874	17749.9
528.241	17853.4
528.607	17863.12
528.973	18105.82
529.339	18167.97
529.705	18283.45
530.071	18426.04
530.437	18559.14
530.803	18652.25
531.169	18748.07
531.535	18781.74
531.901	18824.45
532.267	18992.13
532.632	18992.81
532.998	19117.77
533.364	19248.39
533.73	19332.01
534.095	19542.17
534.461	19612
534.826	19657.87
535.192	19754.59
535.557	19872.78
535.923	19893.35
536.288	20021.03
536.653	20083.17
537.019	20091.99
537.384	20128.82
537.749	20310.06
538.114	20416.95
538.479	20360
538.845	20609.26
539.21	20569.26
539.575	20602.25
539.94	20635.93
540.305	20884.06
540.67	20836.15
541.034	20949.14
541.399	21080.66
541.764	21179.41
542.129	21221.67
542.494	21233.2
542.858	21381.67
543.223	21383.93
543.587	21524.49
543.952	21475.23
544.316	21554.55
544.681	21569.01
545.045	21760.64
545.41	21933.29
545.774	21881.54
546.138	21948.89
546.503	22026.4
546.867	22061.88
547.231	22200.18
547.595	22263.91
547.959	22286.5
548.324	22354.07
548.688	22463.45
549.052	22624.12
549.416	22628.19
549.779	22641.98
550.143	22643.56
550.507	22933.04
550.871	23037.9
551.235	23006.94
551.599	23095.3
551.962	23178.68
552.326	23335.29
552.689	23462.29
553.053	23374.16
553.417	23401.05
553.78	23726.24
554.143	23832
554.507	23743.19
554.87	23890.98
555.234	24038.32
555.597	24054.37
555.96	24170.75
556.323	24277.64
556.686	24361.7
557.05	24431.53
557.413	24522.15
557.776	24714.92
558.139	24714.01
558.502	24816.83
558.865	24893.89
559.228	25164.62
559.59	25196.71
559.953	25274.22
560.316	25469.02
560.679	25560.09
561.041	25608.68
561.404	25708.11
561.767	25994.88
562.129	25822.23
562.492	26064.94
562.854	26107.65
563.217	26184.48
563.579	26328.66
563.941	26497.02
564.304	26540.63
564.666	26793.96
565.028	26821.98
565.39	26808.87
565.753	26937.91
566.115	27153.72
566.477	27177.68
566.839	27365.69
567.201	27501.73
567.563	27493.83
567.925	27731.56
568.287	27807.04
568.648	27783.76
569.01	27987.15
569.372	28047.71
569.734	28038.22
570.095	28282.05
570.457	28398.66
570.819	28461.48
571.18	28538.77
571.542	28647.69
571.903	28671.65
572.265	28841.81
572.626	28784.19
572.987	28905.09
573.349	29015.59
573.71	29179.66
574.071	29164.52
574.432	29230.05
574.794	29546.2
575.155	29450.16
575.516	29322.48
575.877	29532.64
576.238	29591.85
576.599	29685.41
576.96	29772.64
577.32	29874.78
577.681	29930.6
578.042	29877.94
578.403	30046.07
578.763	29934.89
579.124	30041.78
579.485	30133.08
579.845	30183.25
580.206	30170.82
580.566	30153.87
580.927	30196.58
581.287	30479.06
581.648	30247.43
582.008	30463.46
582.368	30468.66
582.728	30485.61
583.089	30339.63
583.449	30398.61
583.809	30424.6
584.169	30517.93
584.529	30472.96
584.889	30695.77
585.249	30549.79
585.609	30429.79
585.969	30549.79
586.329	30518.15
586.688	30547.76
587.048	30507.98
587.408	30573.97
587.768	30535.55
588.127	30583.91
588.487	30480.19
588.846	30659.39
589.206	30593.63
589.565	30536.23
589.925	30698.71
590.284	30611.26
590.643	30714.76
591.003	30801.53
591.362	30868.88
591.721	30749.56
592.08	30832.04
592.44	30884.47
592.799	30829.1
593.158	30757.02
593.517	30837.01
593.876	30908.65
594.235	30758.15
594.593	30900.06
594.952	30742.1
595.311	30827.07
595.67	30877.01
596.029	31086.72
596.387	31057.12
596.746	31122.88
597.104	31032.72
597.463	30958.37
597.822	31032.04
598.18	30903.23
598.538	30974.64
598.897	31255.08
599.255	30972.38
599.613	31403.1
599.972	31196.33
600.33	31258.25
600.688	31159.49
601.046	31291.47
601.404	31378.24
601.762	31315.87
602.12	31482.87
602.478	31494.17
602.836	31309.32
603.194	31353.16
603.552	31372.37
603.91	31262.31
604.268	31519.26
604.625	31300.5
604.983	31488.75
605.341	31320.62
605.698	31566.71
606.056	31646.03
606.413	31539.14
606.771	31659.59
607.128	31691.91
607.485	31537.79
607.843	31693.71
608.2	31904.56
608.557	31945.01
608.914	31807.38
609.272	31989.98
609.629	32072.46
609.986	32140.48
610.343	32052.35
610.7	32308.61
611.057	32124.44
611.414	31989.53
611.771	32049.41
612.127	32267.48
612.484	32135.74
612.841	32390.65
613.198	32219.58
613.554	32278.56
613.911	32299.8
614.267	32431.55
614.624	32520.13
614.98	32551.32
615.337	32529.4
615.693	32521.94
616.05	32473.58
616.406	32669.06
616.762	32544.99
617.118	32637.87
617.475	32643.29
617.831	32806
618.187	32739.11
618.543	32662.5
618.899	32898.43
619.255	32947.02
619.611	32827.47
619.967	32963.06
620.323	33007.35
620.678	32894.14
621.034	32823.18
621.39	32774.82
621.746	32768.04
622.101	33184.3
622.457	32792.67
622.812	32958.09
623.168	33075.6
623.523	32927.58
623.879	33171.19
624.234	32848.94
624.589	33106.11
624.945	33049.39
625.3	33063.62
625.655	33038.54
626.01	33001.7
626.365	33101.81
626.72	32911.54
627.075	32980.91
627.43	33030.63
627.785	32887.81
628.14	32957.64
628.495	32967.58
628.85	32959.44
629.205	32842.84
629.559	32972.33
629.914	32750.41
630.269	32841.03
630.623	32867.7
630.978	32689.17
631.332	32952.66
631.687	32909.73
632.041	32778.66
632.396	32855.72
632.75	32597.87
633.104	32717.42
633.459	32448.27
633.813	32468.16
634.167	32455.5
634.521	32507.25
634.875	32638.32
635.229	32504.77
635.583	32341.61
635.937	32277.88
636.291	32355.17
636.645	32268.39
636.999	32259.12
637.352	32380.02
637.706	32105.23
638.06	32321.95
638.413	32165.79
638.767	32107.94
639.121	32180.93
639.474	32002.86
639.828	32014.61
640.181	32005.8
640.534	31911.11
640.888	31820.04
641.241	31771.23
641.594	31758.35
641.947	31913.6
642.301	31773.03
642.654	31848.96
643.007	31659.37
643.36	31680.83
643.713	31574.62
644.066	31627.73
644.419	31443.33
644.771	31399.26
645.124	31215.99
645.477	31074.07
645.83	30770.35
646.182	30668.66
646.535	30444.03
646.888	30609.9
647.24	30319.97
647.593	30460.53
647.945	30416.69
648.298	30257.82
648.65	30254.88
649.002	30275.45
649.355	30340.98
649.707	30389.79
650.059	30445.84
650.411	30848.31
650.763	30718.15
651.115	30997.24
651.467	30957.01
651.819	30991.81
652.171	30934.64
652.523	30742.78
652.875	30719.28
653.227	30604.93
653.578	30723.12
653.93	30912.27
654.282	30751.37
654.633	30646.51
654.985	30580.75
655.337	30620.07
655.688	30637.7
656.039	30648.09
656.391	30406.52
656.742	30412.62
657.094	30465.72
657.445	30649.45
657.796	30466.63
658.147	30427.53
658.498	30365.16
658.849	30452.17
659.2	30411.26
659.551	30324.94
659.902	30532.39
660.253	30448.55
660.604	30356.8
660.955	30204.26
661.306	30291.04
661.656	30260.53
662.007	30208.56
662.358	30153.64
662.708	30262.57
663.059	30247.2
663.409	30071.84
663.76	30204.94
664.11	30161.33
664.461	30146.64
664.811	30275.22
665.161	30252.17
665.511	30028.9
665.862	30068.67
666.212	30233.87
666.562	30157.48
666.912	30137.6
667.262	30087.88
667.612	30088.11
667.962	30086.75
668.312	30117.94
668.662	30120.87
669.011	30020.31
669.361	29964.49
669.711	29981.9
670.06	29840.2
670.41	29924.04
670.76	29871.16
671.109	29902.12
671.459	29921.78
671.808	29863.25
672.157	29863.48
672.507	29667.78
672.856	29630.04
673.205	29788
673.554	29677.5
673.904	29702.13
674.253	29877.04
674.602	29781.22
674.951	29365.19
675.3	29242.48
675.649	29568.8
675.998	29490.61
676.346	29554.79
676.695	29787.32
677.044	29274.12
677.393	29396.6
677.741	29446.77
678.09	29351.86
678.438	29302.82
678.787	29436.15
679.135	29375.13
679.484	29162.48
679.832	29303.5
680.181	29158.64
680.529	29312.76
680.877	29121.13
681.225	29132.65
681.573	29181.46
681.922	29124.74
682.27	28998.87
682.618	29034.12
682.966	28878.87
683.314	28936.73
683.661	28884.07
684.009	28664.19
684.357	28606.56
684.705	28656.05
685.053	28573.34
685.4	28539.67
685.748	28511.88
686.095	28463.29
686.443	28296.06
686.79	28244.99
687.138	28311.88
687.485	28354.37
687.832	28209.51
688.18	28253.13
688.527	28114.83
688.874	27943.98
689.221	28000.03
689.568	27922.51
689.915	27902.63
690.262	27928.84
690.609	27813.59
690.956	27742.86
691.303	27638.68
691.65	27540.15
691.997	27561.17
692.344	27374.96
692.69	27321.85
693.037	27407.73
693.383	27206.6
693.73	27184.23
694.077	27040.28
694.423	26982.65
694.769	26913.28
695.116	26912.37
695.462	26877.8
695.808	26792.6
696.155	26850.45
696.501	26543.79
696.847	26562.1
697.193	26324.59
697.539	26533.4
697.885	26210.7
698.231	26193.75
698.577	26241.88
698.923	26149.91
699.269	26137.25
699.614	25981.77
699.96	25907.88
700.306	25867.88
700.651	25754.66
700.997	25582.46
701.342	25648
701.688	25594.44
702.033	25575.68
702.379	25519.19
702.724	25386.99
703.069	25502.69
703.415	25232.87
703.76	25226.99
704.105	25156.03
704.45	25118.07
704.795	24924.85
705.14	24907.45
705.485	24835.36
705.83	24743.16
706.175	24841.01
706.52	24742.71
706.865	24685.54
707.209	24634.69
707.554	24593.56
707.899	24549.5
708.243	24415.04
708.588	24508.82
708.932	24228.37
709.277	24229.73
709.621	24220.01
709.966	24039.23
710.31	24159.9
710.654	23895.28
710.998	23943.18
711.342	23876.97
711.687	23875.16
712.031	23830.42
712.375	23672
712.719	23802.4
713.063	23701.38
713.407	23754.94
713.75	23486.02
714.094	23653.25
714.438	23501.16
714.782	23458.68
715.125	23402.41
715.469	23428.62
715.812	23247.38
716.156	23169.87
716.499	23170.77
716.843	23192.7
717.186	23034.06
717.53	23125.58
717.873	23041.06
718.216	23080.83
718.559	22996.77
718.902	22891.23
719.246	22919.03
719.589	22726.49
719.932	22680.39
720.275	22819.37
720.617	22644.24
720.96	22787.96
721.303	22658.47
721.646	22627.96
721.989	22436.33
722.331	22423.68
722.674	22367.86
723.016	22398.82
723.359	22375.32
723.701	22383.45
724.044	22203.12
724.386	22229.56
724.729	22287.63
725.071	22164.47
725.413	22088.32
725.755	22075.21
726.097	22030.24
726.439	21923.35
726.782	21980.98
727.124	22130.58
727.465	21817.59
727.807	21842.45
728.149	21727.42
728.491	21699.85
728.833	21817.82
729.175	21744.6
729.516	21691.27
729.858	21644.94
730.199	21700.98
730.541	21644.71
730.882	21646.52
731.224	21622.34
731.565	21404.27
731.906	21562.23
732.248	21482.91
732.589	21355.23
732.93	21221
733.271	21396.58
733.612	21416.92
733.953	21284.04
734.294	21212.86
734.635	21059.42
734.976	21165.63
735.317	21130.15
735.658	21115.46
735.999	21109.81
736.339	20992.75
736.68	20984.84
737.021	20914.34
737.361	20886.09
737.702	20995.92
738.042	20934.68
738.383	20784.85
738.723	20871.85
739.063	20781.01
739.404	20797.96
739.744	20665.08
740.084	20622.59
740.424	20711.4
740.764	20573.56
741.104	20740.56
741.444	20483.84
741.784	20531.75
742.124	20600.22
742.464	20499.88
742.804	20478.64
743.143	20431.64
743.483	20491.52
743.823	20367.91
744.162	20344.86
744.502	20351.41
744.841	20228.25
745.181	20289.95
745.52	20235.94
745.86	20311.87
746.199	20152.1
746.538	20127.01
746.877	20085.43
747.216	20062.61
747.556	20072.55
747.895	19969.96
748.234	19921.14
748.573	19918.66
748.911	19873.69
749.25	19808.6
749.589	19790.07
749.928	19775.16
750.267	19814.03
750.605	19714.37
750.944	19688.38
751.283	19581.04
751.621	19638.44
751.96	19464.43
752.298	19535.39
752.636	19389.18
752.975	19290.2
753.313	19313.48
753.651	19351.89
753.989	19273.25
754.327	19133.14
