Data from breadboard_black_back_FLMS001491_00094.txt Node
Date: Wed Feb 08 10:51:11 GMT 2017
User: dcchb
Spectrometer: FLMS00149
Trigger mode: 0
Integration Time (sec): 2.000000E-2
Scans to average: 10
Electric dark correction enabled: true
Nonlinearity correction enabled: false
Boxcar width: 0
XAxis mode: Wavelengths
Number of Pixels in Spectrum: 2048
>>>>>Begin Spectral Data<<<<<
341.393	-18.56
341.776	-18.56
342.16	-18.56
342.543	-61.04
342.927	-59.46
343.31	-77.31
343.693	-68.5
344.077	-79.35
344.46	-49.07
344.843	-45.9
345.226	-25.11
345.61	-24.66
345.993	-37.77
346.376	-9.97
346.759	18.95
347.142	28.9
347.525	50.14
347.908	65.96
348.291	81.78
348.674	82.23
349.057	89.69
349.44	148.44
349.823	145.28
350.206	170.59
350.588	218.72
350.971	199.74
351.354	230.93
351.737	255.11
352.119	237.48
352.502	262.11
352.884	270.47
353.267	294.2
353.65	286.07
354.032	289.23
354.414	304.6
354.797	309.79
355.179	302.11
355.562	331.49
355.944	319.51
356.326	349.79
356.709	341.66
357.091	340.75
357.473	342.79
357.855	365.84
358.238	333.3
358.62	361.54
359.002	343.69
359.384	345.5
359.766	327.42
360.148	350.92
360.53	363.13
360.912	369.23
361.294	354.76
361.676	334.2
362.057	328.1
362.439	340.98
362.821	344.37
363.203	341.43
363.584	349.12
363.966	333.75
364.348	328.78
364.729	330.13
365.111	336.46
365.493	330.81
365.874	319.29
366.256	328.32
366.637	329.23
367.019	352.28
367.4	320.87
367.781	337.14
368.163	341.88
368.544	338.04
368.925	334.88
369.306	336.46
369.688	347.31
370.069	315.44
370.45	346.63
370.831	347.31
371.212	335.56
371.593	326.52
371.974	332.62
372.355	340.98
372.736	325.39
373.117	345.73
373.498	342.11
373.879	331.94
374.26	345.73
374.641	338.95
375.021	346.4
375.402	350.25
375.783	356.8
376.163	352.28
376.544	347.99
376.925	370.13
377.305	352.05
377.686	362
378.066	362.67
378.447	367.87
378.827	384.37
379.208	379.62
379.588	384.37
379.968	362.22
380.349	385.27
380.729	368.32
381.109	380.3
381.489	401.77
381.87	416.01
382.25	373.07
382.63	396.35
383.01	391.37
383.39	390.47
383.77	392.28
384.15	391.6
384.53	401.32
384.91	393.63
385.29	425.95
385.67	419.17
386.049	411.71
386.429	393.41
386.809	414.42
387.189	427.76
387.568	417.36
387.948	427.31
388.328	426.18
388.707	446.29
389.087	416.46
389.466	443.35
389.846	437.25
390.225	459.85
390.605	455.1
390.984	422.11
391.363	461.65
391.743	449.9
392.122	440.64
392.501	457.13
392.881	426.18
393.26	464.59
393.639	463.24
394.018	468.43
394.397	482.22
394.776	479.06
395.155	477.02
395.534	491.03
395.913	493.07
396.292	475.21
396.671	495.55
397.05	514.76
397.429	504.37
397.808	510.24
398.186	518.83
398.565	504.82
398.944	505.27
399.323	517.7
399.701	515.21
400.08	524.93
400.458	517.47
400.837	545.95
401.215	553.86
401.594	539.62
401.972	560.63
402.351	538.49
402.729	549.56
403.107	545.04
403.486	576.68
403.864	576.45
404.242	578.04
404.62	580.3
404.999	587.98
405.377	565.83
405.755	596.34
406.133	599.05
406.511	615.1
406.889	638.6
407.267	620.97
407.645	610.8
408.023	618.71
408.401	639.73
408.779	623.46
409.156	652.16
409.534	643.12
409.912	657.58
410.29	657.36
410.667	657.58
411.045	683.34
411.422	719.27
411.8	688.99
412.178	690.8
412.555	711.37
412.933	730.35
413.31	749.1
413.687	729.44
414.065	740.52
414.442	745.04
414.819	750.69
415.197	749.56
415.574	775.77
415.951	773.51
416.328	771.93
416.705	775.77
417.082	775.09
417.46	805.83
417.837	830.46
418.214	816.9
418.591	808.76
418.967	839.72
419.344	827.07
419.721	848.31
420.098	853.51
420.475	856.22
420.852	882.89
421.228	871.14
421.605	871.36
421.982	898.03
422.358	899.16
422.735	911.13
423.111	922.89
423.488	934.18
423.864	944.58
424.241	943.45
424.617	936.67
424.994	944.58
425.37	985.48
425.746	948.65
426.123	997.46
426.499	982.32
426.875	997.69
427.251	1041.53
427.627	1019.38
428.003	1054.18
428.379	1030.68
428.756	1067.74
429.132	1087.63
429.507	1084.69
429.883	1126.5
430.259	1104.8
430.635	1117.68
431.011	1147.51
431.387	1148.42
431.763	1183.44
432.138	1182.31
432.514	1163.56
432.89	1183.44
433.265	1215.31
433.641	1250.56
434.016	1244.91
434.392	1240.62
434.767	1250.11
435.143	1273.38
435.518	1276.55
435.894	1310.67
436.269	1328.3
436.644	1351.8
437.02	1352.25
437.395	1373.95
437.77	1411.23
438.145	1392.48
438.52	1405.13
438.895	1408.3
439.271	1459.14
439.646	1431.57
440.021	1457.79
440.395	1462.08
440.77	1479.48
441.145	1491.01
441.52	1511.8
441.895	1528.29
442.27	1528.97
442.645	1530.78
443.019	1547.05
443.394	1537.11
443.769	1589.76
444.143	1561.51
444.518	1610.1
444.892	1595.64
445.267	1600.83
445.641	1598.12
446.016	1629.99
446.39	1642.87
446.764	1655.97
447.139	1664.33
447.513	1672.92
447.887	1655.75
448.262	1692.81
448.636	1726.71
449.01	1701.62
449.384	1723.99
449.758	1732.81
450.132	1802.86
450.506	1787.04
450.88	1804.67
451.254	1804.44
451.628	1819.13
452.002	1848.28
452.376	1849.87
452.75	1885.35
453.123	1894.61
453.497	1936.19
453.871	1929.19
454.244	1996.3
454.618	1988.17
454.992	2008.05
455.365	2030.2
455.739	2061.16
456.112	2058
456.486	2126.92
456.859	2108.39
457.232	2169.18
457.606	2163.53
457.979	2187.71
458.352	2243.98
458.725	2261.38
459.099	2279.23
459.472	2322.85
459.845	2326.24
460.218	2376.18
460.591	2409.63
460.964	2403.3
461.337	2452.56
461.71	2498.89
462.083	2503.41
462.456	2504.31
462.829	2524.65
463.201	2607.13
463.574	2581.15
463.947	2665.44
464.32	2678.55
464.692	2681.94
465.065	2737.75
465.438	2758.77
465.81	2806.23
466.183	2853.46
466.555	2924.41
466.928	2899.56
467.3	2892.33
467.672	2971.42
468.045	3037.41
468.417	3073.56
468.789	3059.33
469.161	3139.1
469.534	3175.93
469.906	3248.02
470.278	3258.42
470.65	3255.71
471.022	3331.86
471.394	3403.95
471.766	3403.72
472.138	3508.81
472.51	3581.35
472.882	3644.62
473.253	3620.67
473.625	3708.57
473.997	3782.02
474.369	3815.01
474.74	3846.42
475.112	3928.68
475.484	4003.03
475.855	4058.62
476.227	4081.67
476.598	4171.16
476.97	4226.98
477.341	4360.99
477.713	4386.07
478.084	4371.16
478.455	4497.93
478.827	4525.73
479.198	4713.75
479.569	4727.98
479.94	4793.29
480.311	4884.59
480.682	4971.37
481.053	5096.33
481.424	5158.48
481.795	5207.74
482.166	5299.72
482.537	5373.84
482.908	5457.91
483.279	5566.61
483.65	5637.34
484.021	5750.1
484.391	5814.73
484.762	5891.34
485.133	5952.13
485.503	6026.93
485.874	6207.94
486.244	6215.4
486.615	6306.7
486.985	6352.35
487.356	6454.49
487.726	6585.56
488.097	6664.66
488.467	6746.46
488.837	6836.63
489.207	6892.67
489.578	7024.87
489.948	7039.79
490.318	7252.21
490.688	7214.47
491.058	7362.26
491.428	7383.51
491.798	7516.61
492.168	7632.99
492.538	7701.92
492.908	7791.41
493.278	7847
493.648	7954.79
494.017	8061.91
494.387	8148.23
494.757	8180.1
495.126	8264.39
495.496	8259.19
495.866	8296.7
496.235	8464.38
496.605	8566.07
496.974	8618.28
497.344	8656.24
497.713	8759.52
498.082	8795.9
498.452	8942.79
498.821	8940.53
499.19	8993.86
499.559	9052.62
499.928	9143.01
500.298	9215.1
500.667	9333.74
501.036	9290.57
501.405	9397.46
501.774	9400.18
502.143	9520.85
502.512	9561.98
502.88	9685.37
503.249	9681.53
503.618	9842.65
503.987	9814.85
504.356	9947.51
504.724	9968.52
505.093	9968.3
505.462	10088.52
505.83	10113.15
506.199	10241.06
506.567	10425.01
506.936	10360.15
507.304	10531.22
507.672	10544.33
508.041	10606.7
508.409	10709.07
508.777	10789.74
509.145	10896.18
509.514	10902.06
509.882	10939.35
510.25	10993.81
510.618	11081.26
510.986	11208.72
511.354	11311.09
511.722	11386.34
512.09	11504.98
512.458	11541.14
512.826	11572.77
513.193	11705.2
513.561	11752.43
513.929	11821.58
514.297	12003.05
514.664	12096.15
515.032	12062.71
515.4	12243.72
515.767	12298.86
516.135	12355.13
516.502	12345.18
516.869	12577.72
517.237	12586.99
517.604	12647.32
517.972	12828.11
518.339	12978.16
518.706	12960.31
519.073	12966.41
519.44	13180.19
519.808	13239.85
520.175	13305.61
520.542	13524.14
520.909	13472.39
521.276	13565.26
521.643	13748.54
522.009	13754.41
522.376	13883.45
522.743	14033.73
523.11	14198.24
523.477	14360.5
523.843	14340.61
524.21	14541.96
524.577	14619.93
524.943	14713.26
525.31	14823.08
525.676	14954.83
526.043	15027.83
526.409	15191.66
526.776	15278.44
527.142	15260.59
527.508	15435.05
527.874	15583.06
528.241	15642.27
528.607	15728.37
528.973	15901.7
529.339	15894.02
529.705	15992.55
530.071	16280.67
530.437	16282.93
530.803	16376.04
531.169	16604.28
531.535	16441.8
531.901	16602.02
532.267	16552.08
532.632	16906.65
532.998	16828.68
533.364	16853.31
533.73	16994.33
534.095	17107.32
534.461	17144.61
534.826	17346.86
535.192	17425.95
535.557	17491.26
535.923	17567.87
536.288	17597.93
536.653	17742.78
537.019	17697.13
537.384	17778.94
537.749	17891.25
538.114	17911.14
538.479	18034.53
538.845	18109.1
539.21	18024.36
539.575	18177.8
539.94	18246.27
540.305	18387.06
540.67	18374.4
541.034	18441.75
541.399	18585.02
541.764	18651.23
542.129	18707.95
542.494	18715.19
542.858	18849.65
543.223	18766.03
543.587	18988.85
543.952	18939.59
544.316	19050.09
544.681	19197.43
545.045	19338.67
545.41	19360.59
545.774	19360.59
546.138	19373.25
546.503	19466.35
546.867	19515.39
547.231	19690.98
547.595	19722.39
547.959	19775.95
548.324	19763.75
548.688	19942.05
549.052	19883.97
549.416	19977.3
549.779	20010.52
550.143	20207.35
550.507	20243.06
550.871	20381.81
551.235	20297.52
551.599	20561.01
551.962	20562.14
552.326	20610.28
552.689	20697.96
553.053	20659.77
553.417	20845.07
553.78	21111.28
554.143	20924.39
554.507	21096.37
554.87	21111.06
555.234	21328.22
555.597	21171.17
555.96	21444.15
556.323	21580.87
556.686	21622.91
557.05	21687.09
557.413	21819.74
557.776	21864.93
558.139	22031.26
558.502	22054.08
558.865	22088.66
559.228	22284.81
559.59	22313.74
559.953	22431.47
560.316	22660.62
560.679	22755.08
561.041	22785.81
561.404	22850.67
561.767	23021.97
562.129	22925.24
562.492	23173.15
562.854	23261.06
563.217	23365.46
563.579	23414.72
563.941	23567.71
564.304	23614.72
564.666	23694.49
565.028	23828.27
565.39	23860.81
565.753	24075.5
566.115	24076.4
566.477	24203.86
566.839	24343.74
567.201	24508.25
567.563	24471.42
567.925	24701.92
568.287	24710.51
568.648	24776.04
569.01	24872.99
569.372	25031.86
569.734	24986.21
570.095	25104.62
570.457	25298.06
570.819	25311.4
571.18	25353.43
571.542	25611.28
571.903	25667.77
572.265	25686.3
572.626	25808.56
572.987	25837.26
573.349	25923.13
573.71	26075.67
574.071	26041.32
574.432	26214.88
574.794	26354.31
575.155	26245.38
575.516	26197.7
575.877	26373.74
576.238	26491.7
576.599	26561.99
576.96	26673.39
577.32	26518.14
577.681	26745.48
578.042	26787.74
578.403	26765.37
578.763	26870.9
579.124	26726.27
579.485	27021.18
579.845	27040.84
580.206	26922.43
580.566	27106.83
580.927	27101.63
581.287	27065.93
581.648	27049.2
582.008	27233.83
582.368	27195.87
582.728	27269.54
583.089	27215.75
583.449	27212.82
583.809	27226.83
584.169	27258.01
584.529	27175.3
584.889	27481.28
585.249	27353.6
585.609	27246.71
585.969	27443.32
586.329	27272.47
586.688	27331
587.048	27321.29
587.408	27281.06
587.768	27447.39
588.127	27322.64
588.487	27442.64
588.846	27445.35
589.206	27365.35
589.565	27446.26
589.925	27513.6
590.284	27574.16
590.643	27502.3
591.003	27577.1
591.362	27691.67
591.721	27577.78
592.08	27574.16
592.44	27726.7
592.799	27598.79
593.158	27467.5
593.517	27581.17
593.876	27793.59
594.235	27564.67
594.593	27617.1
594.952	27725.34
595.311	27684.67
595.67	27787.04
596.029	27900.71
596.387	27920.37
596.746	28013.92
597.104	27806.47
597.463	27904.77
597.822	27972.12
598.18	27860.03
598.538	27778.22
598.897	27951.55
599.255	27811.22
599.613	28149.29
599.972	28056.86
600.33	28181.15
600.688	27994.94
601.046	28176.41
601.404	28152.9
601.762	28095.5
602.12	28180.02
602.478	28343.41
602.836	28302.5
603.194	28070.42
603.552	28184.54
603.91	28230.64
604.268	28437.42
604.625	28242.84
604.983	28413.46
605.341	28281.94
605.698	28340.7
606.056	28448.26
606.413	28528.94
606.771	28522.84
607.128	28645.09
607.485	28475.16
607.843	28575.04
608.2	28702.72
608.557	28735.26
608.914	28655.72
609.272	28898.42
609.629	28968.02
609.986	28988.14
610.343	28748.37
610.7	29029.72
611.057	28951.75
611.414	28989.72
611.771	29048.7
612.127	28981.81
612.484	29052.77
612.841	29269.03
613.198	29002.15
613.554	29100.9
613.911	29281.01
614.267	29299.31
614.624	29283.72
614.98	29309.71
615.337	29498.41
615.693	29401.01
616.05	29363.04
616.406	29558.74
616.762	29392.87
617.118	29449.59
617.475	29590.61
617.831	29575.01
618.187	29523.72
618.543	29504.05
618.899	29739.53
619.255	29723.48
619.611	29748.34
619.967	29807.32
620.323	29794.67
620.678	29644.62
621.034	29685.07
621.39	29637.38
621.746	29764.84
622.101	29979.97
622.457	29735.46
622.812	29822.69
623.168	29846.64
623.523	29908.11
623.879	29888.45
624.234	29760.32
624.589	29750.6
624.945	29848
625.3	29884.16
625.655	29896.59
626.01	29860.88
626.365	29874.67
626.72	29911.5
627.075	29810.26
627.43	29908.11
627.785	29804.84
628.14	29881.45
628.495	29907.21
628.85	29772.97
629.205	29732.07
629.559	29878.51
629.914	29836.7
630.269	29732.98
630.623	29742.92
630.978	29615.92
631.332	29836.02
631.687	29839.87
632.041	29593.77
632.396	29743.14
632.75	29574.56
633.104	29683.71
633.459	29413.44
633.813	29598.06
634.167	29480.33
634.521	29323.49
634.875	29434.23
635.229	29491.17
635.583	29284.17
635.937	29443.94
636.291	29283.72
636.645	29398.29
636.999	29241.91
637.352	29248.69
637.706	29159.43
638.06	29297.73
638.413	29220.9
638.767	29107.23
639.121	29182.93
639.474	29020
639.828	29057.29
640.181	29103.61
640.534	29068.13
640.888	28878.31
641.241	28855.48
641.594	29033.33
641.947	29021.13
642.301	28774.81
642.654	28881.7
643.007	28821.36
643.36	28803.28
643.713	28805.77
644.066	28818.2
644.419	28691.87
644.771	28523.52
645.124	28272.9
645.477	28202.85
645.83	28108.39
646.182	27919.92
646.535	27745
646.888	27818.9
647.24	27677.66
647.593	27757.66
647.945	27739.13
648.298	27504.11
648.65	27376.43
649.002	27540.49
649.355	27577.1
649.707	27511.56
650.059	27748.17
650.411	27944.32
650.763	28065.22
651.115	28327.36
651.467	28209.85
651.819	28164.2
652.171	28015.73
652.523	28028.39
652.875	27994.04
653.227	27860.93
653.578	28073.13
653.93	27841.05
654.282	27816.64
654.633	27837.66
654.985	27779.58
655.337	27907.03
655.688	27848.96
656.039	27930.99
656.391	27794.72
656.742	27712.46
657.094	27790.2
657.445	27912.01
657.796	27732.8
658.147	27675.85
658.498	27615.06
658.849	27778
659.2	27719.69
659.551	27651.67
659.902	27759.47
660.253	27699.81
660.604	27670.43
660.955	27635.63
661.306	27689.19
661.656	27537.55
662.007	27725.34
662.358	27692.8
662.708	27650.32
663.059	27597.44
663.409	27445.58
663.76	27665.68
664.11	27534.39
664.461	27643.54
664.811	27457.1
665.161	27558.34
665.511	27434.28
665.862	27491.23
666.212	27616.87
666.562	27554.95
666.912	27401.29
667.262	27322.19
667.612	27417.56
667.962	27496.2
668.312	27441.74
668.662	27605.12
669.011	27380.72
669.361	27364.22
669.711	27280.38
670.06	27262.53
670.41	27360.38
670.76	27164
671.109	27456.42
671.459	27284.68
671.808	27287.62
672.157	27307.73
672.507	27189.54
672.856	27105.7
673.205	27196.54
673.554	27236.54
673.904	27218.92
674.253	27309.54
674.602	27241.74
674.951	26804.24
675.3	26667.75
675.649	27069.54
675.998	26965.82
676.346	27071.8
676.695	27157
677.044	26886.72
677.393	26927.4
677.741	26936.89
678.09	26907.06
678.438	26884.46
678.787	26840.4
679.135	26823
679.484	26716.33
679.832	26838.14
680.181	26653.51
680.529	26845.59
680.877	26642.44
681.225	26693.06
681.573	26731.25
681.922	26654.19
682.27	26586.17
682.618	26530.57
682.966	26468.43
683.314	26505.04
683.661	26516.56
684.009	26299.39
684.357	26208.77
684.705	26218.04
685.053	26252.16
685.4	26277.25
685.748	26126.29
686.095	25919.29
686.443	26079.51
686.79	25800.88
687.138	25962.23
687.485	25971.27
687.832	25851.95
688.18	25838.39
688.527	25836.58
688.874	25775.79
689.221	25611.95
689.568	25603.82
689.915	25540.32
690.262	25503.03
690.609	25513.43
690.956	25319.31
691.303	25385.07
691.65	25333.54
691.997	25257.84
692.344	25083.83
692.69	25061.69
693.037	25140.33
693.383	24840.9
693.73	25113.66
694.077	24757.06
694.423	24745.08
694.769	24693.11
695.116	24699.66
695.462	24552.55
695.808	24423.74
696.155	24543.96
696.501	24300.58
696.847	24368.14
697.193	24223.52
697.539	24229.84
697.885	24133.57
698.231	24054.03
698.577	24091.99
698.923	23913.47
699.269	24012
699.614	23753.02
699.96	23739.23
700.306	23812.45
700.651	23520.26
700.997	23600.03
701.342	23536.08
701.688	23509.86
702.033	23525.23
702.379	23485.68
702.724	23381.5
703.069	23390.09
703.415	23188.06
703.76	23185.12
704.105	23039.14
704.45	23031.68
704.795	22868.07
705.14	22807.28
705.485	22940.39
705.83	22834.17
706.175	22820.61
706.52	22671.47
706.865	22682.77
707.209	22611.35
707.554	22541.53
707.899	22562.32
708.243	22481.19
708.588	22432.83
708.932	22250.46
709.277	22250.23
709.621	22322.32
709.966	22160.97
710.31	22158.94
710.654	21895.89
710.998	21978.38
711.342	22105.83
711.687	21991.94
712.031	21895.44
712.375	21819.74
712.719	21689.8
713.063	21798.27
713.407	21791.49
713.75	21686.86
714.094	21726.41
714.438	21546.98
714.782	21621.1
715.125	21469.92
715.469	21537.26
715.812	21370.71
716.156	21338.39
716.499	21311.5
716.843	21289.81
717.186	21196.02
717.53	21277.6
717.873	21289.36
718.216	21261.56
718.559	21091.85
718.902	21035.12
719.246	21024.28
719.589	20961.91
719.932	20893.89
720.275	20885.52
720.617	20878.52
720.96	20936.6
721.303	20839.42
721.646	20789.03
721.989	20722.14
722.331	20675.36
722.674	20617.06
723.016	20697.96
723.359	20579.32
723.701	20641.69
724.044	20508.59
724.386	20390.85
724.729	20412.99
725.071	20418.87
725.413	20419.32
725.755	20449.15
726.097	20309.49
726.439	20232.89
726.782	20219.55
727.124	20253.68
727.465	20222.49
727.807	20234.47
728.149	20141.59
728.491	20003.74
728.833	20135.04
729.175	20065.43
729.516	20046.22
729.858	20004.42
730.199	20043.96
730.541	19861.37
730.882	19899.34
731.224	19916.51
731.565	19721.04
731.906	19834.03
732.248	19884.65
732.589	19728.49
732.93	19708.83
733.271	19705.67
733.612	19721.94
733.953	19791.32
734.294	19650.53
734.635	19582.96
734.976	19512.68
735.317	19404.21
735.658	19551.55
735.999	19563.3
736.339	19411.44
736.68	19528.27
737.021	19356.3
737.361	19358.56
737.702	19295.51
738.042	19367.6
738.383	19187.49
738.723	19243.76
739.063	19206.47
739.404	19187.94
739.744	19182.07
740.084	19109.75
740.424	19167.83
740.764	19052.13
741.104	19121.5
741.444	19069.07
741.784	18904.79
742.124	19110.2
742.464	18964.67
742.804	18918.8
743.143	18831.79
743.483	18912.92
743.823	18807.16
744.162	18788.86
744.502	18859.14
744.841	18699.59
745.181	18883.09
745.52	18747.5
745.86	18731.91
746.199	18687.16
746.538	18668.18
746.877	18621.85
747.216	18694.85
747.556	18561.74
747.895	18602.65
748.234	18501.41
748.573	18371.92
748.911	18397
749.25	18397.23
749.589	18360.62
749.928	18370.11
750.267	18301.41
750.605	18280.17
750.944	18182.77
751.283	18138.7
751.621	18227.74
751.96	18120.17
752.298	17988.65
752.636	17953.17
752.975	17944.36
753.313	17808.09
753.651	17915.66
753.989	17848.77
754.327	17757.47
754.666	17685.83
755.004	17755.66
755.342	17708.66
