Data from breadboard_black_back_FLMS001491_00081.txt Node
Date: Wed Feb 08 10:51:02 GMT 2017
User: dcchb
Spectrometer: FLMS00149
Trigger mode: 0
Integration Time (sec): 2.000000E-2
Scans to average: 10
Electric dark correction enabled: true
Nonlinearity correction enabled: false
Boxcar width: 0
XAxis mode: Wavelengths
Number of Pixels in Spectrum: 2048
>>>>>Begin Spectral Data<<<<<
341.393	-4.89
341.776	-4.89
342.16	-4.89
342.543	-56.41
342.927	-63.42
343.31	-66.58
343.693	-54.38
344.077	-67.71
344.46	-66.58
344.843	-42.4
345.226	-61.38
345.61	-30.87
345.993	-25.23
346.376	-7.15
346.759	2.8
347.142	39.18
347.525	43.93
347.908	63.59
348.291	91.38
348.674	79.63
349.057	101.78
349.44	111.72
349.823	126.64
350.206	174.09
350.588	203.47
350.971	222
351.354	235.78
351.737	239.85
352.119	265.61
352.502	282.34
352.884	286.63
353.267	288.66
353.65	301.55
354.032	317.82
354.414	304.71
354.797	320.08
355.179	322.56
355.562	330.7
355.944	331.83
356.326	348.32
356.709	349.68
357.091	344.03
357.473	355.56
357.855	349
358.238	329.12
358.62	340.41
359.002	361.66
359.384	341.77
359.766	356.91
360.148	334.31
360.53	342.45
360.912	362.56
361.294	352.39
361.676	352.17
362.057	366.85
362.439	357.14
362.821	346.52
363.203	332.73
363.584	334.31
363.966	327.08
364.348	333.18
364.729	341.32
365.111	320.98
365.493	334.54
365.874	320.08
366.256	338.83
366.637	333.18
367.019	318.95
367.4	338.61
367.781	344.48
368.163	337.48
368.544	353.3
368.925	355.56
369.306	333.41
369.688	356.69
370.069	344.26
370.45	350.58
370.831	344.26
371.212	357.82
371.593	337.93
371.974	332.96
372.355	345.84
372.736	330.02
373.117	351.49
373.498	352.39
373.879	345.84
374.26	358.04
374.641	360.08
375.021	334.99
375.402	353.75
375.783	361.43
376.163	377.93
376.544	347.19
376.925	361.43
377.305	374.99
377.686	368.44
378.066	379.06
378.447	389.68
378.827	382.9
379.208	372.28
379.588	377.02
379.968	400.07
380.349	389.23
380.729	378.15
381.109	387.19
381.489	407.76
381.87	397.14
382.25	422.22
382.63	419.73
383.01	416.8
383.39	412.73
383.77	413.41
384.15	404.59
384.53	433.52
384.91	420.19
385.29	410.92
385.67	413.86
386.049	416.8
386.429	437.59
386.809	431.03
387.189	419.96
387.568	444.37
387.948	428.1
388.328	443.01
388.707	445.04
389.087	426.51
389.466	475.78
389.846	475.55
390.225	463.8
390.605	472.16
390.984	471.71
391.363	468.55
391.743	481.43
392.122	488.21
392.501	458.38
392.881	488.21
393.26	498.15
393.639	507.64
394.018	509.22
394.397	529.56
394.776	525.72
395.155	529.34
395.534	510.35
395.913	524.36
396.292	540.86
396.671	551.48
397.05	543.12
397.429	534.53
397.808	555.78
398.186	542.22
398.565	545.83
398.944	544.7
399.323	530.92
399.701	536.79
400.08	549.45
400.458	585.61
400.837	573.85
401.215	572.27
401.594	587.64
401.972	573.63
402.351	581.09
402.729	603.68
403.107	611.59
403.486	624.93
403.864	598.71
404.242	607.98
404.62	637.13
404.999	609.33
405.377	626.28
405.755	650.46
406.133	644.36
406.511	637.36
406.889	666.73
407.267	665.6
407.645	677.13
408.023	671.71
408.401	682.78
408.779	714.19
409.156	716.45
409.534	708.09
409.912	724.36
410.29	750.57
410.667	732.95
411.045	741.99
411.422	764.81
411.8	755.77
412.178	786.5
412.555	783.79
412.933	769.78
413.31	792.61
413.687	807.97
414.065	808.43
414.442	815.2
414.819	833.74
415.197	833.96
415.574	839.84
415.951	847.52
416.328	853.4
416.705	851.14
417.082	877.35
417.46	888.2
417.837	917.57
418.214	899.27
418.591	889.78
418.967	905.37
419.344	947.4
419.721	911.93
420.098	954.86
420.475	956.22
420.852	959.16
421.228	962.32
421.605	963.45
421.982	1005.48
422.358	994.63
422.735	1014.75
423.111	1005.71
423.488	1026.72
423.864	1026.72
424.241	1056.55
424.617	1054.52
424.994	1066.72
425.37	1064.01
425.746	1079.83
426.123	1087.06
426.499	1099.04
426.875	1109.89
427.251	1119.6
427.627	1151.01
428.003	1138.59
428.379	1177.68
428.756	1161.41
429.132	1199.83
429.507	1250.9
429.883	1216.32
430.259	1203.89
430.635	1273.95
431.011	1257.23
431.387	1312.37
431.763	1297.23
432.138	1334.06
432.514	1326.83
432.89	1342.2
433.265	1366.6
433.641	1359.37
434.016	1410.67
434.392	1373.16
434.767	1442.08
435.143	1461.52
435.518	1453.61
435.894	1484.34
436.269	1507.62
436.644	1507.62
437.02	1533.6
437.395	1523.89
437.77	1514.62
438.145	1584.9
438.52	1606.82
438.895	1613.6
439.271	1612.02
439.646	1629.87
440.021	1682.07
440.395	1657.89
440.77	1667.84
441.145	1658.12
441.52	1718.01
441.895	1695.86
442.27	1741.28
442.645	1713.71
443.019	1732.02
443.394	1763.43
443.769	1760.94
444.143	1771.11
444.518	1816.99
444.892	1777.44
445.267	1802.07
445.641	1830.09
446.016	1840.71
446.39	1846.59
446.764	1856.08
447.139	1867.61
447.513	1882.52
447.887	1891.56
448.262	1894.95
448.636	1924.78
449.01	1921.84
449.384	1979.69
449.758	1982.86
450.132	1977.43
450.506	2026.25
450.88	2026.02
451.254	2045.23
451.628	2066.47
452.002	2094.72
452.376	2094.72
452.75	2127.26
453.123	2110.09
453.497	2206.81
453.871	2169.07
454.244	2243.64
454.618	2224.43
454.992	2262.4
455.365	2268.73
455.739	2334.71
456.112	2357.76
456.486	2374.94
456.859	2424.2
457.232	2443.86
457.606	2437.31
457.979	2452.22
458.352	2479.12
458.725	2580.36
459.099	2593.69
459.472	2619.22
459.845	2668.49
460.218	2654.03
460.591	2694.03
460.964	2694.03
461.337	2745.78
461.71	2818.09
462.083	2862.61
462.456	2832.33
462.829	2893.57
463.201	2939.44
463.574	2957.97
463.947	2980.35
464.32	3023.28
464.692	3044.98
465.065	3109.16
465.438	3147.35
465.81	3170.62
466.183	3208.14
466.555	3283.16
466.928	3352.09
467.3	3322.48
467.672	3347.34
468.045	3455.36
468.417	3472.31
468.789	3472.31
469.161	3559.09
469.534	3617.62
469.906	3669.37
470.278	3689.03
470.65	3701.46
471.022	3833.2
471.394	3919.53
471.766	3898.74
472.138	3944.84
472.51	4030.04
472.882	4089.69
473.253	4105.74
473.625	4208.56
473.997	4279.29
474.369	4316.36
474.74	4382.57
475.112	4479.74
475.484	4514.77
475.855	4587.08
476.227	4651.04
476.598	4773.07
476.97	4773.07
477.341	4900.07
477.713	4947.98
478.084	4992.5
478.455	5131.93
478.827	5190.68
479.198	5319.49
479.569	5340.51
479.94	5495.76
480.311	5540.73
480.682	5672.93
481.053	5764.23
481.424	5850.33
481.795	5900.04
482.166	6013.26
482.537	6131.9
482.908	6162.63
483.279	6312.01
483.65	6329.41
484.021	6513.13
484.391	6611.89
484.762	6628.84
485.133	6708.83
485.503	6813.01
485.874	6942.28
486.244	7087.13
486.615	7177.75
486.985	7283.96
487.356	7351.98
487.726	7469.04
488.097	7566.44
488.467	7633.56
488.837	7802.14
489.207	7843.49
489.578	8017.05
489.948	8063.83
490.318	8119.65
490.688	8204.61
491.058	8316.7
491.428	8396.25
491.798	8579.29
492.168	8683.02
492.538	8690.7
492.908	8796.92
493.278	8943.58
493.648	8991.94
494.017	9125.04
494.387	9174.08
494.757	9250.01
495.126	9359.39
495.496	9438.93
495.866	9477.58
496.235	9588.53
496.605	9678.47
496.974	9734.52
497.344	9838.92
497.713	9837.79
498.082	9951.01
498.452	10111.91
498.821	10144
499.19	10180.83
499.559	10295.41
499.928	10398.46
500.298	10420.83
500.667	10509.41
501.036	10546.93
501.405	10622.86
501.774	10706.92
502.143	10846.81
502.512	10810.65
502.88	10930.87
503.249	10986.69
503.618	11105.33
503.987	11099.23
504.356	11199.79
504.724	11275.72
505.093	11349.62
505.462	11458.31
505.83	11514.58
506.199	11570.4
506.567	11669.83
506.936	11671.87
507.304	11885.65
507.672	11982.59
508.041	11959.09
508.409	12063.5
508.777	12162.25
509.145	12287.9
509.514	12269.14
509.882	12472.98
510.25	12472.3
510.618	12515.69
510.986	12546.42
511.354	12778.28
511.722	12886.07
512.09	13016.47
512.458	12970.82
512.826	13108.89
513.193	13187.08
513.561	13248.1
513.929	13435.44
514.297	13468.43
514.664	13512.05
515.032	13659.39
515.4	13829.1
515.767	13874.97
516.135	13990.9
516.502	13882.88
516.869	14097.12
517.237	14192.03
517.604	14198.58
517.972	14379.59
518.339	14444.45
518.706	14543.21
519.073	14641.73
519.44	14743.2
519.808	14831.11
520.175	14807.83
520.542	15101.16
520.909	15221.38
521.276	15295.73
521.643	15390.19
522.009	15593.12
522.376	15622.05
522.743	15835.15
523.11	16065.88
523.477	16076.95
523.843	16208.47
524.21	16355.13
524.577	16489.14
524.943	16543.15
525.31	16616.6
525.676	16743.83
526.043	16882.8
526.409	16988.34
526.776	17213.87
527.142	17202.34
527.508	17348.33
527.874	17417.03
528.241	17736.79
528.607	17778.15
528.973	17852.04
529.339	17871.03
529.705	18078.03
530.071	18273.28
530.437	18296.55
530.803	18346.95
531.169	18475.98
531.535	18520.95
531.901	18658.58
532.267	18715.07
532.632	18942.41
532.998	18942.19
533.364	19022.18
533.73	19101.28
534.095	19209.3
534.461	19294.72
534.826	19386.24
535.192	19469.4
535.557	19635.5
535.923	19652.22
536.288	19819
536.653	19794.37
537.019	19840.69
537.384	19985.1
537.749	20040.46
538.114	20175.37
538.479	20201.36
538.845	20299.21
539.21	20277.74
539.575	20331.98
539.94	20500.11
540.305	20630.5
540.67	20652.88
541.034	20648.36
541.399	20869.37
541.764	20819.65
542.129	20918.4
542.494	20975.8
542.858	21155.46
543.223	21046.09
543.587	21296.7
543.952	21204.72
544.316	21243.59
544.681	21348.45
545.045	21454.89
545.41	21519.74
545.774	21535.11
546.138	21579.4
546.503	21825.73
546.867	21802.68
547.231	22063.91
547.595	21935.78
547.959	22083.8
548.324	22188.65
548.688	22098.94
549.052	22328.09
549.416	22369.44
549.779	22392.26
550.143	22490.57
550.507	22542.54
550.871	22788.19
551.235	22631.13
551.599	22921.06
551.962	22869.54
552.326	23026.82
552.689	23020.72
553.053	23024.79
553.417	23165.13
553.78	23501.84
554.143	23266.59
554.507	23553.36
554.87	23505.91
555.234	23784.32
555.597	23648.5
555.96	23823.64
556.323	23947.48
556.686	24057.76
557.05	24179.11
557.413	24208.71
557.776	24273.8
558.139	24512.66
558.502	24496.16
558.865	24519.67
559.228	24822.93
559.59	24799.21
559.953	24886.21
560.316	25168.46
560.679	25117.84
561.041	25348.34
561.404	25503.59
561.767	25574.33
562.129	25487.32
562.492	25793.76
562.854	25916.69
563.217	25930.48
563.579	26012.73
563.941	26117.82
564.304	26219.06
564.666	26425.83
565.028	26367.53
565.39	26587.86
565.753	26784.01
566.115	26790.79
566.477	26942.65
566.839	26894.29
567.201	27162.99
567.563	27167.05
567.925	27450.66
568.287	27416.99
568.648	27598.91
569.01	27658.79
569.372	27812.01
569.734	27771.56
570.095	27962.06
570.457	28016.98
570.819	28018.56
571.18	28149.18
571.542	28292.9
571.903	28249.74
572.265	28490.86
572.626	28539
572.987	28599.33
573.349	28616.28
573.71	28866.44
574.071	28889.95
574.432	28922.26
574.794	29055.14
575.155	28988.02
575.516	29029.6
575.877	29273.89
576.238	29210.16
576.599	29314.34
576.96	29338.75
577.32	29413.1
577.681	29511.17
578.042	29657.61
578.403	29641.11
578.763	29631.62
579.124	29740.77
579.485	29853.54
579.845	29887.89
580.206	29814.89
580.566	29900.54
580.927	29832.75
581.287	30108.9
581.648	29862.58
582.008	30141.67
582.368	30043.59
582.728	30182.12
583.089	30074.77
583.449	30004.49
583.809	30032.74
584.169	30093.98
584.529	29985.74
584.889	30201.55
585.249	30102.8
585.609	30057.37
585.969	30235.9
586.329	30185.28
586.688	30216.47
587.048	30229.8
587.408	30109.58
587.768	30317.48
588.127	30221.66
588.487	30204.94
588.846	30370.36
589.206	30084.94
589.565	30181.89
589.925	30339.85
590.284	30242.68
590.643	30190.48
591.003	30413.75
591.362	30407.19
591.721	30382.34
592.08	30381.88
592.44	30473.63
592.799	30490.36
593.158	30399.51
593.517	30442
593.876	30425.95
594.235	30400.87
594.593	30393.41
594.952	30527.42
595.311	30406.29
595.67	30491.26
596.029	30620.3
596.387	30619.84
596.746	30659.62
597.104	30490.36
597.463	30599.96
597.822	30700.52
598.18	30562.44
598.538	30618.49
598.897	30691.03
599.255	30533.52
599.613	31016.44
599.972	30759.28
600.33	30702.55
600.688	30698.94
601.046	30821.87
601.404	30963.79
601.762	30880.85
602.12	31037.46
602.478	30997.91
602.836	31158.36
603.194	30873.4
603.552	30920.63
603.91	31008.76
604.268	31033.17
604.625	30882.21
604.983	31152.03
605.341	30986.84
605.698	31190.9
606.056	31281.75
606.413	31211.02
606.771	31377.34
607.128	31262.99
607.485	31198.59
607.843	31330.79
608.2	31499.82
608.557	31504.12
608.914	31444
609.272	31733.04
609.629	31631.12
609.986	31764.67
610.343	31637.44
610.7	31841.06
611.057	31768.74
611.414	31703.21
611.771	31728.97
612.127	31904.1
612.484	31796.31
612.841	32027.27
613.198	31890.55
613.554	31963.99
613.911	32031.78
614.267	32097.77
614.624	31993.59
614.98	32135.51
615.337	32135.51
615.693	32191.78
616.05	32060.26
616.406	32332.34
616.762	32178.45
617.118	32229.75
617.475	32207.6
617.831	32283.3
618.187	32216.86
618.543	32385.9
618.899	32482.85
619.255	32531.88
619.611	32436.29
619.967	32592.45
620.323	32622.5
620.678	32467.48
621.034	32418.67
621.39	32445.79
621.746	32420.93
622.101	32835.15
622.457	32472.68
622.812	32589.74
623.168	32528.72
623.523	32580.25
623.879	32649.85
624.234	32568.95
624.589	32607.36
624.945	32617.98
625.3	32615.72
625.655	32675.84
626.01	32652.56
626.365	32544.09
626.72	32565.78
627.075	32480.13
627.43	32585.67
627.785	32573.47
628.14	32609.62
628.495	32562.39
628.85	32504.77
629.205	32371.66
629.559	32603.52
629.914	32310.42
630.269	32513.81
630.623	32373.24
630.978	32420.48
631.332	32391.1
631.687	32514.48
632.041	32185.91
632.396	32297.99
632.75	32284.21
633.104	32280.59
633.459	32212.8
633.813	32125.12
634.167	32077.21
634.521	32170.76
634.875	32142.74
635.229	32184.1
635.583	31903.88
635.937	31902.3
636.291	31908.62
636.645	31896.2
636.999	31707.5
637.352	31826.59
637.706	31698.23
638.06	31866.14
638.413	31766.26
638.767	31720.61
639.121	31711.12
639.474	31584.57
639.828	31552.7
640.181	31582.98
640.534	31458.47
640.888	31299.37
641.241	31319.26
641.594	31349.77
641.947	31388.64
642.301	31339.83
642.654	31352.48
643.007	31342.31
643.36	31269.55
643.713	31186.61
644.066	31213.5
644.419	31051.47
644.771	30825.94
645.124	30737.58
645.477	30651.48
645.83	30443.13
646.182	30338.04
646.535	30217.82
646.888	30240.19
647.24	29852.41
647.593	30134.21
647.945	29952.97
648.298	29844.27
648.65	29887.43
649.002	29778.06
649.355	29871.62
649.707	30003.14
650.059	30043.36
650.411	30330.13
650.763	30424.37
651.115	30795.43
651.467	30456.69
651.819	30513.18
652.171	30295.56
652.523	30364.03
652.875	30444.48
653.227	30219.86
653.578	30480.19
653.93	30366.74
654.282	30271.61
654.633	30096.92
654.985	30207.43
655.337	30269.57
655.688	30187.99
656.039	30328.78
656.391	29950.94
656.742	30202.68
657.094	30173.53
657.445	30106.86
657.796	30036.36
658.147	29925.4
658.498	29934.21
658.849	30088.33
659.2	29929.24
659.551	29952.97
659.902	30051.72
660.253	29994.32
660.604	29908.45
660.955	29799.75
661.306	29964.95
661.656	29888.56
662.007	29997.71
662.358	29815.35
662.708	29745.07
663.059	29834.55
663.409	29594.11
663.76	29912.74
664.11	29774.22
664.461	29832.29
664.811	29628.46
665.161	29723.15
665.511	29664.39
665.862	29733.99
666.212	29779.64
666.562	29800.43
666.912	29717.95
667.262	29570.15
667.612	29670.27
667.962	29714.56
668.312	29669.14
668.662	29664.16
669.011	29671.62
669.361	29673.88
669.711	29508.91
670.06	29551.85
670.41	29536.71
670.76	29573.09
671.109	29572.87
671.459	29466.43
671.808	29250.62
672.157	29486.77
672.507	29272.54
672.856	29313.66
673.205	29279.09
673.554	29407.9
673.904	29371.52
674.253	29461.46
674.602	29402.48
674.951	28960.91
675.3	28936.27
675.649	29198.64
675.998	29138.3
676.346	29175.14
676.695	29212.88
677.044	28949.61
677.393	29023.28
677.741	29155.93
678.09	29073.9
678.438	29019.89
678.787	29148.02
679.135	29067.57
679.484	28833
679.832	28935.6
680.181	28825.54
680.529	28919.32
680.877	28837.97
681.225	28817.18
681.573	28768.59
681.922	28585.77
682.27	28564.31
682.618	28528.37
682.966	28522.27
683.314	28611.76
683.661	28574.47
684.009	28385.55
684.357	28313.69
684.705	28256.74
685.053	28272.79
685.4	28298.1
685.748	28142.62
686.095	28057.88
686.443	27957.99
686.79	27800.94
687.138	27867.6
687.485	27929.75
687.832	27820.6
688.18	27782.41
688.527	27723.2
688.874	27809.75
689.221	27655.63
689.568	27500.83
689.915	27523.65
690.262	27552.58
690.609	27357.78
690.956	27389.65
691.303	27265.81
691.65	27173.83
691.997	27178.35
692.344	26965.25
692.69	26914.41
693.037	26927.51
693.383	26796.89
693.73	26938.36
694.077	26728.65
694.423	26567.07
694.769	26471.71
695.116	26541.53
695.462	26413.63
695.808	26409.56
696.155	26407.07
696.501	26184.71
696.847	26230.13
697.193	25978.61
697.539	26078.04
697.885	25910.36
698.231	25862.68
698.577	25828.33
698.923	25837.37
699.269	25676.25
699.614	25588.34
699.96	25628.79
700.306	25548.34
700.651	25578.17
700.997	25409.36
701.342	25386.99
701.688	25222.92
702.033	25143.6
702.379	25203.26
702.724	25131.63
703.069	25189.25
703.415	24812.31
703.76	24932.08
704.105	24897.28
704.45	24785.87
704.795	24636.27
705.14	24521.93
705.485	24618.42
705.83	24473.34
706.175	24440.35
706.52	24394.25
706.865	24351.31
707.209	24302.72
707.554	24137.53
707.899	24290.07
708.243	24090.52
708.588	24126.23
708.932	23928.04
709.277	23953.35
709.621	24027.02
709.966	23797.65
710.31	23916.74
710.654	23661.38
710.998	23708.84
711.342	23740.25
711.687	23553.36
712.031	23538.22
712.375	23491.22
712.719	23493.03
713.063	23326.25
713.407	23463.2
713.75	23263.88
714.094	23211.23
714.438	23058.01
714.782	23279.7
715.125	23044
715.469	23137.78
715.812	22840.84
716.156	22891.23
716.499	22927.84
716.843	22869.77
717.186	22759.49
717.53	22907.73
717.873	22844.23
718.216	22743.44
718.559	22721.52
718.902	22542.99
719.246	22599.72
719.589	22599.49
719.932	22385.03
720.275	22399.72
720.617	22389.1
720.96	22364.69
721.303	22360.63
721.646	22358.14
721.989	22213.06
722.331	22312.72
722.674	22234.08
723.016	22171.93
723.359	22046.96
723.701	22119.73
724.044	21959.96
724.386	21916.8
724.729	21975.33
725.071	21879.51
725.413	21940.98
725.755	21857.36
726.097	21781.66
726.439	21679.29
726.782	21654.2
727.124	21789.79
727.465	21661.66
727.807	21651.72
728.149	21514.32
728.491	21497.37
728.833	21582.57
729.175	21338.96
729.516	21422.12
729.858	21530.37
730.199	21380.99
730.541	21298.06
730.882	21315.68
731.224	21364.95
731.565	21100.55
731.906	21213.54
732.248	21205.18
732.589	21138.96
732.93	21107.55
733.271	21129.47
733.612	21063.26
733.953	21108.23
734.294	20930.83
734.635	20838.41
734.976	21007.44
735.317	20769.48
735.658	20846.77
735.999	20815.58
736.339	20735.36
736.68	20847.45
737.021	20614.91
737.361	20576.94
737.702	20694.68
738.042	20710.73
738.383	20592.54
738.723	20555.25
739.063	20436.61
739.404	20532.43
739.744	20404.29
740.084	20380.11
740.424	20495.59
740.764	20417.85
741.104	20400.23
741.444	20233.9
741.784	20268.7
742.124	20258.76
742.464	20257.63
742.804	20230.97
743.143	20238.87
743.483	20082.95
743.823	20072.1
744.162	20058.54
744.502	20065.55
744.841	19995.72
745.181	20011.31
745.52	19954.36
745.86	19922.05
746.199	19917.98
746.538	19941.03
746.877	19854.48
747.216	19935.83
747.556	19741.94
747.895	19761.6
748.234	19693.58
748.573	19645.9
748.911	19591.43
749.25	19631.21
749.589	19461.27
749.928	19445.22
750.267	19493.58
750.605	19457.2
750.944	19438.9
751.283	19296.07
751.621	19384.89
751.96	19209.3
752.298	19182.41
752.636	19122.97
752.975	19133.14
753.313	18935.63
753.651	19094.05
753.989	18953.94
754.327	19001.39
