Data from breadboard_black_back_FLMS001491_00022.txt Node
Date: Wed Feb 08 10:50:09 GMT 2017
User: dcchb
Spectrometer: FLMS00149
Trigger mode: 0
Integration Time (sec): 2.000000E-2
Scans to average: 10
Electric dark correction enabled: true
Nonlinearity correction enabled: false
Boxcar width: 0
XAxis mode: Wavelengths
Number of Pixels in Spectrum: 2048
>>>>>Begin Spectral Data<<<<<
341.393	-5.24
341.776	-5.24
342.16	-5.24
342.543	-55.86
342.927	-43.88
343.31	-83.2
343.693	-68.29
344.077	-64
344.46	-59.93
344.843	-50.44
345.226	-36.2
345.61	-35.52
345.993	-35.07
346.376	6.51
346.759	14.65
347.142	32.05
347.525	43.35
347.908	71.59
348.291	79.28
348.674	79.96
349.057	105.27
349.44	119.05
349.823	147.07
350.206	167.41
350.588	188.88
350.971	212.38
351.354	221.42
351.737	248.76
352.119	247.41
352.502	250.12
352.884	283.57
353.267	269.56
353.65	302.1
354.032	295.09
354.414	321.31
354.797	333.28
355.179	322.66
355.562	329.67
355.944	342.32
356.326	352.94
356.709	353.62
357.091	353.85
357.473	355.88
357.855	333.96
358.238	345.03
358.62	346.84
359.002	351.36
359.384	358.59
359.766	367.18
360.148	346.39
360.53	345.94
360.912	355.43
361.294	335.77
361.676	356.56
362.057	342.55
362.439	347.29
362.821	350.91
363.203	359.27
363.584	342.1
363.966	328.76
364.348	373.73
364.729	344.81
365.111	340.74
365.493	326.05
365.874	322.89
366.256	345.03
366.637	338.25
367.019	366.95
367.4	339.16
367.781	330.34
368.163	362.89
368.544	355.65
368.925	365.15
369.306	344.81
369.688	345.03
370.069	353.17
370.45	354.98
370.831	333.73
371.212	345.03
371.593	346.62
371.974	340.06
372.355	349.33
372.736	368.31
373.117	373.73
373.498	365.37
373.879	349.1
374.26	346.39
374.641	341.42
375.021	344.36
375.402	364.92
375.783	361.53
376.163	386.16
376.544	375.99
376.925	381.64
377.305	369.67
377.686	373.28
378.066	376.67
378.447	372.6
378.827	378.93
379.208	394.52
379.588	363.34
379.968	377.12
380.349	382.32
380.729	394.3
381.109	401.75
381.489	408.76
381.87	402.88
382.25	401.08
382.63	409.66
383.01	420.29
383.39	427.74
383.77	418.03
384.15	421.42
384.53	408.76
384.91	421.42
385.29	440.85
385.67	433.62
386.049	439.27
386.429	434.75
386.809	429.1
387.189	441.3
387.568	463
387.948	453.05
388.328	460.06
388.707	459.61
389.087	448.53
389.466	471.13
389.846	455.31
390.225	467.29
390.605	475.2
390.984	470
391.363	489.21
391.743	466.39
392.122	498.7
392.501	499.15
392.881	475.88
393.26	491.47
393.639	503
394.018	514.29
394.397	519.04
394.776	522.2
395.155	511.13
395.534	508.19
395.913	514.97
396.292	543.67
396.671	546.16
397.05	533.95
397.429	554.52
397.808	543.9
398.186	551.58
398.565	571.92
398.944	550.9
399.323	569.66
399.701	552.94
400.08	595.87
400.458	576.44
400.837	580.28
401.215	572.6
401.594	600.17
401.972	611.24
402.351	605.59
402.729	605.14
403.107	608.08
403.486	641.3
403.864	627.29
404.242	629.09
404.62	620.96
404.999	636.78
405.377	632.26
405.755	652.6
406.133	627.29
406.511	649.88
406.889	679.94
407.267	675.87
407.645	675.19
408.023	701.86
408.401	693.5
408.779	703.67
409.156	692.59
409.534	718.36
409.912	724.68
410.29	763.55
410.667	772.37
411.045	740.28
411.422	754.74
411.8	755.19
412.178	787.73
412.555	800.61
412.933	787.28
413.31	808.98
413.687	819.82
414.065	822.08
414.442	845.13
414.819	856.43
415.197	825.02
415.574	868.86
415.951	867.28
416.328	876.09
416.705	884.91
417.082	891.23
417.46	904.11
417.837	894.85
418.214	900.95
418.591	916.09
418.967	911.8
419.344	950.22
419.721	938.46
420.098	950.44
420.475	955.41
420.852	980.5
421.228	980.27
421.605	977.11
421.982	984.11
422.358	998.8
422.735	1015.52
423.111	1019.14
423.488	1031.12
423.864	1012.59
424.241	1040.83
424.617	1063.43
424.994	1084.9
425.37	1066.14
425.746	1058.91
426.123	1099.59
426.499	1102.08
426.875	1125.58
427.251	1116.54
427.627	1170.55
428.003	1169.87
428.379	1184.79
428.756	1203.32
429.132	1211.23
429.507	1215.29
429.883	1244.67
430.259	1246.03
430.635	1245.12
431.011	1239.7
431.387	1309.53
431.763	1321.73
432.138	1326.7
432.514	1382.52
432.89	1357.44
433.265	1396.53
433.641	1413.25
434.016	1424.55
434.392	1431.56
434.767	1426.59
435.143	1462.74
435.518	1474.95
435.894	1472.69
436.269	1491.9
436.644	1553.82
437.02	1532.35
437.395	1530.54
437.77	1582.06
438.145	1585.68
438.52	1637.43
438.895	1637.88
439.271	1636.52
439.646	1639.01
440.021	1649.41
440.395	1659.8
440.77	1656.64
441.145	1687.6
441.52	1690.99
441.895	1730.08
442.27	1741.61
442.645	1748.84
443.019	1745.22
443.394	1754.71
443.769	1792.9
444.143	1775.28
444.518	1803.53
444.892	1837.42
445.267	1823.19
445.641	1840.14
446.016	1854.15
446.39	1869.29
446.764	1913.35
447.139	1915.61
447.513	1907.03
447.887	1924.2
448.262	1900.7
448.636	1938.21
449.01	1961.94
449.384	1995.16
449.758	1989.96
450.132	2033.12
450.506	2011.43
450.88	2047.36
451.254	2045.78
451.628	2101.15
452.002	2112.22
452.376	2119.9
452.75	2115.61
453.123	2162.84
453.497	2213.23
453.871	2217.75
454.244	2264.3
454.618	2299.56
454.992	2302.27
455.365	2318.54
455.739	2349.05
456.112	2382.27
456.486	2379.1
456.859	2422.94
457.232	2424.07
457.606	2457.75
457.979	2474.24
458.352	2542.49
458.725	2562.15
459.099	2585.2
459.472	2641.7
459.845	2689.38
460.218	2683.5
460.591	2735.25
460.964	2752.43
461.337	2785.42
461.71	2860.67
462.083	2891.18
462.456	2898.64
462.829	2881.69
463.201	2961.24
463.574	2968.92
463.947	3037.84
464.32	3104.96
464.692	3074.68
465.065	3131.85
465.438	3201
465.81	3197.16
466.183	3248.46
466.555	3360.32
466.928	3323.26
467.3	3323.03
467.672	3390.38
468.045	3503.37
468.417	3504.72
468.789	3549.69
469.161	3562.12
469.534	3651.61
469.906	3724.38
470.278	3725.51
470.65	3775.45
471.022	3837.37
471.394	3929.8
471.766	3960.31
472.138	4058.38
472.51	4065.84
472.882	4128.21
473.253	4172.96
473.625	4254.54
473.997	4318.04
474.369	4334.76
474.74	4391.93
475.112	4519.16
475.484	4589.22
475.855	4659.04
476.227	4689.78
476.598	4867.17
476.97	4865.59
477.341	4930.9
477.713	5038.47
478.084	5058.13
478.455	5180.16
478.827	5227.84
479.198	5408.18
479.569	5375.18
479.94	5598
480.311	5644.1
480.682	5741.28
481.053	5827.83
481.424	5924.1
481.795	5959.35
482.166	6048.16
482.537	6175.61
482.908	6318.89
483.279	6379
483.65	6452.67
484.021	6592.78
484.391	6647.69
484.762	6717.52
485.133	6821.02
485.503	6945.99
485.874	7070.51
486.244	7105.31
486.615	7278.18
486.985	7354.79
487.356	7486.99
487.726	7519.53
488.097	7706.42
488.467	7737.61
488.837	7878.62
489.207	7971.05
489.578	8075.9
489.948	8185.28
490.318	8299.17
490.688	8291.04
491.058	8410.36
491.428	8559.73
491.798	8673.63
492.168	8787.07
492.538	8833.85
492.908	8990.46
493.278	9060.51
493.648	9072.26
494.017	9259.38
494.387	9296.89
494.757	9416.21
495.126	9507.96
495.496	9537.11
495.866	9603.77
496.235	9730.32
496.605	9805.58
496.974	9851.22
497.344	10024.33
497.713	10044.21
498.082	10155.4
498.452	10199.46
498.821	10277.2
499.19	10270.87
499.559	10439.23
499.928	10455.95
500.298	10579.34
500.667	10695.95
501.036	10691.2
501.405	10826.34
501.774	10784.53
502.143	10927.58
502.512	11002.15
502.88	11038.31
503.249	11144.07
503.618	11199.44
503.987	11276.05
504.356	11352.43
504.724	11386.32
505.093	11417.28
505.462	11534.8
505.83	11609.14
506.199	11698.63
506.567	11874.67
506.936	11846.65
507.304	12041.9
507.672	12111.96
508.041	12141.33
508.409	12263.36
508.777	12335.9
509.145	12409.35
509.514	12482.57
509.882	12508.56
510.25	12571.83
510.618	12759.4
510.986	12820.64
511.354	12936.57
511.722	13061.08
512.09	13177.01
512.458	13179.27
512.826	13327.29
513.193	13348.53
513.561	13461.07
513.929	13535.87
514.297	13592.59
514.664	13790.33
515.032	13839.37
515.4	13996.65
515.767	14033.94
516.135	14149.19
516.502	14074.62
516.869	14310.77
517.237	14372.46
517.604	14401.39
517.972	14595.73
518.339	14671.44
518.706	14739.68
519.073	14896.97
519.44	14940.13
519.808	15122.95
520.175	15113.46
520.542	15302.15
520.909	15370.85
521.276	15443.39
521.643	15708.25
522.009	15786.44
522.376	15885.19
522.743	15925.64
523.11	16124.96
523.477	16335.8
523.843	16426.64
524.21	16590.48
524.577	16662.34
524.943	16670.48
525.31	16782.34
525.676	17081.54
526.043	17063.24
526.409	17288.77
526.776	17389.1
527.142	17483.57
527.508	17614.64
527.874	17666.84
528.241	17880.62
528.607	17875.65
528.973	18014.63
529.339	18115.64
529.705	18330.1
530.071	18349.98
530.437	18523.99
530.803	18671.56
531.169	18775.06
531.535	18817.54
531.901	18959.23
532.267	18970.76
532.632	19077.2
532.998	19062.28
533.364	19229.06
533.73	19244.42
534.095	19572.78
534.461	19441.03
534.826	19638.09
535.192	19768.03
535.557	19885.54
535.923	19865.88
536.288	20017.28
536.653	20107.68
537.019	20045.76
537.384	20160.78
537.749	20357.61
538.114	20350.61
538.479	20357.16
538.845	20486.88
539.21	20487.33
539.575	20678.06
539.94	20711.96
540.305	20916.92
540.67	20860.65
541.034	20951.72
541.399	20942.91
541.764	21065.17
542.129	21193.75
542.494	21173.64
542.858	21409.56
543.223	21405.5
543.587	21464.03
543.952	21442.11
544.316	21613.17
544.681	21553.06
545.045	21606.62
545.41	21880.29
545.774	21872.38
546.138	21951.7
546.503	21969.32
546.867	21976.33
547.231	22244.57
547.595	22287.28
547.959	22438.24
548.324	22449.76
548.688	22434.17
549.052	22571.34
549.416	22627.39
549.779	22560.49
550.143	22678.01
550.507	22950.99
550.871	23021.73
551.235	23015.17
551.599	23108.73
551.962	23206.58
552.326	23285.45
552.689	23453.8
553.053	23433.92
553.417	23447.02
553.78	23721.14
554.143	23633.91
554.507	23787.81
554.87	23823.96
555.234	24093.34
555.597	23990.97
555.96	24131.3
556.323	24194.58
556.686	24228.93
557.05	24474.12
557.413	24528.58
557.776	24626.43
558.139	24670.95
558.502	24811.06
558.865	24968.57
559.228	25093.99
559.59	25085.85
559.953	25322.68
560.316	25578.49
560.679	25547.53
561.041	25627.31
561.404	25729.68
561.767	25830.01
562.129	25895.55
562.492	26153.39
562.854	26100.29
563.217	26104.81
563.579	26263
563.941	26428.64
564.304	26616.66
564.666	26789.54
565.028	26681.52
565.39	26895.52
565.753	27096.87
566.115	27102.75
566.477	27287.83
566.839	27283.76
567.201	27469.52
567.563	27484.43
567.925	27827.7
568.287	27774.14
568.648	27735.05
569.01	28027.24
569.372	28224.07
569.734	27951.77
570.095	28231.31
570.457	28397.18
570.819	28436.27
571.18	28471.53
571.542	28648.92
571.903	28769.6
572.265	28772.76
572.626	28899.54
572.987	28899.76
573.349	29006.65
573.71	29168
574.071	29140.43
574.432	29229.47
574.794	29582.68
575.155	29461.56
575.516	29351.5
575.877	29575.9
576.238	29596.92
576.599	29634.66
576.96	29668.56
577.32	29814.09
577.681	29958.27
578.042	30045.95
578.403	29846.4
578.763	30014.54
579.124	29993.07
579.485	30145.61
579.845	30208.65
580.206	30136.34
580.566	30171.59
580.927	30216.56
581.287	30284.59
581.648	30188.99
582.008	30280.97
582.368	30252.27
582.728	30469.44
583.089	30372.72
583.449	30328.2
583.809	30403.68
584.169	30408.88
584.529	30359.16
584.889	30626.5
585.249	30571.13
585.609	30517.12
585.969	30607.06
586.329	30520.06
586.688	30560.74
587.048	30563.67
587.408	30419.5
587.768	30438.71
588.127	30385.6
588.487	30495.65
588.846	30742.88
589.206	30421.76
589.565	30512.38
589.925	30708.98
590.284	30713.95
590.643	30600.51
591.003	30790.11
591.362	30694.29
591.721	30737.45
592.08	30756.66
592.44	30855.87
592.799	30814.97
593.158	30764.8
593.517	30783.1
593.876	30730
594.235	30887.28
594.593	30880.28
594.952	30852.03
595.311	30899.71
595.67	30927.05
596.029	31045.02
596.387	31108.52
596.746	31017.9
597.104	30939.71
597.463	31045.92
597.822	31126.37
598.18	30944
598.538	30960.05
598.897	31187.61
599.255	30892.03
599.613	31354.61
599.972	31144.9
600.33	31220.61
600.688	31226.93
601.046	31283.65
601.404	31269.19
601.762	31262.41
602.12	31507.83
602.478	31398.45
602.836	31460.83
603.194	31248.63
603.552	31453.37
603.91	31423.31
604.268	31488.85
604.625	31444.55
604.983	31440.94
605.341	31427.61
605.698	31588.28
606.056	31690.2
606.413	31597.77
606.771	31641.39
607.128	31611.78
607.485	31722.06
607.843	31579.01
608.2	31821.04
608.557	32059.45
608.914	31778.56
609.272	32050.41
609.629	32129.06
609.986	32161.37
610.343	32039.34
610.7	32231.88
611.057	32150.75
611.414	32201.82
611.771	32193.91
612.127	32197.3
612.484	32245.66
612.841	32284.76
613.198	32223.97
613.554	32359.33
613.911	32356.39
614.267	32333.34
614.624	32416.05
614.98	32360.46
615.337	32716.84
615.693	32547.35
616.05	32572.66
616.406	32771.3
616.762	32549.84
617.118	32764.97
617.475	32586.67
617.831	32798.64
618.187	32704.41
618.543	32779.89
618.899	32953.44
619.255	32963.38
619.611	32801.81
619.967	32930.17
620.323	32960.45
620.678	32884.06
621.034	32885.42
621.39	32905.53
621.746	32740.57
622.101	33177.84
622.457	32864.4
622.812	32992.99
623.168	33121.12
623.523	33094.91
623.879	33043.38
624.234	32814.69
624.589	32940.79
624.945	33075.92
625.3	33036.15
625.655	32980.11
626.01	33034.12
626.365	33023.95
626.72	32958.41
627.075	32989.82
627.43	33116.15
627.785	32933.1
628.14	32965.64
628.495	32946.89
628.85	32965.87
629.205	32749.15
629.559	33088.58
629.914	32834.8
630.269	32827.12
630.623	32770.85
630.978	32637.07
631.332	32906.66
631.687	32911.41
632.041	32673.9
632.396	32860.11
632.75	32674.8
633.104	32814.01
633.459	32537.86
633.813	32513.23
634.167	32579.89
634.521	32450.63
634.875	32551.87
635.229	32482.27
635.583	32318.2
635.937	32365.89
636.291	32291.31
636.645	32150.75
636.999	32208.38
637.352	32278.66
637.706	32122.5
638.06	32258.77
638.413	32237.3
638.767	32043.18
639.121	32136.06
639.474	31966.12
639.828	32011.55
640.181	32053.8
640.534	31872.34
640.888	31878.89
641.241	31640.71
641.594	31749.86
641.947	31890.64
642.301	31869.4
642.654	31767.94
643.007	31763.64
643.36	31642.52
643.713	31553.7
644.066	31887.25
644.419	31505.34
644.771	31358.46
645.124	31218.12
645.477	31051.57
645.83	30713.5
646.182	30471.7
646.535	30490.23
646.888	30640.28
647.24	30492.72
647.593	30567.29
647.945	30322.78
648.298	30326.17
648.65	30319.39
649.002	30162.78
649.355	30394.64
649.707	30301.53
650.059	30317.35
650.411	30687.96
650.763	30678.47
651.115	31077.56
651.467	30961.86
651.819	30851.35
652.171	30958.01
652.523	30853.38
652.875	30815.19
653.227	30522.54
653.578	30825.36
653.93	30757.79
654.282	30594.41
654.633	30414.98
654.985	30551.24
655.337	30697.68
655.688	30585.59
656.039	30789.88
656.391	30413.4
656.742	30523
657.094	30443.68
657.445	30662.88
657.796	30494.98
658.147	30381.53
658.498	30265.38
658.849	30295.21
659.2	30390.57
659.551	30297.69
659.902	30464.47
660.253	30338.59
660.604	30297.01
660.955	30263.79
661.306	30462.43
661.656	30287.52
662.007	30326.39
662.358	30220.18
662.708	30116.23
663.059	30302.66
663.409	30100.18
663.76	30332.72
664.11	30125.72
664.461	30212.72
664.811	30100.41
665.161	30213.4
665.511	30056.57
665.862	30208.65
666.212	30196.45
666.562	30091.37
666.912	30126.62
667.262	29953.29
667.612	30185.6
667.962	30063.8
668.312	29917.14
668.662	30171.37
669.011	30120.75
669.361	29948.1
669.711	30001.2
670.06	29881.66
670.41	29886.18
670.76	29871.49
671.109	29927.53
671.459	29857.25
671.808	29758.05
672.157	29808.44
672.507	29621.78
672.856	29610.93
673.205	29669.01
673.554	29746.75
673.904	29728.67
674.253	29932.28
674.602	29751.27
674.951	29331.16
675.3	29207.1
675.649	29620.87
675.998	29470.37
676.346	29467.88
676.695	29584.26
677.044	29405.51
677.393	29586.75
677.741	29464.04
678.09	29342.01
678.438	29302.69
678.787	29375.23
679.135	29322.58
679.484	29281
679.832	29324.16
680.181	29147.67
680.529	29213.43
680.877	29185.86
681.225	29071.96
681.573	29266.31
681.922	29011.85
682.27	28956.03
682.618	29011.4
682.966	28801.23
683.314	29010.95
683.661	28827.22
684.009	28765.3
684.357	28732.31
684.705	28627.68
685.053	28726.43
685.4	28641.92
685.748	28498.42
686.095	28504.74
686.443	28356.05
686.79	28248.71
687.138	28411.87
687.485	28332.32
687.832	28113.12
688.18	28082.61
688.527	27968.94
688.874	28082.16
689.221	27906.12
689.568	28014.14
689.915	27817.31
690.262	27925.55
690.609	27761.94
690.956	27760.36
691.303	27679
691.65	27465.22
691.997	27497.31
692.344	27245.57
692.69	27306.36
693.037	27395.85
693.383	27137.32
693.73	27226.13
694.077	27031.34
694.423	27043.09
694.769	27005.12
695.116	26921.06
695.462	26860.72
695.808	26696.43
696.155	26808.74
696.501	26638.58
696.847	26634.51
697.193	26451.69
697.539	26491.46
697.885	26275.88
698.231	26183.68
698.577	26251.02
698.923	26230.45
699.269	26042.89
699.614	25937.35
699.96	25825.27
700.306	25909.56
700.651	25769.9
700.997	25684.93
701.342	25613.07
701.688	25582.34
702.033	25526.74
702.379	25463.24
702.724	25516.12
703.069	25473.41
703.415	25122.46
703.76	25124.95
704.105	25210.37
704.45	25116.13
704.795	24946.65
705.14	24784.62
705.485	24922.01
705.83	24809.7
706.175	24799.31
706.52	24686.09
706.865	24526.09
707.209	24677.73
707.554	24437.96
707.899	24510.05
708.243	24372.88
708.588	24408.58
708.932	24326.1
709.277	24284.52
709.621	24130.85
709.966	24000.91
710.31	24066.9
710.654	23972.21
710.998	23940.57
711.342	24002.26
711.687	23907.13
712.031	23729.5
712.375	23629.39
712.719	23755.27
713.063	23712.55
713.407	23714.14
713.75	23564.76
714.094	23636.85
714.438	23526.8
714.782	23524.31
715.125	23320.02
715.469	23412.45
715.812	23330.64
716.156	23126.58
716.499	23159.57
716.843	23300.81
717.186	23078.45
717.53	23134.04
717.873	23052.68
718.216	23127.94
718.559	22867.38
718.902	22825.57
719.246	22814.72
719.589	22668.29
719.932	22655.18
720.275	22714.39
720.617	22620.61
720.96	22619.7
721.303	22640.49
721.646	22626.48
721.989	22453.83
722.331	22559.14
722.674	22396.2
723.016	22492.93
723.359	22461.51
723.701	22409.31
724.044	22307.85
724.386	22135.42
724.729	22289.77
725.071	22199.83
725.413	22172.48
725.755	22080.06
726.097	22021.07
726.439	22067.85
726.782	21887.74
727.124	22065.59
727.465	21945.14
727.807	21861.08
728.149	21843.23
728.491	21827.41
728.833	21746.5
729.175	21640.97
729.516	21772.49
729.858	21753.06
730.199	21762.32
730.541	21640.74
730.882	21621.08
731.224	21616.11
731.565	21472.16
731.906	21427.87
732.248	21524.14
732.589	21407.3
732.93	21314.2
733.271	21302.45
733.612	21384.93
733.953	21244.82
734.294	21229.91
734.635	21109.23
734.976	21192.85
735.317	21166.41
735.658	21002.8
735.999	21095.67
736.339	21030.59
736.68	21070.82
737.021	20915.34
737.361	21009.8
737.702	20917.6
738.042	20871.5
738.383	20738.4
738.723	20836.7
739.063	20750.15
739.404	20927.99
739.744	20701.56
740.084	20717.83
740.424	20667.21
740.764	20686.65
741.104	20610.72
741.444	20507.67
741.784	20462.02
742.124	20562.13
742.464	20515.58
742.804	20421.79
743.143	20521.68
743.483	20400.78
743.823	20382.02
744.162	20367.11
744.502	20361.46
744.841	20158.98
745.181	20312.19
745.52	20237.62
745.86	20270.84
746.199	20142.25
746.538	20126.66
746.877	20150.61
747.216	20034.69
747.556	20055.7
747.895	20009.83
748.234	19932.99
748.573	19869.72
748.911	19842.15
749.25	19872.43
749.589	19741.13
749.928	19788.14
750.267	19701.13
750.605	19732.55
750.944	19619.78
751.283	19601.7
751.621	19659.55
751.96	19455.72
752.298	19474.93
752.636	19474.47
752.975	19317.87
753.313	19307.7
753.651	19353.57
753.989	19202.39
754.327	19139.34
754.666	19118.1
