Data from breadboard_black_back_FLMS001491_00088.txt Node
Date: Wed Feb 08 10:51:03 GMT 2017
User: dcchb
Spectrometer: FLMS00149
Trigger mode: 0
Integration Time (sec): 2.000000E-2
Scans to average: 10
Electric dark correction enabled: true
Nonlinearity correction enabled: false
Boxcar width: 0
XAxis mode: Wavelengths
Number of Pixels in Spectrum: 2048
>>>>>Begin Spectral Data<<<<<
341.393	-27.37
341.776	-27.37
342.16	-27.37
342.543	-57.2
342.927	-54.04
343.31	-62.85
343.693	-67.37
344.077	-73.25
344.46	-51.33
344.843	-44.09
345.226	-40.71
345.61	-44.55
345.993	-23.98
346.376	-32.34
346.759	9.01
347.142	16.92
347.525	54.66
347.908	65.28
348.291	67.09
348.674	102.12
349.057	125.39
349.44	120.65
349.823	148.22
350.206	165.62
350.588	188.67
350.971	208.1
351.354	224.15
351.737	234.99
352.119	260.76
352.502	263.92
352.884	256.69
353.267	272.96
353.65	291.26
354.032	297.59
354.414	309.57
354.797	318.16
355.179	326.74
355.562	334.43
355.944	334.88
356.326	331.26
356.709	339.62
357.091	350.02
357.473	354.09
357.855	331.71
358.238	358.15
358.62	344.6
359.002	343.01
359.384	364.71
359.766	360.19
360.148	351.6
360.53	345.27
360.912	348.21
361.294	331.04
361.676	338.72
362.057	338.95
362.439	335.78
362.821	332.39
363.203	312.28
363.584	351.6
363.966	347.31
364.348	326.06
364.729	347.31
365.111	327.65
365.493	320.87
365.874	324.03
366.256	358.38
366.637	339.62
367.019	327.42
367.4	344.6
367.781	328.55
368.163	324.48
368.544	337.82
368.925	346.4
369.306	337.59
369.688	337.14
370.069	349.79
370.45	343.01
370.831	355.67
371.212	364.93
371.593	338.72
371.974	347.76
372.355	369.91
372.736	352.96
373.117	358.83
373.498	355.67
373.879	362.45
374.26	334.88
374.641	347.31
375.021	334.88
375.402	350.7
375.783	374.65
376.163	359.74
376.544	373.3
376.925	353.63
377.305	359.28
377.686	373.52
378.066	368.32
378.447	384.59
378.827	391.15
379.208	383.92
379.588	378.72
379.968	371.49
380.349	390.92
380.729	392.05
381.109	393.18
381.489	377.36
381.87	392.73
382.25	395.22
382.63	409.23
383.01	399.06
383.39	397.93
383.77	404.71
384.15	399.06
384.53	400.64
384.91	403.35
385.29	416.68
385.67	439.06
386.049	423.46
386.429	434.76
386.809	427.31
387.189	447.64
387.568	438.38
387.948	449
388.328	470.92
388.707	436.57
389.087	443.35
389.466	445.84
389.846	471.15
390.225	474.08
390.605	454.2
390.984	459.17
391.363	459.85
391.743	482.9
392.122	517.7
392.501	472.5
392.881	513.63
393.26	513.18
393.639	505.95
394.018	494.65
394.397	515.66
394.776	499.17
395.155	500.98
395.534	529.68
395.913	533.07
396.292	526.74
396.671	535.55
397.05	526.74
397.429	539.62
397.808	534.19
398.186	516.12
398.565	541.2
398.944	521.54
399.323	521.99
399.701	559.05
400.08	539.17
400.458	537.36
400.837	576.91
401.215	564.25
401.594	568.32
401.972	588.2
402.351	584.59
402.729	601.99
403.107	619.84
403.486	602.22
403.864	632.05
404.242	610.35
404.62	629.33
404.999	598.6
405.377	652.84
405.755	653.97
406.133	643.34
406.511	631.37
406.889	673.85
407.267	666.85
407.645	669.56
408.023	673.4
408.401	684.47
408.779	707.98
409.156	712.72
409.534	728.99
409.912	708.2
410.29	740.97
410.667	740.97
411.045	726.73
411.422	757.69
411.8	762.66
412.178	787.75
412.555	785.26
412.933	787.52
413.31	809.22
413.687	809.67
414.065	802.66
414.442	825.94
414.819	838.82
415.197	848.99
415.574	863
415.951	863.23
416.328	864.81
416.705	879.72
417.082	890.57
417.46	881.98
417.837	882.21
418.214	879.04
418.591	908.87
418.967	904.81
419.344	928.53
419.721	924.02
420.098	933.96
420.475	953.84
420.852	957.91
421.228	961.08
421.605	975.31
421.982	990
422.358	1010.11
422.735	1017.57
423.111	1013.73
423.488	1029.55
423.864	1039.72
424.241	1037.46
424.617	1052.83
424.994	1065.48
425.37	1084.24
425.746	1102.09
426.123	1079.27
426.499	1080.17
426.875	1121.3
427.251	1125.59
427.627	1121.3
428.003	1150.68
428.379	1167.85
428.756	1191.58
429.132	1216.44
429.507	1209.66
429.883	1236.55
430.259	1245.36
430.635	1247.85
431.011	1271.8
431.387	1312.03
431.763	1305.02
432.138	1331.24
432.514	1337.34
432.89	1362.2
433.265	1360.61
433.641	1379.37
434.016	1398.58
434.392	1432.25
434.767	1452.36
435.143	1448.07
435.518	1476.09
435.894	1482.19
436.269	1488.07
436.644	1502.76
437.02	1494.17
437.395	1526.71
437.77	1571
438.145	1589.99
438.52	1582.08
438.895	1588.63
439.271	1609.19
439.646	1665.92
440.021	1640.15
440.395	1630.66
440.77	1640.38
441.145	1688.06
441.52	1696.88
441.895	1720.38
442.27	1717.44
442.645	1740.04
443.019	1753.6
443.394	1763.99
443.769	1753.82
444.143	1782.3
444.518	1801.51
444.892	1766.93
445.267	1792.02
445.641	1839.02
446.016	1864.56
446.39	1838.79
446.764	1890.54
447.139	1862.3
447.513	1881.5
447.887	1881.5
448.262	1883.09
448.636	1919.92
449.01	1932.58
449.384	1959.47
449.758	1974.16
450.132	1997.43
450.506	2010.54
450.88	2030.2
451.254	2036.08
451.628	2078.79
452.002	2102.06
452.376	2131.44
452.75	2128.5
453.123	2128.05
453.497	2174.83
453.871	2186.35
454.244	2212.57
454.618	2228.61
454.992	2286.24
455.365	2297.99
455.739	2345.22
456.112	2382.06
456.486	2396.97
456.859	2410.08
457.232	2433.58
457.606	2420.47
457.979	2489.62
458.352	2515.16
458.725	2567.36
459.099	2572.33
459.472	2644.87
459.845	2673.57
460.218	2677.19
460.591	2711.99
460.964	2719.22
461.337	2764.64
461.71	2829.95
462.083	2843.51
462.456	2839.45
462.829	2903.17
463.201	2924.41
463.574	2945.21
463.947	3026.56
464.32	3070.4
464.692	3066.78
465.065	3083.73
465.438	3121.92
465.81	3187.46
466.183	3209.6
466.555	3300.68
466.928	3304.52
467.3	3300.45
467.672	3332.99
468.045	3443.72
468.417	3452.76
468.789	3459.32
469.161	3517.85
469.534	3581.35
469.906	3686.43
470.278	3685.52
470.65	3762.13
471.022	3753.32
471.394	3884.39
471.766	3908.34
472.138	3941.34
472.51	4047.55
472.882	4088.68
473.253	4139.52
473.625	4178.17
473.997	4265.4
474.369	4314.89
474.74	4381.78
475.112	4449.8
475.484	4506.29
475.855	4587.42
476.227	4595.78
476.598	4778.38
476.97	4800.75
477.341	4856.12
477.713	4966.17
478.084	4976.11
478.455	5175.2
478.827	5171.59
479.198	5390.79
479.569	5351.47
479.94	5504.01
480.311	5541.75
480.682	5666.49
481.053	5766.37
481.424	5857.44
481.795	5895.64
482.166	6026.25
482.537	6120.71
482.908	6233.48
483.279	6272.58
483.65	6403.87
484.021	6545.56
484.391	6570.42
484.762	6655.84
485.133	6759.34
485.503	6819.45
485.874	6920.02
486.244	6991.65
486.615	7185.09
486.985	7221.48
487.356	7373.34
487.726	7411.53
488.097	7605.2
488.467	7666.44
488.837	7762.71
489.207	7844.74
489.578	8015.58
489.948	8098.97
490.318	8221
490.688	8250.6
491.058	8338.28
491.428	8416.7
491.798	8500.99
492.168	8684.04
492.538	8756.58
492.908	8889.68
493.278	8942.34
493.648	8938.72
494.017	9192.05
494.387	9156.12
494.757	9317.47
495.126	9354.98
495.496	9434.75
495.866	9535.77
496.235	9553.84
496.605	9687.4
496.974	9690.79
497.344	9792.93
497.713	9845.59
498.082	9898.69
498.452	10053.49
498.821	10123.77
499.19	10255.97
499.559	10285.13
499.928	10413.03
500.298	10415.74
500.667	10469.08
501.036	10506.59
501.405	10627.49
501.774	10694.15
502.143	10797.2
502.512	10879.01
502.88	10970.3
503.249	10980.47
503.618	11068.16
503.987	11125.78
504.356	11217.53
504.724	11280.35
505.093	11326.45
505.462	11415.04
505.83	11533.91
506.199	11512.21
506.567	11764.63
506.936	11786.33
507.304	11845.54
507.672	11976.15
508.041	12014.8
508.409	12134.79
508.777	12193.78
509.145	12248.46
509.514	12316.94
509.882	12399.87
510.25	12473.54
510.618	12621.11
510.986	12660.66
511.354	12766.19
511.722	12876.02
512.09	12957.15
512.458	12986.75
512.826	13132.28
513.193	13165.95
513.561	13327.76
513.929	13402.78
514.297	13576.34
514.664	13546.28
515.032	13666.05
515.4	13793.06
515.767	13880.06
516.135	13978.36
516.502	13908.98
516.869	14133.39
517.237	14229.88
517.604	14208.64
517.972	14396.2
518.339	14515.52
518.706	14511.91
519.073	14575.63
519.44	14673.03
519.808	14973.82
520.175	14906.92
520.542	15163.64
520.909	15240.93
521.276	15265.33
521.643	15408.83
522.009	15431.88
522.376	15653.57
522.743	15755.49
523.11	15948.48
523.477	15991.87
523.843	16183.95
524.21	16278.19
524.577	16373.33
524.943	16582.59
525.31	16721.79
525.676	16792.07
526.043	16775.12
526.409	17046.08
526.776	17147.32
527.142	17290.14
527.508	17285.39
527.874	17474.99
528.241	17614.65
528.607	17674.54
528.973	17747.53
529.339	17887.64
529.705	18037.46
530.071	18197.91
530.437	18225.26
530.803	18374.4
531.169	18494.63
531.535	18504.8
531.901	18598.58
532.267	18780.95
532.632	18778.01
532.998	18992.69
533.364	19020.94
533.73	19082.86
534.095	19267.49
534.461	19277.66
534.826	19441.04
535.192	19494.6
535.557	19657.31
535.923	19600.59
536.288	19751.09
536.653	19834.25
537.019	19805.33
537.384	19877.64
537.749	20057.07
538.114	20186.11
538.479	20200.8
538.845	20255.26
539.21	20279.21
539.575	20450.06
539.94	20443.05
540.305	20544.97
540.67	20623.61
541.034	20688.47
541.399	20779.31
541.764	20784.96
542.129	20779.31
542.494	21120.09
542.858	21075.58
543.223	21032.19
543.587	21244.84
543.952	21250.26
544.316	21296.59
544.681	21273.54
545.045	21430.14
545.41	21581.1
545.774	21469.92
546.138	21625.62
546.503	21753.75
546.867	21759.85
547.231	22027.64
547.595	21937.47
547.959	22029.22
548.324	22108.09
548.688	22165.94
549.052	22217.92
549.416	22209.56
549.779	22316.45
550.143	22415.43
550.507	22682.99
550.871	22791.91
551.235	22636.21
551.599	22826.26
551.962	22930.44
552.326	22949.65
552.689	23100.38
553.053	22993.94
553.417	23137.44
553.78	23390.54
554.143	23297.44
554.507	23537.66
554.87	23625.11
555.234	23812.68
555.597	23710.99
555.96	23781.27
556.323	23935.84
556.686	24056.29
557.05	24136.74
557.413	24214.93
557.776	24303.29
558.139	24487.24
558.502	24480.23
558.865	24547.35
559.228	24750.96
559.59	24784.63
559.953	24921.8
560.316	25181.23
560.679	25222.36
561.041	25348.46
561.404	25452.86
561.767	25522.69
562.129	25460.55
562.492	25777.83
562.854	25802.46
563.217	25821.89
563.579	25991.6
563.941	26152.96
564.304	26261.88
564.666	26390.46
565.028	26459.39
565.39	26604.02
565.753	26750
566.115	26947.51
566.477	26914.74
566.839	27047.17
567.201	27216.43
567.563	27237.67
567.925	27405.35
568.287	27298.91
568.648	27542.3
569.01	27626.59
569.372	27900.48
569.734	27807.6
570.095	27989.07
570.457	28097.09
570.819	28104.32
571.18	28157.42
571.542	28309.96
571.903	28373.46
572.265	28533.91
572.626	28458.43
572.987	28550.41
573.349	28652.1
573.71	28787.46
574.071	28804.41
574.432	28935.26
574.794	29105.2
575.155	29072.43
575.516	29099.77
575.877	29172.09
576.238	29285.08
576.599	29212.54
576.96	29387.22
577.32	29306.55
577.681	29548.8
578.042	29646.88
578.403	29594
578.763	29634.45
579.124	29708.12
579.485	29792.86
579.845	29833.76
580.206	29878.28
580.566	29839.19
580.927	30000.09
581.287	30043.02
581.648	29859.75
582.008	30079.86
582.368	29968.9
582.728	30085.73
583.089	29984.95
583.449	29993.08
583.809	30076.7
584.169	30095
584.529	30066.53
584.889	30252.06
585.249	30226.07
585.609	29998.51
585.969	30332.73
586.329	30297.71
586.688	30198.5
587.048	30231.04
587.408	30198.73
587.768	30106.98
588.127	30275.33
588.487	30122.57
588.846	30374.99
589.206	30181.33
589.565	30198.5
589.925	30226.07
590.284	30196.92
590.643	30304.49
591.003	30305.84
591.362	30369.34
591.721	30349.23
592.08	30377.03
592.44	30469.68
592.799	30472.16
593.158	30376.8
593.517	30334.99
593.876	30558.26
594.235	30299.74
594.593	30355.78
594.952	30495.67
595.311	30333.41
595.67	30484.59
596.029	30671.48
596.387	30680.29
596.746	30704.02
597.104	30556.68
597.463	30661.09
597.822	30689.79
598.18	30664.93
598.538	30683.01
598.897	30759.84
599.255	30482.79
599.613	31051.58
599.972	30704.25
600.33	30894.3
600.688	30676
601.046	30745.83
601.404	31015.88
601.762	30873.28
602.12	30988.54
602.478	31124.35
602.836	31061.3
603.194	31002.55
603.552	31060.17
603.91	30931.36
604.268	31143.11
604.625	30931.59
604.983	31137.01
605.341	31090.23
605.698	31129.55
606.056	31286.83
606.413	31212.26
606.771	31409.09
607.128	31323.22
607.485	31271.47
607.843	31226.04
608.2	31290.9
608.557	31544.23
608.914	31485.02
609.272	31623.77
609.629	31725.24
609.986	31750.32
610.343	31631
610.7	31900.38
611.057	31646.37
611.414	31692.02
611.771	31719.36
612.127	31869.64
612.484	31861.73
612.841	31994.84
613.198	31837.55
613.554	31853.82
613.911	32009.07
614.267	32040.03
614.624	32108.05
614.98	32097.21
615.337	32289.07
615.693	32190.99
616.05	32174.94
616.406	32326.35
616.762	32208.16
617.118	32245.45
617.475	32221.5
617.831	32356.86
618.187	32369.06
618.543	32399.12
618.899	32508.72
619.255	32485.67
619.611	32476.41
619.967	32656.97
620.323	32629.62
620.678	32537.42
621.034	32432.79
621.39	32524.31
621.746	32472.79
622.101	32742.39
622.457	32556.4
622.812	32501.49
623.168	32725.21
623.523	32665.78
623.879	32682.28
624.234	32398.67
624.589	32695.84
624.945	32580.58
625.3	32655.61
625.655	32555.73
626.01	32469.63
626.365	32547.59
626.72	32503.75
627.075	32477.08
627.43	32614.93
627.785	32467.59
628.14	32624.2
628.495	32639.79
628.85	32543.07
629.205	32407.03
629.559	32519.57
629.914	32426.92
630.269	32460.36
630.623	32344.88
630.978	32333.36
631.332	32456.75
631.687	32485.22
632.041	32270.31
632.396	32359.35
632.75	32226.24
633.104	32279.35
633.459	32109.18
633.813	32204.32
634.167	32104.21
634.521	32101.5
634.875	32061.5
635.229	32058.56
635.583	31936.08
635.937	31869.42
636.291	31871.9
636.645	31922.52
636.999	31692.25
637.352	31886.36
637.706	31801.4
638.06	31795.52
638.413	31736.54
638.767	31600.27
639.121	31777.89
639.474	31529.54
639.828	31529.09
640.181	31553.49
640.534	31589.42
640.888	31417.22
641.241	31314.4
641.594	31343.33
641.947	31533.15
642.301	31199.38
642.654	31399.15
643.007	31229.66
643.36	31152.82
643.713	31118.02
644.066	31325.02
644.419	31074.18
644.771	30966.16
645.124	30690.01
645.477	30544.03
645.83	30391.49
646.182	30243.24
646.535	30055
646.888	30114.21
647.24	30036.47
647.593	30091.38
647.945	30083.25
648.298	29853.2
648.65	29819.75
649.002	29647.78
649.355	29953.08
649.707	29783.14
650.059	30022.23
650.411	30410.92
650.763	30481.88
651.115	30692.72
651.467	30560.75
651.819	30525.04
652.171	30488.89
652.523	30320.3
652.875	30422.9
653.227	30159.86
653.578	30427.19
653.93	30435.78
654.282	30313.07
654.633	30215.22
654.985	30205.73
655.337	30172.74
655.688	30205.73
656.039	30266.75
656.391	29986.75
656.742	30136.58
657.094	30101.55
657.445	30286.86
657.796	30057.49
658.147	30029.24
658.498	30097.03
658.849	30055.23
659.2	29947.21
659.551	29955.79
659.902	30057.71
660.253	29970.03
660.604	30040.99
660.955	29890.49
661.306	29931.84
661.656	29926.87
662.007	29869.24
662.358	29892.29
662.708	29846.64
663.059	29709.02
663.409	29576.37
663.76	29969.58
664.11	29787.21
664.461	29690.26
664.811	29740.21
665.161	29825.85
665.511	29671.28
665.862	29648.23
666.212	29782.47
666.562	29701.56
666.912	29704.5
667.262	29649.81
667.612	29530.49
667.962	29619.53
668.312	29625.41
668.662	29725.52
669.011	29498.41
669.361	29543.6
669.711	29531.62
670.06	29564.84
670.41	29509.7
670.76	29527.78
671.109	29559.19
671.459	29453.43
671.808	29382.02
672.157	29442.59
672.507	29345.19
672.856	29327.11
673.205	29325.53
673.554	29384.51
673.904	29280.33
674.253	29473.32
674.602	29412.98
674.951	29046.44
675.3	28866.56
675.649	29160.11
675.998	29139.77
676.346	29154.46
676.695	29222.93
677.044	28941.81
677.393	29161.01
677.741	29016.38
678.09	29022.26
678.438	29033.33
678.787	29085.76
679.135	29039.21
679.484	28900.45
679.832	28867.69
680.181	28705.66
680.529	28811.42
680.877	28821.59
681.225	28805.32
681.573	28862.49
681.922	28533.23
682.27	28577.53
682.618	28634.7
682.966	28541.14
683.314	28550.18
683.661	28540.69
684.009	28337.98
684.357	28295.95
684.705	28233.58
685.053	28203.07
685.4	28230.87
685.748	28094.37
686.095	28072
686.443	27883.98
686.79	27965.34
687.138	28082.62
687.485	27935.96
687.832	27877.88
688.18	27934.83
688.527	27667.72
688.874	27708.17
689.221	27599.92
689.568	27593.6
689.915	27575.97
690.262	27468.85
690.609	27414.84
690.956	27316.32
691.303	27326.03
691.65	27120.16
691.997	27120.61
692.344	27152.25
692.69	26858.47
693.037	26933.73
693.383	26655.32
693.73	26906.16
694.077	26674.98
694.423	26666.39
694.769	26634.3
695.116	26387.3
695.462	26317.92
695.808	26286.96
696.155	26368.54
696.501	26271.37
696.847	26270.69
697.193	26115.22
697.539	26181.88
697.885	25913.64
698.231	25862.34
698.577	25838.39
698.923	25842.23
699.269	25607.66
699.614	25678.62
699.96	25491.28
700.306	25468.91
700.651	25440.21
700.997	25364.28
701.342	25271.62
701.688	25298.29
702.033	25227.33
702.379	25219.65
702.724	25058.75
703.069	25176.48
703.415	24815.14
703.76	24899.2
704.105	24863.72
704.45	24724.07
704.795	24571.98
705.14	24630.96
705.485	24606.56
705.83	24498.31
706.175	24471.42
706.52	24443.4
706.865	24372.66
707.209	24234.81
707.554	24242.5
707.899	24117.98
708.243	24076.17
708.588	24025.33
708.932	23899
709.277	23887.03
709.621	24031.66
709.966	23826.92
710.31	23851.32
710.654	23699.24
710.998	23721.16
711.342	23651.55
711.687	23513.25
712.031	23552.35
712.375	23504.21
712.719	23350.54
713.063	23457.66
713.407	23558.9
713.75	23327.95
714.094	23296.76
714.438	23115.52
714.782	23289.75
715.125	23043.89
715.469	23091.34
715.812	22931.57
716.156	22853.61
716.499	22877.11
716.843	22982.42
717.186	22751.24
717.53	22882.08
717.873	22883.66
718.216	22782.65
718.559	22618.36
718.902	22558.25
719.246	22506.5
719.589	22479.83
719.932	22447.52
720.275	22505.82
720.617	22475.31
720.96	22417.24
721.303	22320.06
721.646	22443.45
721.989	22208.43
722.331	22232.61
722.674	22207.3
723.016	22202.78
723.359	22140.86
723.701	22149.67
724.044	21971.6
724.386	21900.41
724.729	22024.25
725.071	21914.65
725.413	21905.38
725.755	21880.53
726.097	21714.66
726.439	21652.06
726.782	21732.51
727.124	21800.08
727.465	21611.38
727.807	21686.18
728.149	21417.04
728.491	21563.02
728.833	21478.05
729.175	21424.49
729.516	21449.58
729.858	21366.19
730.199	21418.17
730.541	21313.31
730.882	21277.38
731.224	21226.53
731.565	21119.87
731.906	21144.5
732.248	21208.45
732.589	21188.79
732.93	21057.72
733.271	21062.24
733.612	21069.25
733.953	21015.92
734.294	20995.13
734.635	20910.83
734.976	20938.86
735.317	20839.2
735.658	20798.52
735.999	20731.4
736.339	20742.93
736.68	20817.5
737.021	20708.81
737.361	20568.02
737.702	20674.46
738.042	20692.31
738.383	20614.12
738.723	20574.57
739.063	20508.59
739.404	20483.27
739.744	20508.59
740.084	20408.47
740.424	20290.74
740.764	20299.55
741.104	20463.16
741.444	20332.09
741.784	20243.51
742.124	20312.66
742.464	20259.33
742.804	20174.58
743.143	20107.92
743.483	20214.36
743.823	20066.56
744.162	20032.67
744.502	20004.19
744.841	19888.04
745.181	20017.98
745.52	20002.61
745.86	20026.79
746.199	19999.67
746.538	19930.3
746.877	19802.84
747.216	19843.29
747.556	19760.36
747.895	19775.05
748.234	19591.77
748.573	19662.96
748.911	19585.45
749.25	19620.02
749.589	19533.24
749.928	19526.01
750.267	19489.18
750.605	19439.69
750.944	19419.57
751.283	19355.17
751.621	19311.55
751.96	19231.78
752.298	19209.64
752.636	19159.24
752.975	19144.78
753.313	18969.64
753.651	19086.02
753.989	18909.98
754.327	18982.52
