Data from breadboard_black_back_FLMS001491_00096.txt Node
Date: Wed Feb 08 10:51:11 GMT 2017
User: dcchb
Spectrometer: FLMS00149
Trigger mode: 0
Integration Time (sec): 2.000000E-2
Scans to average: 10
Electric dark correction enabled: true
Nonlinearity correction enabled: false
Boxcar width: 0
XAxis mode: Wavelengths
Number of Pixels in Spectrum: 2048
>>>>>Begin Spectral Data<<<<<
341.393	-26.26
341.776	-26.26
342.16	-26.26
342.543	-78.23
342.927	-72.36
343.31	-60.61
343.693	-73.94
344.077	-65.35
344.46	-69.87
344.843	-72.13
345.226	-36.2
345.61	-37.78
345.993	-28.06
346.376	0.18
346.759	-0.04
347.142	16.91
347.525	50.58
347.908	62.78
348.291	92.16
348.674	105.49
349.057	115.89
349.44	97.81
349.823	136.45
350.206	157.69
350.588	176.9
350.971	208.99
351.354	222.78
351.737	233.85
352.119	243.12
352.502	276.11
352.884	272.94
353.267	286.73
353.65	275.2
354.032	299.38
354.414	308.2
354.797	309.55
355.179	341.64
355.562	316.33
355.944	317.24
356.326	321.08
356.709	319.95
357.091	331.25
357.473	348.88
357.855	317.24
358.238	338.48
358.62	325.82
359.002	329.21
359.384	352.94
359.766	343.23
360.148	333.73
360.53	334.86
360.912	341.87
361.294	314.53
361.676	331.7
362.057	338.71
362.439	343.45
362.821	324.47
363.203	322.89
363.584	337.12
363.966	336.9
364.348	323.34
364.729	307.29
365.111	338.25
365.493	315.2
365.874	341.19
366.256	317.01
366.637	312.94
367.019	323.34
367.4	329.44
367.781	308.42
368.163	307.29
368.544	314.3
368.925	320.18
369.306	348.65
369.688	333.96
370.069	321.08
370.45	330.12
370.831	345.49
371.212	356.33
371.593	338.25
371.974	350
372.355	333.06
372.736	327.86
373.117	321.08
373.498	338.25
373.879	331.93
374.26	316.56
374.641	349.55
375.021	322.44
375.402	347.52
375.783	333.51
376.163	346.84
376.544	333.96
376.925	339.38
377.305	346.84
377.686	360.63
378.066	367.86
378.447	386.16
378.827	364.92
379.208	365.6
379.588	370.8
379.968	378.48
380.349	374.86
380.729	358.37
381.109	383
381.489	361.76
381.87	387.29
382.25	382.09
382.63	372.15
383.01	391.59
383.39	375.77
383.77	393.62
384.15	376.44
384.53	408.76
384.91	405.14
385.29	414.18
385.67	395.2
386.049	418.7
386.429	409.66
386.809	407.86
387.189	410.34
387.568	416.9
387.948	424.13
388.328	411.02
388.707	418.48
389.087	421.19
389.466	418.25
389.846	429.1
390.225	437.69
390.605	453.51
390.984	441.3
391.363	456.44
391.743	426.84
392.122	431.13
392.501	464.13
392.881	488.31
393.26	478.14
393.639	498.93
394.018	473.84
394.397	469.78
394.776	466.16
395.155	480.62
395.534	460.51
395.913	498.7
396.292	474.75
396.671	488.08
397.05	503
397.429	507.97
397.808	504.13
398.186	499.83
398.565	504.35
398.944	505.93
399.323	532.15
399.701	510.23
400.08	531.24
400.458	550.45
400.837	527.63
401.215	562.88
401.594	533.95
401.972	539.83
402.351	528.98
402.729	556.33
403.107	571.69
403.486	556.1
403.864	560.85
404.242	546.16
404.62	561.07
404.999	573.28
405.377	593.84
405.755	581.64
406.133	568.98
406.511	594.07
406.889	603.11
407.267	624.35
407.645	614.18
408.023	618.02
408.401	632.03
408.779	623.67
409.156	627.74
409.534	641.07
409.912	656.66
410.29	679.94
410.667	672.71
411.045	688.75
411.422	684.23
411.8	672.26
412.178	700.28
412.555	666.61
412.933	728.75
413.31	708.19
413.687	722.2
414.065	713.61
414.442	752.03
414.819	742.99
415.197	759.71
415.574	770.56
415.951	759.26
416.328	765.81
416.705	768.07
417.082	792.93
417.46	804
417.837	806.94
418.214	816.43
418.591	804
418.967	815.53
419.344	825.92
419.721	830.22
420.098	815.08
420.475	844.68
420.852	847.62
421.228	835.87
421.605	888.97
421.982	893.72
422.358	891.23
422.735	916.32
423.111	914.06
423.488	920.84
423.864	933.94
424.241	942.98
424.617	947.73
424.994	948.18
425.37	955.41
425.746	964.45
426.123	988.63
426.499	973.27
426.875	1007.16
427.251	988.63
427.627	1028.41
428.003	1049.65
428.379	1046.48
428.756	1072.02
429.132	1039.93
429.507	1077.22
429.883	1060.95
430.259	1097.56
430.635	1108.18
431.011	1127.61
431.387	1151.34
431.763	1170.1
432.138	1162.19
432.514	1158.12
432.89	1187.72
433.265	1233.37
433.641	1231.11
434.016	1244.9
434.392	1260.04
434.767	1246.93
435.143	1280.83
435.518	1273.82
435.894	1309.08
436.269	1319.47
436.644	1343.43
437.02	1336.42
437.395	1345.01
437.77	1379.58
438.145	1386.59
438.52	1390.2
438.895	1415.06
439.271	1421.84
439.646	1449.64
440.021	1457.32
440.395	1482.4
440.77	1466.81
441.145	1455.06
441.52	1505.45
441.895	1501.84
442.27	1511.33
442.645	1490.77
443.019	1519.69
443.394	1565.11
443.769	1576.87
444.143	1541.16
444.518	1607.6
444.892	1593.81
445.267	1594.94
445.641	1608.95
446.016	1608.73
446.39	1629.52
446.764	1644.43
447.139	1645.56
447.513	1669.74
447.887	1652.8
448.262	1669.52
448.636	1705.9
449.01	1698.67
449.384	1712.68
449.758	1755.62
450.132	1749.06
450.506	1777.54
450.88	1776.63
451.254	1778.44
451.628	1803.53
452.002	1844.88
452.376	1875.16
452.75	1891.21
453.123	1870.64
453.497	1896.18
453.871	1934.14
454.244	1959
454.618	1987.7
454.992	1953.35
455.365	2008.94
455.739	2057.98
456.112	2064.54
456.486	2091.88
456.859	2089.17
457.232	2120.58
457.606	2161.71
457.979	2199.45
458.352	2254.36
458.725	2246.23
459.099	2280.12
459.472	2331.42
459.845	2286
460.218	2344.98
460.591	2377.97
460.964	2387.01
461.337	2452.55
461.71	2477.63
462.083	2509.95
462.456	2521.47
462.829	2559.44
463.201	2564.41
463.574	2592.88
463.947	2621.81
464.32	2686.21
464.692	2692.77
465.065	2725.99
465.438	2781.13
465.81	2831.07
466.183	2848.92
466.555	2893.21
466.928	2896.83
467.3	2893.89
467.672	2962.59
468.045	3073.1
468.417	3086.88
468.789	3047.79
469.161	3114.45
469.534	3156.26
469.906	3222.02
470.278	3238.97
470.65	3249.59
471.022	3374.56
471.394	3405.07
471.766	3432.86
472.138	3445.97
472.51	3577.26
472.882	3577.94
473.253	3660.88
473.625	3664.27
473.997	3790.82
474.369	3829.24
474.74	3844.15
475.112	3922.57
475.484	4007.08
475.855	4032.39
476.227	4080.98
476.598	4176.34
476.97	4207.3
477.341	4314.87
477.713	4371.82
478.084	4384.93
478.455	4497.01
478.827	4528.2
479.198	4705.37
479.569	4708.99
479.94	4850.45
480.311	4900.39
480.682	4965.02
481.053	5100.61
481.424	5173.61
481.795	5188.07
482.166	5305.35
482.537	5338.57
482.908	5527.72
483.279	5540.6
483.65	5622.86
484.021	5684.78
484.391	5797.32
484.762	5829.86
485.133	5934.04
485.503	5988.05
485.874	6122.28
486.244	6174.94
486.615	6328.15
486.985	6304.65
487.356	6470.52
487.726	6516.17
488.097	6677.97
488.467	6655.15
488.837	6818.76
489.207	6891.98
489.578	6960.23
489.948	7089.04
490.318	7138.53
490.688	7130.84
491.058	7329.48
491.428	7394.11
491.798	7529.48
492.168	7587.55
492.538	7731.05
492.908	7780.77
493.278	7905.74
493.648	7914.55
494.017	8017.15
494.387	8122.46
494.757	8190.48
495.126	8268.67
495.496	8264.83
495.866	8366.97
496.235	8391.83
496.605	8575.1
496.974	8530.81
497.344	8626.62
497.713	8743
498.082	8829.78
498.452	8877.92
498.821	9022.55
499.19	8992.49
499.559	9057.8
499.928	9132.15
500.298	9222.54
500.667	9261.18
501.036	9290.79
501.405	9433.61
501.774	9519.48
502.143	9569.65
502.512	9565.81
502.88	9664.34
503.249	9698.69
503.618	9780.72
503.987	9857.33
504.356	9920.6
504.724	9927.38
505.093	9998.79
505.462	10047.15
505.83	10121.73
506.199	10234.26
506.567	10386.8
506.936	10352.23
507.304	10481.26
507.672	10537.76
508.041	10595.39
508.409	10722.61
508.777	10808.04
509.145	10867.69
509.514	10877.64
509.882	10961.03
510.25	11001.48
510.618	11047.35
510.986	11175.26
511.354	11268.81
511.722	11369.15
512.09	11463.84
512.458	11415.48
512.826	11639.43
513.193	11605.3
513.561	11732.3
513.929	11812.75
514.297	11949.25
514.664	12012.3
515.032	12064.95
515.4	12200.31
515.767	12280.54
516.135	12347.43
516.502	12273.76
516.869	12551.72
517.237	12678.95
517.604	12600.98
517.972	12754.88
518.339	12803.01
518.706	12887.75
519.073	12936.79
519.44	13096.11
519.808	13305.14
520.175	13246.16
520.542	13403.45
520.909	13460.62
521.276	13541.07
521.643	13717.79
522.009	13776.77
522.376	13917.56
522.743	13979.25
523.11	14033.71
523.477	14256.31
523.843	14363.42
524.21	14519.58
524.577	14556.41
524.943	14631.66
525.31	14784.2
525.676	14907.36
526.043	15033.69
526.409	15063.97
526.776	15339.22
527.142	15333.34
527.508	15458.99
527.874	15533.11
528.241	15622.15
528.607	15696.95
528.973	15880.44
529.339	15922.7
529.705	16053.77
530.071	16234.56
530.437	16226.2
530.803	16477.26
531.169	16423.48
531.535	16478.62
531.901	16520.43
532.267	16708.9
532.632	16784.38
532.998	16880.87
533.364	16835.67
533.73	16993.41
534.095	17193.18
534.461	17246.28
534.826	17243.35
535.192	17240.86
535.557	17462.32
535.923	17550
536.288	17558.59
536.653	17764.01
537.019	17614.41
537.384	17799.04
537.749	17959.26
538.114	17917.23
538.479	18028.86
538.845	18113.15
539.21	18020.05
539.575	18169.42
539.94	18222.3
540.305	18362.41
540.67	18394.95
541.034	18594.27
541.399	18579.81
541.764	18588.85
542.129	18710.2
542.494	18747.49
542.858	18752.68
543.223	18823.87
543.587	18944.77
543.952	18972.11
544.316	19003.98
544.681	18983.41
545.045	19231.99
545.41	19336.17
545.774	19315.38
546.138	19442.84
546.503	19501.82
546.867	19502.72
547.231	19728.7
547.595	19715.37
547.959	19904.07
548.324	19740.46
548.688	19852.32
549.052	19900.68
549.416	19991.97
549.779	20114.46
550.143	20153.1
550.507	20251.4
550.871	20256.6
551.235	20345.19
551.599	20507.44
551.962	20590.15
552.326	20612.3
552.689	20811.61
553.053	20731.84
553.417	20762.58
553.78	21080.53
554.143	20975.68
554.507	21123.47
554.87	21167.76
555.234	21468.32
555.597	21340.87
555.96	21435.55
556.323	21533.63
556.686	21600.07
557.05	21712.38
557.413	21824.92
557.776	21955.76
558.139	22017.46
558.502	22042.09
558.865	22073.5
559.228	22252.25
559.59	22407.96
559.953	22368.41
560.316	22598.01
560.679	22707.38
561.041	22768.17
561.404	22762.3
561.767	22980.82
562.129	22954.83
562.492	23244.09
562.854	23157.99
563.217	23166.13
563.579	23348.72
563.941	23514.37
564.304	23602.05
564.666	23705.1
565.028	23734.93
565.39	23931.08
565.753	24057.4
566.115	24184.86
566.477	24250.62
566.839	24473.89
567.201	24496.04
567.563	24468.92
567.925	24720.21
568.287	24652.19
568.648	24764.5
569.01	24894.22
569.372	25085.4
569.734	24999.75
570.095	25212.18
570.457	25383.02
570.819	25404.26
571.18	25369.23
571.542	25556.8
571.903	25591.6
572.265	25734.87
572.626	25730.81
572.987	25791.14
573.349	25969.67
573.71	25945.04
574.071	26033.62
574.432	26241.3
574.794	26415.53
575.155	26294.86
575.516	26369.66
575.877	26479.94
576.238	26462.54
576.599	26715.87
576.96	26709.54
577.32	26608.52
577.681	26738.24
578.042	26679.93
578.403	26792.93
578.763	26803.55
579.124	26833.15
579.485	27023.88
579.845	26949.31
580.206	26992.47
580.566	27028.17
580.927	26939.81
581.287	27100.71
581.648	27163.31
582.008	27319.92
582.368	27152.46
582.728	27316.08
583.089	27134.84
583.449	27115.85
583.809	27348.39
584.169	27333.25
584.529	27285.79
584.889	27490.08
585.249	27282.63
585.609	27248.96
585.969	27400.82
586.329	27356.75
586.688	27364.21
587.048	27444.43
587.408	27323.31
587.768	27399.92
588.127	27361.05
588.487	27408.5
588.846	27488.73
589.206	27375.51
589.565	27434.94
589.925	27547.93
590.284	27430.65
590.643	27557.43
591.003	27521.04
591.362	27623.41
591.721	27596.97
592.08	27581.83
592.44	27654.6
592.799	27675.16
593.158	27556.52
593.517	27676.52
593.876	27732.56
594.235	27549.29
594.593	27630.19
594.952	27712.22
595.311	27679
595.67	27755.84
596.029	27962.61
596.387	27921.03
596.746	27963.06
597.104	27750.87
597.463	27934.59
597.822	27989.5
598.18	27981.82
598.538	27857.53
598.897	27953.12
599.255	27756.06
599.613	28179.1
599.972	27981.14
600.33	28134.59
600.688	27937.98
601.046	28106.56
601.404	28149.27
601.762	28145.43
602.12	28304.98
602.478	28249.61
602.836	28279.21
603.194	28079.9
603.552	28167.13
603.91	28244.86
604.268	28288.03
604.625	28295.71
604.983	28362.6
605.341	28282.83
605.698	28415.48
606.056	28496.61
606.413	28442.15
606.771	28610.73
607.128	28608.47
607.485	28524.86
607.843	28531.41
608.2	28638.75
608.557	28844.85
608.914	28645.98
609.272	28836.26
609.629	28837.39
609.986	28989.7
610.343	28762.82
610.7	28970.27
611.057	28930.95
611.414	28935.69
611.771	28999.65
612.127	29000.78
612.484	29038.74
612.841	29216.36
613.198	28997.16
613.554	29062.02
613.911	29237.15
614.267	29234.9
614.624	29325.97
614.98	29363.25
615.337	29499.52
615.693	29356.93
616.05	29408.22
616.406	29443.93
616.762	29506.07
617.118	29523.02
617.475	29531.38
617.831	29530.48
618.187	29652.96
618.543	29654.09
618.899	29761.21
619.255	29640.76
619.611	29645.51
619.967	29763.24
620.323	29699.29
620.678	29696.35
621.034	29651.38
621.39	29651.16
621.746	29677.6
622.101	30076.68
622.457	29668.56
622.812	29808.21
623.168	29850.47
623.523	29854.54
623.879	30065.16
624.234	29614.77
624.589	29889.12
624.945	29957.36
625.3	29958.94
625.655	29800.98
626.01	29909.23
626.365	29785.39
626.72	29902
627.075	29895.44
627.43	29933.86
627.785	29863.58
628.14	29802.56
628.495	29895.67
628.85	29854.09
629.205	29650.25
629.559	29848.66
629.914	29809.12
630.269	29811.6
630.623	29724.6
630.978	29613.64
631.332	29809.8
631.687	29839.63
632.041	29666.97
632.396	29676.47
632.75	29601.44
633.104	29612.29
633.459	29542.91
633.813	29414.33
634.167	29535.68
634.521	29472.18
634.875	29548.11
635.229	29524.15
635.583	29318.28
635.937	29360.54
636.291	29381.78
636.645	29192.64
636.999	29213.88
637.352	29281.67
637.706	29206.42
638.06	29202.58
638.413	29277.38
638.767	29144.5
639.121	29121.23
639.474	28909.48
639.828	28979.76
640.181	29056.59
640.534	29043.94
640.888	28813.44
641.241	28801.46
641.594	28857.28
641.947	28933.43
642.301	28793.32
642.654	28893.44
643.007	28846.2
643.36	28771.63
643.713	28746.55
644.066	28760.56
644.419	28513.33
644.771	28500.9
645.124	28269.5
645.477	28264.53
645.83	28036.06
646.182	27883.97
646.535	27830.86
646.888	27743.18
647.24	27603.53
647.593	27765.1
647.945	27622.51
648.298	27600.59
648.65	27550.65
649.002	27408.05
649.355	27563.3
649.707	27540.48
650.059	27723.3
650.411	27952.89
650.763	27922.61
651.115	28294.58
651.467	28221.36
651.819	28116.73
652.171	28152.44
652.523	28078.32
652.875	27971.65
653.227	27843.29
653.578	28040.8
653.93	27968.71
654.282	27877.19
654.633	27744.09
654.985	27839.23
655.337	27928.26
655.688	27854.82
656.039	28090.97
656.391	27660.7
656.742	27662.06
657.094	27791.77
657.445	27906.57
657.796	27868.6
658.147	27745.44
658.498	27682.39
658.849	27736.86
659.2	27663.19
659.551	27732.56
659.902	27762.84
660.253	27667.93
660.604	27786.57
660.955	27543.41
661.306	27673.58
661.656	27601.49
662.007	27529.86
662.358	27574.83
662.708	27566.69
663.059	27542.06
663.409	27435.85
663.76	27632.45
664.11	27600.81
664.461	27509.29
664.811	27553.36
665.161	27533.47
665.511	27394.72
665.862	27605.11
666.212	27493.7
666.562	27603.3
666.912	27443.98
667.262	27412.34
667.612	27415.28
667.962	27467.26
668.312	27314.95
668.662	27541.83
669.011	27432.46
669.361	27315.4
669.711	27363.53
670.06	27215.51
670.41	27347.26
670.76	27241.05
671.109	27425.23
671.459	27396.3
671.808	27215.74
672.157	27402.17
672.507	27207.6
672.856	27094.61
673.205	27273.36
673.554	27168.51
673.904	27195.85
674.253	27305.91
674.602	27312.23
674.951	26793.6
675.3	26629.09
675.649	27074.05
675.998	27138.23
676.346	27075.18
676.695	27158.34
677.044	26985.24
677.393	27035.18
677.741	26937.78
678.09	26862.53
678.438	26669.76
678.787	26884.9
679.135	26856.65
679.484	26555.42
679.832	26732.59
680.181	26663.21
680.529	26841.51
680.877	26636.77
681.225	26585.02
681.573	26801.74
681.922	26615.98
682.27	26561.75
682.618	26602.42
682.966	26568.3
683.314	26679.26
683.661	26429.09
684.009	26352.94
684.357	26443.56
684.705	26312.94
685.053	26298.48
685.4	26122.43
685.748	26083.34
686.095	26009.22
686.443	25931.71
686.79	25871.14
687.138	25807.41
687.485	26013.51
687.832	25893.29
688.18	25880.18
688.527	25702.56
688.874	25689
689.221	25744.14
689.568	25623.46
689.915	25547.76
690.262	25575.56
690.609	25513.86
690.956	25397.03
691.303	25381.89
691.65	25327.65
691.997	25246.3
692.344	25053.08
692.69	25086.76
693.037	25079.07
693.383	24942.8
693.73	25010.6
694.077	24782.81
694.423	24753.21
694.769	24642.47
695.116	24625.52
695.462	24610.16
695.808	24520.67
696.155	24590.72
696.501	24381.01
696.847	24425.3
697.193	24142.37
697.539	24268.25
697.885	24114.35
698.231	24065.77
698.577	24096.05
698.923	24081.13
699.269	23901.48
699.614	23901.7
699.96	23764.76
700.306	23793
700.651	23626.23
700.997	23577.87
701.342	23573.58
701.688	23533.8
702.033	23401.38
702.379	23396.86
702.724	23303.98
703.069	23379.68
703.415	23066.92
703.76	23116.41
704.105	23123.64
704.45	23116.41
704.795	22874.61
705.14	22910.09
705.485	22918.9
705.83	22802.52
706.175	22752.13
706.52	22773.6
706.865	22634.39
707.209	22580.83
707.554	22526.14
707.899	22538.8
708.243	22542.19
708.588	22333.83
708.932	22254.74
709.277	22337
709.621	22321.63
709.966	22114.86
710.31	22251.58
710.654	22036.67
710.998	21942.21
711.342	22071.92
711.687	22062.65
712.031	21821.3
712.375	21800.29
712.719	21968.65
713.063	21704.92
713.407	21776.56
713.75	21701.53
714.094	21832.6
714.438	21633.06
714.782	21672.83
715.125	21553.29
715.469	21570.92
715.812	21419.06
716.156	21328.66
716.499	21389.23
716.843	21294.54
717.186	21194.2
717.53	21322.33
717.873	21229.91
718.216	21200.3
718.559	21216.35
718.902	20997.37
719.246	21098.61
719.589	20872.18
719.932	20931.61
720.275	20881.44
720.617	20902.01
720.96	20821.56
721.303	20846.19
721.646	20742.46
721.989	20746.53
722.331	20777.72
722.674	20623.37
723.016	20676.02
723.359	20531.4
723.701	20570.94
724.044	20485.97
724.386	20309.03
724.729	20479.87
725.071	20457.05
725.413	20339.99
725.755	20285.07
726.097	20225.41
726.439	20245.75
726.782	20245.98
727.124	20216.83
727.465	20115.13
727.807	20168.01
728.149	20145.19
728.491	20007.57
728.833	20068.81
729.175	20103.16
729.516	19959.88
729.858	19892.32
730.199	20025.19
730.541	19897.51
730.882	19860
731.224	19835.59
731.565	19805.54
731.906	19849.15
732.248	19716.95
732.589	19731.19
732.93	19636.05
733.271	19734.35
733.612	19810.51
733.953	19633.34
734.294	19525.32
734.635	19576.17
734.976	19605.54
735.317	19512.66
735.658	19490.97
735.999	19486.68
736.339	19471.54
736.68	19477.64
737.021	19391.99
737.361	19320.58
737.702	19344.08
738.042	19301.82
738.383	19215.27
738.723	19245.1
739.063	19179.11
739.404	19292.78
739.744	19138.44
740.084	19144.31
740.424	19057.99
740.764	19070.19
741.104	19158.32
741.444	19032.45
741.784	18973.02
742.124	18945.9
742.464	18991.55
742.804	19003.98
743.143	18884.43
743.483	18897.77
743.823	18812.34
744.162	18804.89
744.502	18782.74
744.841	18774.38
745.181	18803.98
745.52	18630.88
745.86	18686.7
746.199	18687.15
746.538	18572.58
746.877	18692.35
747.216	18642.41
747.556	18592.24
747.895	18628.62
748.234	18513.6
748.573	18347.27
748.911	18436.08
749.25	18326.93
749.589	18338.23
749.928	18287.39
750.267	18306.37
750.605	18295.75
750.944	18173.04
751.283	18186.82
751.621	18194.96
751.96	18021.18
752.298	17982.54
752.636	18049.43
752.975	17917.9
753.313	17810.34
753.651	17931.24
753.989	17802.2
754.327	17787.96
754.666	17686.05
755.004	17751.36
755.342	17791.35
