Data from breadboard_white_FLMS001491_00100.txt Node
Date: Wed Feb 08 10:48:34 GMT 2017
User: dcchb
Spectrometer: FLMS00149
Trigger mode: 0
Integration Time (sec): 2.000000E-2
Scans to average: 10
Electric dark correction enabled: true
Nonlinearity correction enabled: false
Boxcar width: 0
XAxis mode: Wavelengths
Number of Pixels in Spectrum: 2048
>>>>>Begin Spectral Data<<<<<
341.393	-7.9
341.776	-7.9
342.16	-7.9
342.543	-51.96
342.927	-63.71
343.31	-56.03
343.693	-66.42
344.077	-65.29
344.46	-62.13
344.843	-45.41
345.226	-35.69
345.61	-33.43
345.993	-31.62
346.376	-11.96
346.759	12.22
347.142	35.49
347.525	46.11
347.908	33.69
348.291	74.59
348.674	95.6
349.057	110.29
349.44	116.4
349.823	151.87
350.206	185.77
350.588	208.37
350.971	241.14
351.354	220.57
351.737	261.25
352.119	284.75
352.502	275.49
352.884	263.74
353.267	298.09
353.65	310.74
354.032	298.54
354.414	311.64
354.797	304.41
355.179	330.4
355.562	330.63
355.944	344.19
356.326	332.89
356.709	358.65
357.091	341.93
357.473	331.98
357.855	356.39
358.238	369.95
358.62	358.87
359.002	347.8
359.384	350.51
359.766	355.71
360.148	345.77
360.53	345.09
360.912	345.99
361.294	353.68
361.676	337.86
362.057	349.38
362.439	343.51
362.821	348.93
363.203	351.19
363.584	361.81
363.966	335.37
364.348	320.46
364.729	326.11
365.111	330.85
365.493	342.15
365.874	325.88
366.256	343.96
366.637	326.79
367.019	354.13
367.4	319.55
367.781	329.05
368.163	326.33
368.544	345.99
368.925	328.14
369.306	342.38
369.688	333.79
370.069	339.44
370.45	332.43
370.831	327.46
371.212	339.67
371.593	338.99
371.974	348.71
372.355	325.88
372.736	320.46
373.117	352.1
373.498	339.89
373.879	336.28
374.26	329.72
374.641	355.26
375.021	344.41
375.402	353.23
375.783	346.67
376.163	366.11
376.544	375.37
376.925	371.76
377.305	343.51
377.686	346.45
378.066	371.98
378.447	366.11
378.827	377.41
379.208	357.52
379.588	356.39
379.968	370.4
380.349	388.7
380.729	366.78
381.109	357.97
381.489	382.6
381.87	374.24
382.25	386.9
382.63	406.56
383.01	400.91
383.39	389.16
383.77	403.62
384.15	398.65
384.53	365.2
384.91	395.03
385.29	395.26
385.67	409.49
386.049	428.48
386.429	409.27
386.809	423.96
387.189	413.79
387.568	414.01
387.948	435.48
388.328	433.22
388.707	434.35
389.087	442.04
389.466	451.75
389.846	453.11
390.225	456.73
390.605	441.58
390.984	456.95
391.363	456.95
391.743	469.15
392.122	485.2
392.501	483.17
392.881	488.59
393.26	470.96
393.639	488.81
394.018	480
394.397	489.49
394.776	501.7
395.155	527.01
395.534	486.1
395.913	538.53
396.292	549.83
396.671	537.4
397.05	556.84
397.429	542.6
397.808	555.93
398.186	554.8
398.565	556.61
398.944	571.52
399.323	583.73
399.701	591.86
400.08	597.51
400.458	610.85
400.837	607.91
401.215	624.63
401.594	621.69
401.972	623.05
402.351	648.58
402.729	664.4
403.107	665.99
403.486	682.03
403.864	683.16
404.242	689.49
404.62	704.4
404.999	688.13
405.377	722.48
405.755	749.82
406.133	735.81
406.511	767.68
406.889	747.11
407.267	788.02
407.645	796.83
408.023	801.35
408.401	821.01
408.779	846.55
409.156	870.27
409.534	878.64
409.912	903.04
410.29	907.79
410.667	908.46
411.045	955.7
411.422	943.72
411.8	970.38
412.178	961.57
412.555	1001.57
412.933	1016.71
413.31	1042.25
413.687	1044.51
414.065	1063.71
414.442	1042.47
414.819	1096.93
415.197	1105.97
415.574	1145.52
415.951	1178.06
416.328	1186.88
416.705	1169.7
417.082	1178.74
417.46	1204.28
417.837	1227.33
418.214	1235.24
418.591	1253.77
418.967	1300.32
419.344	1306.87
419.721	1279.3
420.098	1306.65
420.475	1368.11
420.852	1350.04
421.228	1372.41
421.605	1388.23
421.982	1393.88
422.358	1443.59
422.735	1427.1
423.111	1452.18
423.488	1479.07
423.864	1496.47
424.241	1514.32
424.617	1507.77
424.994	1523.36
425.37	1573.53
425.746	1601.1
426.123	1579.86
426.499	1609.92
426.875	1619.18
427.251	1677.48
427.627	1695.11
428.003	1682.91
428.379	1730.14
428.756	1741.21
429.132	1794.09
429.507	1791.83
429.883	1823.92
430.259	1882.45
430.635	1845.16
431.011	1876.57
431.387	1948.44
431.763	1964.48
432.138	2008.32
432.514	2035.44
432.89	2014.65
433.265	2066.17
433.641	2117.02
434.016	2096
434.392	2155.44
434.767	2227.98
435.143	2192.95
435.518	2219.16
435.894	2269.11
436.269	2296.9
436.644	2328.31
437.02	2348.88
437.395	2348.43
437.77	2376.22
438.145	2426.17
438.52	2426.39
438.895	2474.98
439.271	2528.99
439.646	2582.55
440.021	2539.16
440.395	2566.5
440.77	2547.97
441.145	2581.19
441.52	2657.57
441.895	2649.66
442.27	2698.25
442.645	2702.99
443.019	2723.33
443.394	2716.1
443.769	2743.44
444.143	2730.34
444.518	2787.29
444.892	2770.79
445.267	2771.24
445.641	2835.19
446.016	2877.68
446.39	2910.22
446.764	2939.82
447.139	2887.4
447.513	2963.78
447.887	2945.25
448.262	2978.92
448.636	3013.72
449.01	3058.24
449.384	3114.51
449.758	3089.42
450.132	3154.28
450.506	3167.39
450.88	3190.21
451.254	3180.5
451.628	3272.92
452.002	3269.31
452.376	3299.59
452.75	3316.31
453.123	3379.13
453.497	3374.61
453.871	3463.88
454.244	3559.02
454.618	3547.72
454.992	3604.21
455.365	3623.2
455.739	3719.92
456.112	3693.48
456.486	3718.11
456.859	3793.13
457.232	3890.53
457.606	3864.77
457.979	3924.2
458.352	3990.64
458.725	4107.93
459.099	4101.15
459.472	4191.09
459.845	4195.84
460.218	4294.59
460.591	4301.6
460.964	4289.17
461.337	4425.66
461.71	4506.11
462.083	4503.17
462.456	4535.04
462.829	4577.07
463.201	4672.21
463.574	4717.63
463.947	4782.26
464.32	4888.7
464.692	4914.69
465.065	4949.04
465.438	5046.21
465.81	5111.07
466.183	5145.64
466.555	5269.25
466.928	5293.43
467.3	5293.21
467.672	5394.9
468.045	5587.89
468.417	5541.56
468.789	5545.41
469.161	5634.44
469.534	5773.87
469.906	5875.79
470.278	5920.54
470.65	5983.13
471.022	6099.29
471.394	6251.6
471.766	6290.02
472.138	6366.85
472.51	6540.86
472.882	6633.06
473.253	6700.85
473.625	6766.16
473.997	6922.09
474.369	6967.97
474.74	7007.97
475.112	7209.99
475.484	7331.57
475.855	7478.69
476.227	7505.58
476.598	7710.77
476.97	7823.99
477.341	8013.81
477.713	8069.41
478.084	8115.51
478.455	8344.2
478.827	8431.88
479.198	8697.86
479.569	8710.52
479.94	8986.44
480.311	9077.29
480.682	9211.07
481.053	9470.05
481.424	9554.11
481.795	9668.69
482.166	9884.73
482.537	9977.6
482.908	10218.05
483.279	10301.66
483.65	10515.22
484.021	10697.81
484.391	10788.88
484.762	10877.92
485.133	11039.27
485.503	11247.85
485.874	11372.6
486.244	11540.05
486.615	11756.54
486.985	11911.57
487.356	12172.58
487.726	12304.55
488.097	12510.87
488.467	12645.78
488.837	12870.41
489.207	12943.85
489.578	13133.23
489.948	13270.4
490.318	13462.49
490.688	13509.72
491.058	13799.2
491.428	14008.01
491.798	14091.17
492.168	14351.05
492.538	14420.43
492.908	14623.58
493.278	14724.37
493.648	14869.91
494.017	14994.2
494.387	15265.6
494.757	15342.66
495.126	15479.16
495.496	15515.76
495.866	15663.56
496.235	15858.13
496.605	15986.49
496.974	16126.14
497.344	16217.44
497.713	16348.28
498.082	16504.44
498.452	16738.78
498.821	16784.21
499.19	16899.91
499.559	17021.49
499.928	17071.43
500.298	17235.27
500.667	17412.66
501.036	17437.3
501.405	17614.92
501.774	17655.37
502.143	17869.83
502.512	17922.48
502.88	18061.01
503.249	18154.57
503.618	18305.75
503.987	18423.94
504.356	18613.99
504.724	18742.35
505.093	18833.19
505.462	18907.09
505.83	18952.06
506.199	19209.9
506.567	19404.48
506.936	19482.67
507.304	19659.16
507.672	19831.13
508.041	19885.82
508.409	20055.98
508.777	20238.35
509.145	20328.75
509.514	20426.6
509.882	20540.04
510.25	20624.56
510.618	20793.37
510.986	20930.31
511.354	21079.69
511.722	21330.98
512.09	21522.61
512.458	21523.29
512.826	21701.59
513.193	21903.84
513.561	22054.8
513.929	22175.7
514.297	22363.95
514.664	22429.93
515.032	22594.67
515.4	22789.47
515.767	22853.2
516.135	23126.19
516.502	22993.31
516.869	23444.37
517.237	23469.23
517.604	23570.92
517.972	23817.47
518.339	24046.16
518.706	24102.66
519.073	24280.73
519.44	24457.68
519.808	24781.51
520.175	24657.22
520.542	25126.81
520.909	25146.47
521.276	25252.01
521.643	25517.54
522.009	25832.1
522.376	25991.65
522.743	26149.84
523.11	26453.56
523.477	26677.5
523.843	26642.25
524.21	27075.46
524.577	27225.96
524.943	27308.67
525.31	27672.96
525.676	27873.63
526.043	27980.52
526.409	28144.13
526.776	28587.51
527.142	28586.83
527.508	28786.38
527.874	28995.41
528.241	29196.99
528.607	29288.51
528.973	29591.33
529.339	29651.21
529.705	29900.02
530.071	30151.09
530.437	30287.35
530.803	30449.38
531.169	30726.44
531.535	30631.3
531.901	30817.51
532.267	30939.31
532.632	31170.95
532.998	31335.91
533.364	31430.15
533.73	31607.32
534.095	31747.2
534.461	31946.07
534.826	32223.57
535.192	32296.79
535.557	32462.44
535.923	32523.68
536.288	32603
536.653	32788.3
537.019	32817.46
537.384	33028.75
537.749	33085.7
538.114	33296.54
538.479	33237.78
538.845	33536.99
539.21	33476.2
539.575	33645.23
539.94	33708.73
540.305	33913.25
540.67	34062.4
541.034	34117.99
541.399	34290.19
541.764	34411.09
542.129	34432.1
542.494	34627.58
542.858	34825.54
543.223	34969.49
543.587	35038.41
543.952	34940.56
544.316	35132.42
544.681	35110.05
545.045	35319.76
545.41	35575.12
545.774	35699.87
546.138	35654.22
546.503	35851.5
546.867	35843.37
547.231	35946.87
547.595	36117.71
547.959	36274.77
548.324	36292.39
548.688	36588.43
549.052	36578.26
549.416	36723.57
549.779	36767.18
550.143	36924.69
550.507	37181.64
550.871	37373.04
551.235	37269.54
551.599	37647.39
551.962	37545.47
552.326	37825.69
552.689	38065.68
553.053	37889.19
553.417	38082.85
553.78	38512.45
554.143	38347.03
554.507	38634.25
554.87	38648.72
555.234	39143.17
555.597	38779.56
555.96	39181.58
556.323	39341.13
556.686	39240.79
557.05	39501.12
557.413	39728.69
557.776	39834.67
558.139	40133.87
558.502	40107.66
558.865	40235.57
559.228	40565.73
559.59	40577.25
559.953	40626.06
560.316	41153.96
560.679	41158.03
561.041	41390.34
561.404	41456.1
561.767	41739.71
562.129	41775.19
562.492	42247.94
562.854	42135.63
563.217	42037.55
563.579	42259.92
563.941	42641.6
564.304	42854.48
564.666	43172.89
565.028	43023.52
565.39	43279.55
565.753	43297.86
566.115	43578.53
566.477	43808.35
566.839	43928.8
567.201	44080.89
567.563	44167.44
567.925	44380.32
568.287	44479.97
568.648	44597.71
569.01	44757.26
569.372	45016.46
569.734	44873.86
570.095	45288.09
570.457	45371.02
570.819	45422.55
571.18	45411.93
571.542	45775.31
571.903	45659.15
572.265	45946.6
572.626	46061.18
572.987	46073.38
573.349	46305.92
573.71	46333.03
574.071	46447.15
574.432	46604.44
574.794	46938.44
575.155	46862.28
575.516	46858.67
575.877	46950.64
576.238	47005.78
576.599	46998.55
576.96	47127.81
577.32	47239.9
577.681	47316.74
578.042	47315.61
578.403	47371.2
578.763	47374.14
579.124	47469.5
579.485	47549.72
579.845	47687.57
580.206	47554.92
580.566	47609.38
580.927	47735.03
581.287	47889.38
581.648	47777.06
582.008	48060.22
582.368	47823.16
582.728	48033.33
583.089	47839.89
583.449	47879.21
583.809	47945.42
584.169	47943.39
584.529	47890.96
584.889	48102.7
585.249	48058.41
585.609	47878.98
585.969	48116.94
586.329	48041.91
586.688	48209.37
587.048	47962.82
587.408	47985.19
587.768	47949.71
588.127	47903.84
588.487	47927.34
588.846	48174.57
589.206	47915.59
589.565	48079.2
589.925	48242.59
590.284	48020.22
590.643	48098.18
591.003	48216.83
591.362	48376.14
591.721	48237.62
592.08	48245.98
592.44	48329.59
592.799	48372.08
593.158	48312.64
593.517	48350.16
593.876	48482.58
594.235	48328.46
594.593	48272.64
594.952	48406.42
595.311	48167.11
595.67	48419.31
596.029	48553.99
596.387	48573.2
596.746	48682.8
597.104	48498.63
597.463	48452.53
597.822	48620.43
598.18	48450.04
598.538	48490.04
598.897	48694.33
599.255	48464.95
599.613	48876.7
599.972	48643.03
600.33	48827.2
600.688	48544.95
601.046	48798.96
601.404	48918.73
601.762	48850.48
602.12	48993.08
602.478	49060.65
602.836	48953.53
603.194	48737.72
603.552	48993.3
603.91	48920.99
604.268	49032.62
604.625	48980.87
604.983	49139.29
605.341	48941.55
605.698	49210.92
606.056	49194.88
606.413	49166.63
606.771	49239.62
607.128	49365.5
607.485	49255.44
607.843	49183.13
608.2	49437.58
608.557	49531.82
608.914	49329.34
609.272	49633.74
609.629	49554.87
609.986	49734.98
610.343	49513.29
610.7	49788.08
611.057	49793.51
611.414	49654.75
611.771	49823.79
612.127	49839.38
612.484	49761.64
612.841	49972.03
613.198	49822.21
613.554	49881.64
613.911	50122.54
614.267	49989.21
614.624	50150.79
614.98	50142.65
615.337	50281.4
615.693	50217
616.05	50194.63
616.406	50330.67
616.762	50228.52
617.118	50231.46
617.475	50166.38
617.831	50326.6
618.187	50382.64
618.543	50423.1
618.899	50677.33
619.255	50447.5
619.611	50460.61
619.967	50582.41
620.323	50652.47
620.678	50507.61
621.034	50502.19
621.39	50424.23
621.746	50524.34
622.101	50692.69
622.457	50631.23
622.812	50613.6
623.168	50674.61
623.523	50638.91
623.879	50725.91
624.234	50599.36
624.589	50759.13
624.945	50693.14
625.3	50653.82
625.655	50680.72
626.01	50627.61
626.365	50653.6
626.72	50544.67
627.075	50653.82
627.43	50607.5
627.785	50617.44
628.14	50620.83
628.495	50635.07
628.85	50619.47
629.205	50327.73
629.559	50608.85
629.914	50542.64
630.269	50474.62
630.623	50372.25
630.978	50265.81
631.332	50562.75
631.687	50563.43
632.041	50402.98
632.396	50556.42
632.75	50253.83
633.104	50308.97
633.459	50214.96
633.813	50176.32
634.167	50089.32
634.521	50021.3
634.875	50121.63
635.229	50018.13
635.583	49813.85
635.937	49936.78
636.291	49923.22
636.645	49818.59
636.999	49822.66
637.352	49857.23
637.706	49528.2
638.06	49892.04
638.413	49556.9
638.767	49510.35
639.121	49717.58
639.474	49387.64
639.828	49402.33
640.181	49481.65
640.534	49438.71
640.888	49254.31
641.241	49247.76
641.594	49230.58
641.947	49233.52
642.301	49110.36
642.654	49234.88
643.007	49157.82
643.36	49122.79
643.713	48971.83
644.066	49152.17
644.419	48992.4
644.771	48784.95
645.124	48546.99
645.477	48444.16
645.83	48147.67
646.182	47958.75
646.535	47619.33
646.888	47747.91
647.24	47551.53
647.593	47674.24
647.945	47681.47
648.298	47380.92
648.65	47402.38
649.002	47195.38
649.355	47467.01
649.707	47343.4
650.059	47501.14
650.411	47914.01
650.763	47985.42
651.115	48357.39
651.467	48111.74
651.819	48114.68
652.171	48094.79
652.523	48056.83
652.875	48139.77
653.227	47846.44
653.578	48029.94
653.93	47962.37
654.282	47806.67
654.633	47714.69
654.985	47747.91
655.337	47807.34
655.688	47732.54
656.039	47910.39
656.391	47522.15
656.742	47543.85
657.094	47607.58
657.445	47708.82
657.796	47582.27
658.147	47507.01
658.498	47579.55
658.849	47503.17
659.2	47578.65
659.551	47410.29
659.902	47538.2
660.253	47478.77
660.604	47368.94
660.955	47164.65
661.306	47309.28
661.656	47246.91
662.007	47234.03
662.358	47316.96
662.708	47330.52
663.059	47128.94
663.409	47064.77
663.76	47231.09
664.11	47262.95
664.461	47246.91
664.811	47201.94
665.161	47177.08
665.511	46985.9
665.862	46973.92
666.212	47161.71
666.562	47173.01
666.912	47090.53
667.262	47099.11
667.612	47153.8
667.962	47173.91
668.312	46964.43
668.662	47118.1
669.011	47067.7
669.361	46948.84
669.711	46994.26
670.06	46997.65
670.41	46934.37
670.76	46718.11
671.109	46830.87
671.459	46795.62
671.808	46695.96
672.157	46740.48
672.507	46441.05
672.856	46683.08
673.205	46681.95
673.554	46686.02
673.904	46474.72
674.253	46742.74
674.602	46562.41
674.951	46049.2
675.3	45852.59
675.649	46309.98
675.998	46387.49
676.346	46336.42
676.695	46499.58
677.044	46098.01
677.393	46321.51
677.741	46285.35
678.09	46096.43
678.438	46100.95
678.787	46046.71
679.135	46032.25
679.484	45818.02
679.832	46041.74
680.181	45690.79
680.529	45860.28
680.877	45782.99
681.225	45697.8
681.573	45961.29
681.922	45635.2
682.27	45581.41
682.618	45569.21
682.966	45422.77
683.314	45604.01
683.661	45322.44
684.009	45100.98
684.357	45115.89
684.705	45037.7
685.053	45143.69
685.4	45092.61
685.748	44826.63
686.095	44791.6
686.443	44709.8
686.79	44607.65
687.138	44756.35
687.485	44605.85
687.832	44440.2
688.18	44498.05
688.527	44233.2
688.874	44181.23
689.221	44150.49
689.568	43980.33
689.915	43957.05
690.262	43875.7
690.609	43805.42
690.956	43531.07
691.303	43726.77
691.65	43284.75
691.997	43553.67
692.344	43183.51
692.69	43244.3
693.037	43162.5
693.383	42704.43
693.73	43078.2
694.077	42575.62
694.423	42699.68
694.769	42606.35
695.116	42482.51
695.462	42307.38
695.808	42231.9
696.155	42322.74
696.501	41943.77
696.847	42129.98
697.193	41667.85
697.539	41918.91
697.885	41599.82
698.231	41572.25
698.577	41525.02
698.923	41457.68
699.269	41219.72
699.614	41060.18
699.96	40935.89
700.306	41030.57
700.651	40868.77
700.997	40668.78
701.342	40561.89
701.688	40509.91
702.033	40376.13
702.379	40483.02
702.724	40401.21
703.069	40381.78
703.415	39859.08
703.76	39973.88
704.105	39908.34
704.45	39783.15
704.795	39647.33
705.14	39440.33
705.485	39480.11
705.83	39279.21
706.175	39413.89
706.52	39234.91
706.865	39023.62
707.209	39000.34
707.554	38911.31
707.899	38989.05
708.243	38800.58
708.588	38680.13
708.932	38350.64
709.277	38477.19
709.621	38419.12
709.966	38168.73
710.31	38162.85
710.654	37945.91
710.998	37943.65
711.342	38033.59
711.687	37839.7
712.031	37709.76
712.375	37708.63
712.719	37549.54
713.063	37424.79
713.407	37496.66
713.75	37388.64
714.094	37411.23
714.438	37136.89
714.782	37232.03
715.125	36928.76
715.469	37113.84
715.812	36790.46
716.156	36811.02
716.499	36688.54
716.843	36815.54
717.186	36535.32
717.53	36716.11
717.873	36569.22
718.216	36554.53
718.559	36324.03
718.902	36115.22
719.246	36164.03
719.589	36044.04
719.932	35992.29
720.275	36030.71
720.617	35865.96
720.96	35796.14
721.303	35827.77
721.646	35762.24
721.989	35552.98
722.331	35758.85
722.674	35564.05
723.016	35443.6
723.359	35519.08
723.701	35426.65
724.044	35180.56
724.386	35134.68
724.729	35287.22
725.071	35040
725.413	35165.64
725.755	35072.31
726.097	34766.78
726.439	34654.7
726.782	34663.51
727.124	34970.17
727.465	34684.3
727.807	34556.85
728.149	34494.47
728.491	34362.5
728.833	34444.76
729.175	34331.54
729.516	34312.33
729.858	34311.65
730.199	34298.55
730.541	34164.09
730.882	34130.42
731.224	34167.25
731.565	33907.82
731.906	33972.23
732.248	33882.29
732.589	33815.62
732.93	33652.69
733.271	33773.36
733.612	33748.96
733.953	33683.42
734.294	33535.63
734.635	33378.12
734.976	33421.28
735.317	33454.05
735.658	33300.16
735.999	33267.39
736.339	33307.16
736.68	33303.77
737.021	33115.53
737.361	33034.85
737.702	33216.77
738.042	32942.88
738.383	32885.03
738.723	32964.8
739.063	32944.23
739.404	32838.47
739.744	32721.19
740.084	32554.19
740.424	32544.7
740.764	32623.34
741.104	32635.31
741.444	32419.5
741.784	32358.03
742.124	32438.26
742.464	32358.03
742.804	32274.19
743.143	32080.3
743.483	32087.53
743.823	32034.88
744.162	32001.43
744.502	32042.56
744.841	31789.69
745.181	32000.75
745.52	31782.68
745.86	31864.26
746.199	31714.66
746.538	31713.98
746.877	31714.89
747.216	31639.86
747.556	31483.48
747.895	31542.69
748.234	31332.3
748.573	31208.01
748.911	31367.32
749.25	31205.97
749.589	31100.21
749.928	31191.51
750.267	31138.4
750.605	30980.89
750.944	30898.41
751.283	30790.39
751.621	30861.35
751.96	30681.92
752.298	30649.83
752.636	30644.41
752.975	30406.45
