Data from breadboard_black_back_FLMS001491_00048.txt Node
Date: Wed Feb 08 10:50:27 GMT 2017
User: dcchb
Spectrometer: FLMS00149
Trigger mode: 0
Integration Time (sec): 2.000000E-2
Scans to average: 10
Electric dark correction enabled: true
Nonlinearity correction enabled: false
Boxcar width: 0
XAxis mode: Wavelengths
Number of Pixels in Spectrum: 2048
>>>>>Begin Spectral Data<<<<<
341.393	-19.53
341.776	-19.53
342.16	-19.53
342.543	-74.22
342.927	-57.72
343.31	-76.26
343.693	-50.72
344.077	-56.37
344.46	-55.46
344.843	-65.18
345.226	-47.33
345.61	-24.05
345.993	-32.41
346.376	-5.75
346.759	14.14
347.142	36.06
347.525	39.67
347.908	61.82
348.291	64.08
348.674	88.94
349.057	108.82
349.44	123.97
349.823	129.84
350.206	176.17
350.588	188.82
350.971	238.31
351.354	236.73
351.737	256.17
352.119	248.26
352.502	291.19
352.884	282.61
353.267	276.28
353.65	283.96
354.032	280.57
354.414	310.4
354.797	318.31
355.179	311.31
355.562	324.86
355.944	336.62
356.326	340.23
356.709	335.94
357.091	354.02
357.473	333.68
357.855	321.25
358.238	333.45
358.62	330.51
359.002	349.72
359.384	341.81
359.766	341.36
360.148	355.37
360.53	347.69
360.912	329.84
361.294	347.01
361.676	334.13
362.057	334.58
362.439	326.67
362.821	346.56
363.203	336.39
363.584	346.78
363.966	333.68
364.348	338.88
364.729	336.39
365.111	326.67
365.493	346.11
365.874	348.37
366.256	359.67
366.637	347.91
367.019	309.72
367.4	357.18
367.781	328.48
368.163	322.38
368.544	320.8
368.925	323.28
369.306	332.55
369.688	347.46
370.069	329.16
370.45	315.83
370.831	331.42
371.212	325.32
371.593	349.5
371.974	334.36
372.355	346.56
372.736	360.57
373.117	337.75
373.498	359.21
373.879	343.17
374.26	352.89
374.641	349.5
375.021	336.84
375.402	367.35
375.783	356.05
376.163	376.16
376.544	383.39
376.925	370.96
377.305	333.9
377.686	348.37
378.066	358.54
378.447	362.6
378.827	375.71
379.208	398.53
379.588	382.72
379.968	382.26
380.349	381.36
380.729	377.97
381.109	387.69
381.489	403.05
381.87	406.9
382.25	399.44
382.63	384.07
383.01	389.04
383.39	411.87
383.77	414.13
384.15	401.7
384.53	412.32
384.91	425.2
385.29	427.23
385.67	417.97
386.049	418.87
386.429	448.25
386.809	422.04
387.189	441.92
387.568	448.25
387.948	436.05
388.328	439.21
388.707	469.72
389.087	439.21
389.466	459.32
389.846	457.97
390.225	451.19
390.605	467.46
390.984	460.68
391.363	484.41
391.743	462.71
392.122	489.38
392.501	470.17
392.881	483.28
393.26	509.27
393.639	509.27
394.018	501.13
394.397	500.45
394.776	495.71
395.155	515.37
395.534	498.19
395.913	510.4
396.292	517.18
396.671	543.39
397.05	562.15
397.429	530.73
397.808	544.52
398.186	537.97
398.565	566.67
398.944	532.99
399.323	548.36
399.701	557.17
400.08	557.63
400.458	544.52
400.837	586.1
401.215	569.38
401.594	574.58
401.972	577.97
402.351	591.98
402.729	577.06
403.107	611.64
403.486	612.31
403.864	590.39
404.242	616.83
404.62	613.9
404.999	625.2
405.377	623.61
405.755	660.9
406.133	647.12
406.511	641.24
406.889	660.67
407.267	673.78
407.645	685.76
408.023	679.88
408.401	665.65
408.779	691.86
409.156	700.22
409.534	712.42
409.912	718.07
410.29	727.34
410.667	753.1
411.045	753.78
411.422	745.19
411.8	757.17
412.178	761.46
412.555	790.84
412.933	764.17
413.31	771.18
413.687	813.67
414.065	812.31
414.442	826.55
414.819	831.74
415.197	812.99
415.574	870.61
415.951	857.28
416.328	858.18
416.705	879.65
417.082	858.18
417.46	923.94
417.837	892.08
418.214	883.72
418.591	884.17
418.967	886.88
419.344	921.68
419.721	916.94
420.098	938.86
420.475	936.6
420.852	970.5
421.228	946.77
421.605	970.72
421.982	971.18
422.358	992.42
422.735	991.97
423.111	989.93
423.488	1000.1
423.864	1023.6
424.241	1037.61
424.617	1071.29
424.994	1069.48
425.37	1068.57
425.746	1065.64
426.123	1084.17
426.499	1112.19
426.875	1115.58
427.251	1138.85
427.627	1140.44
428.003	1144.28
428.379	1153.09
428.756	1169.36
429.132	1203.49
429.507	1188.12
429.883	1217.04
430.259	1224.73
430.635	1211.39
431.011	1262.01
431.387	1259.53
431.763	1299.53
432.138	1310.38
432.514	1329.13
432.89	1326.42
433.265	1350.83
433.641	1381.11
434.016	1391.95
434.392	1389.24
434.767	1441.67
435.143	1425.85
435.518	1451.39
435.894	1468.79
436.269	1485.51
436.644	1487.77
437.02	1512.86
437.395	1500.2
437.77	1529.8
438.145	1560.09
438.52	1571.16
438.895	1597.6
439.271	1606.64
439.646	1615.9
440.021	1649.8
440.395	1664.72
440.77	1614.1
441.145	1671.72
441.52	1671.27
441.895	1674.21
442.27	1709.01
442.645	1701.33
443.019	1736.13
443.394	1703.13
443.769	1754.88
444.143	1735.67
444.518	1768.67
444.892	1772.96
445.267	1791.04
445.641	1826.75
446.016	1826.07
446.39	1829.46
446.764	1836.91
447.139	1822.9
447.513	1876.69
447.887	1869.46
448.262	1870.59
448.636	1913.98
449.01	1905.61
449.384	1929.34
449.758	1960.98
450.132	1996.01
450.506	1981.77
450.88	2026.06
451.254	2020.86
451.628	2027.19
452.002	2035.1
452.376	2045.27
452.75	2115.78
453.123	2093.63
453.497	2158.04
453.871	2157.58
454.244	2200.97
454.618	2240.97
454.992	2276.45
455.365	2244.14
455.739	2340.18
456.112	2373.85
456.486	2360.52
456.859	2361.42
457.232	2421.76
457.606	2465.6
457.979	2438.93
458.352	2506.28
458.725	2560.96
459.099	2551.92
459.472	2577.69
459.845	2616.78
460.218	2644.13
460.591	2668.08
460.964	2662.2
461.337	2779.04
461.71	2783.56
462.083	2839.15
462.456	2840.96
462.829	2830.11
463.201	2913.5
463.574	2925.47
463.947	2967.96
464.32	3035.75
464.692	3057.45
465.065	3040.95
465.438	3121.85
465.81	3177.22
466.183	3142.42
466.555	3266.03
466.928	3261.96
467.3	3289.08
467.672	3350.55
468.045	3423.09
468.417	3470.32
468.789	3431.45
469.161	3484.56
469.534	3583.54
469.906	3642.29
470.278	3691.56
470.65	3695.4
471.022	3786.24
471.394	3837.54
471.766	3892.45
472.138	3950.31
472.51	3997.54
472.882	4095.39
473.253	4099.68
473.625	4172.45
473.997	4273.01
474.369	4254.7
474.74	4302.39
475.112	4472.1
475.484	4443.17
475.855	4554.13
476.227	4613.11
476.598	4764.3
476.97	4761.13
477.341	4865.54
477.713	4970.62
478.084	4937.17
478.455	5119.99
478.827	5162.7
479.198	5299.2
479.569	5299.87
479.94	5440.89
480.311	5483.82
480.682	5640.2
481.053	5730.6
481.424	5858.73
481.795	5888.79
482.166	6020.76
482.537	6060.08
482.908	6132.62
483.279	6209
483.65	6365.16
484.021	6489.45
484.391	6510.69
484.762	6675.88
485.133	6711.36
485.503	6759.05
485.874	6938.02
486.244	6938.93
486.615	7133.5
486.985	7160.62
487.356	7346.83
487.726	7409.2
488.097	7552.7
488.467	7611.9
488.837	7692.58
489.207	7880.6
489.578	7929.18
489.948	8009.86
490.318	8083.08
490.688	8159.69
491.058	8307.03
491.428	8457.53
491.798	8455.05
492.168	8668.6
492.538	8777.52
492.908	8876.05
493.278	8922.83
493.648	8903.62
494.017	9108.14
494.387	9178.42
494.757	9250.28
495.126	9352.88
495.496	9359.66
495.866	9442.14
496.235	9528.69
496.605	9617.73
496.974	9694.79
497.344	9759.64
497.713	9855.69
498.082	9934.78
498.452	10078.96
498.821	10131.84
499.19	10119.41
499.559	10287.09
499.928	10363.02
500.298	10390.81
500.667	10459.97
501.036	10449.34
501.405	10612.96
501.774	10627.64
502.143	10763.46
502.512	10836.68
502.88	10964.36
503.249	10939.73
503.618	11013.17
503.987	11125.48
504.356	11250.9
504.724	11265.82
505.093	11229.66
505.462	11376.55
505.83	11443.22
506.199	11528.41
506.567	11627.62
506.936	11678.46
507.304	11919.14
507.672	11934.5
508.041	11958
508.409	11997.33
508.777	12102.63
509.145	12258.34
509.514	12338.56
509.882	12400.25
510.25	12449.07
510.618	12505.11
510.986	12571.1
511.354	12659.68
511.722	12808.15
512.09	12938.32
512.458	13016.96
512.826	13112.55
513.193	13121.82
513.561	13136.96
513.929	13333.34
514.297	13531.52
514.664	13632.99
515.032	13689.03
515.4	13750.95
515.767	13874.11
516.135	13930.83
516.502	13846.54
516.869	14151.62
517.237	14173.99
517.604	14209.92
517.972	14417.15
518.339	14417.83
518.706	14555
519.073	14656.92
519.44	14675
519.808	14983.01
520.175	14927.87
520.542	15114.08
520.909	15166.96
521.276	15201.99
521.643	15437.69
522.009	15550.68
522.376	15613.05
522.743	15786.6
523.11	15964.45
523.477	16055.98
523.843	16181.17
524.21	16277.67
524.577	16450.09
524.943	16540.71
525.31	16636.07
525.676	16889.63
526.043	16997.87
526.409	16955.39
526.776	17169.17
527.142	17303.85
527.508	17319.45
527.874	17521.93
528.241	17510.85
528.607	17674.01
528.973	17866.32
529.339	17867
529.705	18085.08
530.071	18255.92
530.437	18234.9
530.803	18404.16
531.169	18558.51
531.535	18522.13
531.901	18660.43
532.267	18741.33
532.632	18855.68
532.998	18988.78
533.364	19045.95
533.73	19085.05
534.095	19198.94
534.461	19290.69
534.826	19419.96
535.192	19527.3
535.557	19686.16
535.923	19786.5
536.288	19710.8
536.653	19873.73
537.019	19860.85
537.384	20043.44
537.749	20133.61
538.114	20121.63
538.479	20100.84
538.845	20282.08
539.21	20298.12
539.575	20410.21
539.94	20437.1
540.305	20633.48
540.67	20582.18
541.034	20618.57
541.399	20754.38
541.764	20915.51
542.129	20951.89
542.494	20943.53
542.858	21119.57
543.223	21090.87
543.587	21275.95
543.952	21274.6
544.316	21313.01
544.681	21337.42
545.045	21446.12
545.41	21633
545.774	21754.13
546.138	21673.68
546.503	21761.81
546.867	21825.32
547.231	22007.91
547.595	22058.53
547.959	22136.04
548.324	22220.56
548.688	22254.68
549.052	22389.82
549.416	22439.54
549.779	22525.41
550.143	22388.46
550.507	22675.46
550.871	22762.24
551.235	22680.43
551.599	22936.25
551.962	22952.29
552.326	23017.15
552.689	23133.08
553.053	23147.77
553.417	23131.72
553.78	23536.23
554.143	23462.79
554.507	23670.01
554.87	23724.02
555.234	23846.96
555.597	23811.7
555.96	23964.47
556.323	23969.89
556.686	24088.99
557.05	24262.31
557.413	24242.88
557.776	24308.64
558.139	24447.85
558.502	24592.93
558.865	24670.21
559.228	24850.1
559.59	24907.04
559.953	24956.53
560.316	25230.2
560.679	25277.88
561.041	25471.32
561.404	25528.27
561.767	25599
562.129	25531.66
562.492	25961.93
562.854	25852.78
563.217	25934.36
563.579	26057.97
563.941	26222.71
564.304	26360.11
564.666	26477.85
565.028	26490.28
565.39	26771.85
565.753	26859.99
566.115	26891.4
566.477	27075.35
566.839	27162.35
567.201	27316.47
567.563	27290.26
567.925	27523.25
568.287	27515.34
568.648	27621.32
569.01	27644.6
569.372	27886.17
569.734	27775.89
570.095	28059.28
570.457	28144.25
570.819	28181.76
571.18	28289.55
571.542	28418.14
571.903	28461.53
572.265	28553.5
572.626	28586.95
572.987	28722.54
573.349	28881.63
573.71	28823.1
574.071	29066.26
574.432	29058.12
574.794	29248.17
575.155	29168.4
575.516	29191.45
575.877	29442.29
576.238	29355.29
576.599	29506.02
576.96	29493.36
577.32	29594.6
577.681	29582.63
578.042	29829.63
578.403	29895.84
578.763	29726.8
579.124	29759.57
579.485	29961.83
579.845	29941.94
580.206	30049.51
580.566	29893.35
580.927	30078.66
581.287	30200.01
581.648	29976.97
582.008	30267.58
582.368	30226.9
582.728	30322.27
583.089	30241.14
583.449	30079.34
583.809	30155.49
584.169	30222.84
584.529	30198.66
584.889	30474.35
585.249	30264.42
585.609	30169.05
585.969	30382.61
586.329	30334.47
586.688	30366.79
587.048	30214.47
587.408	30391.19
587.768	30351.87
588.127	30355.26
588.487	30391.87
588.846	30521.58
589.206	30322.04
589.565	30341.02
589.925	30577.85
590.284	30423.06
590.643	30411.53
591.003	30677.06
591.362	30560.45
591.721	30531.75
592.08	30579.44
592.44	30579.21
592.799	30623.28
593.158	30478.87
593.517	30555.48
593.876	30557.97
594.235	30449.04
594.593	30510.74
594.952	30742.82
595.311	30602.49
595.67	30614.46
596.029	30845.19
596.387	30773.78
596.746	30864.17
597.104	30828.02
597.463	30848.36
597.822	30859.65
598.18	30706.44
598.538	30826.89
598.897	31058.07
599.255	30721.58
599.613	31188.91
599.972	30900.11
600.33	31001.57
600.688	30921.12
601.046	30978.07
601.404	31063.04
601.762	31209.02
602.12	31258.51
602.478	31202.02
602.836	31323.6
603.194	31121.79
603.552	31242.47
603.91	31234.79
604.268	31230.94
604.625	31214
604.983	31331.73
605.341	31200.21
605.698	31399.98
606.056	31427.1
606.413	31430.94
606.771	31433.88
607.128	31552.97
607.485	31469.13
607.843	31512.74
608.2	31661.44
608.557	31794.77
608.914	31695.79
609.272	31768.33
609.629	31899.85
609.986	31862.11
610.343	31850.36
610.7	32043.35
611.057	32034.31
611.414	31918.16
611.771	31982.34
612.127	32114.31
612.484	32014.65
612.841	32159.96
613.198	32108.66
613.554	32101.66
613.911	32117.7
614.267	32300.52
614.624	32241.99
614.98	32353.85
615.337	32389.56
615.693	32400.86
616.05	32299.84
616.406	32632.26
616.762	32477.92
617.118	32375.1
617.475	32422.1
617.831	32552.49
618.187	32523.79
618.543	32763.79
618.899	32748.64
619.255	32708.87
619.611	32611.7
619.967	32751.81
620.323	32965.36
620.678	32733.73
621.034	32583
621.39	32709.55
621.746	32625.94
622.101	32996.1
622.457	32685.14
622.812	32804.01
623.168	32971.92
623.523	32829.32
623.879	32832.48
624.234	32758.59
624.589	32868.19
624.945	32934.63
625.3	32892.37
625.655	32872.94
626.01	32911.35
626.365	32844.01
626.72	32784.8
627.075	32906.15
627.43	32806.27
627.785	32900.5
628.14	32830.22
628.495	32845.37
628.85	32759.27
629.205	32769.43
629.559	32924.23
629.914	32777.57
630.269	32765.37
630.623	32615.77
630.978	32660.74
631.332	32662.32
631.687	32798.36
632.041	32554.3
632.396	32560.63
632.75	32472.95
633.104	32666.84
633.459	32482.21
633.813	32343.01
634.167	32505.94
634.521	32395.21
634.875	32555.43
635.229	32341.2
635.583	32283.12
635.937	32339.16
636.291	32318.15
636.645	32264.82
636.999	32153.18
637.352	32332.61
637.706	32100.75
638.06	32283.57
638.413	32063.69
638.767	31956.12
639.121	32013.75
639.474	31885.84
639.828	31794.77
640.181	32016.91
640.534	31930.14
640.888	31788.22
641.241	31557.49
641.594	31771.72
641.947	31776.92
642.301	31641.56
642.654	31560.43
643.007	31637.04
643.36	31686.07
643.713	31576.47
644.066	31594.78
644.419	31585.96
644.771	31303.48
645.124	30979.65
645.477	30944.85
645.83	30835.25
646.182	30572.88
646.535	30409.27
646.888	30470.74
647.24	30357.52
647.593	30460.34
647.945	30229.84
648.298	30161.59
648.65	30097.64
649.002	30023.52
649.355	30225.55
649.707	30185.55
650.059	30330.63
650.411	30770.62
650.763	30663.5
651.115	30959.99
651.467	30892.65
651.819	30886.77
652.171	30802.26
652.523	30722.94
652.875	30684.97
653.227	30544.18
653.578	30776.72
653.93	30756.38
654.282	30616.27
654.633	30414.47
654.985	30490.85
655.337	30579.21
655.688	30438.65
656.039	30601.13
656.391	30373.34
656.742	30458.76
657.094	30393.23
657.445	30519.78
657.796	30378.76
658.147	30462.15
658.498	30281.59
658.849	30455.6
659.2	30368.14
659.551	30311.19
659.902	30444.52
660.253	30461.93
660.604	30380.57
660.955	30242.95
661.306	30219.9
661.656	30225.77
662.007	30119.79
662.358	30230.97
662.708	30158.66
663.059	30073.01
663.409	29977.87
663.76	30269.61
664.11	30228.26
664.461	30123.85
664.811	30089.73
665.161	30161.14
665.511	30115.04
665.862	30040.24
666.212	30262.38
666.562	30115.04
666.912	30009.73
667.262	29933.13
667.612	30101.26
667.962	29971.99
668.312	29798.89
668.662	30123.63
669.011	29943.97
669.361	29942.16
669.711	30080.92
670.06	29879.79
670.41	29842.28
670.76	29882.51
671.109	29871.43
671.459	29794.37
671.808	29828.72
672.157	29861.49
672.507	29608.39
672.856	29618.56
673.205	29676.41
673.554	29747.37
673.904	29608.39
674.253	29857.87
674.602	29614.49
674.951	29263.76
675.3	29027.84
675.649	29516.41
675.998	29512.12
676.346	29549.41
676.695	29613.81
677.044	29362.97
677.393	29445.45
677.741	29469.18
678.09	29312.8
678.438	29299.7
678.787	29419.24
679.135	29397.32
679.484	29198
679.832	29312.8
680.181	29128.17
680.529	29266.7
680.877	29017.44
681.225	29050.89
681.573	29312.12
681.922	28984
682.27	28931.8
682.618	29015.64
682.966	28830.78
683.314	28903.77
683.661	28774.74
684.009	28710.33
684.357	28490.45
684.705	28587.85
685.053	28554.86
685.4	28542.2
685.748	28434.18
686.095	28413.62
686.443	28231.02
686.79	28280.06
687.138	28228.54
687.485	28265.82
687.832	28136.56
688.18	28314.86
688.527	27973.4
688.874	27959.17
689.221	27923.23
689.568	27774.76
689.915	27795.78
690.262	27792.84
690.609	27749
690.956	27628.78
691.303	27533.87
691.65	27411.61
691.997	27504.26
692.344	27335.68
692.69	27323.7
693.037	27285.96
693.383	27107.21
693.73	27135.46
694.077	27104.27
694.423	26852.3
694.769	26852.53
695.116	26999.64
695.462	26720.1
695.808	26659.31
696.155	26817.5
696.501	26575.93
696.847	26462.48
697.193	26325.99
697.539	26316.05
697.885	26276.72
698.231	26224.97
698.577	26232.43
698.923	26119.67
699.269	26070.18
699.614	25980.23
699.96	25822.5
700.306	25716.29
700.651	25685.33
700.997	25667.47
701.342	25605.1
701.688	25658.21
702.033	25498.21
702.379	25443.98
702.724	25365.11
703.069	25474.94
703.415	25241.27
703.76	25205.79
704.105	25145.23
704.45	25052.35
704.795	24881.96
705.14	24998.34
705.485	24834.73
705.83	24740.95
706.175	24805.8
706.52	24654.17
706.865	24633.38
707.209	24667.95
707.554	24547.96
707.899	24490.78
708.243	24387.51
708.588	24408.52
708.932	24264.8
709.277	24304.57
709.621	24260.51
709.966	24180.96
710.31	24180.51
710.654	23895.32
710.998	23940.51
711.342	23832.49
711.687	23915.2
712.031	23772.16
712.375	23704.59
712.719	23680.41
713.063	23668.43
713.407	23691.26
713.75	23600.86
714.094	23503.92
714.438	23476.12
714.782	23490.13
715.125	23359.06
715.469	23494.88
715.812	23334.43
716.156	23084.94
716.499	23094.66
716.843	23246.3
717.186	23132.85
717.53	23246.75
717.873	23257.14
718.216	23112.29
718.559	22973.53
718.902	22917.49
719.246	22799.08
719.589	22780.77
719.932	22703.71
720.275	22714.33
720.617	22726.08
720.96	22726.54
721.303	22610.15
721.646	22597.95
721.989	22577.61
722.331	22537.39
722.674	22431.85
723.016	22428.69
723.359	22506.43
723.701	22392.53
724.044	22307.56
724.386	22106.66
724.729	22255.81
725.071	22079.77
725.413	22180.33
725.755	22072.09
726.097	21967.69
726.439	21951.87
726.782	22004.97
727.124	22100.11
727.465	21925.43
727.807	21890.85
728.149	21891.08
728.491	21834.81
728.833	21792.77
729.175	21728.6
729.516	21707.35
729.858	21723.85
730.199	21710.06
730.541	21671.2
730.882	21626.45
731.224	21674.13
731.565	21482.5
731.906	21511.2
732.248	21394.59
732.589	21354.59
732.93	21332.45
733.271	21295.61
733.612	21371.77
733.953	21310.53
734.294	21292.9
734.635	21216.29
734.976	21257.65
735.317	21082.28
735.658	21192.56
735.999	21159.57
736.339	20976.75
736.68	21053.36
737.021	20975.85
737.361	20887.94
737.702	21078.89
738.042	20918.9
738.383	20880.26
738.723	20931.78
739.063	20823.31
739.404	20866.47
739.744	20841.84
740.084	20680.71
740.424	20697.21
740.764	20610.66
741.104	20743.54
741.444	20634.39
741.784	20387.84
742.124	20561.39
742.464	20492.7
742.804	20510.32
743.143	20504.22
743.483	20464.22
743.823	20361.85
744.162	20353.49
744.502	20271.91
744.841	20211.8
745.181	20270.55
745.52	20259.03
745.86	20289.31
746.199	20213.15
746.538	20188.3
746.877	20205.92
747.216	20147.85
747.556	20056.77
747.895	20065.81
748.234	20039.15
748.573	19989.21
748.911	19879.83
749.25	20014.06
749.589	19787.63
749.928	19763.45
750.267	19839.61
750.605	19749.89
750.944	19672.83
751.283	19592.61
751.621	19631.02
751.96	19515.77
752.298	19459.5
752.636	19456.56
752.975	19415.89
753.313	19345.83
753.651	19497.02
753.989	19156.46
754.327	19196.23
754.666	19153.75
