Data from breadboard_white_FLMS001491_00001.txt Node
Date: Wed Feb 08 10:47:08 GMT 2017
User: dcchb
Spectrometer: FLMS00149
Trigger mode: 0
Integration Time (sec): 2.000000E-2
Scans to average: 10
Electric dark correction enabled: true
Nonlinearity correction enabled: false
Boxcar width: 0
XAxis mode: Wavelengths
Number of Pixels in Spectrum: 2048
>>>>>Begin Spectral Data<<<<<
341.393	-22.99
341.776	-22.99
342.16	-22.99
342.543	-51.69
342.927	-84.69
343.31	-69.09
343.693	-37.68
344.077	-65.7
344.46	-49.21
344.843	-64.35
345.226	-19.38
345.61	-27.97
345.993	-22.99
346.376	-23.22
346.759	-6.95
347.142	19.72
347.525	50
347.908	49.77
348.291	56.1
348.674	88.42
349.057	122.54
349.44	138.58
349.823	167.28
350.206	162.76
350.588	212.93
350.971	218.58
351.354	254.51
351.737	240.95
352.119	263.55
352.502	290.67
352.884	297.45
353.267	317.34
353.65	316.21
354.032	353.04
354.414	322.99
354.797	326.15
355.179	361.85
355.562	336.54
355.944	339.48
356.326	359.14
356.709	336.09
357.091	356.21
357.473	353.95
357.855	355.08
358.238	362.31
358.62	363.89
359.002	355.08
359.384	365.92
359.766	378.35
360.148	373.38
360.53	363.66
360.912	366.15
361.294	354.4
361.676	360.27
362.057	385.36
362.439	366.6
362.821	374.51
363.203	359.37
363.584	351.46
363.966	335.87
364.348	367.28
364.729	348.07
365.111	342.65
365.493	328.18
365.874	327.05
366.256	364.79
366.637	330.22
367.019	335.41
367.4	348.97
367.781	336.77
368.163	367.05
368.544	357.79
368.925	353.04
369.306	338.13
369.688	339.48
370.069	368.63
370.45	355.98
370.831	346.26
371.212	347.39
371.593	384.45
371.974	327.05
372.355	344.68
372.736	359.6
373.117	363.66
373.498	377.9
373.879	350.1
374.26	351.01
374.641	353.49
375.021	367.73
375.402	357.79
375.783	382.87
376.163	380.84
376.544	401.85
376.925	378.58
377.305	373.38
377.686	386.94
378.066	392.14
378.447	396.2
378.827	406.15
379.208	381.06
379.588	371.12
379.968	402.76
380.349	392.59
380.729	373.83
381.109	387.39
381.489	405.47
381.87	395.3
382.25	417.67
382.63	378.8
383.01	412.7
383.39	412.7
383.77	404.11
384.15	433.94
384.53	442.08
384.91	421.06
385.29	437.79
385.67	442.3
386.049	441.63
386.429	427.62
386.809	432.36
387.189	451.34
387.568	418.8
387.948	457.67
388.328	457.67
388.707	467.16
389.087	464.68
389.466	464.68
389.846	502.87
390.225	494.28
390.605	488.18
390.984	475.07
391.363	481.63
391.743	495.41
392.122	493.6
392.501	522.08
392.881	513.49
393.26	540.83
393.639	513.26
394.018	533.15
394.397	530.89
394.776	564.34
395.155	547.39
395.534	553.49
395.913	575.63
396.292	576.76
396.671	584.9
397.05	595.3
397.429	591.45
397.808	608.63
398.186	626.93
398.565	609.53
398.944	627.84
399.323	639.81
399.701	631
400.08	661.28
400.458	669.42
400.837	673.26
401.215	699.7
401.594	700.83
401.972	714.84
402.351	721.62
402.729	752.58
403.107	761.17
403.486	783.54
403.864	762.07
404.242	784.22
404.62	802.75
404.999	818.79
405.377	808.85
405.755	835.97
406.133	859.92
406.511	839.81
406.889	857.89
407.267	891.56
407.645	927.26
408.023	935.4
408.401	942.4
408.779	954.38
409.156	979.69
409.534	1012.91
409.912	1025.34
410.29	1025.57
410.667	1069.18
411.045	1096.75
411.422	1111.67
411.8	1120.93
412.178	1143.98
412.555	1173.36
412.933	1185.34
413.31	1242.28
413.687	1259.91
414.065	1278.89
414.442	1280.02
414.819	1296.52
415.197	1328.61
415.574	1320.7
415.951	1352.11
416.328	1361.15
416.705	1418.55
417.082	1449.51
417.46	1432.79
417.837	1452.67
418.214	1504.65
418.591	1528.38
418.967	1523.41
419.344	1586.46
419.721	1558.21
420.098	1551.43
420.475	1604.76
420.852	1611.09
421.228	1649.05
421.605	1692.89
421.982	1703.29
422.358	1732.89
422.735	1743.97
423.111	1741.48
423.488	1752.78
423.864	1777.18
424.241	1794.36
424.617	1872.1
424.994	1831.65
425.37	1871.42
425.746	1899.44
426.123	1908.48
426.499	1920.46
426.875	1966.78
427.251	1997.07
427.627	2036.16
428.003	2042.94
428.379	2072.32
428.756	2109.61
429.132	2131.07
429.507	2152.32
429.883	2171.3
430.259	2234.57
430.635	2211.75
431.011	2260.34
431.387	2336.49
431.763	2376.49
432.138	2385.3
432.514	2448.35
432.89	2418.98
433.265	2507.34
433.641	2573.77
434.016	2546.66
434.392	2593.89
434.767	2649.25
435.143	2668.01
435.518	2700.55
435.894	2706.88
436.269	2761.34
436.644	2812.86
437.02	2830.49
437.395	2837.5
437.77	2904.84
438.145	2905.97
438.52	3002.92
438.895	2987.32
439.271	3020.54
439.646	3066.87
440.021	3068.68
440.395	3079.98
440.77	3092.18
441.145	3110.94
441.52	3190.48
441.895	3197.49
442.27	3238.16
442.645	3203.36
443.019	3300.76
443.394	3300.99
443.769	3340.08
444.143	3320.87
444.518	3347.09
444.892	3358.39
445.267	3397.26
445.641	3416.69
446.016	3455.11
446.39	3488.78
446.764	3506.86
447.139	3481.32
447.513	3542.79
447.887	3569.45
448.262	3589.57
448.636	3605.16
449.01	3677.25
449.384	3709.11
449.758	3701.88
450.132	3793.4
450.506	3743.46
450.88	3837.47
451.254	3827.53
451.628	3858.49
452.002	3907.07
452.376	3997.47
452.75	3976.45
453.123	4021.87
453.497	4112.04
453.871	4103
454.244	4198.82
454.618	4274.97
454.992	4305.25
455.365	4306.84
455.739	4408.75
456.112	4474.29
456.486	4472.48
456.859	4564.46
457.232	4689.42
457.606	4614.85
457.979	4726.26
458.352	4855.52
458.725	4865.47
459.099	4868.18
459.472	4973.71
459.845	5050.09
460.218	5062.52
460.591	5088.74
460.964	5146.59
461.337	5307.94
461.71	5373.25
462.083	5406.02
462.456	5446.01
462.829	5484.88
463.201	5599.68
463.574	5572.79
463.947	5667.7
464.32	5809.17
464.692	5841.94
465.065	5897.08
465.438	6012.1
465.81	6131.42
466.183	6061.82
466.555	6221.14
466.928	6267.69
467.3	6262.94
467.672	6359.44
468.045	6596.72
468.417	6600.11
468.789	6637.4
469.161	6761.23
469.534	6852.76
469.906	6965.98
470.278	7024.96
470.65	7085.75
471.022	7287.55
471.394	7437.38
471.766	7483.02
472.138	7567.09
472.51	7705.39
472.882	7855.9
473.253	7886.18
473.625	8043.23
473.997	8231.48
474.369	8303.34
474.74	8336.33
475.112	8533.39
475.484	8708.08
475.855	8776.77
476.227	8932.7
476.598	9144.67
476.97	9255.41
477.341	9384.67
477.713	9557.32
478.084	9633.7
478.455	9854.94
478.827	10009.06
479.198	10311.88
479.569	10278.88
479.94	10586.9
480.311	10701.02
480.682	10881.13
481.053	11151.85
481.424	11416.25
481.795	11471.62
482.166	11635.46
482.537	11776.02
482.908	12108.89
483.279	12156.57
483.65	12391.82
484.021	12730.34
484.391	12799.95
484.762	12859.38
485.133	13055.53
485.503	13234.96
485.874	13455.52
486.244	13640.38
486.615	13942.51
486.985	14106.58
487.356	14361.03
487.726	14382.05
488.097	14654.36
488.467	14746.34
488.837	15049.38
489.207	15163.95
489.578	15449.37
489.948	15579.99
490.318	15816.59
490.688	15960.77
491.058	16136.58
491.428	16367.54
491.798	16488.44
492.168	16796
492.538	16831.48
492.908	17158.7
493.278	17375.19
493.648	17405.02
494.017	17638.91
494.387	17775.86
494.757	17988.96
495.126	18139.01
495.496	18195.06
495.866	18357.77
496.235	18547.82
496.605	18738.77
496.974	18873.01
497.344	19009.05
497.713	19150.51
498.082	19279.55
498.452	19589.6
498.821	19588.92
499.19	19663.49
499.559	19829.59
499.928	19992.98
500.298	20087.21
500.667	20357.71
501.036	20296.92
501.405	20528.56
501.774	20507.99
502.143	20771.71
502.512	20866.17
502.88	21151.14
503.249	21065.04
503.618	21306.84
503.987	21390.23
504.356	21534.18
504.724	21686.27
505.093	21773.04
505.462	21884.9
505.83	22027.95
506.199	22143.88
506.567	22524.89
506.936	22449.64
507.304	22847.14
507.672	22830.19
508.041	23008.27
508.409	23067.7
508.777	23417.52
509.145	23549.49
509.514	23569.38
509.882	23778.19
510.25	23834.23
510.618	24131.85
510.986	24103.83
511.354	24402.13
511.722	24491.62
512.09	24858.16
512.458	24717.6
512.826	25079.85
513.193	25113.97
513.561	25231.94
513.929	25507.63
514.297	25742.88
514.664	25856.55
515.032	26034.17
515.4	26313.49
515.767	26324.11
516.135	26513.71
516.502	26526.36
516.869	26926.58
517.237	27098.78
517.604	27019.91
517.972	27355.27
518.339	27503.97
518.706	27528.15
519.073	27771.76
519.44	28099.88
519.808	28270.05
520.175	28336.49
520.542	28580.1
520.909	28818.51
521.276	28896.02
521.643	29200.19
522.009	29353.63
522.376	29628.88
522.743	29841.08
523.11	30124.46
523.477	30439.71
523.843	30462.31
524.21	30850.77
524.577	30975.97
524.943	31181.16
525.31	31399.23
525.676	31668.83
526.043	31793.8
526.409	31998.09
526.776	32391.75
527.142	32441.01
527.508	32624.96
527.874	32911.96
528.241	33081.9
528.607	33251.84
528.973	33548.33
529.339	33555.33
529.705	33901.09
530.071	34066.96
530.437	34357.35
530.803	34438.02
531.169	34706.26
531.535	34651.8
531.901	34816.54
532.267	35024.67
532.632	35199.81
532.998	35398.22
533.364	35559.12
533.73	35748.72
534.095	35936.06
534.461	36043.85
534.826	36103.74
535.192	36254.92
535.557	36677.06
535.923	36586.67
536.288	36705.08
536.653	36885.87
537.019	36956.37
537.384	37002.25
537.749	37230.49
538.114	37354.78
538.479	37438.39
538.845	37613.53
539.21	37633.19
539.575	37897.59
539.94	38029.11
540.305	38181.43
540.67	38143.01
541.034	38211.48
541.399	38457.12
541.764	38707.51
542.129	38700.96
542.494	38844.91
542.858	38990.44
543.223	39033.83
543.587	39255.07
543.952	39154.51
544.316	39489.19
544.681	39356.31
545.045	39589.52
545.41	39901.15
545.774	39784.1
546.138	39890.76
546.503	40055.95
546.867	40101.37
547.231	40351.54
547.595	40335.27
547.959	40595.83
548.324	40519.67
548.688	40742.49
549.052	40807.35
549.416	41062.93
549.779	41020.45
550.143	41201.69
550.507	41330.04
550.871	41556.48
551.235	41520.55
551.599	41785.85
551.962	41899.07
552.326	41998.27
552.689	42257.02
553.053	42264.48
553.417	42198.95
553.78	42815.43
554.143	42588.54
554.507	42864.69
554.87	43037.57
555.234	43362.31
555.597	43151.92
555.96	43388.29
556.323	43536.54
556.686	43705.12
557.05	43922.97
557.413	44025.11
557.776	44136.75
558.139	44398.66
558.502	44496.51
558.865	44625.78
559.228	44976.28
559.59	45045.88
559.953	45028.93
560.316	45496.71
560.679	45444.96
561.041	45708.46
561.404	45818.51
561.767	46226.41
562.129	46060.31
562.492	46496.46
562.854	46414.88
563.217	46487.87
563.579	46804.93
563.941	46976.9
564.304	47091.93
564.666	47328.53
565.028	47500.73
565.39	47435.19
565.753	47792.25
566.115	47837.67
566.477	48081.5
566.839	48139.36
567.201	48428.16
567.563	48450.53
567.925	48665.9
568.287	48640.36
568.648	48735.95
569.01	48966.23
569.372	49161.25
569.734	49159.44
570.095	49372.54
570.457	49575.25
570.819	49610.05
571.18	49531.86
571.542	49800.1
571.903	49785.64
572.265	49942.47
572.626	50188.34
572.987	50126.65
573.349	50332.07
573.71	50377.94
574.071	50429.69
574.432	50581.33
574.794	50653.64
575.155	50713.53
575.516	50624.04
575.877	50797.36
576.238	50854.99
576.599	50996.91
576.96	50951.26
577.32	51071.93
577.681	51220.86
578.042	51266.05
578.403	51258.37
578.763	51303.11
579.124	51305.6
579.485	51523.9
579.845	51641.41
580.206	51491.36
580.566	51569.77
580.927	51622.88
581.287	51723.44
581.648	51513.96
582.008	51730.45
582.368	51620.62
582.728	51643.9
583.089	51602.32
583.449	51510.79
583.809	51652.03
584.169	51729.77
584.529	51622.65
584.889	51892.25
585.249	51714.4
585.609	51696.1
585.969	51797.79
586.329	51690.22
586.688	51771.35
587.048	51664.01
587.408	51678.92
587.768	51746.27
588.127	51661.97
588.487	51587.17
588.846	51847.73
589.206	51673.95
589.565	51682.99
589.925	51868.52
590.284	51669.43
590.643	51776.55
591.003	51840.73
591.362	51784.46
591.721	51905.58
592.08	51813.84
592.44	51902.19
592.799	51852.93
593.158	51835.08
593.517	51808.64
593.876	51835.53
594.235	51755.31
594.593	51803.21
594.952	51891.57
595.311	51767.73
595.67	51972.7
596.029	52025.58
596.387	52089.99
596.746	52111.91
597.104	51775.64
597.463	51929.99
597.822	51973.83
598.18	51960.72
598.538	51936.77
598.897	52066.71
599.255	51773.38
599.613	52259.7
599.972	52009.31
600.33	52101.06
600.688	52004.79
601.046	52146.48
601.404	52408.62
601.762	52154.84
602.12	52367.27
602.478	52305.12
602.836	52392.35
603.194	52277.78
603.552	52325.91
603.91	52270.09
604.268	52387.83
604.625	52293.37
604.983	52385.12
605.341	52207.5
605.698	52419.24
606.056	52474.38
606.413	52437.1
606.771	52508.28
607.128	52538.56
607.485	52450.88
607.843	52416.31
608.2	52636.41
608.557	52736.3
608.914	52630.31
609.272	52804.32
609.629	52813.58
609.986	52818.78
610.343	52761.16
610.7	53009.06
611.057	52873.24
611.414	52913.92
611.771	52925.9
612.127	52964.31
612.484	52925.22
612.841	53038.89
613.198	52921.15
613.554	52985.1
613.911	53127.02
614.267	53153.01
614.624	53039.57
614.98	53122.73
615.337	53331.76
615.693	53177.19
616.05	53152.33
616.406	53296.06
616.762	53261.71
617.118	53261.25
617.475	53280.46
617.831	53347.81
618.187	53386.45
618.543	53386.45
618.899	53548.7
619.255	53491.53
619.611	53369.95
619.967	53565.88
620.323	53563.39
620.678	53429.16
621.034	53351.2
621.39	53363.4
621.746	53367.24
622.101	53665.54
622.457	53431.19
622.812	53417.18
623.168	53624.18
623.523	53562.26
623.879	53659.44
624.234	53392.55
624.589	53521.81
624.945	53562.94
625.3	53551.87
625.655	53510.29
626.01	53510.97
626.365	53550.51
626.72	53433.45
627.075	53414.02
627.43	53447.46
627.785	53325.21
628.14	53416.51
628.495	53416.05
628.85	53366.34
629.205	53266.23
629.559	53498.31
629.914	53302.38
630.269	53356.39
630.623	53207.02
630.978	53102.16
631.332	53253.8
631.687	53224.87
632.041	53150.52
632.396	53253.57
632.75	53023.07
633.104	53047.02
633.459	52930.87
633.813	52863.3
634.167	52886.35
634.521	52890.87
634.875	52970.64
635.229	52874.15
635.583	52774.49
635.937	52689.52
636.291	52656.53
636.645	52721.38
636.999	52650.65
637.352	52558.67
637.706	52486.59
638.06	52550.77
638.413	52507.38
638.767	52351.67
639.121	52423.99
639.474	52241.17
639.828	52207.95
640.181	52230.32
640.534	52276.42
640.888	52249.08
641.241	52069.2
641.594	52192.81
641.947	52191
642.301	52016.99
642.654	52046.37
643.007	51955.3
643.36	51976.32
643.713	51891.57
644.066	52014.73
644.419	51840.73
644.771	51546.27
645.124	51219.27
645.477	51225.6
645.83	50886.85
646.182	50872.62
646.535	50668.33
646.888	50826.97
647.24	50495.9
647.593	50716.01
647.945	50533.19
648.298	50484.6
648.65	50309.24
649.002	50404.38
649.355	50349.47
649.707	50332.97
650.059	50427.43
650.411	50875.55
650.763	50856.35
651.115	51249.33
651.467	51114.42
651.819	51131.59
652.171	50871.04
652.523	50871.49
652.875	50901.77
653.227	50720.98
653.578	50908.1
653.93	50866.52
654.282	50753.52
654.633	50579.29
654.985	50703.13
655.337	50666.07
655.688	50586.75
656.039	50721.89
656.391	50428.11
656.742	50532.06
657.094	50453.87
657.445	50592.85
657.796	50477.83
658.147	50413.19
658.498	50269.92
658.849	50447.32
659.2	50325.29
659.551	50172.75
659.902	50376.13
660.253	50332.07
660.604	50375
660.955	50124.84
661.306	50365.74
661.656	50264.05
662.007	50283.93
662.358	50237.15
662.708	50165.74
663.059	50053.66
663.409	49863.83
663.76	50216.82
664.11	50080.77
664.461	50028.57
664.811	50024.96
665.161	50037.84
665.511	49874.9
665.862	49975.24
666.212	50055.46
666.562	49995.35
666.912	49830.84
667.262	49847.33
667.612	49816.83
667.962	49903.83
668.312	49735.02
668.662	49922.81
669.011	49868.8
669.361	49720.56
669.711	49742.93
670.06	49593.1
670.41	49702.93
670.76	49564.18
671.109	49770.95
671.459	49638.07
671.808	49537.29
672.157	49551.07
672.507	49467.46
672.856	49432.43
673.205	49506.55
673.554	49592.88
673.904	49376.39
674.253	49653.67
674.602	49290.74
674.951	48777.31
675.3	48572.34
675.649	49257.74
675.998	49047.13
676.346	49182.72
676.695	49325.54
677.044	48985.89
677.393	49074.92
677.741	49167.58
678.09	49057.3
678.438	48903.86
678.787	48892.1
679.135	48858.66
679.484	48563.07
679.832	48913.35
680.181	48620.92
680.529	48671.77
680.877	48587.03
681.225	48505.67
681.573	48697.08
681.922	48476.75
682.27	48283.31
682.618	48446.01
682.966	48183.87
683.314	48289.86
683.661	48081.5
684.009	47844
684.357	47850.1
684.705	47867.05
685.053	47867.5
685.4	47778.91
685.748	47590.67
686.095	47544.8
686.443	47414.18
686.79	47411.01
687.138	47397.23
687.485	47429.77
687.832	47254.86
688.18	47233.84
688.527	47104.81
688.874	47008.09
689.221	46945.71
689.568	46868.88
689.915	46667.76
690.262	46697.81
690.609	46536.69
690.956	46367.88
691.303	46582.11
691.65	46165.17
691.997	46167.43
692.344	45835.91
692.69	45701
693.037	45812.41
693.383	45585.07
693.73	45605.19
694.077	45416.72
694.423	45418.75
694.769	45265.98
695.116	45174.69
695.462	45060.34
695.808	44983.51
696.155	45026.67
696.501	44769.95
696.847	44707.36
697.193	44417.42
697.539	44510.98
697.885	44220.59
698.231	44091.1
698.577	44150.08
698.923	43960.03
699.269	43835.74
699.614	43647.5
699.96	43522.08
700.306	43758
700.651	43376.32
700.997	43269.88
701.342	43276.66
701.688	43114.18
702.033	43081.41
702.379	42937.91
702.724	42836.67
703.069	42854.52
703.415	42354.65
703.76	42288.89
704.105	42419.96
704.45	42173.86
704.795	41965.96
705.14	41986.3
705.485	41964.15
705.83	41791.5
706.175	41735.23
706.52	41796.25
706.865	41518.51
707.209	41391.96
707.554	41319.2
707.899	41456.14
708.243	41129.82
708.588	40989.26
708.932	40754.24
709.277	40775.48
709.621	40730.28
709.966	40427.69
710.31	40675.6
710.654	40202.39
710.998	40272.67
711.342	40361.48
711.687	40133.46
712.031	39920.81
712.375	39814.83
712.719	39888.05
713.063	39740.48
713.407	39837.65
713.75	39669.3
714.094	39547.72
714.438	39406.48
714.782	39418.91
715.125	39305.92
715.469	39312.47
715.812	39012.82
716.156	38928.75
716.499	39003.78
716.843	38902.54
717.186	38566.73
717.53	38862.54
717.873	38857.79
718.216	38662.99
718.559	38471.36
718.902	38380.97
719.246	38434.07
719.589	38185.49
719.932	38137.13
720.275	38097.13
720.617	38023.46
720.96	38027.31
721.303	37977.81
721.646	37924.26
721.989	37785.73
722.331	37732.4
722.674	37736.47
723.016	37703.47
723.359	37441.56
723.701	37541.44
724.044	37146.2
724.386	37053.09
724.729	37292.18
725.071	37137.84
725.413	37040.44
725.755	37103.71
726.097	36967.9
726.439	36799.09
726.782	36696.27
727.124	36808.81
727.465	36585.54
727.807	36569.26
728.149	36406.1
728.491	36360.23
728.833	36443.84
729.175	36223.96
729.516	36192.78
729.858	36239.56
730.199	36241.14
730.541	36180.35
730.882	36005.21
731.224	36078.88
731.565	35783.97
731.906	35833.92
732.248	35856.06
732.589	35655.39
732.93	35666.92
733.271	35606.35
733.612	35563.87
733.953	35613.13
734.294	35386.47
734.635	35147.61
734.976	35443.87
735.317	35212.69
735.658	35310.31
735.999	35147.38
736.339	35069.64
736.68	35253.37
737.021	34984.22
737.361	34983.54
737.702	35040.94
738.042	34852.25
738.383	34778.58
738.723	34792.36
739.063	34744.91
739.404	34626.04
739.744	34517.12
740.084	34489.77
740.424	34374.52
740.764	34298.14
741.104	34479.83
741.444	34162.32
741.784	34076.67
742.124	34154.19
742.464	34064.02
742.804	33898.6
743.143	33911.03
743.483	33807.08
743.823	33731.82
744.162	33594.65
744.502	33637.14
744.841	33462
745.181	33783.57
745.52	33405.28
745.86	33451.61
746.199	33444.6
746.538	33324.6
746.877	33364.83
747.216	33193.76
747.556	33235.11
747.895	33137.94
748.234	33029.02
748.573	32904.5
748.911	32923.71
749.25	32810.95
749.589	32792.19
749.928	32728.01
750.267	32835.8
750.605	32634.23
750.944	32503.83
751.283	32240.56
751.621	32452.99
751.96	32222.94
752.298	32181.36
752.636	32268.13
