Data from breadboard_black_back_FLMS001491_00033.txt Node
Date: Wed Feb 08 10:50:17 GMT 2017
User: dcchb
Spectrometer: FLMS00149
Trigger mode: 0
Integration Time (sec): 2.000000E-2
Scans to average: 10
Electric dark correction enabled: true
Nonlinearity correction enabled: false
Boxcar width: 0
XAxis mode: Wavelengths
Number of Pixels in Spectrum: 2048
>>>>>Begin Spectral Data<<<<<
341.393	-8.94
341.776	-8.94
342.16	-8.94
342.543	-59.33
342.927	-72.44
343.31	-58.66
343.693	-59.11
344.077	-72.22
344.46	-58.66
344.843	-58.43
345.226	-18.43
345.61	-41.48
345.993	-9.39
346.376	10.27
346.759	26.31
347.142	37.84
347.525	15.92
347.908	44.84
348.291	60.44
348.674	77.84
349.057	102.92
349.44	119.19
349.823	127.55
350.206	146.54
350.588	202.35
350.971	229.02
351.354	225.86
351.737	250.71
352.119	260.66
352.502	260.21
352.884	281.67
353.267	307.21
353.65	306.98
354.032	321.45
354.414	304.5
354.797	321.67
355.179	334.1
355.562	335.23
355.944	345.17
356.326	339.98
356.709	339.98
357.091	337.27
357.473	348.34
357.855	355.8
358.238	359.86
358.62	347.43
359.002	346.3
359.384	357.38
359.766	346.53
360.148	354.44
360.53	356.25
360.912	344.04
361.294	328.45
361.676	350.37
362.057	327.55
362.439	348.11
362.821	368
363.203	339.3
363.584	342.24
363.966	341.78
364.348	363.93
364.729	351.73
365.111	338.4
365.493	346.08
365.874	342.01
366.256	312.86
366.637	368.45
367.019	329.58
367.4	322.35
367.781	341.11
368.163	338.62
368.544	352.18
368.925	344.72
369.306	329.36
369.688	356.02
370.069	352.63
370.45	344.27
370.831	353.76
371.212	375.23
371.593	340.43
371.974	328.23
372.355	341.78
372.736	328
373.117	360.77
373.498	341.56
373.879	353.31
374.26	354.67
374.641	360.54
375.021	360.54
375.402	350.6
375.783	363.03
376.163	374.55
376.544	377.94
376.925	385.63
377.305	377.04
377.686	368.68
378.066	403.93
378.447	379.07
378.827	359.86
379.208	400.09
379.588	396.47
379.968	393.99
380.349	397.6
380.729	385.17
381.109	411.61
381.489	378.39
381.87	407.55
382.25	399.64
382.63	422.01
383.01	392.86
383.39	408.68
383.77	415.46
384.15	421.1
384.53	420.88
384.91	412.97
385.29	425.85
385.67	422.01
386.049	439.64
386.429	425.17
386.809	460.43
387.189	432.4
387.568	436.92
387.948	467.66
388.328	452.29
388.707	474.89
389.087	456.58
389.466	460.65
389.846	467.21
390.225	475.79
390.605	449.58
390.984	501.55
391.363	482.57
391.743	485.96
392.122	463.59
392.501	495.23
392.881	486.87
393.26	486.64
393.639	502.46
394.018	502.01
394.397	504.49
394.776	507.43
395.155	528.9
395.534	517.15
395.913	512.18
396.292	538.39
396.671	530.71
397.05	536.13
397.429	547.66
397.808	521.89
398.186	522.12
398.565	561.21
398.944	563.02
399.323	555.11
399.701	590.37
400.08	588.78
400.458	565.51
400.837	573.64
401.215	585.39
401.594	579.52
401.972	608.44
402.351	603.7
402.729	606.86
403.107	589.91
403.486	606.86
403.864	607.09
404.242	622.23
404.62	638.73
404.999	628.78
405.377	641.44
405.755	640.31
406.133	657.03
406.511	652.74
406.889	672.17
407.267	662.23
407.645	690.7
408.023	688.22
408.401	698.39
408.779	713.75
409.156	703.36
409.534	739.74
409.912	714.2
410.29	741.32
410.667	733.41
411.045	735.67
411.422	746.29
411.8	771.15
412.178	792.17
412.555	789
412.933	792.62
413.31	814.99
413.687	811.15
414.065	798.04
414.442	825.16
414.819	825.84
415.197	837.82
415.574	854.09
415.951	849.34
416.328	862.22
416.705	867.42
417.082	877.36
417.46	901.54
417.837	912.39
418.214	904.03
418.591	897.7
418.967	929.79
419.344	916.91
419.721	948.77
420.098	939.06
420.475	946.06
420.852	961.66
421.228	979.73
421.605	962.56
421.982	993.97
422.358	987.64
422.735	997.36
423.111	1004.59
423.488	1040.07
423.864	1033.74
424.241	1051.82
424.617	1065.83
424.994	1047.53
425.37	1059.96
425.746	1073.52
426.123	1093.63
426.499	1111.93
426.875	1132.5
427.251	1149.67
427.627	1156.9
428.003	1152.16
428.379	1183.57
428.756	1194.42
429.132	1225.15
429.507	1231.7
429.883	1244.59
430.259	1273.96
430.635	1263.12
431.011	1269.22
431.387	1311.93
431.763	1318.03
432.138	1342.21
432.514	1361.64
432.89	1349.22
433.265	1385.15
433.641	1411.59
434.016	1393.06
434.392	1411.59
434.767	1466.73
435.143	1443.45
435.518	1459.04
435.894	1481.42
436.269	1512.15
436.644	1521.41
437.02	1548.08
437.395	1506.27
437.77	1552.37
438.145	1602.32
438.52	1590.11
438.895	1609.32
439.271	1624.69
439.646	1661.07
440.021	1690.68
440.395	1678.47
440.77	1653.84
441.145	1687.74
441.52	1688.19
441.895	1720.96
442.27	1721.18
442.645	1724.57
443.019	1751.01
443.394	1772.93
443.769	1774.06
444.143	1748.08
444.518	1778.58
444.892	1808.41
445.267	1801.86
445.641	1842.76
446.016	1852.03
446.39	1861.29
446.764	1853.38
447.139	1870.33
447.513	1907.17
447.887	1898.35
448.262	1941.74
448.636	1930.44
449.01	1957.56
449.384	1988.52
449.758	1951.91
450.132	2031.46
450.506	2034.85
450.88	2066.71
451.254	2035.07
451.628	2065.81
452.002	2078.91
452.376	2103.32
452.75	2141.29
453.123	2144.22
453.497	2202.07
453.871	2193.49
454.244	2244.79
454.618	2262.41
454.992	2287.72
455.365	2313.94
455.739	2351
456.112	2360.49
456.486	2391.9
456.859	2407.49
457.232	2432.58
457.606	2457.66
457.979	2463.08
458.352	2517.32
458.725	2531.33
459.099	2593.48
459.472	2635.96
459.845	2649.29
460.218	2668.5
460.591	2710.08
460.964	2747.6
461.337	2809.74
461.71	2818.78
462.083	2888.38
462.456	2861.72
462.829	2905.56
463.201	2937.65
463.574	2949.63
463.947	3017.42
464.32	3069.85
464.692	3113.46
465.065	3108.27
465.438	3170.41
465.81	3158.66
466.183	3233.91
466.555	3288.37
466.928	3287.7
467.3	3311.88
467.672	3362.5
468.045	3457.18
468.417	3439.56
468.789	3522.27
469.161	3537.41
469.534	3567.69
469.906	3668.03
470.278	3715.03
470.65	3793.45
471.022	3823.73
471.394	3877.06
471.766	3956.83
472.138	3976.27
472.51	4032.76
472.882	4139.43
473.253	4155.02
473.625	4211.74
473.997	4293.32
474.369	4311.85
474.74	4367.44
475.112	4472.52
475.484	4581.45
475.855	4630.03
476.227	4674.33
476.598	4818.73
476.97	4812.4
477.341	4949.8
477.713	4986.41
478.084	5010.36
478.455	5162.9
478.827	5182.56
479.198	5326.74
479.569	5382.78
479.94	5486.28
480.311	5560.4
480.682	5717.24
481.053	5816.44
481.424	5912.03
481.795	6008.08
482.166	6048.08
482.537	6133.27
482.908	6272.7
483.279	6335.07
483.65	6458.91
484.021	6530.1
484.391	6659.13
484.762	6717.21
485.133	6760.37
485.503	6848.05
485.874	6981.16
486.244	7068.84
486.615	7237.65
486.985	7260.02
487.356	7456.63
487.726	7490.3
488.097	7681.25
488.467	7713.34
488.837	7914.92
489.207	7976.16
489.578	8006.67
489.948	8149.26
490.318	8233.33
490.688	8277.17
491.058	8419.09
491.428	8510.16
491.798	8638.74
492.168	8797.83
492.538	8814.78
492.908	8985.85
493.278	9008.9
493.648	9072.85
494.017	9140.65
494.387	9295.45
494.757	9353.07
495.126	9413.64
495.496	9532.5
495.866	9538.38
496.235	9666.74
496.605	9744.48
496.974	9776.34
497.344	9892.95
497.713	9894.08
498.082	10070.12
498.452	10162.09
498.821	10267.63
499.19	10242.09
499.559	10325.48
499.928	10445.93
500.298	10497.9
500.667	10542.65
501.036	10621.74
501.405	10754.17
501.774	10749.65
502.143	10886.82
502.512	10889.76
502.88	11032.58
503.249	11083.2
503.618	11133.59
503.987	11175.4
504.356	11331.33
504.724	11345.34
505.093	11303.53
505.462	11438.67
505.83	11507.59
506.199	11688.38
506.567	11772.67
506.936	11819.68
507.304	11989.61
507.672	11977.41
508.041	12076.39
508.409	12204.07
508.777	12211.08
509.145	12347.8
509.514	12395.25
509.882	12494.23
510.25	12516.15
510.618	12697.62
510.986	12711.63
511.354	12864.17
511.722	12972.64
512.09	13076.82
512.458	13067.78
512.826	13229.81
513.193	13189.13
513.561	13374.44
513.929	13490.37
514.297	13600.42
514.664	13691.49
515.032	13724.26
515.4	13843.58
515.767	13992.95
516.135	13998.37
516.502	13987.75
516.869	14252.38
517.237	14338.03
517.604	14284.02
517.972	14456.44
518.339	14661.63
518.706	14575.08
519.073	14720.16
519.44	14827.73
519.808	14975.75
520.175	15018.91
520.542	15239.25
520.909	15310.43
521.276	15307.04
521.643	15562.4
522.009	15641.95
522.376	15735.28
522.743	15865.67
523.11	16062.28
523.477	16140.24
523.843	16311.53
524.21	16460.01
524.577	16617.06
524.943	16669.49
525.31	16763.73
525.676	16869.49
526.043	17066.54
526.409	17104.28
526.776	17358.74
527.142	17312.41
527.508	17523.03
527.874	17652.29
528.241	17706.75
528.607	17819.07
528.973	18022.9
529.339	17991.26
529.705	18281.2
530.071	18302.67
530.437	18457.69
530.803	18537.46
531.169	18687.97
531.535	18639.61
531.901	18772.26
532.267	18824.01
532.632	18954.18
532.998	19100.61
533.364	19137.67
533.73	19248.63
534.095	19388.29
534.461	19504.9
534.826	19509.87
535.192	19630.77
535.557	19771.56
535.923	19681.16
536.288	19834.38
536.653	19962.51
537.019	20052.9
537.384	20068.05
537.749	20158.89
538.114	20291.54
538.479	20321.82
538.845	20360.24
539.21	20391.2
539.575	20516.4
539.94	20679.1
540.305	20738.54
540.67	20672.1
541.034	20850.85
541.399	21015.14
541.764	20971.07
542.129	21004.52
542.494	20978.3
542.858	21235.25
543.223	21238.18
543.587	21365.41
543.952	21321.12
544.316	21458.74
544.681	21450.16
545.045	21616.03
545.41	21763.59
545.774	21796.81
546.138	21812.41
546.503	21876.36
546.867	21988
547.231	22088.33
547.595	22110.48
547.959	22223.02
548.324	22214.43
548.688	22348.21
549.052	22372.39
549.416	22527.87
549.779	22556.57
550.143	22550.47
550.507	22707.98
550.871	22809.22
551.235	22881.31
551.599	22956.11
551.962	23070.68
552.326	23140.28
552.689	23348.41
553.053	23206.49
553.417	23293.27
553.78	23597.22
554.143	23556.77
554.507	23650.78
554.87	23724.22
555.234	23947.27
555.597	23833.14
555.96	23996.3
556.323	24147.26
556.686	24116.53
557.05	24362.62
557.413	24427.71
557.776	24477.2
558.139	24619.56
558.502	24702.5
558.865	24814.36
559.228	24957.63
559.59	25011.87
559.953	25051.87
560.316	25315.14
560.679	25333.22
561.041	25537.73
561.404	25615.92
561.767	25662.93
562.129	25675.36
562.492	25999.87
562.854	26011.62
563.217	25982.69
563.579	26232.86
563.941	26327.99
564.304	26464.26
564.666	26652.96
565.028	26658.61
565.39	26675.78
565.753	26884.82
566.115	26983.12
566.477	27123.45
566.839	27232.83
567.201	27322.32
567.563	27375.42
567.925	27572.03
568.287	27588.53
568.648	27740.39
569.01	27743.55
569.372	27987.84
569.734	27926.37
570.095	28122.98
570.457	28289.3
570.819	28071
571.18	28302.18
571.542	28452.91
571.903	28517.32
572.265	28617.43
572.626	28678.89
572.987	28689.29
573.349	28877.98
573.71	28912.33
574.071	29014.48
574.432	29104.19
574.794	29263.96
575.155	29283.17
575.516	29276.39
575.877	29350.06
576.238	29433
576.599	29500.11
576.96	29666.89
577.32	29606.33
577.681	29751.86
578.042	29747.34
578.403	29778.75
578.763	29777.4
579.124	29793.44
579.485	30059.42
579.845	30029.82
580.206	30012.19
580.566	30083.83
580.927	30024.85
581.287	30239.53
581.648	30056.48
582.008	30213.32
582.368	30161.34
582.728	30310.26
583.089	30136.93
583.449	30264.61
583.809	30348.45
584.169	30384.16
584.529	30270.94
584.889	30449.02
585.249	30357.04
585.609	30217.61
585.969	30424.16
586.329	30342.58
586.688	30407.21
587.048	30345.06
587.408	30275.91
587.768	30344.84
588.127	30339.19
588.487	30444.04
588.846	30471.16
589.206	30297.61
589.565	30547.32
589.925	30563.36
590.284	30461.67
590.643	30476.81
591.003	30580.54
591.362	30593.42
591.721	30523.82
592.08	30597.26
592.44	30617.6
592.799	30610.14
593.158	30589.58
593.517	30654.66
593.876	30646.98
594.235	30665.96
594.593	30700.08
594.952	30650.59
595.311	30575.79
595.67	30722
596.029	31055.1
596.387	30849.01
596.746	30949.12
597.104	30882.9
597.463	30781.44
597.822	31001.32
598.18	30836.35
598.538	30768.56
598.897	31060.07
599.255	30848.78
599.613	31115.66
599.972	30931.26
600.33	31026.4
600.688	30910.02
601.046	31103.01
601.404	31174.87
601.762	31011.03
602.12	31164.93
602.478	31129.9
602.836	31244.93
603.194	31068.43
603.552	31172.84
603.91	31090.35
604.268	31277.24
604.625	31154.31
604.983	31369.67
605.341	31208.54
605.698	31401.99
606.056	31427.52
606.413	31370.35
606.771	31489.44
607.128	31487.41
607.485	31461.87
607.843	31541.42
608.2	31669.77
608.557	31900.73
608.914	31807.17
609.272	31790.22
609.629	31958.35
609.986	32006.04
610.343	31863.44
610.7	31919.94
611.057	31935.76
611.414	31893.5
611.771	31935.08
612.127	32050.78
612.484	31951.35
612.841	32117.22
613.198	32029.54
613.554	31963.55
613.911	32166.03
614.267	32317.44
614.624	32282.41
614.98	32300.49
615.337	32440.6
615.693	32324.67
616.05	32422.07
616.406	32462.97
616.762	32447.16
617.118	32517.44
617.475	32359.25
617.831	32588.17
618.187	32481.05
618.543	32559.24
618.899	32703.19
619.255	32631.78
619.611	32683.31
619.967	32793.13
620.323	32712.46
620.678	32714.72
621.034	32536.19
621.39	32593.59
621.746	32575.51
622.101	32930.76
622.457	32676.98
622.812	32626.36
623.168	32852.34
623.523	32932.34
623.879	32823.19
624.234	32607.38
624.589	32935.73
624.945	32771.21
625.3	32914.71
625.655	32868.39
626.01	32806.24
626.365	32803.08
626.72	32752.01
627.075	32713.59
627.43	32877.65
627.785	32780.25
628.14	32833.36
628.495	32868.61
628.85	32709.97
629.205	32628.39
629.559	32787.94
629.914	32659.58
630.269	32730.31
630.623	32506.14
630.978	32575.74
631.332	32583.2
631.687	32645.79
632.041	32491.45
632.396	32683.31
632.75	32488.74
633.104	32509.98
633.459	32430.88
633.813	32299.59
634.167	32376.65
634.521	32284.22
634.875	32465.69
635.229	32282.19
635.583	32161.29
635.937	32147.5
636.291	32171.91
636.645	32137.33
636.999	31980.05
637.352	32097.56
637.706	31840.39
638.06	32088.52
638.413	32081.29
638.767	31941.63
639.121	31940.28
639.474	31774.18
639.828	31739.15
640.181	31759.04
640.534	31755.42
640.888	31729.43
641.241	31438.14
641.594	31539.38
641.947	31674.29
642.301	31556.11
642.654	31592.71
643.007	31442.89
643.36	31439.27
643.713	31347.52
644.066	31436.56
644.419	31285.15
644.771	31132.16
645.124	30887.2
645.477	30797.93
645.83	30666.86
646.182	30372.18
646.535	30329.24
646.888	30368.57
647.24	30065.07
647.593	30401.11
647.945	30291.73
648.298	29977.39
648.65	30136.03
649.002	29934.23
649.355	30071.17
649.707	30166.09
650.059	30243.82
650.411	30622.12
650.763	30507.77
651.115	30847.88
651.467	30785.96
651.819	30757.26
652.171	30621.21
652.523	30568.11
652.875	30602.91
653.227	30547.09
653.578	30613.31
653.93	30599.29
654.282	30259.19
654.633	30356.36
654.985	30431.62
655.337	30404.27
655.688	30285.86
656.039	30502.35
656.391	30208.34
656.742	30248.8
657.094	30379.19
657.445	30475
657.796	30195.01
658.147	30387.55
658.498	30095.13
658.849	30316.36
659.2	30141
659.551	30201.79
659.902	30248.12
660.253	30238.4
660.604	30224.16
660.955	30041.79
661.306	29973.55
661.656	30159.76
662.007	30133.09
662.358	29947.56
662.708	30081.57
663.059	29948.24
663.409	29921.57
663.76	30134.67
664.11	29974.23
664.461	30032.3
664.811	29888.8
665.161	29978.07
665.511	29821.69
665.862	29932.19
666.212	30008.58
666.562	29982.81
666.912	30004.51
667.262	29836.15
667.612	29854.68
667.962	29849.94
668.312	29787.11
668.662	29960.22
669.011	29816.26
669.361	29602.71
669.711	29750.73
670.06	29738.3
670.41	29576.27
670.76	29627.79
671.109	29733.78
671.459	29588.25
671.808	29600.9
672.157	29630.96
672.507	29562.26
672.856	29442.71
673.205	29532.88
673.554	29513
673.904	29438.65
674.253	29639.32
674.602	29604.29
674.951	29177.41
675.3	28889.96
675.649	29392.32
675.998	29372.21
676.346	29268.71
676.695	29378.08
677.044	29156.85
677.393	29172.44
677.741	29337.41
678.09	29032.33
678.438	29132.89
678.787	29123.4
679.135	29160.69
679.484	29035.04
679.832	28974.48
680.181	28843.86
680.529	29036.62
680.877	28906.91
681.225	28838.21
681.573	29048.37
681.922	28942.39
682.27	28733.81
682.618	28794.82
682.966	28698.1
683.314	28753.69
683.661	28675.5
684.009	28488.39
684.357	28327.72
684.705	28430.31
685.053	28525.9
685.4	28321.16
685.748	28256.76
686.095	28101.28
686.443	28149.64
686.79	28008.85
687.138	28061.96
687.485	28105.35
687.832	27978.12
688.18	27984.22
688.527	27863.55
688.874	27734.28
689.221	27715.53
689.568	27690.44
689.915	27627.4
690.262	27611.58
690.609	27584.68
690.956	27608.86
691.303	27363
691.65	27301.53
691.997	27377.23
692.344	27127.3
692.69	27053.4
693.037	27204.13
693.383	26999.16
693.73	27224.47
694.077	26799.62
694.423	26737.25
694.769	26760.53
695.116	26662
695.462	26658.38
695.808	26655.22
696.155	26693.18
696.501	26482.34
696.847	26400.99
697.193	26128.23
697.539	26292.06
697.885	25975.91
698.231	26060.88
698.577	25982.24
698.923	25937.04
699.269	25774.11
699.614	25731.17
699.96	25699.54
700.306	25632.42
700.651	25546.55
700.997	25581.12
701.342	25399.43
701.688	25368.47
702.033	25316.72
702.379	25363.27
702.724	25195.59
703.069	25199.66
703.415	24958.99
703.76	24986.56
704.105	24960.12
704.45	24841.25
704.795	24896.17
705.14	24558.1
705.485	24697.08
705.83	24576.18
706.175	24571.43
706.52	24513.8
706.865	24536.18
707.209	24476.52
707.554	24303.87
707.899	24404.2
708.243	24317.88
708.588	24207.37
708.932	24115.4
709.277	24120.59
709.621	24086.25
709.966	23827.72
710.31	23968.51
710.654	23719.25
710.998	23798.12
711.342	23767.84
711.687	23689.87
712.031	23564.45
712.375	23493.72
712.719	23562.64
713.063	23492.81
713.407	23564.68
713.75	23448.3
714.094	23410.33
714.438	23354.29
714.782	23312.03
715.125	23096.67
715.469	23193.61
715.812	23163.78
716.156	22954.75
716.499	23034.97
716.843	23055.99
717.186	22948.2
717.53	22913.17
717.873	22965.14
718.216	22908.42
718.559	22774.42
718.902	22592.95
719.246	22710.91
719.589	22549.11
719.932	22509.56
720.275	22399.74
720.617	22490.13
720.96	22571.26
721.303	22464.59
721.646	22345.95
721.989	22246.52
722.331	22312.51
722.674	22329.91
723.016	22306.63
723.359	22232.73
723.701	22201.55
724.044	21922.69
724.386	22045.85
724.729	22000.65
725.071	21973.53
725.413	22054.21
725.755	21953.42
726.097	21896.92
726.439	21669.36
726.782	21720.66
727.124	21848.79
727.465	21724.05
727.807	21625.52
728.149	21600.66
728.491	21706.87
728.833	21649.47
729.175	21676.37
729.516	21542.81
729.858	21502.13
730.199	21514.79
730.541	21460.33
730.882	21443.38
731.224	21429.14
731.565	21272.08
731.906	21287
732.248	21263.04
732.589	21135.59
732.93	21131.52
733.271	21144.18
733.612	21102.59
733.953	21185.3
734.294	20990.73
734.635	20957.97
734.976	21058.98
735.317	20942.15
735.658	20875.03
735.999	20949.15
736.339	20821.25
736.68	20876.61
737.021	20764.75
737.361	20706.9
737.702	20797.97
738.042	20673.23
738.383	20573.57
738.723	20648.37
739.063	20601.82
739.404	20695.6
739.744	20508.26
740.084	20481.37
740.424	20492.67
740.764	20406.34
741.104	20495.38
741.444	20423.97
741.784	20206.8
742.124	20400.01
742.464	20379
742.804	20344.2
743.143	20249.74
743.483	20330.41
743.823	20110.98
744.162	20115.95
744.502	20272.56
744.841	20101.72
745.181	20082.73
745.52	20040.93
745.86	20066.01
746.199	19993.25
746.538	19950.76
746.877	20035.73
747.216	19968.84
747.556	19924.77
747.895	19816.53
748.234	19809.52
748.573	19817.43
748.911	19712.57
749.25	19692.01
749.589	19550.32
749.928	19472.36
750.267	19550.77
750.605	19509.87
750.944	19447.5
751.283	19403.43
751.621	19336.99
751.96	19364.11
752.298	19258.58
752.636	19336.31
752.975	19142.42
753.313	19155.75
753.651	19230.33
753.989	19101.74
754.327	19119.6
