Data from breadboard_black_back_FLMS001491_00045.txt Node
Date: Wed Feb 08 10:50:26 GMT 2017
User: dcchb
Spectrometer: FLMS00149
Trigger mode: 0
Integration Time (sec): 2.000000E-2
Scans to average: 10
Electric dark correction enabled: true
Nonlinearity correction enabled: false
Boxcar width: 0
XAxis mode: Wavelengths
Number of Pixels in Spectrum: 2048
>>>>>Begin Spectral Data<<<<<
341.393	-20.23
341.776	-20.23
342.16	-20.23
342.543	-56.61
342.927	-62.94
343.31	-55.25
343.693	-72.43
344.077	-69.26
344.46	-55.25
344.843	-45.08
345.226	-35.37
345.61	-34.01
345.993	-35.82
346.376	-4.86
346.759	0.79
347.142	34.46
347.525	48.47
347.908	71.3
348.291	70.39
348.674	76.27
349.057	105.65
349.44	131.41
349.823	149.26
350.206	156.72
350.588	187.23
350.971	225.19
351.354	223.84
351.737	223.16
352.119	241.69
352.502	250.73
352.884	277.85
353.267	285.76
353.65	293.66
354.032	311.74
354.414	331.4
354.797	316.49
355.179	318.07
355.562	316.94
355.944	332.08
356.326	345.19
356.709	340.44
357.091	329.14
357.473	349.71
357.855	363.27
358.238	345.87
358.62	347.45
359.002	355.81
359.384	367.79
359.766	334.12
360.148	345.87
360.53	321.91
360.912	348.13
361.294	356.49
361.676	348.58
362.057	344.28
362.439	337.51
362.821	353.32
363.203	360.78
363.584	342.02
363.966	332.08
364.348	338.64
364.729	347.9
365.111	344.28
365.493	316.94
365.874	331.18
366.256	329.6
366.637	320.78
367.019	331.18
367.4	338.18
367.781	348.13
368.163	334.12
368.544	342.48
368.925	359.43
369.306	339.31
369.688	332.31
370.069	334.79
370.45	352.19
370.831	332.53
371.212	339.99
371.593	326.88
371.974	339.31
372.355	340.67
372.736	349.26
373.117	361.01
373.498	361.91
373.879	340.67
374.26	346.09
374.641	340.44
375.021	351.29
375.402	337.51
375.783	366.43
376.163	363.95
376.544	371.63
376.925	382.48
377.305	390.84
377.686	372.08
378.066	366.21
378.447	383.38
378.827	375.7
379.208	370.72
379.588	403.27
379.968	371.85
380.349	382.7
380.729	381.12
381.109	396.03
381.489	401.68
381.87	401.68
382.25	390.39
382.63	404.85
383.01	379.31
383.39	402.36
383.77	393.1
384.15	404.17
384.53	415.24
384.91	425.86
385.29	412.76
385.67	434.45
386.049	431.06
386.429	427.9
386.809	424.96
387.189	438.75
387.568	409.82
387.948	427.45
388.328	441.68
388.707	451.17
389.087	456.82
389.466	442.14
389.846	457.73
390.225	477.39
390.605	471.06
390.984	470.84
391.363	461.12
391.743	483.72
392.122	469.93
392.501	489.82
392.881	504.51
393.26	508.12
393.639	487.11
394.018	494.56
394.397	501.79
394.776	506.77
395.155	513.77
395.534	504.28
395.913	505.18
396.292	511.74
396.671	512.19
397.05	548.35
397.429	524.17
397.808	518.29
398.186	533.88
398.565	535.69
398.944	559.42
399.323	576.14
399.701	535.01
400.08	560.32
400.458	565.3
400.837	573.21
401.215	590.61
401.594	592.64
401.972	564.39
402.351	591.06
402.729	627.22
403.107	594.9
403.486	618.85
403.864	581.79
404.242	626.99
404.62	632.86
404.999	602.13
405.377	645.52
405.755	631.96
406.133	633.32
406.511	642.13
406.889	631.51
407.267	670.6
407.645	683.94
408.023	665.86
408.401	688.23
408.779	694.11
409.156	694.78
409.534	724.84
409.912	721
410.29	723.26
410.667	746.53
411.045	757.61
411.422	745.86
411.8	760.32
412.178	774.33
412.555	786.31
412.933	790.83
413.31	775.01
413.687	809.36
414.065	803.93
414.442	831.05
414.819	844.38
415.197	845.97
415.574	867.43
415.951	834.44
416.328	875.8
416.705	864.5
417.082	882.35
417.46	873.08
417.837	892.52
418.214	876.93
418.591	918.73
418.967	923.25
419.344	918.73
419.721	908.34
420.098	942.01
420.475	937.72
420.852	957.38
421.228	957.38
421.605	968.68
421.982	954.44
422.358	978.84
422.735	994.66
423.111	1017.04
423.488	1037.6
423.864	1029.69
424.241	1013.19
424.617	1053.42
424.994	1065.85
425.37	1067.88
425.746	1080.08
426.123	1094.1
426.499	1095
426.875	1084.6
427.251	1099.97
427.627	1141.78
428.003	1154.66
428.379	1164.83
428.756	1181.78
429.132	1200.99
429.507	1212.96
429.883	1242.11
430.259	1237.14
430.635	1257.03
431.011	1263.36
431.387	1260.19
431.763	1296.58
432.138	1299.97
432.514	1330.25
432.89	1367.53
433.265	1369.34
433.641	1372.05
434.016	1380.64
434.392	1411.15
434.767	1451.15
435.143	1405.05
435.518	1429.45
435.894	1485.27
436.269	1491.83
436.644	1516.91
437.02	1499.28
437.395	1516.46
437.77	1563.91
438.145	1567.53
438.52	1581.31
438.895	1592.39
439.271	1598.94
439.646	1629.22
440.021	1640.75
440.395	1640.07
440.77	1639.62
441.145	1658.15
441.52	1665.15
441.895	1669.67
442.27	1708.32
442.645	1677.36
443.019	1732.27
443.394	1736.79
443.769	1761.87
444.143	1766.85
444.518	1781.08
444.892	1808.88
445.267	1801.87
445.641	1802.55
446.016	1836.22
446.39	1819.5
446.764	1832.38
447.139	1885.94
447.513	1859.95
447.887	1889.1
448.262	1877.8
448.636	1924.36
449.01	1899.05
449.384	1949.44
449.758	1949.89
450.132	1974.75
450.506	1987.18
450.88	2011.59
451.254	2022.21
451.628	2026.95
452.002	2094.3
452.376	2079.61
452.75	2119.61
453.123	2100.62
453.497	2139.72
453.871	2166.84
454.244	2216.1
454.618	2213.16
454.992	2252.94
455.365	2275.53
455.739	2305.59
456.112	2338.13
456.486	2383.1
456.859	2335.42
457.232	2446.38
457.606	2430.78
457.979	2469.2
458.352	2520.27
458.725	2538.8
459.099	2559.14
459.472	2613.15
459.845	2642.98
460.218	2648.4
460.591	2677.33
460.964	2694.96
461.337	2780.83
461.71	2753.71
462.083	2828.51
462.456	2864.67
462.829	2869.19
463.201	2902.64
463.574	2903.99
463.947	2972.24
464.32	2984.44
464.692	3062.41
465.065	3105.34
465.438	3142.63
465.81	3175.17
466.183	3223.76
466.555	3289.07
466.928	3276.64
467.3	3248.62
467.672	3341.04
468.045	3439.57
468.417	3425.56
468.789	3477.76
469.161	3445.67
469.534	3555.05
469.906	3643.63
470.278	3656.51
470.65	3701.26
471.022	3792.56
471.394	3860.12
471.766	3903.06
472.138	3904.87
472.51	4001.14
472.882	4080.01
473.253	4152.77
473.625	4185.99
473.997	4241.81
474.369	4288.14
474.74	4378.98
475.112	4413.56
475.484	4519.99
475.855	4590.05
476.227	4552.76
476.598	4763.83
476.97	4763.38
477.341	4874.56
477.713	4978.51
478.084	4976.48
478.455	5136.25
478.827	5103.26
479.198	5281.78
479.569	5315.68
479.94	5470.25
480.311	5548.44
480.682	5598.38
481.053	5744.59
481.424	5839.96
481.795	5888.09
482.166	5985.72
482.537	6093.96
482.908	6156.11
483.279	6208.09
483.65	6334.18
484.021	6472.49
484.391	6561.07
484.762	6612.82
485.133	6668.41
485.503	6773.49
485.874	6905.92
486.244	7004.22
486.615	7129.19
486.985	7195.63
487.356	7363.08
487.726	7419.35
488.097	7555.85
488.467	7550.87
488.837	7723.75
489.207	7832.45
489.578	7959
489.948	8035.38
490.318	8119.67
490.688	8170.97
491.058	8306.56
491.428	8410.06
491.798	8525.09
492.168	8592.2
492.538	8679.88
492.908	8824.29
493.278	8934.57
493.648	8963.72
494.017	9085.07
494.387	9171.62
494.757	9185.18
495.126	9351.51
495.496	9382.24
495.866	9497.04
496.235	9544.04
496.605	9648.22
496.974	9678.95
497.344	9812.51
497.713	9851.83
498.082	9959.63
498.452	10084.82
498.821	10090.47
499.19	10149.68
499.559	10256.57
499.928	10383.12
500.298	10406.85
500.667	10479.16
501.036	10506.28
501.405	10640.74
501.774	10600.29
502.143	10816.78
502.512	10799.38
502.88	10920.28
503.249	10961.18
503.618	11064
503.987	11082.08
504.356	11158.46
504.724	11199.82
505.093	11328.63
505.462	11367.72
505.83	11384.67
506.199	11553.03
506.567	11698.34
506.936	11694.49
507.304	11833.47
507.672	11849.52
508.041	11919.8
508.409	12010.42
508.777	12129.51
509.145	12182.39
509.514	12208.61
509.882	12423.52
510.25	12402.72
510.618	12527.02
510.986	12588.93
511.354	12785.31
511.722	12803.84
512.09	12934.24
512.458	12915.93
512.826	13070.5
513.193	13155.93
513.561	13251.52
513.929	13385.3
514.297	13454.67
514.664	13580.77
515.032	13707.78
515.4	13714.55
515.767	13800.43
516.135	13959.07
516.502	13996.58
516.869	14138.5
517.237	14130.59
517.604	14147.54
517.972	14480.18
518.339	14558.37
518.706	14550.24
519.073	14724.47
519.44	14720.18
519.808	14911.81
520.175	14901.64
520.542	15111.35
520.909	15245.59
521.276	15248.98
521.643	15334.4
522.009	15519.7
522.376	15584.11
522.743	15773.71
523.11	15973.03
523.477	16018.45
523.843	16233.58
524.21	16228.16
524.577	16490.3
524.943	16450.08
525.31	16666.79
525.676	16850.07
526.043	16911.53
526.409	16993.56
526.776	17203.05
527.142	17225.87
527.508	17360.79
527.874	17542.02
528.241	17601.23
528.607	17702.25
528.973	17792.19
529.339	17897.5
529.705	18005.06
530.071	18212.52
530.437	18313.76
530.803	18382.68
531.169	18516.46
531.535	18606.86
531.901	18671.26
532.267	18737.7
532.632	18877.58
532.998	18856.79
533.364	18987.64
533.73	19066.05
534.095	19106.28
534.461	19236.9
534.826	19484.57
535.192	19549.88
535.557	19638.01
535.923	19601.18
536.288	19762.31
536.653	19892.02
537.019	19807.5
537.384	19866.71
537.749	20104.22
538.114	20113.26
538.479	20217.21
538.845	20318.67
539.21	20360.26
539.575	20411.78
539.94	20522.06
540.305	20622.4
540.67	20630.31
541.034	20731.77
541.399	20861.71
541.764	20832.33
542.129	20990.07
542.494	20924.76
542.858	21074.59
543.223	21161.59
543.587	21324.75
543.952	21292.89
544.316	21384.64
544.681	21381.02
545.045	21509.6
545.41	21655.81
545.774	21684.97
546.138	21695.36
546.503	21762.25
546.867	21836.37
547.231	21973.32
547.595	22086.76
547.959	22187.33
548.324	22084.28
548.688	22243.6
549.052	22304.84
549.416	22401.78
549.779	22507.32
550.143	22573.53
550.507	22625.05
550.871	22698.95
551.235	22786.86
551.599	22838.61
551.962	22989.11
552.326	23123.12
552.689	23139.39
553.053	23112.73
553.417	23249.9
553.78	23444.47
554.143	23486.73
554.507	23627.06
554.87	23592.49
555.234	23866.38
555.597	23796.32
555.96	23787.51
556.323	24060.5
556.686	24102.76
557.05	24181.4
557.413	24316.76
557.776	24323.54
558.139	24629.52
558.502	24623.42
558.865	24580.03
559.228	24789.29
559.59	24927.37
559.953	24931.21
560.316	25257.98
560.679	25275.38
561.041	25403.74
561.404	25562.38
561.767	25670.17
562.129	25606.22
562.492	25897.74
562.854	25833.56
563.217	25963.5
563.579	26103.38
563.941	26133.21
564.304	26397.61
564.666	26537.04
565.028	26449.59
565.39	26670.37
565.753	26866.3
566.115	26926.86
566.477	27017.26
566.839	27165.95
567.201	27311.94
567.563	27427.19
567.925	27454.53
568.287	27438.71
568.648	27465.38
569.01	27796.9
569.372	27891.36
569.734	27776.11
570.095	28086.83
570.457	28145.59
570.819	28272.82
571.18	28286.37
571.542	28466.94
571.903	28405.02
572.265	28529.08
572.626	28701.73
572.987	28591.23
573.349	28775.4
573.71	28831.9
574.071	28872.8
574.432	29160.02
574.794	29294.03
575.155	29177.42
575.516	29133.58
575.877	29291.55
576.238	29344.43
576.599	29430.75
576.96	29530.18
577.32	29504.42
577.681	29719.56
578.042	29836.16
578.403	29746.68
578.763	29701.7
579.124	29890.85
579.485	29969.27
579.845	30006.1
580.206	29891.98
580.566	29981.25
580.927	29957.52
581.287	30138.76
581.648	30016.72
582.008	30193.44
582.368	30176.27
582.728	30181.01
583.089	30205.19
583.449	30040
583.809	30206.78
584.169	30195.03
584.529	30238.87
584.889	30428.47
585.249	30247.23
585.609	30269.83
585.969	30442.93
586.329	30353.89
586.688	30287.68
587.048	30266.21
587.408	30356.38
587.768	30373.55
588.127	30374.91
588.487	30256.04
588.846	30452.19
589.206	30275.25
589.565	30430.5
589.925	30505.3
590.284	30391.86
590.643	30426.43
591.003	30400.9
591.362	30642.02
591.721	30573.55
592.08	30500.55
592.44	30710.49
592.799	30698.51
593.158	30547.11
593.517	30534.45
593.876	30591.63
594.235	30619.65
594.593	30659.65
594.952	30538.29
595.311	30492.87
595.67	30689.25
596.029	30830.49
596.387	30882.24
596.746	30820.32
597.104	30810.15
597.463	30810.38
597.822	30863.93
598.18	30807.21
598.538	30709.59
598.897	30943.71
599.255	30869.36
599.613	31192.97
599.972	31046.08
600.33	31073.65
600.688	30906.87
601.046	31136.7
601.404	31124.27
601.762	30989.58
602.12	31200.65
602.478	31229.8
602.836	31248.33
603.194	31115.23
603.552	31289.69
603.91	31154.1
604.268	31325.84
604.625	31336.01
604.983	31363.58
605.341	31196.81
605.698	31347.09
606.056	31480.87
606.413	31442.22
606.771	31482.68
607.128	31552.73
607.485	31409.91
607.843	31477.25
608.2	31722.89
608.557	31698.94
608.914	31729.45
609.272	31802.44
609.629	31771.26
609.986	31931.93
610.343	31695.55
610.7	32087.4
611.057	31992.72
611.414	31979.39
611.771	32059.83
612.127	32159.49
612.484	32148.42
612.841	32114.52
613.198	32074.3
613.554	32079.27
613.911	32310.22
614.267	32228.64
614.624	32044.69
614.98	32365.14
615.337	32424.12
615.693	32322.65
616.05	32424.12
616.406	32560.61
616.762	32519.26
617.118	32587.05
617.475	32404.91
617.831	32644.45
618.187	32522.2
618.543	32640.16
618.899	32870.21
619.255	32762.87
619.611	32740.72
619.967	32842.87
620.323	32871.79
620.678	32683.77
621.034	32608.07
621.39	32821.17
621.746	32676.54
622.101	32957.44
622.457	32725.13
622.812	32710.67
623.168	32931.22
623.523	32924.67
623.879	32961.96
624.234	32752.02
624.589	32877.21
624.945	32881.96
625.3	32926.7
625.655	32956.31
626.01	32815.97
626.365	32901.85
626.72	32777.1
627.075	32904.56
627.43	32855.75
627.785	32824.56
628.14	32794.05
628.495	32849.64
628.85	32782.98
629.205	32728.07
629.559	33002.86
629.914	32728.07
630.269	32680.84
630.623	32743.66
630.978	32765.58
631.332	32671.34
631.687	32812.13
632.041	32595.41
632.396	32689.65
632.75	32549.99
633.104	32557.45
633.459	32380.05
633.813	32328.08
634.167	32437
634.521	32398.81
634.875	32529.2
635.229	32335.76
635.583	32246.27
635.937	32016.45
636.291	32347.29
636.645	32142.77
636.999	32056.9
637.352	32159.49
637.706	32075.65
638.06	32110.46
638.413	32073.85
638.767	31923.12
639.121	32115.65
639.474	31750.24
639.828	31957.24
640.181	31845.15
640.534	31848.09
640.888	31783.01
641.241	31712.5
641.594	31747.3
641.947	31885.38
642.301	31674.31
642.654	31727.87
643.007	31624.82
643.36	31604.25
643.713	31496.23
644.066	31612.39
644.419	31460.75
644.771	31299.63
645.124	31045.17
645.477	30922.69
645.83	30720.21
646.182	30651.51
646.535	30533.1
646.888	30444.06
647.24	30302.37
647.593	30402.03
647.945	30301.24
648.298	30299.43
648.65	30148.92
649.002	30006.56
649.355	30378.3
649.707	30221.69
650.059	30326.1
650.411	30712.3
650.763	30824.16
651.115	30954.1
651.467	30868.91
651.819	30929.02
652.171	30711.17
652.523	30763.82
652.875	30649.48
653.227	30615.81
653.578	30877.72
653.93	30662.58
654.282	30462.81
654.633	30526.09
654.985	30668.23
655.337	30523.83
655.688	30518.86
656.039	30568.35
656.391	30290.62
656.742	30422.59
657.094	30350.05
657.445	30479.99
657.796	30475.92
658.147	30392.31
658.498	30304.63
658.849	30391.63
659.2	30271.86
659.551	30296.94
659.902	30419.65
660.253	30347.34
660.604	30382.14
660.955	30066.89
661.306	30267.11
661.656	30128.36
662.007	30251.97
662.358	30124.74
662.708	30187.34
663.059	30258.53
663.409	29817.86
663.76	30254.01
664.11	30073.22
664.461	30049.72
664.811	30096.72
665.161	30139.21
665.511	30098.53
665.862	30003.39
666.212	30025.76
666.562	30045.42
666.912	30034.58
667.262	29973.79
667.612	29957.07
667.962	29954.35
668.312	29785.54
668.662	30123.16
669.011	30045.42
669.361	29898.54
669.711	29937.86
670.06	29996.39
670.41	29868.25
670.76	29891.3
671.109	29760.91
671.459	29796.84
671.808	29844.53
672.157	29893.34
672.507	29630.75
672.856	29737.41
673.205	29711.65
673.554	29710.97
673.904	29576.96
674.253	29819.89
674.602	29691.31
674.951	29210.87
675.3	28991.89
675.649	29631.88
675.998	29562.27
676.346	29482.73
676.695	29679.78
677.044	29370.41
677.393	29469.85
677.741	29397.76
678.09	29364.99
678.438	29292.22
678.787	29387.59
679.135	29383.52
679.484	29150.53
679.832	29291.32
680.181	29058.33
680.529	29256.52
680.877	28985.34
681.225	29125.67
681.573	29219.01
681.922	28950.76
682.27	28942.18
682.618	28976.3
682.966	28961.39
683.314	28911.9
683.661	28783.08
684.009	28714.61
684.357	28708.74
684.705	28523.2
685.053	28651.56
685.4	28614.73
685.748	28370.21
686.095	28308.3
686.443	28173.84
686.79	28166.38
687.138	28268.75
687.485	28294.28
687.832	28171.58
688.18	28095.19
688.527	28004.12
688.874	27972.03
689.221	27854.52
689.568	27893.62
689.915	27814.3
690.262	27863.11
690.609	27727.75
690.956	27667.41
691.303	27643.68
691.65	27526.85
691.997	27466.96
692.344	27305.38
692.69	27249.11
693.037	27332.95
693.383	27155.56
693.73	27156.46
694.077	27028.1
694.423	27036.46
694.769	26925.05
695.116	26850.48
695.462	26902
695.808	26722.35
696.155	26814.1
696.501	26475.35
696.847	26558.96
697.193	26297.73
697.539	26457.04
697.885	26269.03
698.231	26175.02
698.577	26236.49
698.923	26231.74
699.269	25983.16
699.614	25763.05
699.96	25819.1
700.306	25892.77
700.651	25688.93
700.997	25634.69
701.342	25518.76
701.688	25623.39
702.033	25391.08
702.379	25488.03
702.724	25431.99
703.069	25332.33
703.415	25213.01
703.76	25246.91
704.105	25129.17
704.45	25055.27
704.795	24982.51
705.14	24912
705.485	24810.76
705.83	24859.57
706.175	24829.06
706.52	24664.78
706.865	24676.53
707.209	24583.87
707.554	24508.62
707.899	24549.3
708.243	24379.36
708.588	24335.97
708.932	24288.29
709.277	24310.66
709.621	24267.72
709.966	24124
710.31	24064.11
710.654	23827.96
710.998	23959.71
711.342	23930.33
711.687	23881.07
712.031	23782.76
712.375	23772.82
712.719	23793.39
713.063	23672.03
713.407	23797.23
713.75	23553.39
714.094	23482.21
714.438	23333.06
714.782	23531.25
715.125	23425.49
715.469	23301.65
715.812	23229.78
716.156	23159.05
716.499	23186.4
716.843	23220.07
717.186	23065.04
717.53	23204.02
717.873	23088.77
718.216	23077.25
718.559	22932.84
718.902	22804.71
719.246	22803.58
719.589	22753.41
719.932	22699.63
720.275	22765.39
720.617	22673.19
720.96	22745.05
721.303	22716.13
721.646	22642.91
721.989	22519.52
722.331	22671.38
722.674	22401.78
723.016	22460.09
723.359	22367.21
723.701	22413.99
724.044	22320.66
724.386	22126.54
724.729	22244.73
725.071	22231.17
725.413	22156.37
725.755	22156.14
726.097	22052.19
726.439	22045.18
726.782	21865.3
727.124	22051.74
727.465	21933.1
727.807	21943.49
728.149	21943.49
728.491	21773.55
728.833	21743.5
729.175	21768.81
729.516	21733.1
729.858	21644.97
730.199	21750.5
730.541	21655.14
730.882	21616.04
731.224	21667.11
731.565	21455.37
731.906	21503.28
732.248	21411.98
732.589	21386.44
732.93	21337.18
733.271	21467.35
733.612	21231.42
733.953	21297.41
734.294	21200.01
734.635	21236.84
734.976	21201.14
735.317	21159.1
735.658	21167.47
735.999	21164.08
736.339	20996.17
736.68	20986.23
737.021	21073.91
737.361	20851.77
737.702	21063.97
738.042	20932.9
738.383	20875.72
738.723	20930.18
739.063	20917.76
739.404	20836.63
739.744	20744.43
740.084	20680.25
740.424	20793.24
740.764	20636.86
741.104	20714.82
741.444	20468.5
741.784	20470.54
742.124	20490.65
742.464	20464.43
742.804	20472.8
743.143	20425.79
743.483	20468.5
743.823	20283.87
744.162	20415.17
744.502	20427.6
744.841	20300.14
745.181	20321.16
745.52	20191.45
745.86	20324.78
746.199	20187.83
746.538	20186.7
746.877	20178.11
747.216	20163.42
747.556	20061.51
747.895	20110.09
748.234	19972.7
748.573	19887.5
748.911	19869.87
749.25	20012.92
749.589	19755.3
749.928	19864.68
750.267	19777.9
750.605	19691.35
750.944	19695.19
751.283	19649.09
751.621	19628.07
751.96	19491.13
752.298	19491.35
752.636	19508.07
752.975	19411.58
753.313	19276.44
753.651	19358.93
753.989	19258.36
754.327	19279.15
