Data from breadboard_white_FLMS001491_00044.txt Node
Date: Wed Feb 08 10:47:46 GMT 2017
User: dcchb
Spectrometer: FLMS00149
Trigger mode: 0
Integration Time (sec): 2.000000E-2
Scans to average: 10
Electric dark correction enabled: true
Nonlinearity correction enabled: false
Boxcar width: 0
XAxis mode: Wavelengths
Number of Pixels in Spectrum: 2048
>>>>>Begin Spectral Data<<<<<
341.393	-14.22
341.776	-14.22
342.16	-14.22
342.543	-46.76
342.927	-76.37
343.31	-66.88
343.693	-74.56
344.077	-63.49
344.46	-69.36
344.843	-37.95
345.226	-57.61
345.61	-22.58
345.993	-20.55
346.376	22.16
346.759	-3.38
347.142	12.44
347.525	52.67
347.908	58.77
348.291	85.66
348.674	76.85
349.057	107.81
349.44	131.99
349.823	158.2
350.206	165.66
350.588	215.6
350.971	223.29
351.354	242.49
351.737	247.92
352.119	268.71
352.502	294.47
352.884	285.43
353.267	294.7
353.65	280.23
354.032	310.29
354.414	330.17
354.797	327.01
355.179	341.47
355.562	324.07
355.944	351.42
356.326	356.84
356.709	341.25
357.091	353.23
357.473	363.62
357.855	365.43
358.238	353
358.62	351.64
359.002	365.2
359.384	361.13
359.766	359.33
360.148	365.43
360.53	361.81
360.912	390.51
361.294	372.43
361.676	354.13
362.057	334.24
362.439	371.08
362.821	357.74
363.203	360.46
363.584	369.27
363.966	345.99
364.348	342.6
364.729	357.07
365.111	356.61
365.493	343.96
365.874	344.41
366.256	351.42
366.637	325.66
367.019	353.68
367.4	337.41
367.781	338.54
368.163	331.3
368.544	355.94
368.925	354.13
369.306	358.42
369.688	343.73
370.069	348.48
370.45	331.53
370.831	345.32
371.212	345.32
371.593	329.05
371.974	350.74
372.355	359.33
372.736	350.06
373.117	356.16
373.498	346.45
373.879	361.59
374.26	346.67
374.641	328.82
375.021	347.8
375.402	371.3
375.783	355.71
376.163	400.23
376.544	381.7
376.925	388.7
377.305	384.41
377.686	370.17
378.066	404.52
378.447	388.93
378.827	376.73
379.208	394.81
379.588	376.95
379.968	366.78
380.349	405.88
380.729	389.16
381.109	399.78
381.489	373.79
381.87	388.03
382.25	399.33
382.63	412.21
383.01	404.98
383.39	415.6
383.77	417.86
384.15	413.79
384.53	419.44
384.91	415.82
385.29	438.42
385.67	442.49
386.049	432.77
386.429	425.77
386.809	418.99
387.189	438.19
387.568	440
387.948	445.88
388.328	438.42
388.707	456.73
389.087	465.09
389.466	469.15
389.846	466.44
390.225	465.31
390.605	465.09
390.984	479.55
391.363	485.2
391.743	483.62
392.122	493.33
392.501	508.25
392.881	503.28
393.26	522.71
393.639	499.21
394.018	533.33
394.397	529.04
394.776	560.9
395.155	547.34
395.534	566.33
395.913	544.86
396.292	571.98
396.671	577.4
397.05	570.85
397.429	583.28
397.808	603.84
398.186	578.3
398.565	598.64
398.944	604.29
399.323	612.43
399.701	631.86
400.08	626.44
400.458	623.05
400.837	646.78
401.215	666.44
401.594	646.32
401.972	682.03
402.351	682.71
402.729	707.34
403.107	707.11
403.486	727.68
403.864	728.36
404.242	730.16
404.62	769.03
404.999	774.91
405.377	772.65
405.755	788.24
406.133	831.86
406.511	827.79
406.889	845.19
407.267	851.97
407.645	863.04
408.023	888.35
408.401	899.43
408.779	919.54
409.156	943.27
409.534	946.2
409.912	975.13
410.29	996.15
410.667	1000.21
411.045	1033.66
411.422	1042.92
411.8	1030.27
412.178	1100.32
412.555	1101.45
412.933	1150.49
413.31	1136.26
413.687	1150.72
414.065	1169.47
414.442	1192.75
414.819	1219.87
415.197	1237.5
415.574	1243.6
415.951	1302.13
416.328	1271.62
416.705	1308.91
417.082	1322.01
417.46	1325.85
417.837	1360.2
418.214	1367.21
418.591	1412.41
418.967	1430.26
419.344	1441.11
419.721	1456.92
420.098	1466.42
420.475	1489.47
420.852	1503.48
421.228	1505.06
421.605	1556.81
421.982	1550.71
422.358	1584.15
422.735	1595
423.111	1597.26
423.488	1647.65
423.864	1646.75
424.241	1687.2
424.617	1682.46
424.994	1729.01
425.37	1741.44
425.746	1735.11
426.123	1794.54
426.499	1792.51
426.875	1815.33
427.251	1858.5
427.627	1891.72
428.003	1947.76
428.379	1946.18
428.756	1919.06
429.132	1982.79
429.507	2026.4
429.883	2034.31
430.259	2093.74
430.635	2093.07
431.011	2110.47
431.387	2164.03
431.763	2238.37
432.138	2232.5
432.514	2248.99
432.89	2288.77
433.265	2336.22
433.641	2350.23
434.016	2403.34
434.392	2399.95
434.767	2450.57
435.143	2444.47
435.518	2495.54
435.894	2512.72
436.269	2563.56
436.644	2601.53
437.02	2625.26
437.395	2643.79
437.77	2684.01
438.145	2715.87
438.52	2728.76
438.895	2755.42
439.271	2771.24
439.646	2832.71
440.021	2881.52
440.395	2870.9
440.77	2837.45
441.145	2944.34
441.52	2933.95
441.895	2936.43
442.27	3041.52
442.645	3008.75
443.019	3040.84
443.394	3059.37
443.769	3075.87
444.143	3087.62
444.518	3115.64
444.892	3155.86
445.267	3137.56
445.641	3191.57
446.016	3187.5
446.39	3280.15
446.764	3251.45
447.139	3281.74
447.513	3327.61
447.887	3327.38
448.262	3337.78
448.636	3383.2
449.01	3430.21
449.384	3437.66
449.758	3468.17
450.132	3521.28
450.506	3507.72
450.88	3575.74
451.254	3557.43
451.628	3643.08
452.002	3680.6
452.376	3756.53
452.75	3745.23
453.123	3782.97
453.497	3883.98
453.871	3906.35
454.244	3962.4
454.618	4009.17
454.992	4044.88
455.365	4035.39
455.739	4149.06
456.112	4190.64
456.486	4191.09
456.859	4245.78
457.232	4369.39
457.606	4338.88
457.979	4465.43
458.352	4496.85
458.725	4522.38
459.099	4590.63
459.472	4677.41
459.845	4731.87
460.218	4800.79
460.591	4833.11
460.964	4857.74
461.337	4973.22
461.71	5021.8
462.083	5095.7
462.456	5115.36
462.829	5149.71
463.201	5227.67
463.574	5297.28
463.947	5336.6
464.32	5430.15
464.692	5500.21
465.065	5557.38
465.438	5630.37
465.81	5735.91
466.183	5801.9
466.555	5909.92
466.928	5945.62
467.3	5932.51
467.672	6080.98
468.045	6189
468.417	6212.73
468.789	6299.74
469.161	6402.78
469.534	6489.56
469.906	6607.07
470.278	6642.33
470.65	6738.14
471.022	6883
471.394	6996.89
471.766	7077.12
472.138	7156.21
472.51	7305.58
472.882	7425.36
473.253	7498.35
473.625	7652.24
473.997	7806.14
474.369	7863.76
474.74	7894.27
475.112	8098.78
475.484	8257.42
475.855	8388.27
476.227	8440.7
476.598	8689.96
476.97	8755.94
477.341	8984.18
477.713	9112.32
478.084	9150.06
478.455	9407.22
478.827	9512.08
479.198	9818.29
479.569	9768.12
479.94	10039.98
480.311	10140.54
480.682	10454.88
481.053	10627.76
481.424	10724.7
481.795	10884.25
482.166	11015.09
482.537	11177.8
482.908	11408.3
483.279	11579.6
483.65	11855.97
484.021	12006.93
484.391	12115.18
484.762	12238.79
485.133	12375.06
485.503	12554.03
485.874	12901.14
486.244	12932.1
486.615	13198.76
486.985	13404.18
487.356	13617.96
487.726	13739.09
488.097	14037.16
488.467	14130.72
488.837	14419.75
489.207	14579.74
489.578	14726.63
489.948	14978.15
490.318	15063.57
490.688	15155.1
491.058	15477.8
491.428	15681.86
491.798	15879.6
492.168	16143.54
492.538	16120.27
492.908	16370.66
493.278	16595.06
493.648	16597.09
494.017	16860.81
494.387	17039.34
494.757	17210.64
495.126	17364.08
495.496	17387.35
495.866	17628.7
496.235	17773.33
496.605	17985.3
496.974	18143.27
497.344	18249.25
497.713	18327.89
498.082	18510.94
498.452	18670.94
498.821	18804.49
499.19	18929.91
499.559	19114.99
499.928	19238.38
500.298	19395.66
500.667	19614.87
501.036	19527.41
501.405	19758.59
501.774	19891.02
502.143	20000.62
502.512	20148.18
502.88	20308.41
503.249	20420.95
503.618	20603.77
503.987	20596.53
504.356	20783.42
504.724	20881.72
505.093	21006.69
505.462	21092.34
505.83	21334.14
506.199	21493.46
506.567	21870.17
506.936	21775.94
507.304	21891.87
507.672	22225.64
508.041	22196.94
508.409	22436.71
508.777	22614.56
509.145	22833.09
509.514	22822.46
509.882	23002.35
510.25	23068.33
510.618	23269.46
510.986	23389.91
511.354	23635.55
511.722	23836.22
512.09	23980.17
512.458	24118.7
512.826	24303.56
513.193	24366.15
513.561	24669.87
513.929	24758.69
514.297	24952.13
514.664	25183.98
515.032	25263.3
515.4	25600.92
515.767	25743.29
516.135	25863.06
516.502	25831.43
516.869	26180.79
517.237	26341.24
517.604	26323.62
517.972	26737.39
518.339	26874.56
518.706	26940.77
519.073	27129.92
519.44	27328.11
519.808	27585.73
520.175	27651.26
520.542	28083.34
520.909	28121.76
521.276	28264.13
521.643	28619.15
522.009	28827.28
522.376	29038.57
522.743	29066.14
523.11	29424.1
523.477	29766.24
523.843	29919.91
524.21	30210.75
524.577	30467.91
524.943	30634.69
525.31	30718.75
525.676	31052.76
526.043	31241
526.409	31343.82
526.776	31762.57
527.142	31750.37
527.508	31970.47
527.874	32302.89
528.241	32406.62
528.607	32636.9
528.973	32971.35
529.339	33073.95
529.705	33312.36
530.071	33536.31
530.437	33602.07
530.803	33847.26
531.169	34098.78
531.535	34028.95
531.901	34284.76
532.267	34445.44
532.632	34801.58
532.998	34897.4
533.364	35164.29
533.73	35032.77
534.095	35482.25
534.461	35415.13
534.826	35814.44
535.192	35831.39
535.557	36136.24
535.923	36152.96
536.288	36326.29
536.653	36414.2
537.019	36448.32
537.384	36752.27
537.749	36877.01
538.114	36915.2
538.479	36985.48
538.845	37234.06
539.21	37152.71
539.575	37554.96
539.94	37529.42
540.305	37705.69
540.67	37742.52
541.034	37717.67
541.399	38059.35
541.764	38143.42
542.129	38359.68
542.494	38562.62
542.858	38688.49
543.223	38696.62
543.587	38951.98
543.952	38847.81
544.316	39060.68
544.681	39096.39
545.045	39435.59
545.41	39475.81
545.774	39593.1
546.138	39674.45
546.503	39804.62
546.867	39819.98
547.231	40085.97
547.595	40166.19
547.959	40357.15
548.324	40395.11
548.688	40547.65
549.052	40676.68
549.416	40748.1
549.779	40841.43
550.143	41020.18
550.507	41281.41
550.871	41301.53
551.235	41208.65
551.599	41625.36
551.962	41755.98
552.326	41762.76
552.689	42010.43
553.053	41992.36
553.417	42086.82
553.78	42659.23
554.143	42395.96
554.507	42635.5
554.87	42779.91
555.234	43211.31
555.597	43121.14
555.96	43241.14
556.323	43454.24
556.686	43504.86
557.05	43853.32
557.413	43899.42
557.776	44051.74
558.139	44394.78
558.502	44449.01
558.865	44619.41
559.228	44705.28
559.59	45039.73
559.953	45069.34
560.316	45440.63
560.679	45437.01
561.041	45696.44
561.404	45866.83
561.767	45995.41
562.129	46027.73
562.492	46501.39
562.854	46495.06
563.217	46456.19
563.579	46603.31
563.941	46893.47
564.304	46975.73
564.666	47323.06
565.028	47438.99
565.39	47472.66
565.753	47736.16
566.115	47845.08
566.477	48011.41
566.839	48139.31
567.201	48476.03
567.563	48452.53
567.925	48707.66
568.287	48755.79
568.648	48764.83
569.01	49026.75
569.372	49264.71
569.734	49215.67
570.095	49412.5
570.457	49640.29
570.819	49675.77
571.18	49580.63
571.542	49841.64
571.903	49949.66
572.265	50077.12
572.626	50192.82
572.987	50315.08
573.349	50337.45
573.71	50433.94
574.071	50537.67
574.432	50621.96
574.794	50974.04
575.155	50941.95
575.516	50805.46
575.877	50989.63
576.238	51046.36
576.599	51262.4
576.96	51167.48
577.32	51114.6
577.681	51351.21
578.042	51434.37
578.403	51327.03
578.763	51511.43
579.124	51544.87
579.485	51632.78
579.845	51738.77
580.206	51691.08
580.566	51622.16
580.927	51729.95
581.287	51811.08
581.648	51696.06
582.008	51887.69
582.368	51754.36
582.728	51912.77
583.089	51921.13
583.449	51845.88
583.809	51936.05
584.169	51920.91
584.529	51882.04
584.889	52140.79
585.249	51900.12
585.609	51837.52
585.969	52144.86
586.329	52056.05
586.688	52011.08
587.048	52040.91
587.408	51976.27
587.768	51935.37
588.127	52033.67
588.487	51912.1
588.846	52153.9
589.206	51947.35
589.565	51939.21
589.925	52099.89
590.284	51925.65
590.643	52027.35
591.003	52144.18
591.362	52262.37
591.721	52194.12
592.08	52099.66
592.44	52229.15
592.799	52217.4
593.158	52192.54
593.517	52160.22
593.876	52198.42
594.235	52161.81
594.593	52124.75
594.952	52260.33
595.311	52259.21
595.67	52247
596.029	52420.33
596.387	52435.7
596.746	52450.39
597.104	52355.25
597.463	52352.08
597.822	52408.35
598.18	52242.71
598.538	52371.97
598.897	52507.56
599.255	52301.92
599.613	52756.59
599.972	52527.67
600.33	52619.42
600.688	52474.34
601.046	52645.18
601.404	52693.09
601.762	52545.98
602.12	52733.09
602.478	52619.42
602.836	52803.6
603.194	52614
603.552	52767.21
603.91	52578.97
604.268	52782.58
604.625	52683.37
604.983	52917.49
605.341	52722.24
605.698	52916.14
606.056	52881.34
606.413	52907.1
606.771	53016.7
607.128	52973.99
607.485	52972.18
607.843	52952.52
608.2	53129.24
608.557	53209.24
608.914	53102.35
609.272	53350.48
609.629	53354.77
609.986	53471.38
610.343	53209.01
610.7	53423.69
611.057	53391.38
611.414	53346.41
611.771	53399.29
612.127	53526.29
612.484	53530.58
612.841	53581.43
613.198	53516.12
613.554	53484.71
613.911	53702.1
614.267	53705.27
614.624	53716.34
614.98	53720.64
615.337	53882.89
615.693	53800.63
616.05	53779.62
616.406	53949.1
616.762	53799.05
617.118	53790.92
617.475	53846.28
617.831	54004.24
618.187	54041.08
618.543	53976.22
618.899	54143.68
619.255	54034.3
619.611	54042.89
619.967	54164.24
620.323	54213.5
620.678	54114.75
621.034	53947.75
621.39	54004.24
621.746	54003.57
622.101	54343.67
622.457	54054.41
622.812	54152.26
623.168	54194.75
623.523	54258.7
623.879	54340.96
624.234	54099.61
624.589	54159.27
624.945	54262.09
625.3	54237.01
625.655	54199.72
626.01	54218.02
626.365	54167.86
626.72	54136.22
627.075	54150.91
627.43	54173.73
627.785	54097.8
628.14	54103.68
628.495	54192.94
628.85	54131.02
629.205	53943.91
629.559	54224.13
629.914	53977.8
630.269	53970.57
630.623	53944.36
630.978	53864.13
631.332	54086.73
631.687	54072.49
632.041	53991.14
632.396	53951.59
632.75	53774.65
633.104	53910.01
633.459	53779.62
633.813	53744.82
634.167	53641.99
634.521	53702.78
634.875	53790.46
635.229	53607.19
635.583	53515.9
635.937	53588.89
636.291	53485.84
636.645	53489.91
636.999	53444.71
637.352	53474.31
637.706	53284.04
638.06	53453.52
638.413	53313.87
638.767	53216.92
639.121	53252.85
639.474	53095.34
639.828	53038.17
640.181	53111.39
640.534	53051.73
640.888	53042.01
641.241	52828.23
641.594	53008.79
641.947	53000.2
642.301	52940.54
642.654	52934.67
643.007	52892.63
643.36	52872.52
643.713	52860.09
644.066	52939.41
644.419	52743.26
644.771	52507.56
645.124	52308.47
645.477	52276.38
645.83	52023.28
646.182	51826
646.535	51672.55
646.888	51655.61
647.24	51481.82
647.593	51673.01
647.945	51566.12
648.298	51414.03
648.65	51350.3
649.002	51320.47
649.355	51386.69
649.707	51330.87
650.059	51610.18
650.411	51948.93
650.763	51949.38
651.115	52170.62
651.467	52091.75
651.819	51975.82
652.171	52018.99
652.523	51891.08
652.875	51955.71
653.227	51703.97
653.578	51916.62
653.93	51824.87
654.282	51764.53
654.633	51691.99
654.985	51804.08
655.337	51690.86
655.688	51709.84
656.039	51776.28
656.391	51548.04
656.742	51602.95
657.094	51672.55
657.445	51732.44
657.796	51606.34
658.147	51540.35
658.498	51526.57
658.849	51570.64
659.2	51591.88
659.551	51450.19
659.902	51569.05
660.253	51431.43
660.604	51577.19
660.955	51361.83
661.306	51467.36
661.656	51423.52
662.007	51331.09
662.358	51339.23
662.708	51230.31
663.059	51317.08
663.409	51009.52
663.76	51279.34
664.11	51248.38
664.461	51317.76
664.811	51263.98
665.161	51218.55
665.511	51072.34
665.862	51181.72
666.212	51198.44
666.562	51186.01
666.912	51205.45
667.262	51101.95
667.612	51095.39
667.962	51109.18
668.312	50955.51
668.662	51202.06
669.011	51053.81
669.361	51034.6
669.711	51001.61
670.06	51100.82
670.41	50970.65
670.76	50871.44
671.109	50987.37
671.459	50778.57
671.808	50709.64
672.157	50924.78
672.507	50652.24
672.856	50695.18
673.205	50769.3
673.554	50853.37
673.904	50708.51
674.253	50939.01
674.602	50691.34
674.951	50283.66
675.3	50069.88
675.649	50555.52
675.998	50447.05
676.346	50628.74
676.695	50626.25
677.044	50317.79
677.393	50401.17
677.741	50512.58
678.09	50402.53
678.438	50317.34
678.787	50378.35
679.135	50405.92
679.484	50122.54
679.832	50214.06
680.181	50033.27
680.529	50258.58
680.877	50053.84
681.225	50075.53
681.573	50140.39
681.922	49800.06
682.27	49866.5
682.618	49730.23
682.966	49722.55
683.314	49924.8
683.661	49673.96
684.009	49424.03
684.357	49372.5
684.705	49420.18
685.053	49380.18
685.4	49457.92
685.748	49171.83
686.095	49032.17
686.443	48927.99
686.79	48835.11
687.138	48899.97
687.485	48854.1
687.832	48947.65
688.18	48790.6
688.527	48626.76
688.874	48536.37
689.221	48495.24
689.568	48405.75
689.915	48322.59
690.262	48298.63
690.609	48148.58
690.956	48107.68
691.303	47982.26
691.65	47879.21
691.997	47870.85
692.344	47541.59
692.69	47581.14
693.037	47567.58
693.383	47282.16
693.73	47500.69
694.077	47047.59
694.423	47139.11
694.769	46969.85
695.116	46944.09
695.462	46759.01
695.808	46765.79
696.155	46787.48
696.501	46467.94
696.847	46376.42
697.193	46160.16
697.539	46352.24
697.885	46056.66
698.231	45908.86
698.577	45951.57
698.923	45841.52
699.269	45550.91
699.614	45393.62
699.96	45434.3
700.306	45338.26
700.651	45291.03
700.997	44962
701.342	44974.65
701.688	44970.36
702.033	44789.57
702.379	44768.33
702.724	44625.73
703.069	44700.31
703.415	44287.89
703.76	44353.42
704.105	44190.04
704.45	44099.87
704.795	43911.18
705.14	43814
705.485	43711.18
705.83	43527.91
706.175	43681.35
706.52	43487.68
706.865	43407.69
707.209	43230.74
707.554	43246.79
707.899	43209.05
708.243	43090.41
708.588	43020.8
708.932	42786.46
709.277	42762.51
709.621	42748.49
709.966	42300.6
710.31	42525.22
710.654	42230.09
710.998	42226.25
711.342	42154.61
711.687	42038.68
712.031	41957.78
712.375	41846.37
712.719	41713.27
713.063	41727.73
713.407	41850.21
713.75	41529.54
714.094	41540.39
714.438	41347.63
714.782	41329.1
715.125	41125.71
715.469	41395.76
715.812	41011.59
716.156	40873.52
716.499	40870.35
716.843	41056.79
717.186	40555.11
717.53	40874.87
717.873	40693.18
718.216	40649.79
718.559	40584.48
718.902	40260.2
719.246	40274.89
719.589	40273.31
719.932	40131.84
720.275	40090.26
720.617	39984.05
720.96	39946.76
721.303	39878.97
721.646	39891.62
721.989	39597.62
722.331	39820.66
722.674	39567.56
723.016	39741.12
723.359	39373.67
723.701	39440.33
724.044	39357.4
724.386	39172.32
724.729	39241.69
725.071	39112.66
725.413	39018.88
725.755	39007.12
726.097	38957.86
726.439	38675.16
726.782	38730.97
727.124	38849.39
727.465	38674.7
727.807	38655.04
728.149	38589.28
728.491	38489.62
728.833	38371.66
729.175	38275.84
729.516	38179.58
729.858	38248.05
730.199	38210.08
730.541	38042.63
730.882	38045.12
731.224	38141.16
731.565	37828.17
731.906	37813.03
732.248	37929.64
732.589	37721.28
732.93	37548.63
733.271	37526.26
733.612	37511.12
733.953	37486.26
734.294	37277.68
734.635	37309.77
734.976	37376.21
735.317	37035.42
735.658	37107.51
735.999	37157.23
736.339	37060.73
736.68	37137.34
737.021	36974.86
737.361	36714.3
737.702	36811.48
738.042	36822.55
738.383	36785.49
738.723	36701.65
739.063	36641.99
739.404	36583.23
739.744	36563.12
740.084	36339.62
740.424	36486.74
740.764	36426.4
741.104	36536.45
741.444	36076.35
741.784	36079.07
742.124	36186.86
742.464	36118.16
742.804	35915
743.143	35963.59
743.483	35842.91
743.823	35729.24
744.162	35788.9
744.502	35780.09
744.841	35605.18
745.181	35598.17
745.52	35439.99
745.86	35476.37
746.199	35389.82
746.538	35460.55
746.877	35292.42
747.216	35411.74
747.556	35229.37
747.895	35260.78
748.234	35061.01
748.573	35086.32
748.911	34949.6
749.25	34988.25
749.589	34710.29
749.928	34759.55
750.267	34784.18
750.605	34611.99
750.944	34430.3
751.283	34435.27
751.621	34473.01
751.96	34289.73
752.298	34264.2
752.636	34276.18
752.975	34129.51
