Data from breadboard_white_FLMS001491_00011.txt Node
Date: Wed Feb 08 10:47:20 GMT 2017
User: dcchb
Spectrometer: FLMS00149
Trigger mode: 0
Integration Time (sec): 2.000000E-2
Scans to average: 10
Electric dark correction enabled: true
Nonlinearity correction enabled: false
Boxcar width: 0
XAxis mode: Wavelengths
Number of Pixels in Spectrum: 2048
>>>>>Begin Spectral Data<<<<<
341.393	-9.25
341.776	-9.25
342.16	-9.25
342.543	-73.43
342.927	-68.01
343.31	-57.39
343.693	-70.94
344.077	-67.33
344.46	-78.4
344.843	-50.38
345.226	-36.37
345.61	-30.04
345.993	-20.55
346.376	3.63
346.759	27.36
347.142	20.58
347.525	27.58
347.908	56.51
348.291	84.08
348.674	85.89
349.057	105.77
349.44	115.04
349.823	132.67
350.206	178.99
350.588	204.08
350.971	221.03
351.354	241.59
351.737	262.38
352.119	304.41
352.502	289.95
352.884	307.12
353.267	285.88
353.65	314.36
354.032	313.68
354.414	335.37
354.797	329.72
355.179	329.5
355.562	356.61
355.944	354.81
356.326	386.22
356.709	352.77
357.091	361.59
357.473	364.3
357.855	378.54
358.238	380.8
358.62	388.25
359.002	394.58
359.384	394.81
359.766	368.14
360.148	368.82
360.53	367.24
360.912	373.79
361.294	353.45
361.676	373.79
362.057	367.91
362.439	347.8
362.821	343.73
363.203	362.04
363.584	371.08
363.966	354.36
364.348	380.8
364.729	360
365.111	355.94
365.493	377.86
365.874	354.13
366.256	359.78
366.637	340.12
367.019	365.65
367.4	366.78
367.781	339.89
368.163	355.03
368.544	365.65
368.925	346.67
369.306	370.4
369.688	369.27
370.069	370.85
370.45	382.38
370.831	382.15
371.212	377.18
371.593	367.46
371.974	391.64
372.355	377.18
372.736	367.24
373.117	369.5
373.498	372.66
373.879	379.44
374.26	375.15
374.641	385.77
375.021	365.43
375.402	374.47
375.783	388.48
376.163	400.68
376.544	419.66
376.925	403.39
377.305	395.03
377.686	404.52
378.066	372.89
378.447	403.85
378.827	408.36
379.208	413.34
379.588	414.92
379.968	415.82
380.349	410.85
380.729	406.33
381.109	411.08
381.489	423.51
381.87	415.37
382.25	420.34
382.63	427.35
383.01	419.44
383.39	434.35
383.77	436.84
384.15	437.97
384.53	453.79
384.91	440.23
385.29	466.44
385.67	450.85
386.049	455.37
386.429	467.57
386.809	486.1
387.189	475.26
387.568	476.16
387.948	472.54
388.328	483.84
388.707	500.57
389.087	494.46
389.466	491.07
389.846	513.45
390.225	508.02
390.605	512.32
390.984	511.87
391.363	525.2
391.743	542.37
392.122	540.11
392.501	550.51
392.881	562.26
393.26	585.54
393.639	567.23
394.018	590.06
394.397	588.25
394.776	606.78
395.155	591.64
395.534	609.26
395.913	597.51
396.292	609.26
396.671	618.3
397.05	659.88
397.429	630.28
397.808	647.68
398.186	676.83
398.565	651.75
398.944	683.39
399.323	695.36
399.701	705.08
400.08	718.41
400.458	751.41
400.837	740.79
401.215	736.72
401.594	756.38
401.972	777.85
402.351	781.24
402.729	805.42
403.107	808.35
403.486	813.78
403.864	830.5
404.242	818.3
404.62	842.03
404.999	866.43
405.377	875.92
405.755	879.77
406.133	891.74
406.511	913.21
406.889	956.15
407.267	972.19
407.645	1003.83
408.023	1017.84
408.401	1022.59
408.779	1019.65
409.156	1041.34
409.534	1079.99
409.912	1087.9
410.29	1132.64
410.667	1141.91
411.045	1166.76
411.422	1150.49
411.8	1204.95
412.178	1201.56
412.555	1264.61
412.933	1260.77
413.31	1287.89
413.687	1327.66
414.065	1324.5
414.442	1342.8
414.819	1400.43
415.197	1389.36
415.574	1407.89
415.951	1460.54
416.328	1466.42
416.705	1475.91
417.082	1505.06
417.46	1504.16
417.837	1552.52
418.214	1570.14
418.591	1589.58
418.967	1620.76
419.344	1644.49
419.721	1639.07
420.098	1678.84
420.475	1676.81
420.852	1729.01
421.228	1745.28
421.605	1762.68
421.982	1750.7
422.358	1794.77
422.735	1818.95
423.111	1836.8
423.488	1859.17
423.864	1880.64
424.241	1905.5
424.617	1931.04
424.994	1950.02
425.37	1954.54
425.746	1993.41
426.123	2011.49
426.499	2048.77
426.875	2037.47
427.251	2100.75
427.627	2131.71
428.003	2186.85
428.379	2227.53
428.756	2216.68
429.132	2239.96
429.507	2286.96
429.883	2324.47
430.259	2350.23
430.635	2364.47
431.011	2395.21
431.387	2472.04
431.763	2530.34
432.138	2523.11
432.514	2541.42
432.89	2579.83
433.265	2659.61
433.641	2678.14
434.016	2736.67
434.392	2712.71
434.767	2811.47
435.143	2783.9
435.518	2853.05
435.894	2899.6
436.269	2923.1
436.644	2946.6
437.02	2982.99
437.395	3023.44
437.77	3061.4
438.145	3090.33
438.52	3151.12
438.895	3200.61
439.271	3186.15
439.646	3268.4
440.021	3261.4
440.395	3312.47
440.77	3239.93
441.145	3321.73
441.52	3400.6
441.895	3372.81
442.27	3433.6
442.645	3423.88
443.019	3471.11
443.394	3445.12
443.769	3525.57
444.143	3569.19
444.518	3612.57
444.892	3603.54
445.267	3591.11
445.641	3655.06
446.016	3681.27
446.39	3708.62
446.764	3753.36
447.139	3723.31
447.513	3782.97
447.887	3801.72
448.262	3823.42
448.636	3863.19
449.01	3956.07
449.384	3952.68
449.758	4002.62
450.132	4062.28
450.506	4035.84
450.88	4040.81
451.254	4081.49
451.628	4185.89
452.002	4215.95
452.376	4252.11
452.75	4290.75
453.123	4286.23
453.497	4439.9
453.871	4459.56
454.244	4541.36
454.618	4525.09
454.992	4606.67
455.365	4608.71
455.739	4773
456.112	4795.82
456.486	4822.26
456.859	4883.73
457.232	4965.53
457.606	4979.32
457.979	5010.73
458.352	5101.8
458.725	5196.26
459.099	5247.56
459.472	5396.26
459.845	5391.51
460.218	5483.03
460.591	5516.93
460.964	5537.95
461.337	5669.24
461.71	5739.3
462.083	5867.2
462.456	5863.14
462.829	5847.77
463.201	5949.01
463.574	6041.89
463.947	6150.59
464.32	6215.67
464.692	6296.12
465.065	6327.53
465.438	6452.5
465.81	6541.54
466.183	6584.25
466.555	6766.62
466.928	6768.65
467.3	6848.2
467.672	6905.82
468.045	7149.66
468.417	7086.83
468.789	7255.87
469.161	7282.99
469.534	7422.64
469.906	7607.05
470.278	7620.38
470.65	7764.33
471.022	7922.97
471.394	8032.35
471.766	8116.64
472.138	8270.53
472.51	8410.19
472.882	8487.25
473.253	8645.89
473.625	8784.87
473.997	8931.3
474.369	8964.75
474.74	9090.4
475.112	9248.81
475.484	9414.91
475.855	9616.48
476.227	9644.05
476.598	9984.38
476.97	10060.54
477.341	10203.59
477.713	10365.39
478.084	10481.55
478.455	10807.19
478.827	10896.45
479.198	11207.4
479.569	11230.23
479.94	11510.45
480.311	11683.77
480.682	11989.3
481.053	12190.43
481.424	12389.97
481.795	12405.11
482.166	12675.61
482.537	12860.47
482.908	13121.48
483.279	13359.89
483.65	13638.07
484.021	13805.75
484.391	13968.23
484.762	14089.14
485.133	14156.7
485.503	14484.15
485.874	14676.24
486.244	14908.77
486.615	15168.2
486.985	15365.94
487.356	15650.68
487.726	15717.57
488.097	16141.74
488.467	16088.63
488.837	16544.44
489.207	16748.73
489.578	16939
489.948	17000.7
490.318	17364.76
490.688	17402.49
491.058	17720.23
491.428	18014
491.798	18129.03
492.168	18507.55
492.538	18624.61
492.908	18662.12
493.278	19034.32
493.648	19076.35
494.017	19323.8
494.387	19501.87
494.757	19747.97
495.126	19881.53
495.496	20016.44
495.866	20241.97
496.235	20340.5
496.605	20618.68
496.974	20713.37
497.344	20872.69
497.713	20988.16
498.082	21189.74
498.452	21480.58
498.821	21477.19
499.19	21664.98
499.559	21891.19
499.928	21983.39
500.298	22121.01
500.667	22320.33
501.036	22411.85
501.405	22425.87
501.774	22678.06
502.143	22931.84
502.512	23052.74
502.88	23219.74
503.249	23333.64
503.618	23377.25
503.987	23485.05
504.356	23629
504.724	23826.96
505.093	24053.62
505.462	24023.56
505.83	24353.5
506.199	24521.4
506.567	24785.35
506.936	24769.53
507.304	25160.26
507.672	25194.15
508.041	25405
508.409	25502.62
508.777	25804.76
509.145	25993
509.514	25963.4
509.882	26168.14
510.25	26353.9
510.618	26566.1
510.986	26604.74
511.354	26953.88
511.722	27083.14
512.09	27376.47
512.458	27339.63
512.826	27716.8
513.193	27888.55
513.561	27995.66
513.929	28240.18
514.297	28371.25
514.664	28660.28
515.032	28730.33
515.4	29026.37
515.767	29185.46
516.135	29370.99
516.502	29215.74
516.869	29770.53
517.237	29877.19
517.604	29905.89
517.972	30333.23
518.339	30512.43
518.706	30623.16
519.073	30759.88
519.44	30961.69
519.808	31355.57
520.175	31420.43
520.542	31829.91
520.909	31970.25
521.276	31969.79
521.643	32323.91
522.009	32527.52
522.376	32895.42
522.743	33121.18
523.11	33329.08
523.477	33579.02
523.843	33896.98
524.21	34038.67
524.577	34471.42
524.943	34512.78
525.31	34870.51
525.676	35198.18
526.043	35282.25
526.409	35440.66
526.776	35892.4
527.142	35954.77
527.508	36090.36
527.874	36457.13
528.241	36572.39
528.607	36902.55
528.973	37160.17
529.339	37109.32
529.705	37519.03
530.071	37856.19
530.437	38003.53
530.803	38284.66
531.169	38500.02
531.535	38506.8
531.901	38589.51
532.267	38871.76
532.632	39046.45
532.998	39167.57
533.364	39342.93
533.73	39565.53
534.095	39949.02
534.461	39953.54
534.826	40158.96
535.192	40351.04
535.557	40643.69
535.923	40563.24
536.288	40732.28
536.653	41023.12
537.019	41013.85
537.384	41227.86
537.749	41471.01
538.114	41527.96
538.479	41587.85
538.845	41766.15
539.21	41723.44
539.575	42056.99
539.94	41985.58
540.305	42381.5
540.67	42389.86
541.034	42454.49
541.399	42646.8
541.764	42832.11
542.129	42878.43
542.494	43095.83
542.858	43248.14
543.223	43234.36
543.587	43469.61
543.952	43409.27
544.316	43741.91
544.681	43756.38
545.045	43928.35
545.41	44269.36
545.774	44298.06
546.138	44216.48
546.503	44425.29
546.867	44464.83
547.231	44809.91
547.595	44832.73
547.959	44944.6
548.324	45035.67
548.688	45209.9
549.052	45341.87
549.416	45446.05
549.779	45460.74
550.143	45638.14
550.507	45926.72
550.871	45973.72
551.235	45984.57
551.599	46290.77
551.962	46372.35
552.326	46538.9
552.689	46761.04
553.053	46609.64
553.417	46692.12
553.78	47213.01
554.143	47128.49
554.507	47243.97
554.87	47538.65
555.234	47822.03
555.597	47712.88
555.96	47904.97
556.323	48054.57
556.686	48109.26
557.05	48369.82
557.413	48373.88
557.776	48497.27
558.139	48805.28
558.502	48940.42
558.865	48987.2
559.228	49299.73
559.59	49427.19
559.953	49366.85
560.316	49843
560.679	49913.05
561.041	50059.71
561.404	50252.7
561.767	50405.02
562.129	50270.78
562.492	50668.96
562.854	50730.21
563.217	50668.74
563.579	50972.91
563.941	51130.2
564.304	51256.29
564.666	51477.98
565.028	51462.84
565.39	51603.86
565.753	51814.02
566.115	51884.07
566.477	52035.03
566.839	52116.61
567.201	52323.61
567.563	52420.78
567.925	52487.67
568.287	52569.93
568.648	52640.89
569.01	52837.95
569.372	52943.48
569.734	52962.92
570.095	53150.71
570.457	53263.25
570.819	53291.49
571.18	53352.06
571.542	53481.32
571.903	53565.61
572.265	53663.24
572.626	53753.4
572.987	53769.45
573.349	53877.92
573.71	53987.97
574.071	54097.57
574.432	54197.91
574.794	54374.4
575.155	54326.5
575.516	54256.89
575.877	54334.86
576.238	54401.3
576.599	54645.81
576.96	54598.8
577.32	54616.21
577.681	54745.47
578.042	54766.94
578.403	54781.62
578.763	54807.16
579.124	54853.94
579.485	54920.38
579.845	54893.71
580.206	54902.3
580.566	54945.91
580.927	54983.88
581.287	55045.35
581.648	55058.45
582.008	55129.41
582.368	55068.85
582.728	55137.1
583.089	55046.02
583.449	55074.95
583.809	55116.98
584.169	55139.13
584.529	55033.82
584.889	55292.57
585.249	55144.1
585.609	55087.61
585.969	55247.38
586.329	55122.63
586.688	55224.1
587.048	55181.61
587.408	55091.45
587.768	55143.2
588.127	55144.78
588.487	55155.4
588.846	55246.7
589.206	55180.71
589.565	55132.12
589.925	55251.89
590.284	55156.53
590.643	55199.47
591.003	55258.9
591.362	55312.68
591.721	55301.84
592.08	55273.59
592.44	55322.85
592.799	55308.16
593.158	55227.49
593.517	55303.87
593.876	55293.02
594.235	55235.4
594.593	55351.78
594.952	55364.21
595.311	55307.49
595.67	55402.4
596.029	55488.95
596.387	55488.05
596.746	55483.3
597.104	55395.85
597.463	55315.4
597.822	55528.27
598.18	55392.68
598.538	55426.81
598.897	55577.99
599.255	55365.56
599.613	55672
599.972	55557.65
600.33	55646.23
600.688	55523.98
601.046	55594.94
601.404	55681.26
601.762	55587.93
602.12	55678.78
602.478	55688.04
602.836	55762.84
603.194	55652.56
603.552	55734.14
603.91	55636.52
604.268	55800.35
604.625	55713.35
604.983	55815.5
605.341	55681.26
605.698	55822.05
606.056	55826.34
606.413	55789.96
606.771	55991.76
607.128	56000.8
607.485	55920.58
607.843	55914.02
608.2	56057.75
608.557	56142.04
608.914	56054.36
609.272	56130.29
609.629	56184.53
609.986	56244.64
610.343	56165.77
610.7	56324.86
611.057	56242.6
611.414	56258.87
611.771	56253.68
612.127	56384.97
612.484	56350.62
612.841	56424.29
613.198	56374.8
613.554	56330.96
613.911	56527.34
614.267	56451.64
614.624	56404.63
614.98	56525.08
615.337	56621.8
615.693	56527.79
616.05	56506.1
616.406	56693.66
616.762	56598.07
617.118	56596.72
617.475	56631.75
617.831	56775.47
618.187	56693.89
618.543	56730.05
618.899	56857.95
619.255	56845.07
619.611	56786.54
619.967	56858.18
620.323	56916.48
620.678	56790.16
621.034	56738.64
621.39	56748.58
621.746	56706.77
622.101	57016.82
622.457	56753.78
622.812	56907.44
623.168	56904.05
623.523	56913.55
623.879	56975.69
624.234	56756.94
624.589	56912.19
624.945	56932.53
625.3	56928.69
625.655	56964.17
626.01	56863.6
626.365	56877.39
626.72	56870.16
627.075	56854.34
627.43	56895.24
627.785	56780.22
628.14	56841.91
628.495	56835.58
628.85	56793.32
629.205	56653.67
629.559	56833.55
629.914	56665.87
630.269	56673.1
630.623	56589.71
630.978	56518.98
631.332	56645.98
631.687	56665.64
632.041	56512.65
632.396	56618.64
632.75	56451.19
633.104	56482.14
633.459	56413.45
633.813	56334.58
634.167	56403.28
634.521	56313.11
634.875	56319.21
635.229	56288.03
635.583	56188.37
635.937	56142.49
636.291	56124.64
636.645	56189.72
636.999	56086.45
637.352	56151.53
637.706	55951.99
638.06	56097.97
638.413	56034.47
638.767	55928.04
639.121	55889.17
639.474	55836.29
639.828	55781.6
640.181	55832.44
640.534	55863.63
640.888	55736.63
641.241	55640.59
641.594	55726.01
641.947	55793.58
642.301	55643.3
642.654	55659.57
643.007	55610.76
643.36	55539.8
643.713	55473.36
644.066	55576.18
644.419	55453.92
644.771	55233.36
645.124	55002.18
645.477	55048.51
645.83	54735.98
646.182	54590.22
646.535	54483.55
646.888	54561.29
647.24	54271.36
647.593	54465.02
647.945	54441.75
648.298	54259.6
648.65	54176.89
649.002	54130.79
649.355	54234.29
649.707	54259.83
650.059	54360.17
650.411	54646.71
650.763	54646.03
651.115	54935.97
651.467	54841.06
651.819	54878.35
652.171	54760.16
652.523	54780.04
652.875	54672.47
653.227	54616.88
653.578	54785.69
653.93	54662.31
654.282	54618.24
654.633	54496.43
654.985	54478.81
655.337	54564.46
655.688	54509.09
656.039	54506.6
656.391	54324.24
656.742	54410.79
657.094	54389.54
657.445	54397
657.796	54352.71
658.147	54356.33
658.498	54318.36
658.849	54353.39
659.2	54305.93
659.551	54238.59
659.902	54316.78
660.253	54178.93
660.604	54322.88
660.955	54104.81
661.306	54077.01
661.656	54100.96
662.007	54185.26
662.358	54158.59
662.708	54143.68
663.059	54016.22
663.409	53925.83
663.76	54033.17
664.11	53995.2
664.461	54032.27
664.811	54079.5
665.161	53945.71
665.511	53959.95
665.862	53875.43
666.212	53958.37
666.562	53947.3
666.912	53885.38
667.262	53790.92
667.612	53834.53
667.962	53896.9
668.312	53818.94
668.662	53900.07
669.011	53870.91
669.361	53788.88
669.711	53757.24
670.06	53685.16
670.41	53721.31
670.76	53583.24
671.109	53658.72
671.459	53617.81
671.808	53625.04
672.157	53583.46
672.507	53336.69
672.856	53466.4
673.205	53501.43
673.554	53408.55
673.904	53411.04
674.253	53531.71
674.602	53366.29
674.951	53095.79
675.3	52797.5
675.649	53336.24
675.998	53241.55
676.346	53284.04
676.695	53393.19
677.044	53124.27
677.393	53228.9
677.741	53231.16
678.09	53219.18
678.438	53108.67
678.787	53191.61
679.135	53148.9
679.484	52965.63
679.832	52995.46
680.181	52811.28
680.529	52981.22
680.877	52839.53
681.225	52713.2
681.573	52962.46
681.922	52639.08
682.27	52596.37
682.618	52650.16
682.966	52560.67
683.314	52754.11
683.661	52489.71
684.009	52396.6
684.357	52352.99
684.705	52225.76
685.053	52317.28
685.4	52207.68
685.748	52086.33
686.095	52008.14
686.443	51969.04
686.79	51729.5
687.138	51797.3
687.485	51840.46
687.832	51824.64
688.18	51840.68
688.527	51641.59
688.874	51582.39
689.221	51456.97
689.568	51320.47
689.915	51346.23
690.262	51367.25
690.609	51085.45
690.956	50961.84
691.303	50918.45
691.65	50797.32
691.997	50915.06
692.344	50577.22
692.69	50676.87
693.037	50646.59
693.383	50374.51
693.73	50422.64
694.077	50122.09
694.423	50195.98
694.769	49971.81
695.116	49967.29
695.462	49923.9
695.808	49809.78
696.155	49864.01
696.501	49606.85
696.847	49587.41
697.193	49330.47
697.539	49328.21
697.885	49192.62
698.231	49034.66
698.577	49124.82
698.923	48932.06
699.269	48738.39
699.614	48545.4
699.96	48626.08
700.306	48533.65
700.651	48380.66
700.997	48248.01
701.342	48200.55
701.688	48019.77
702.033	47920.11
702.379	47893.67
702.724	47787.91
703.069	47714.92
703.415	47478.31
703.76	47476.96
704.105	47462.04
704.45	47219.11
704.795	46953.13
705.14	46941.38
705.485	46819.8
705.83	46701.39
706.175	46796.98
706.52	46625
706.865	46476.31
707.209	46441.28
707.554	46280.83
707.899	46391.11
708.243	46099.82
708.588	46098.01
708.932	45889.88
709.277	45872.03
709.621	45756.33
709.966	45498.03
710.31	45579.83
710.654	45310.91
710.998	45243.12
711.342	45368.76
711.687	45282.21
712.031	45021.88
712.375	44834.54
712.719	45022.11
713.063	44894.88
713.407	44916.8
713.75	44620.08
714.094	44678.61
714.438	44475.23
714.782	44361.79
715.125	44210.6
715.469	44304.61
715.812	44114.79
716.156	43807.45
716.499	43879.54
716.843	43978.97
717.186	43671.18
717.53	43841.57
717.873	43877.5
718.216	43724.29
718.559	43693.33
718.902	43220.12
719.246	43343.73
719.589	43283.62
719.932	42977.87
720.275	43149.84
720.617	43075.94
720.96	42999.56
721.303	42775.61
721.646	42828.94
721.989	42634.83
722.331	42739.91
722.674	42632.34
723.016	42596.18
723.359	42521.61
723.701	42452.23
724.044	42309.18
724.386	42088.17
724.729	42339.01
725.071	42221.28
725.413	42070.09
725.755	41869.42
726.097	41853.38
726.439	41569.77
726.782	41635.98
727.124	41748.29
727.465	41560.96
727.807	41457
728.149	41312.15
728.491	41278.48
728.833	41273.96
729.175	41140.85
729.516	40976.56
729.858	41126.16
730.199	41133.85
730.541	40982.67
730.882	40789
731.224	40964.59
731.565	40669.23
731.906	40642.56
732.248	40702.9
732.589	40415.9
732.93	40386.75
733.271	40377.71
733.612	40440.08
733.953	40365.05
734.294	40164.61
734.635	40043.03
734.976	40066.53
735.317	39858.85
735.658	39809.14
735.999	39874.22
736.339	39578.18
736.68	39603.49
737.021	39601.23
737.361	39311.52
737.702	39614.57
738.042	39430.62
738.383	39361.69
738.723	39400.79
739.063	39275.14
739.404	39305.2
739.744	39279.89
740.084	39022.49
740.424	39095.48
740.764	38933
741.104	39111.98
741.444	38779.56
741.784	38661.37
742.124	38856.17
742.464	38724.65
742.804	38628.83
743.143	38461.6
743.483	38584.99
743.823	38290.53
744.162	38355.16
744.502	38456.86
744.841	38137.77
745.181	38281.27
745.52	38071.1
745.86	38007.6
746.199	37897.32
746.538	37935.74
746.877	37910.43
747.216	37839.25
747.556	37760.38
747.895	37767.16
748.234	37580.27
748.573	37376.21
748.911	37413.72
749.25	37446.71
749.589	37126.72
749.928	37315.87
750.267	37236.1
750.605	37137.57
750.944	37000.62
751.283	36933.96
751.621	36695.77
751.96	36680.86
752.298	36704.59
752.636	36693.06
752.975	36403.35
