Data from breadboard_black_back_FLMS001491_00068.txt Node
Date: Wed Feb 08 10:50:44 GMT 2017
User: dcchb
Spectrometer: FLMS00149
Trigger mode: 0
Integration Time (sec): 2.000000E-2
Scans to average: 10
Electric dark correction enabled: true
Nonlinearity correction enabled: false
Boxcar width: 0
XAxis mode: Wavelengths
Number of Pixels in Spectrum: 2048
>>>>>Begin Spectral Data<<<<<
341.393	-6.44
341.776	-6.44
342.16	-6.44
342.543	-56.16
342.927	-77.4
343.31	-55.7
343.693	-77.4
344.077	-93.44
344.46	-64.29
344.843	-43.5
345.226	-37.17
345.61	-36.5
345.993	-33.33
346.376	-7.34
346.759	6.44
347.142	45.99
347.525	55.48
347.908	60.9
348.291	72.65
348.674	84.86
349.057	122.37
349.44	119.43
349.823	155.36
350.206	172.54
350.588	202.37
350.971	208.7
351.354	231.52
351.737	234.91
352.119	240.78
352.502	264.51
352.884	275.13
353.267	290.5
353.65	293.44
354.032	292.53
354.414	302.03
354.797	312.65
355.179	304.96
355.562	333.66
355.944	319.88
356.326	325.53
356.709	318.07
357.091	336.15
357.473	327.11
357.855	341.8
358.238	338.86
358.62	339.77
359.002	330.95
359.384	357.39
359.766	353.1
360.148	343.38
360.53	346.09
360.912	358.75
361.294	341.12
361.676	341.12
362.057	335.25
362.439	350.39
362.821	339.99
363.203	344.06
363.584	336.38
363.966	333.89
364.348	323.95
364.729	328.69
365.111	348.58
365.493	345.19
365.874	323.27
366.256	319.65
366.637	330.73
367.019	325.3
367.4	326.66
367.781	335.25
368.163	335.92
368.544	309.26
368.925	324.4
369.306	354
369.688	322.59
370.069	357.84
370.45	308.58
370.831	343.61
371.212	347.67
371.593	338.18
371.974	332.99
372.355	343.61
372.736	354.45
373.117	346.09
373.498	361.69
373.879	339.31
374.26	361.46
374.641	357.84
375.021	346.54
375.402	349.03
375.783	375.24
376.163	349.26
376.544	375.24
376.925	381.12
377.305	367.79
377.686	375.92
378.066	353.1
378.447	353.78
378.827	369.37
379.208	365.3
379.588	385.19
379.968	363.95
380.349	382.93
380.729	393.1
381.109	384.51
381.489	384.96
381.87	368.24
382.25	405.07
382.63	400.78
383.01	418.63
383.39	416.15
383.77	405.53
384.15	387
384.53	405.3
384.91	411.63
385.29	404.85
385.67	435.13
386.049	426.32
386.429	418.41
386.809	430.61
387.189	440.78
387.568	404.85
387.948	428.12
388.328	427.45
388.707	422.93
389.087	421.8
389.466	465.64
389.846	444.4
390.225	444.62
390.605	453.43
390.984	452.3
391.363	473.77
391.743	446.65
392.122	476.94
392.501	493.43
392.881	464.96
393.26	498.63
393.639	475.58
394.018	474.45
394.397	494.11
394.776	474
395.155	495.69
395.534	515.13
395.913	500.21
396.292	527.1
396.671	510.38
397.05	527.33
397.429	523.26
397.808	535.24
398.186	521.68
398.565	526.2
398.944	547.22
399.323	544.28
399.701	535.24
400.08	544.51
400.458	539.76
400.837	551.51
401.215	558.29
401.594	568.91
401.972	560.55
402.351	562.13
402.729	590.61
403.107	603.49
403.486	578.85
403.864	603.49
404.242	605.07
404.62	613.88
404.999	584.05
405.377	613.66
405.755	601.68
406.133	632.64
406.511	635.58
406.889	638.29
407.267	640.55
407.645	673.77
408.023	646.2
408.401	666.99
408.779	645.29
409.156	692.75
409.534	675.35
409.912	685.74
410.29	691.39
410.667	698.4
411.045	693.65
411.422	711.73
411.8	745.63
412.178	733.65
412.555	754.9
412.933	734.1
413.31	764.16
413.687	765.97
414.065	773.65
414.442	816.36
414.819	793.76
415.197	789.92
415.574	815.46
415.951	834.44
416.328	824.5
416.705	830.37
417.082	825.18
417.46	855.46
417.837	871.05
418.214	880.54
418.591	873.99
418.967	864.5
419.344	883.71
419.721	885.74
420.098	889.13
420.475	929.35
420.852	936.13
421.228	914.89
421.605	931.16
421.982	948.34
422.358	930.71
422.735	958.73
423.111	933.87
423.488	963.93
423.864	977.04
424.241	993.31
424.617	1003.48
424.994	1015.45
425.37	1026.07
425.746	1001.22
426.123	1062.01
426.499	1031.05
426.875	1040.31
427.251	1099.29
427.627	1094.1
428.003	1112.63
428.379	1123.7
428.756	1091.38
429.132	1156.24
429.507	1149.69
429.883	1142.46
430.259	1194.88
430.635	1207.54
431.011	1161.89
431.387	1228.33
431.763	1250.7
432.138	1231.27
432.514	1266.97
432.89	1290.47
433.265	1296.12
433.641	1313.07
434.016	1348.55
434.392	1347.65
434.767	1366.63
435.143	1361.89
435.518	1395.78
435.894	1407.08
436.269	1438.95
436.644	1441.21
437.02	1458.38
437.395	1465.84
437.77	1478.94
438.145	1489.11
438.52	1477.14
438.895	1546.51
439.271	1523.01
439.646	1553.74
440.021	1562.11
440.395	1581.54
440.77	1548.09
441.145	1577.7
441.52	1631.26
441.895	1614.31
442.27	1618.15
442.645	1633.74
443.019	1667.87
443.394	1653.4
443.769	1667.87
444.143	1659.73
444.518	1713.97
444.892	1709.45
445.267	1691.82
445.641	1754.19
446.016	1721.65
446.39	1747.19
446.764	1769.33
447.139	1784.47
447.513	1785.6
447.887	1808.88
448.262	1809.33
448.636	1803.46
449.01	1834.19
449.384	1845.94
449.758	1848.88
450.132	1921.87
450.506	1902.89
450.88	1903.79
451.254	1917.8
451.628	1957.35
452.002	1947.18
452.376	1998.48
452.75	1964.13
453.123	1993.96
453.497	2068.08
453.871	2081.64
454.244	2073.05
454.618	2111.7
454.992	2129.32
455.365	2144.46
455.739	2171.13
456.112	2210.22
456.486	2263.78
456.859	2294.74
457.232	2283.67
457.606	2296.78
457.979	2330
458.352	2401.63
458.725	2394.4
459.099	2404.12
459.472	2511.46
459.845	2515.75
460.218	2532.7
460.591	2555.53
460.964	2563.89
461.337	2621.06
461.71	2679.14
462.083	2703.54
462.456	2740.15
462.829	2753.03
463.201	2749.87
463.574	2779.93
463.947	2820.83
464.32	2892.92
464.692	2854.95
465.065	2903.09
465.438	2965.91
465.81	2998.23
466.183	3063.76
466.555	3090.43
466.928	3112.12
467.3	3158.22
467.672	3175.4
468.045	3253.81
468.417	3266.92
468.789	3267.82
469.161	3301.27
469.534	3370.87
469.906	3436.41
470.278	3509.85
470.65	3513.69
471.022	3606.35
471.394	3688.6
471.766	3669.85
472.138	3767.92
472.51	3822.84
472.882	3858.32
473.253	3903.97
473.625	3965.21
473.997	4020.12
474.369	4076.84
474.74	4087.69
475.112	4177.4
475.484	4270.96
475.855	4358.19
476.227	4348.02
476.598	4535.13
476.97	4498.07
477.341	4637.51
477.713	4654.68
478.084	4702.59
478.455	4843.83
478.827	4911.85
479.198	5002.24
479.569	4973.09
479.94	5182.35
480.311	5233.87
480.682	5332.18
481.053	5434.32
481.424	5554.09
481.795	5580.31
482.166	5668.89
482.537	5760.87
482.908	5873.18
483.279	5938.71
483.65	6060.07
484.021	6136.45
484.391	6197.92
484.762	6281.53
485.133	6305.48
485.503	6465.93
485.874	6559.49
486.244	6628.19
486.615	6751.12
486.985	6848.97
487.356	6934.85
487.726	7014.39
488.097	7175.97
488.467	7200.83
488.837	7313.37
489.207	7490.54
489.578	7511.78
489.948	7581.61
490.318	7635.39
490.688	7760.81
491.058	7891.66
491.428	7994.71
491.798	8096.85
492.168	8246.22
492.538	8209.16
492.908	8379.33
493.278	8446.22
493.648	8506.78
494.017	8582.71
494.387	8691.64
494.757	8701.13
495.126	8863.16
495.496	8868.13
495.866	8977.96
496.235	9062.93
496.605	9127.56
496.974	9183.15
497.344	9319.42
497.713	9384.95
498.082	9410.04
498.452	9505.4
498.821	9515.57
499.19	9670.59
499.559	9748.78
499.928	9816.8
500.298	9812.28
500.667	9989.45
501.036	9958.5
501.405	10102.45
501.774	10079.85
502.143	10200.3
502.512	10209.79
502.88	10370.24
503.249	10335.21
503.618	10432.38
503.987	10512.83
504.356	10490.01
504.724	10638.25
505.093	10709.21
505.462	10763.67
505.83	10839.15
506.199	10865.59
506.567	11023.55
506.936	11103.78
507.304	11284.79
507.672	11266.26
508.041	11311.45
508.409	11401.85
508.777	11522.52
509.145	11543.76
509.514	11557.55
509.882	11688.62
510.25	11754.15
510.618	11886.35
510.986	11894.49
511.354	12117.76
511.722	12137.65
512.09	12269.17
512.458	12233.92
512.826	12294.03
513.193	12450.86
513.561	12503.29
513.929	12624.41
514.297	12795.93
514.664	12816.27
515.032	12818.76
515.4	12981.47
515.767	13024.18
516.135	13152.76
516.502	13066.66
516.869	13311.63
517.237	13380.78
517.604	13332.64
517.972	13616.48
518.339	13568.12
518.706	13723.14
519.073	13825.74
519.44	13959.07
519.808	14140.08
520.175	14103.47
520.542	14289.23
520.909	14320.87
521.276	14438.83
521.643	14576.68
522.009	14649.45
522.376	14779.84
522.743	14779.84
523.11	15030.45
523.477	15161.3
523.843	15247.85
524.21	15400.16
524.577	15482.19
524.943	15638.8
525.31	15783.65
525.676	15885.35
526.043	15934.16
526.409	16049.86
526.776	16219.57
527.142	16239.91
527.508	16356.97
527.874	16515.84
528.241	16688.04
528.607	16665.44
528.973	16941.36
529.339	16887.58
529.705	17030.4
530.071	17139.78
530.437	17185.65
530.803	17417.96
531.169	17486.43
531.535	17546.54
531.901	17595.13
532.267	17614.79
532.632	17801.9
532.998	17819.98
533.364	17916.03
533.73	18026.98
534.095	18113.08
534.461	18197.37
534.826	18245.06
535.192	18347.65
535.557	18513.52
535.923	18558.72
536.288	18679.85
536.653	18753.97
537.019	18728.21
537.384	18923.46
537.749	18784.25
538.114	18932.72
538.479	19018.37
538.845	19223.56
539.21	19203
539.575	19294.07
539.94	19334.52
540.305	19465.59
540.67	19331.81
541.034	19611.35
541.399	19677.34
541.764	19722.76
542.129	19729.76
542.494	19821.51
542.858	19863.09
543.223	19852.47
543.587	20014.5
543.952	20106.03
544.316	20071.68
544.681	20114.16
545.045	20352.35
545.41	20424.21
545.774	20456.3
546.138	20503.53
546.503	20529.52
546.867	20505.56
547.231	20755.05
547.595	20833.69
547.959	20819.45
548.324	20964.76
548.688	20944.65
549.052	21051.76
549.416	21173.34
549.779	21123.4
550.143	21243.17
550.507	21296.95
550.871	21484.75
551.235	21372.66
551.599	21614.69
551.962	21679.99
552.326	21636.38
552.689	21826.43
553.053	21878.18
553.417	21932.42
553.78	22138.51
554.143	22133.77
554.507	22184.16
554.87	22289.47
555.234	22384.61
555.597	22361.78
555.96	22540.54
556.323	22582.8
556.686	22579.41
557.05	22774.88
557.413	22837.93
557.776	22936.91
558.139	23138.49
558.502	23082.44
558.865	23268.65
559.228	23517.69
559.59	23550.45
559.953	23532.83
560.316	23768.08
560.679	23869.32
561.041	23952.48
561.404	24013.72
561.767	24139.59
562.129	24149.99
562.492	24353.6
562.854	24327.83
563.217	24398.79
563.579	24542.52
563.941	24762.85
564.304	24849.63
564.666	24742.06
565.028	24968.04
565.39	25053.47
565.753	25256.62
566.115	25317.41
566.477	25427.92
566.839	25473.57
567.201	25525.54
567.563	25742.71
567.925	25913.56
568.287	25935.48
568.648	25873.33
569.01	26091.63
569.372	26242.13
569.734	26298.86
570.095	26384.28
570.457	26533.88
570.819	26496.59
571.18	26506.53
571.542	26697.49
571.903	26800.31
572.265	26876.24
572.626	26977.48
572.987	27034.2
573.349	27187.87
573.71	27188.55
574.071	27234.43
574.432	27344.48
574.794	27564.36
575.155	27463.8
575.516	27460.18
575.877	27613.4
576.238	27713.51
576.599	27831.02
576.96	27832.83
577.32	27674.87
577.681	27961.86
578.042	27964.12
578.403	28017.46
578.763	27836.22
579.124	28087.96
579.485	28153.72
579.845	28235.08
580.206	28202.54
580.566	28233.95
580.927	28319.82
581.287	28247.96
581.648	28289.76
582.008	28398.69
582.368	28374.06
582.728	28400.72
583.089	28421.96
583.449	28443.88
583.809	28392.13
584.169	28478.46
584.529	28308.97
584.889	28665.57
585.249	28412.02
585.609	28344.23
585.969	28607.27
586.329	28435.75
586.688	28469.19
587.048	28407.28
587.408	28482.53
587.768	28438.24
588.127	28425.13
588.487	28522.3
588.846	28572.47
589.206	28541.74
589.565	28410.67
589.925	28668.29
590.284	28467.84
590.643	28636.65
591.003	28612.69
591.362	28672.35
591.721	28633.71
592.08	28760.26
592.44	28745.57
592.799	28668.96
593.158	28675.74
593.517	28775.63
593.876	28721.39
594.235	28712.13
594.593	28740.15
594.952	28725.69
595.311	28648.4
595.67	28951.67
596.029	28906.47
596.387	29059.91
596.746	29024.21
597.104	28935.17
597.463	28950.54
597.822	29003.42
598.18	28892.46
598.538	28884.1
598.897	29195.5
599.255	28868.05
599.613	29174.94
599.972	29103.53
600.33	29134.04
600.688	29136.3
601.046	29146.24
601.404	29209.29
601.762	29095.62
602.12	29377.87
602.478	29287.03
602.836	29357.99
603.194	29270.98
603.552	29368.61
603.91	29153.47
604.268	29361.6
604.625	29246.35
604.983	29431.2
605.341	29287.25
605.698	29438.21
606.056	29434.37
606.413	29519.11
606.771	29539.45
607.128	29728.37
607.485	29577.19
607.843	29560.92
608.2	29708.26
608.557	29749.39
608.914	29769.73
609.272	29939.21
609.629	29930.4
609.986	29985.31
610.343	29922.72
610.7	30085.2
611.057	30012.88
611.414	29983.51
611.771	30110.96
612.127	30236.61
612.484	30129.49
612.841	30189.6
613.198	30237.51
613.554	30116.38
613.911	30271.18
614.267	30291.07
614.624	30168.13
614.98	30312.99
615.337	30491.51
615.693	30403.83
616.05	30360.44
616.406	30525.19
616.762	30408.58
617.118	30345.76
617.475	30464.4
617.831	30555.92
618.187	30588.69
618.543	30610.83
618.899	30811.28
619.255	30723.37
619.611	30748.01
619.967	30817.16
620.323	30735.35
620.678	30656.26
621.034	30701.9
621.39	30606.09
621.746	30642.47
622.101	31051.05
622.457	30685.41
622.812	30701.68
623.168	30852.18
623.523	30842.24
623.879	30972.18
624.234	30673.66
624.589	30825.07
624.945	30838.17
625.3	30959.75
625.655	30840.66
626.01	30863.03
626.365	30726.31
626.72	30822.13
627.075	30799.53
627.43	30684.96
627.785	30725.86
628.14	30730.6
628.495	30637.73
628.85	30730.83
629.205	30587.11
629.559	30822.81
629.914	30618.52
630.269	30807.89
630.623	30558.63
630.978	30668.46
631.332	30614.68
631.687	30779.42
632.041	30660.78
632.396	30684.28
632.75	30555.24
633.104	30547.33
633.459	30418.3
633.813	30424.85
634.167	30370.84
634.521	30273.89
634.875	30516.82
635.229	30266.44
635.583	30174.46
635.937	30102.37
636.291	30176.95
636.645	30095.37
636.999	30108.7
637.352	30197.74
637.706	30050.85
638.06	29999.32
638.413	29985.31
638.767	30011.98
639.121	30054.92
639.474	29906.67
639.828	29784.41
640.181	29731.08
640.534	29864.41
640.888	29690.86
641.241	29541.94
641.594	29629.62
641.947	29800.01
642.301	29569.5
642.654	29667.58
643.007	29667.81
643.36	29553.46
643.713	29412
644.066	29507.36
644.419	29369.96
644.771	29301.26
645.124	29106.92
645.477	28988.28
645.83	28761.62
646.182	28602.98
646.535	28469.65
646.888	28513.04
647.24	28324.57
647.593	28496.99
647.945	28462.19
648.298	28268.75
648.65	28250.9
649.002	28031.47
649.355	28349.65
649.707	28252.48
650.059	28361.63
650.411	28810.88
650.763	28675.97
651.115	28902.4
651.467	28880.71
651.819	28776.53
652.171	28794.16
652.523	28805.46
652.875	28689.75
653.227	28611.79
653.578	28833.48
653.93	28775.18
654.282	28572.92
654.633	28539.7
654.985	28599.36
655.337	28566.59
655.688	28482.98
656.039	28514.62
656.391	28459.03
656.742	28447.5
657.094	28478.23
657.445	28478.01
657.796	28420.61
658.147	28388.52
658.498	28324.11
658.849	28402.98
659.2	28324.79
659.551	28285.92
659.902	28305.36
660.253	28293.61
660.604	28365.24
660.955	28219.48
661.306	28456.54
661.656	28215.19
662.007	28226.04
662.358	28103.1
662.708	28096.32
663.059	28156.89
663.409	28037.79
663.76	28268.3
664.11	28183.55
664.461	28260.61
664.811	28242.53
665.161	27910.11
665.511	28094.29
665.862	28039.15
666.212	28155.76
666.562	28146.49
666.912	28004.57
667.262	27980.39
667.612	28005.93
667.962	28129.32
668.312	27957.8
668.662	28102.65
669.011	28123.22
669.361	28000.51
669.711	27949.21
670.06	27959.38
670.41	27947.17
670.76	27925.93
671.109	27977.68
671.459	27870.57
671.808	27763.68
672.157	27859.95
672.507	27787.63
672.856	27569.78
673.205	27690.46
673.554	27724.36
673.904	27691.14
674.253	27890.91
674.602	27630.57
674.951	27342.9
675.3	27142.68
675.649	27707.63
675.998	27403.91
676.346	27485.27
676.695	27617.47
677.044	27337.7
677.393	27498.6
677.741	27553.29
678.09	27464.02
678.438	27198.49
678.787	27421.76
679.135	27293.86
679.484	27170.7
679.832	27353.07
680.181	27168.66
680.529	27256.57
680.877	27145.39
681.225	27099.74
681.573	27254.54
681.922	27043.02
682.27	26925.96
682.618	27010.02
682.966	26870.37
683.314	27036.69
683.661	26909.91
684.009	26774.78
684.357	26624.5
684.705	26735.68
685.053	26706.76
685.4	26659.53
685.748	26525.97
686.095	26511.73
686.443	26341.79
686.79	26281.91
687.138	26345.63
687.485	26460.21
687.832	26184.51
688.18	26223.83
688.527	26196.49
688.874	26118.3
689.221	26014.34
689.568	26093.89
689.915	25938.87
690.262	25980.67
690.609	25960.79
690.956	25860.45
691.303	25707.91
691.65	25594.02
691.997	25681.92
692.344	25460.69
692.69	25399.22
693.037	25586.33
693.383	25223.63
693.73	25248.26
694.077	25166.23
694.423	25122.84
694.769	25023.18
695.116	25013.01
695.462	25022.28
695.808	24941.38
696.155	25000.59
696.501	24667.94
696.847	24719.46
697.193	24577.77
697.539	24664.1
697.885	24446.93
698.231	24361.96
698.577	24393.6
698.923	24339.81
699.269	24180.72
699.614	24170.1
699.96	24034.06
700.306	24144.79
700.651	24013.04
700.997	23858.02
701.342	23928.3
701.688	23918.13
702.033	23771.01
702.379	23770.56
702.724	23671.58
703.069	23703.9
703.415	23480.4
703.76	23543.9
704.105	23458.25
704.45	23351.14
704.795	23222.1
705.14	23184.14
705.485	23199.73
705.83	23069.34
706.175	23038.6
706.52	22995.89
706.865	22935.33
707.209	22885.84
707.554	22797.25
707.899	22808.1
708.243	22675.22
708.588	22671.61
708.932	22573.76
709.277	22596.81
709.621	22575.34
709.966	22453.08
710.31	22534.66
710.654	22176.71
710.998	22217.16
711.342	22161.34
711.687	22219.64
712.031	22209.02
712.375	22059.42
712.719	22049.25
713.063	22063.94
713.407	22101.45
713.75	21989.37
714.094	21933.32
714.438	21789.37
714.782	21842.02
715.125	21675.02
715.469	21779.43
715.812	21710.05
716.156	21596.16
716.499	21567.91
716.843	21529.49
717.186	21457.4
717.53	21531.07
717.873	21578.3
718.216	21405.43
718.559	21396.84
718.902	21277.07
719.246	21296.95
719.589	21185.32
719.932	21024.19
720.275	21122.04
720.617	21151.87
720.96	21040.24
721.303	21046.34
721.646	21066.9
721.989	20967.7
722.331	20995.95
722.674	20858.32
723.016	20931.77
723.359	20886.57
723.701	20941.94
724.044	20626.69
724.386	20616.52
724.729	20705.33
725.071	20575.39
725.413	20639.8
725.755	20508.73
726.097	20537.2
726.439	20400.48
726.782	20415.62
727.124	20463.53
727.465	20299.69
727.807	20278.68
728.149	20280.48
728.491	20190.32
728.833	20232.8
729.175	20140.83
729.516	20240.03
729.858	20228.28
730.199	20226.02
730.541	20153.71
730.882	20054.95
731.224	20116.87
731.565	19931.11
731.906	19964.79
732.248	20038
732.589	19946.26
732.93	19833.72
733.271	19830.78
733.612	19862.19
733.953	19848.18
734.294	19741.29
734.635	19701.97
734.976	19774.28
735.317	19645.92
735.658	19632.82
735.999	19610.22
736.339	19556.66
736.68	19557.34
737.021	19549.66
737.361	19408.19
737.702	19511.46
738.042	19508.07
738.383	19454.97
738.723	19540.84
739.063	19430.11
739.404	19399.38
739.744	19366.84
740.084	19217.69
740.424	19298.81
740.764	19211.36
741.104	19284.35
741.444	19170.91
741.784	19063.79
742.124	19105.6
742.464	19070.8
742.804	18998.71
743.143	19043.91
743.483	19002.33
743.823	18938.37
744.162	18810.69
744.502	18971.59
744.841	18769.79
745.181	18860.18
745.52	18864.02
745.86	18816.34
746.199	18823.35
746.538	18746.74
746.877	18747.42
747.216	18671.49
747.556	18611.38
747.895	18673.97
748.234	18585.16
748.573	18482.34
748.911	18574.77
749.25	18413.19
749.589	18425.84
749.928	18400.99
750.267	18390.82
750.605	18297.48
750.944	18365.28
751.283	18288.9
751.621	18323.02
751.96	18064.95
752.298	18106.53
752.636	18048
752.975	18097.94
753.313	17904.5
753.651	17978.85
753.989	17934.1
754.327	17888.46
754.666	17787.89
