Data from breadboard_white_FLMS001491_00075.txt Node
Date: Wed Feb 08 10:48:14 GMT 2017
User: dcchb
Spectrometer: FLMS00149
Trigger mode: 0
Integration Time (sec): 2.000000E-2
Scans to average: 10
Electric dark correction enabled: true
Nonlinearity correction enabled: false
Boxcar width: 0
XAxis mode: Wavelengths
Number of Pixels in Spectrum: 2048
>>>>>Begin Spectral Data<<<<<
341.393	-16.43
341.776	-16.43
342.16	-16.43
342.543	-67.5
342.927	-66.59
343.31	-72.92
343.693	-79.02
344.077	-63.43
344.46	-66.37
344.843	-52.58
345.226	-33.37
345.61	-36.54
345.993	-11.91
346.376	5.04
346.759	14.99
347.142	12.27
347.525	36.45
347.908	48.66
348.291	79.62
348.674	90.01
349.057	129.11
349.44	127.52
349.823	139.28
350.206	167.98
350.588	198.48
350.971	212.04
351.354	233.06
351.737	242.78
352.119	276.45
352.502	258.14
352.884	273.28
353.267	284.58
353.65	284.13
354.032	301.53
354.414	294.75
354.797	321.87
355.179	325.94
355.562	323.9
355.944	327.97
356.326	333.85
356.709	348.54
357.091	337.46
357.473	359.84
357.855	346.73
358.238	353.51
358.62	364.35
359.002	334.07
359.384	356.67
359.766	351.7
360.148	370.68
360.53	354.64
360.912	340.63
361.294	354.64
361.676	330.46
362.057	332.49
362.439	326.16
362.821	346.95
363.203	319.38
363.584	352.15
363.966	352.38
364.348	354.64
364.729	331.59
365.111	345.15
365.493	334.07
365.874	334.3
366.256	343.56
366.637	336.56
367.019	350.34
367.4	329.1
367.781	360.29
368.163	343.56
368.544	346.73
368.925	343.34
369.306	341.08
369.688	330.68
370.069	323
370.45	330.91
370.831	334.98
371.212	357.35
371.593	330.91
371.974	333.4
372.355	372.94
372.736	358.93
373.117	353.28
373.498	350.34
373.879	366.39
374.26	329.1
374.641	330.23
375.021	351.93
375.402	360.06
375.783	369.33
376.163	355.99
376.544	370.23
376.925	373.39
377.305	367.74
377.686	364.58
378.066	372.26
378.447	390.57
378.827	357.35
379.208	378.14
379.588	380.17
379.968	389.66
380.349	399.83
380.729	364.13
381.109	392.83
381.489	388.31
381.87	396.44
382.25	399.83
382.63	384.47
383.01	388.08
383.39	381.98
383.77	400.29
384.15	398.48
384.53	386.05
384.91	404.81
385.29	422.21
385.67	440.29
386.049	439.61
386.429	417.01
386.809	443.22
387.189	420.85
387.568	441.19
387.948	437.57
388.328	438.7
388.707	435.31
389.087	426.5
389.466	469.21
389.846	459.04
390.225	473.05
390.605	470.34
390.984	467.63
391.363	457.23
391.743	473.96
392.122	469.21
392.501	490.45
392.881	488.65
393.26	481.41
393.639	503.79
394.018	513.05
394.397	518.93
394.776	515.99
395.155	525.48
395.534	521.41
395.913	515.54
396.292	550.34
396.671	548.08
397.05	559.6
397.429	570.23
397.808	569.32
398.186	559.83
398.565	588.53
398.944	603.67
399.323	586.72
399.701	581.3
400.08	626.95
400.458	636.21
400.837	631.69
401.215	648.87
401.594	638.25
401.972	638.02
402.351	668.98
402.729	654.52
403.107	671.69
403.486	695.87
403.864	715.31
404.242	704.23
404.62	703.78
404.999	767.06
405.377	759.15
405.755	771.12
406.133	779.26
406.511	796.66
406.889	791.24
407.267	832.14
407.645	835.53
408.023	846.6
408.401	854.96
408.779	862.65
409.156	885.7
409.534	887.96
409.912	913.72
410.29	949.2
410.667	952.14
411.045	979.48
411.422	975.19
411.8	998.69
412.178	1006.82
412.555	1044.56
412.933	1045.24
413.31	1078.69
413.687	1083.66
414.065	1115.52
414.442	1111
414.819	1131.34
415.197	1135.18
415.574	1203.65
415.951	1186.48
416.328	1230.09
416.705	1208.85
417.082	1242.98
417.46	1277.1
417.837	1299.02
418.214	1289.08
418.591	1324.1
418.967	1330.66
419.344	1328.17
419.721	1376.98
420.098	1358.68
420.475	1413.14
420.852	1407.72
421.228	1443.2
421.605	1453.59
421.982	1453.82
422.358	1475.06
422.735	1506.7
423.111	1494.95
423.488	1533.36
423.864	1548.96
424.241	1572.46
424.617	1626.24
424.994	1631.44
425.37	1596.86
425.746	1636.19
426.123	1661.27
426.499	1704.88
426.875	1713.47
427.251	1731.1
427.627	1773.81
428.003	1783.07
428.379	1793.47
428.756	1820.59
429.132	1864.88
429.507	1900.13
429.883	1902.62
430.259	1961.15
430.635	1946.91
431.011	1956.4
431.387	2000.47
431.763	2076.85
432.138	2082.95
432.514	2103.29
432.89	2128.15
433.265	2180.58
433.641	2212.89
434.016	2260.8
434.392	2277.52
434.767	2338.09
435.143	2294.7
435.518	2374.92
435.894	2334.25
436.269	2422.61
436.644	2451.53
437.02	2475.71
437.395	2477.75
437.77	2502.6
438.145	2571.98
438.52	2609.72
438.895	2602.71
439.271	2609.27
439.646	2690.17
440.021	2699.89
440.395	2766.1
440.77	2671.86
441.145	2725.2
441.52	2794.12
441.895	2803.84
442.27	2832.31
442.645	2823.27
443.019	2899.88
443.394	2882.71
443.769	2903.72
444.143	2887.9
444.518	2951.41
444.892	2934.46
445.267	2995.25
445.641	3029.6
446.016	3054
446.39	3037.28
446.764	3076.6
447.139	3100.33
447.513	3131.97
447.887	3152.08
448.262	3135.81
448.636	3193.66
449.01	3216.03
449.384	3284.96
449.758	3246.99
450.132	3319.31
450.506	3378.51
450.88	3369.7
451.254	3372.41
451.628	3416.25
452.002	3463.48
452.376	3536.47
452.75	3504.16
453.123	3572.86
453.497	3598.85
453.871	3651.95
454.244	3734.44
454.618	3771.72
454.992	3792.51
455.365	3817.6
455.739	3927.42
456.112	3963.36
456.486	4006.52
456.859	4083.35
457.232	4077.93
457.606	4130.13
457.979	4134.65
458.352	4332.84
458.725	4288.32
459.099	4345.49
459.472	4418.71
459.845	4472.04
460.218	4532.61
460.591	4545.49
460.964	4583.23
461.337	4660.74
461.71	4771.02
462.083	4855.99
462.456	4842.2
462.829	4830.9
463.201	5006.94
463.574	4981.63
463.947	5090.78
464.32	5210.33
464.692	5241.51
465.065	5312.93
465.438	5327.61
465.81	5431.57
466.183	5503.43
466.555	5619.81
466.928	5653.26
467.3	5664.33
467.672	5735.06
468.045	5898.45
468.417	5923.98
468.789	5993.36
469.161	6097.54
469.534	6111.77
469.906	6339.34
470.278	6366.23
470.65	6410.07
471.022	6495.49
471.394	6606
471.766	6727.8
472.138	6784.52
472.51	6916.5
472.882	7045.31
473.253	7130.96
473.625	7231.29
473.997	7361.46
474.369	7381.8
474.74	7521.45
475.112	7625.41
475.484	7790.6
475.855	7933.42
476.227	8010.03
476.598	8275.79
476.97	8285.28
477.341	8447.98
477.713	8678.49
478.084	8690.69
478.455	8985.37
478.827	8960.29
479.198	9276.44
479.569	9301.75
479.94	9603.89
480.311	9679.14
480.682	9922.52
481.053	10132.46
481.424	10264.43
481.795	10338.56
482.166	10484.09
482.537	10678.66
482.908	10931.31
483.279	10969.73
483.65	11211.75
484.021	11428.7
484.391	11584.4
484.762	11640.67
485.133	11760.44
485.503	11951.39
485.874	12227.09
486.244	12392.97
486.615	12661.88
486.985	12729.91
487.356	12975.1
487.726	13129.22
488.097	13361.98
488.467	13388.65
488.837	13749.09
489.207	13916.31
489.578	14037.67
489.948	14219.58
490.318	14448.05
490.688	14471.33
491.058	14736.18
491.428	14966.68
491.798	15044.42
492.168	15389.27
492.538	15489.38
492.908	15622.26
493.278	15930.5
493.648	15847.34
494.017	16098.4
494.387	16212.75
494.757	16359.41
495.126	16587.43
495.496	16717.82
495.866	16737.26
496.235	17010.47
496.605	17129.56
496.974	17279.39
497.344	17389.22
497.713	17575.65
498.082	17640.28
498.452	17867.4
498.821	17987.62
499.19	18022.2
499.559	18288.18
499.928	18371.11
500.298	18564.55
500.667	18778.56
501.036	18752.35
501.405	18952.57
501.774	18955.96
502.143	19168.15
502.512	19309.62
502.88	19354.59
503.249	19452.67
503.618	19613.34
503.987	19680.01
504.356	19949.83
504.724	19995.03
505.093	20043.61
505.462	20209.26
505.83	20524.28
506.199	20515.46
506.567	20823.03
506.936	20742.8
507.304	21048.1
507.672	21164.26
508.041	21317.7
508.409	21588.2
508.777	21630.69
509.145	21833.85
509.514	21764.24
509.882	22009.21
510.25	22198.81
510.618	22379.6
510.986	22506.15
511.354	22732.81
511.722	22899.81
512.09	23145.68
512.458	23012.35
512.826	23333.02
513.193	23435.16
513.561	23555.16
513.929	23682.61
514.297	23892.32
514.664	24117.4
515.032	24272.2
515.4	24474.23
515.767	24562.59
516.135	24715.35
516.502	24572.08
516.869	25029.47
517.237	25261.33
517.604	25276.92
517.972	25657.93
518.339	25775.89
518.706	25944.93
519.073	25975.66
519.44	26195.77
519.808	26426.95
520.175	26413.39
520.542	26842.53
520.909	27075.29
521.276	27106.93
521.643	27399.58
522.009	27647.48
522.376	27780.36
522.743	28024.64
523.11	28281.59
523.477	28612.43
523.843	28593.22
524.21	28969.03
524.577	29218.96
524.943	29388.22
525.31	29599.29
525.676	29741.44
526.043	30001.32
526.409	30015.33
526.776	30443.56
527.142	30623.9
527.508	30761.3
527.874	31109.08
528.241	31225.24
528.607	31335.29
528.973	31563.31
529.339	31630.65
529.705	31910.87
530.071	32194.93
530.437	32311.09
530.803	32479.22
531.169	32666.33
531.535	32715.14
531.901	32928.92
532.267	33105.19
532.632	33270.61
532.998	33610.03
533.364	33652.29
533.73	33845.51
534.095	34061.32
534.461	34153.97
534.826	34215.89
535.192	34366.85
535.557	34714.86
535.923	34685.03
536.288	34859.94
536.653	35079.83
537.019	35007.06
537.384	35339.71
537.749	35451.57
538.114	35519.36
538.479	35701.5
538.845	35688.4
539.21	35753.25
539.575	35971.1
539.94	36141.49
540.305	36297.87
540.67	36279.34
541.034	36495.83
541.399	36529.05
541.764	36723.17
542.129	36887.01
542.494	36856.5
542.858	37101.24
543.223	37156.16
543.587	37287.68
543.952	37366.32
544.316	37450.84
544.681	37596.14
545.045	37727.21
545.41	37778.29
545.774	38110.48
546.138	38099.63
546.503	38166.07
546.867	38170.37
547.231	38582.78
547.595	38677.25
547.959	38523.58
548.324	38797.24
548.688	38957.24
549.052	39048.54
549.416	39071.36
549.779	39186.38
550.143	39324.01
550.507	39764.22
550.871	39695.98
551.235	39666.15
551.599	40148.17
551.962	40052.58
552.326	40180.26
552.689	40494.15
553.053	40249.18
553.417	40359.46
553.78	40972.1
554.143	40784.53
554.507	40972.1
554.87	41105.2
555.234	41472.43
555.597	41358.08
555.96	41575.25
556.323	41775.02
556.686	41702.7
557.05	42160.54
557.413	42152.41
557.776	42419.75
558.139	42567.76
558.502	42686.41
558.865	42789.23
559.228	43132.04
559.59	43067.64
559.953	43115.32
560.316	43632.6
560.679	43628.53
561.041	43917.56
561.404	44014.51
561.767	44378.34
562.129	44220.6
562.492	44667.14
562.854	44658.56
563.217	44852.68
563.579	44905.1
563.941	45219.67
564.304	45317.52
564.666	45570.17
565.028	45631.87
565.39	45741.24
565.753	45971.07
566.115	46067.56
566.477	46255.8
566.839	46529.24
567.201	46676.58
567.563	46662.12
567.925	46952.28
568.287	47016.91
568.648	47014.88
569.01	47244.93
569.372	47504.36
569.734	47346.17
570.095	47617.12
570.457	47837.91
570.819	47924.69
571.18	47958.81
571.542	48102.53
571.903	48176.21
572.265	48388.18
572.626	48444.67
572.987	48526.7
573.349	48650.32
573.71	48687.15
574.071	48856.19
574.432	49031.32
574.794	49248.04
575.155	49142.06
575.516	49083.53
575.877	49236.29
576.238	49425.66
576.599	49587.24
576.96	49447.13
577.32	49601.7
577.681	49586.11
578.042	49816.39
578.403	49837.86
578.763	49842.38
579.124	49941.81
579.485	49976.84
579.845	50164.85
580.206	49963.5
580.566	50072.43
580.927	50050.05
581.287	50283.04
581.648	50056.83
582.008	50259.99
582.368	50204.85
582.728	50268.58
583.089	50205.08
583.449	50282.36
583.809	50262.7
584.169	50294.57
584.529	50270.61
584.889	50617.72
585.249	50295.92
585.609	50233.1
585.969	50372.08
586.329	50264.74
586.688	50401.01
587.048	50255.25
587.408	50288.24
587.768	50304.51
588.127	50278.07
588.487	50281.46
588.846	50585.41
589.206	50289.37
589.565	50299.09
589.925	50572.07
590.284	50273.1
590.643	50327.11
591.003	50516.93
591.362	50549.93
591.721	50488.69
592.08	50307
592.44	50567.78
592.799	50556.71
593.158	50476.94
593.517	50414.56
593.876	50586.99
594.235	50523.04
594.593	50528.69
594.952	50728
595.311	50586.76
595.67	50544.5
596.029	50873.54
596.387	50825.85
596.746	50769.58
597.104	50629.25
597.463	50759.87
597.822	50774.1
598.18	50696.59
598.538	50749.02
598.897	50907.66
599.255	50625.86
599.613	51000.54
599.972	50830.6
600.33	50956.7
600.688	50815.23
601.046	50962.8
601.404	51059.97
601.762	51008.45
602.12	51175.22
602.478	51122.57
602.836	51104.26
603.194	51019.75
603.552	51128.22
603.91	50958.28
604.268	51177.48
604.625	51083.93
604.983	51226.97
605.341	51033.76
605.698	51262
606.056	51368.21
606.413	51295.45
606.771	51435.78
607.128	51460.64
607.485	51378.38
607.843	51308.78
608.2	51506.06
608.557	51544.03
608.914	51471.49
609.272	51597.58
609.629	51687.98
609.986	51799.84
610.343	51623.8
610.7	51807.97
611.057	51821.08
611.414	51792.38
611.771	51813.85
612.127	51894.75
612.484	51975.2
612.841	52045.03
613.198	51983.79
613.554	51882.1
613.911	52179.72
614.267	52158.7
614.624	52138.59
614.98	52085.25
615.337	52279.6
615.693	52239.15
616.05	52164.35
616.406	52362.31
616.762	52339.94
617.118	52197.34
617.475	52244.35
617.831	52327.96
618.187	52364.34
618.543	52394.4
618.899	52547.84
619.255	52546.49
619.611	52490.44
619.967	52557.33
620.323	52590.1
620.678	52525.47
621.034	52501.29
621.39	52480.95
621.746	52502.64
622.101	52857.89
622.457	52559.82
622.812	52618.35
623.168	52596.43
623.523	52616.31
623.879	52793.71
624.234	52554.17
624.589	52646.37
624.945	52692.02
625.3	52674.84
625.655	52676.43
626.01	52639.82
626.365	52713.26
626.72	52527.28
627.075	52626.48
627.43	52506.94
627.785	52487.28
628.14	52557.56
628.495	52506.03
628.85	52463.32
629.205	52356.43
629.559	52574.73
629.914	52423.55
630.269	52447.28
630.623	52358.47
630.978	52283.67
631.332	52382.42
631.687	52446.6
632.041	52306.72
632.396	52254.29
632.75	52232.82
633.104	52274.85
633.459	52173.39
633.813	52226.72
634.167	52137.46
634.521	52084.12
634.875	52174.29
635.229	51955.54
635.583	51821.76
635.937	51919.38
636.291	51840.52
636.645	51872.15
636.999	51742.44
637.352	51862.66
637.706	51671.48
638.06	51818.82
638.413	51773.4
638.767	51651.37
639.121	51647.75
639.474	51398.04
639.828	51474.42
640.181	51553.29
640.534	51425.16
640.888	51417.25
641.241	51287.31
641.594	51337.25
641.947	51344.26
642.301	51313.75
642.654	51214.54
643.007	51251.83
643.36	51228.33
643.713	51052.74
644.066	51210.25
644.419	50978.84
644.771	50873.99
645.124	50678.06
645.477	50561
645.83	50228.81
646.182	49960.11
646.535	49784.75
646.888	49810.06
647.24	49587.24
647.593	49782.49
647.945	49724.41
648.298	49587.02
648.65	49553.34
649.002	49431.77
649.355	49688.03
649.707	49584.98
650.059	49691.19
650.411	50204.17
650.763	50112.88
651.115	50514.9
651.467	50402.81
651.819	50353.1
652.171	50158.75
652.523	50123.27
652.875	50114.23
653.227	49896.39
653.578	50175.7
653.93	50263.83
654.282	49875.6
654.633	49748.59
654.985	50036.27
655.337	49935.03
655.688	50063.61
656.039	50034.69
656.391	49769.16
656.742	49792.43
657.094	49843.96
657.445	49805.31
657.796	49794.92
658.147	49674.7
658.498	49645.32
658.849	49711.98
659.2	49565.1
659.551	49706.56
659.902	49658.88
660.253	49647.35
660.604	49599.44
660.955	49366.68
661.306	49529.16
661.656	49436.51
662.007	49517.41
662.358	49474.48
662.708	49396.51
663.059	49381.6
663.409	49224.09
663.76	49394.25
664.11	49324.42
664.461	49342.95
664.811	49370.52
665.161	49392.22
665.511	49312.9
665.862	49378.43
666.212	49355.16
666.562	49376.63
666.912	49187.7
667.262	49209.4
667.612	49179.57
667.962	49247.59
668.312	49046.01
668.662	49266.35
669.011	49118.1
669.361	49123.52
669.711	49112.23
670.06	49091.21
670.41	49161.49
670.76	49011.89
671.109	49128.72
671.459	49041.49
671.808	48945.9
672.157	49064.09
672.507	48778.22
672.856	48870.2
673.205	48904.77
673.554	48830.65
673.904	48714.72
674.253	48974.15
674.602	48781.16
674.951	48299.59
675.3	48156.54
675.649	48560.38
675.998	48544.56
676.346	48517.21
676.695	48667.04
677.044	48401.28
677.393	48422.3
677.741	48681.05
678.09	48449.87
678.438	48291.68
678.787	48401.51
679.135	48455.07
679.484	48119.94
679.832	48315.64
680.181	48012.59
680.529	48230.44
680.877	48113.83
681.225	47952.71
681.573	48236.54
681.922	47880.62
682.27	47695.31
682.618	47723.79
682.966	47665.26
683.314	47851.24
683.661	47514.75
684.009	47539.61
684.357	47347.98
684.705	47281.99
685.053	47384.59
685.4	47358.83
685.748	47113.63
686.095	46900.08
686.443	46845.17
686.79	46832.96
687.138	47013.98
687.485	46891.04
687.832	46753.19
688.18	46702.8
688.527	46494.44
688.874	46448.79
689.221	46339.42
689.568	46271.4
689.915	46219.65
690.262	46128.8
690.609	46059.2
690.956	45940.11
691.303	45904.17
691.65	45775.14
691.997	45651.98
692.344	45373.79
692.69	45358.88
693.037	45557.74
693.383	45105.1
693.73	45176.28
694.077	45028.72
694.423	45072.78
694.769	44849.96
695.116	44825.78
695.462	44767.93
695.808	44580.37
696.155	44682.51
696.501	44155.97
696.847	44369.07
697.193	44008.18
697.539	44122.3
697.885	43965.92
698.231	43727.96
698.577	43708.53
698.923	43465.14
699.269	43400.74
699.614	43197.8
699.96	43177.01
700.306	43303.79
700.651	43021.09
700.997	42942.44
701.342	42889.79
701.688	42712.85
702.033	42643.24
702.379	42671.49
702.724	42493.42
703.069	42565.96
703.415	42243.71
703.76	42097.04
704.105	42060.89
704.45	41965.29
704.795	41690.73
705.14	41652.53
705.485	41638.75
705.83	41414.12
706.175	41436.95
706.52	41303.39
706.865	41095.94
707.209	41204.86
707.554	40985.89
707.899	41072.21
708.243	40943.17
708.588	40870.86
708.932	40468.61
709.277	40604.65
709.621	40459.57
709.966	40149.52
710.31	40426.8
710.654	40151.78
710.998	40032.24
711.342	39971.45
711.687	40026.81
712.031	39770.32
712.375	39658.69
712.719	39709.99
713.063	39588.41
713.407	39782.98
713.75	39346.38
714.094	39373.95
714.438	39245.59
714.782	39263.9
715.125	39106.61
715.469	39107.52
715.812	38907.97
716.156	38793.4
716.499	38678.15
716.843	38658.04
717.186	38568.55
717.53	38729
717.873	38638.38
718.216	38526.06
718.559	38359.97
718.902	38086.53
719.246	38296.69
719.589	38118.16
719.932	37954.78
720.275	38086.3
720.617	37906.19
720.96	37818.74
721.303	37761.11
721.646	37711.4
721.989	37581
722.331	37733.09
722.674	37468.24
723.016	37576.71
723.359	37347.56
723.701	37366.77
724.044	37073.9
724.386	37026.44
724.729	37132.43
725.071	37080.9
725.413	36953.45
725.755	36922.94
726.097	36723.4
726.439	36538.77
726.782	36658.77
727.124	36815.37
727.465	36475.72
727.807	36582.39
728.149	36275.73
728.491	36395.5
728.833	36383.52
729.175	36208.84
729.516	36228.72
729.858	36167.71
730.199	36332.67
730.541	36090.65
730.882	36067.82
731.224	36061.72
731.565	35725.46
731.906	35769.3
732.248	35796.42
732.589	35714.16
732.93	35539.7
733.271	35561.4
733.612	35706.25
733.953	35564.11
734.294	35445.69
734.635	35312.81
734.976	35433.04
735.317	35234.4
735.658	35269.2
735.999	35166.38
736.339	34995.31
736.68	35152.14
737.021	34955.08
737.361	34779.95
737.702	35019.71
738.042	34846.84
738.383	34839.38
738.723	34740.17
739.063	34627.86
739.404	34764.58
739.744	34560.07
740.084	34508.09
740.424	34520.29
740.764	34345.38
741.104	34580.18
741.444	34275.33
741.784	34198.04
742.124	34329.34
742.464	34210.7
742.804	34189.23
743.143	34155.33
743.483	34015
743.823	33921.89
744.162	33904.72
744.502	33883.7
744.841	33710.14
745.181	33907.88
745.52	33645.51
745.86	33682.12
746.199	33559.19
746.538	33364.84
746.877	33487.78
747.216	33367.55
747.556	33447.78
747.895	33299.31
748.234	33342.92
748.573	33118.52
748.911	33148.13
749.25	32992.2
749.589	32880.11
749.928	33057.28
750.267	33048.47
750.605	32881.92
750.944	32670.85
751.283	32530.06
751.621	32649.38
751.96	32493.45
752.298	32436.51
752.636	32327.81
752.975	32092.33
753.313	32082.39
