Data from breadboard_white_FLMS001491_00068.txt Node
Date: Wed Feb 08 10:48:06 GMT 2017
User: dcchb
Spectrometer: FLMS00149
Trigger mode: 0
Integration Time (sec): 2.000000E-2
Scans to average: 10
Electric dark correction enabled: true
Nonlinearity correction enabled: false
Boxcar width: 0
XAxis mode: Wavelengths
Number of Pixels in Spectrum: 2048
>>>>>Begin Spectral Data<<<<<
341.393	-22.36
341.776	-22.36
342.16	-22.36
342.543	-75.01
342.927	-49.25
343.31	-69.36
343.693	-61
344.077	-77.27
344.46	-38.85
344.843	-59.19
345.226	-39.08
345.61	-29.14
345.993	-23.94
346.376	-5.64
346.759	12.22
347.142	18.54
347.525	39.11
347.908	49.96
348.291	75.49
348.674	100.12
349.057	108.03
349.44	135.38
349.823	132.44
350.206	182.83
350.588	219.9
350.971	224.42
351.354	261.02
351.737	241.82
352.119	277.52
352.502	257.18
352.884	277.75
353.267	322.72
353.65	282.72
354.032	307.58
354.414	325.88
354.797	325.88
355.179	333.34
355.562	353
355.944	339.89
356.326	361.36
356.709	353
357.091	358.42
357.473	343.28
357.855	366.78
358.238	355.94
358.62	349.61
359.002	347.12
359.384	355.03
359.766	376.5
360.148	351.42
360.53	336.95
360.912	353.68
361.294	374.47
361.676	356.61
362.057	367.69
362.439	371.53
362.821	337.18
363.203	341.02
363.584	369.72
363.966	350.74
364.348	346.22
364.729	338.99
365.111	359.33
365.493	355.26
365.874	342.6
366.256	326.11
366.637	347.35
367.019	334.02
367.4	340.57
367.781	338.99
368.163	360
368.544	333.34
368.925	341.7
369.306	356.39
369.688	338.54
370.069	355.03
370.45	361.59
370.831	335.6
371.212	342.6
371.593	341.25
371.974	348.03
372.355	346.22
372.736	343.73
373.117	345.32
373.498	347.58
373.879	354.81
374.26	369.27
374.641	332.43
375.021	350.51
375.402	338.99
375.783	337.18
376.163	351.87
376.544	370.4
376.925	385.99
377.305	355.26
377.686	363.39
378.066	389.38
378.447	393
378.827	388.48
379.208	404.75
379.588	377.63
379.968	395.94
380.349	372.66
380.729	397.29
381.109	379.89
381.489	390.51
381.87	416.73
382.25	403.39
382.63	404.52
383.01	413.34
383.39	412.88
383.77	398.65
384.15	396.16
384.53	403.17
384.91	421.02
385.29	427.12
385.67	399.78
386.049	423.28
386.429	459.44
386.809	429.16
387.189	456.27
387.568	446.56
387.948	420.79
388.328	437.74
388.707	453.34
389.087	462.15
389.466	459.44
389.846	435.03
390.225	464.18
390.605	457.86
390.984	470.96
391.363	491.98
391.743	487.23
392.122	476.84
392.501	507.57
392.881	485.2
393.26	501.02
393.639	522.26
394.018	494.24
394.397	512.99
394.776	519.55
395.155	533.79
395.534	543.73
395.913	531.75
396.292	544.41
396.671	542.37
397.05	558.19
397.429	564.29
397.808	566.78
398.186	591.86
398.565	569.26
398.944	586.89
399.323	587.8
399.701	585.99
400.08	638.64
400.458	621.47
400.837	635.25
401.215	642.48
401.594	644.74
401.972	654.23
402.351	655.82
402.729	664.18
403.107	676.61
403.486	708.92
403.864	704.63
404.242	693.33
404.62	725.19
404.999	727.23
405.377	742.37
405.755	750.73
406.133	775.13
406.511	810.61
406.889	799.54
407.267	815.59
407.645	808.13
408.023	834.79
408.401	833.66
408.779	875.25
409.156	898.52
409.534	877.96
409.912	922.25
410.29	950.05
410.667	955.7
411.045	966.77
411.422	995.92
411.8	990.95
412.178	1022.13
412.555	1030.04
412.933	1044.51
413.31	1081.57
413.687	1081.34
414.065	1098.06
414.442	1113.21
414.819	1134.45
415.197	1161.57
415.574	1177.16
415.951	1202.02
416.328	1192.75
416.705	1222.13
417.082	1242.69
417.46	1256.48
417.837	1291.73
418.214	1279.08
418.591	1298.51
418.967	1293.09
419.344	1329.92
419.721	1349.81
420.098	1366.31
420.475	1391.84
420.852	1391.84
421.228	1428.45
421.605	1435.68
421.982	1461.44
422.358	1454.67
422.735	1486.98
423.111	1490.37
423.488	1523.36
423.864	1555
424.241	1545.96
424.617	1541.22
424.994	1563.14
425.37	1580.09
425.746	1603.59
426.123	1618.95
426.499	1644.04
426.875	1680.42
427.251	1695.79
427.627	1726.3
428.003	1736.69
428.379	1762.68
428.756	1795.22
429.132	1815.56
429.507	1844.26
429.883	1863.47
430.259	1893.75
430.635	1904.14
431.011	1975.78
431.387	2007.19
431.763	2014.88
432.138	2011.03
432.514	2058.72
432.89	2053.97
433.265	2127.87
433.641	2136.68
434.016	2155.89
434.392	2161.09
434.767	2230.69
435.143	2239.05
435.518	2302.33
435.894	2315.43
436.269	2359.05
436.644	2386.84
437.02	2388.43
437.395	2365.38
437.77	2467.07
438.145	2498.03
438.52	2528.31
438.895	2524.02
439.271	2530.34
439.646	2571.25
440.021	2579.38
440.395	2608.76
440.77	2623.67
441.145	2633.84
441.52	2704.8
441.895	2671.81
442.27	2725.59
442.645	2745.48
443.019	2785.48
443.394	2775.53
443.769	2815.53
444.143	2791.13
444.518	2872.93
444.892	2831.13
445.267	2905.02
445.641	2934.63
446.016	2921.29
446.39	2949.32
446.764	2980.95
447.139	2970.78
447.513	3039.26
447.887	2997.45
448.262	3044.23
448.636	3067.28
449.01	3122.64
449.384	3110.21
449.758	3182.53
450.132	3196.54
450.506	3233.83
450.88	3271.34
451.254	3247.61
451.628	3299.59
452.002	3321.96
452.376	3346.14
452.75	3389.08
453.123	3422.52
453.497	3488.74
453.871	3485.35
454.244	3568.96
454.618	3613.93
454.992	3643.53
455.365	3696.87
455.739	3798.78
456.112	3805.34
456.486	3837.43
456.859	3825.45
457.232	3950.64
457.606	3936.63
457.979	3978.21
458.352	4093.24
458.725	4104.54
459.099	4120.36
459.472	4239.45
459.845	4289.39
460.218	4297.75
460.591	4379.56
460.964	4329.39
461.337	4473.79
461.71	4544.75
462.083	4584.3
462.456	4601.48
462.829	4622.72
463.201	4704.52
463.574	4704.07
463.947	4809.83
464.32	4911.07
464.692	4924.18
465.065	4966.21
465.438	5041.92
465.81	5108.81
466.183	5161.46
466.555	5279.2
466.928	5296.82
467.3	5306.32
467.672	5443.71
468.045	5526.65
468.417	5549.47
468.789	5624.72
469.161	5669.7
469.534	5819.3
469.906	5891.16
470.278	5971.83
470.65	6003.25
471.022	6192.62
471.394	6255.67
471.766	6321.2
472.138	6358.72
472.51	6595.55
472.882	6622.21
473.253	6694.08
473.625	6831.25
473.997	6972.26
474.369	6997.34
474.74	7027.17
475.112	7178.58
475.484	7329.31
475.855	7465.13
476.227	7529.08
476.598	7847.94
476.97	7788.06
477.341	7966.13
477.713	8107.82
478.084	8120.7
478.455	8338.55
478.827	8434.59
479.198	8668.26
479.569	8701.25
479.94	8977.18
480.311	9036.39
480.682	9244.97
481.053	9433.44
481.424	9601.12
481.795	9677.27
482.166	9858.51
482.537	9952.29
482.908	10161.78
483.279	10304.6
483.65	10497.14
484.021	10668.21
484.391	10700.52
484.762	10889.9
485.133	10996.56
485.503	11211.92
485.874	11322.65
486.244	11545.93
486.615	11767.39
486.985	11840.15
487.356	12117.89
487.726	12200.15
488.097	12441.49
488.467	12455.05
488.837	12698.89
489.207	12895.72
489.578	13123.51
489.948	13184.98
490.318	13388.81
490.688	13463.16
491.058	13686.43
491.428	13904.73
491.798	14067.67
492.168	14290.03
492.538	14333.65
492.908	14413.19
493.278	14692.28
493.648	14694.54
494.017	14948.55
494.387	15072.84
494.757	15094.31
495.126	15345.15
495.496	15399.61
495.866	15600.73
496.235	15746.72
496.605	15871.24
496.974	15954.62
497.344	16149.65
497.713	16202.53
498.082	16418.79
498.452	16492.69
498.821	16620.37
499.19	16711.67
499.559	16851.32
499.928	17098.55
500.298	17018.55
500.667	17292.21
501.036	17311.88
501.405	17547.12
501.774	17491.76
502.143	17648.14
502.512	17678.65
502.88	18022.82
503.249	18066.66
503.618	18078.63
503.987	18257.84
504.356	18364.5
504.724	18479.75
505.093	18533.31
505.462	18685.4
505.83	18794.55
506.199	18998.38
506.567	19206.74
506.936	19240.86
507.304	19450.35
507.672	19467.3
508.041	19635.2
508.409	19821.87
508.777	19976.66
509.145	20150.44
509.514	20170.56
509.882	20319.71
510.25	20493.03
510.618	20636.31
510.986	20694.16
511.354	20866.81
511.722	21033.59
512.09	21227.93
512.458	21225.67
512.826	21486.23
513.193	21577.98
513.561	21763.96
513.929	21920.57
514.297	22104.29
514.664	22249.6
515.032	22290.28
515.4	22474.45
515.767	22694.78
516.135	22746.76
516.502	22650.72
516.869	23092.29
517.237	23285.73
517.604	23238.95
517.972	23531.15
518.339	23658.6
518.706	23779.05
519.073	23841.87
519.44	24090.68
519.808	24391.69
520.175	24404.34
520.542	24668.74
520.909	24826.71
521.276	24827.61
521.643	25158.22
522.009	25394.6
522.376	25529.06
522.743	25745.55
523.11	26008.37
523.477	26231.64
523.843	26280.91
524.21	26611.74
524.577	26878.4
524.943	27001.56
525.31	27196.36
525.676	27496.47
526.043	27513.87
526.409	27663.02
526.776	27982.1
527.142	28078.15
527.508	28309.78
527.874	28480.4
528.241	28689.2
528.607	28630.67
528.973	28983.88
529.339	29150.21
529.705	29396.3
530.071	29609.41
530.437	29720.81
530.803	29815.5
531.169	30009.62
531.535	30103.4
531.901	30336.62
532.267	30401.47
532.632	30684.41
532.998	30868.13
533.364	31091.4
533.73	31082.81
534.095	31409.13
534.461	31349.47
534.826	31716.92
535.192	31678.96
535.557	31984.26
535.923	31918.95
536.288	32067.42
536.653	32160.98
537.019	32091.37
537.384	32495.43
537.749	32635.09
538.114	32640.96
538.479	32820.17
538.845	32936.78
539.21	32876.21
539.575	33026.26
539.94	33124.57
540.305	33380.83
540.67	33375.63
541.034	33587.38
541.399	33752.12
541.764	33737.66
542.129	33957.09
542.494	33943.53
542.858	34160.02
543.223	34139.68
543.587	34373.12
543.952	34473.23
544.316	34549.84
544.681	34536.96
545.045	34759.1
545.41	35019.66
545.774	35149.37
546.138	35138.07
546.503	35179.88
546.867	35254.45
547.231	35503.49
547.595	35611.73
547.959	35690.6
548.324	35713.65
548.688	35786.19
549.052	36079.52
549.416	36128.56
549.779	36196.12
550.143	36261.66
550.507	36599.5
550.871	36567.87
551.235	36614.64
551.599	36840.4
551.962	37022.32
552.326	37051.92
552.689	37351.57
553.053	37243.55
553.417	37360.16
553.78	37861.17
554.143	37596.99
554.507	37928.28
554.87	38067.94
555.234	38506.8
555.597	38240.59
555.96	38542.73
556.323	38554.93
556.686	38846.9
557.05	38902.72
557.413	39101.36
557.776	39133
558.139	39398.75
558.502	39541.57
558.865	39615.47
559.228	39907.21
559.59	39892.3
559.953	40106.3
560.316	40438.05
560.679	40502.45
561.041	40825.38
561.404	40916.45
561.767	41094.75
562.129	41017.24
562.492	41405.48
562.854	41394.86
563.217	41396.44
563.579	41695.19
563.941	41926.37
564.304	42047.04
564.666	42453.81
565.028	42437.09
565.39	42506.47
565.753	42849.96
566.115	43030.52
566.477	43088.6
566.839	43193.23
567.201	43503.95
567.563	43481.36
567.925	43797.73
568.287	43770.39
568.648	43937.84
569.01	44022.81
569.372	44372.86
569.734	44257.16
570.095	44564.04
570.457	44741.89
570.819	44844.94
571.18	44915.9
571.542	45145.49
571.903	45090.35
572.265	45193.18
572.626	45434.98
572.987	45655.31
573.349	45627.06
573.71	45801.07
574.071	45787.74
574.432	45930.11
574.794	46162.64
575.155	46188.4
575.516	46135.75
575.877	46257.1
576.238	46348.85
576.599	46561.95
576.96	46728.28
577.32	46628.39
577.681	46720.82
578.042	46873.58
578.403	47006.01
578.763	46789.52
579.124	47043.97
579.485	47048.72
579.845	47257.08
580.206	47110.87
580.566	47224.31
580.927	47246.68
581.287	47498.43
581.648	47327.58
582.008	47474.47
582.368	47383.85
582.728	47450.97
583.089	47354.02
583.449	47482.16
583.809	47445.55
584.169	47550.85
584.529	47488.03
584.889	47675.37
585.249	47401.93
585.609	47372.1
585.969	47709.27
586.329	47519.89
586.688	47582.94
587.048	47602.38
587.408	47485.55
587.768	47476.96
588.127	47436.96
588.487	47462.95
588.846	47709.49
589.206	47448.48
589.565	47540.23
589.925	47601.93
590.284	47529.39
590.643	47685.54
591.003	47679.89
591.362	47788.81
591.721	47709.04
592.08	47615.71
592.44	47753.33
592.799	47733.67
593.158	47594.47
593.517	47768.93
593.876	47714.47
594.235	47704.97
594.593	47755.82
594.952	47753.56
595.311	47643.96
595.67	47758.53
596.029	47973.44
596.387	47978.87
596.746	48026.55
597.104	47908.13
597.463	47934.12
597.822	47981.13
598.18	47900.22
598.538	47984.06
598.897	48251.63
599.255	47933.67
599.613	48389.7
599.972	48035.81
600.33	48069.94
600.688	48064.51
601.046	48180.89
601.404	48284.62
601.762	48268.35
602.12	48418.85
602.478	48394.22
602.836	48424.73
603.194	48403.71
603.552	48443.49
603.91	48172.53
604.268	48490.04
604.625	48369.82
604.983	48614.1
605.341	48249.14
605.698	48440.1
606.056	48539.08
606.413	48628.11
606.771	48739.3
607.128	48695.68
607.485	48647.1
607.843	48684.61
608.2	48957.14
608.557	48952.63
608.914	48760.77
609.272	49022.91
609.629	48998.5
609.986	49142.9
610.343	49019.06
610.7	49251.6
611.057	49094.09
611.414	49183.81
611.771	49194.2
612.127	49297.25
612.484	49410.69
612.841	49398.04
613.198	49377.25
613.554	49311.49
613.911	49623.57
614.267	49514.87
614.624	49507.86
614.98	49621.08
615.337	49674.64
615.693	49617.24
616.05	49536.56
616.406	49868.99
616.762	49734.07
617.118	49694.75
617.475	49723.23
617.831	49787.41
618.187	49877.35
618.543	49801.64
618.899	50041.18
619.255	49946.95
619.611	49836.9
619.967	49960.51
620.323	50125.25
620.678	49915.09
621.034	49941.75
621.39	49957.8
621.746	49781.3
622.101	50337.45
622.457	49974.52
622.812	49940.17
623.168	50091.58
623.523	50113.05
623.879	50185.81
624.234	49969.77
624.589	50144.01
624.945	50256.32
625.3	50187.4
625.655	50191.24
626.01	50185.81
626.365	50118.7
626.72	49956.89
627.075	50061.07
627.43	49943.11
627.785	49919.83
628.14	50000.28
628.495	50070.11
628.85	50097.91
629.205	49897.69
629.559	50083.22
629.914	49976.33
630.269	49845.94
630.623	49896.78
630.978	49773.62
631.332	49959.15
631.687	49901.3
632.041	49659.05
632.396	49792.38
632.75	49622.66
633.104	49753.96
633.459	49604.81
633.813	49505.15
634.167	49547.64
634.521	49488.2
634.875	49532.27
635.229	49422.67
635.583	49349.23
635.937	49335.44
636.291	49197.82
636.645	49132.73
636.999	49058.16
637.352	49175.22
637.706	48984.94
638.06	49129.34
638.413	49013.19
638.767	48844.15
639.121	48969.8
639.474	48761.22
639.828	48756.47
640.181	48692.07
640.534	48752.86
640.888	48677.15
641.241	48481
641.594	48692.07
641.947	48695.91
642.301	48517.61
642.654	48604.84
643.007	48432.86
643.36	48379.98
643.713	48471.73
644.066	48516.48
644.419	48284.39
644.771	48133.21
645.124	47712.21
645.477	47660.23
645.83	47297.53
646.182	47191.32
646.535	46987.03
646.888	47041.94
647.24	46971.21
647.593	47178.89
647.945	47006.91
648.298	46916.07
648.65	46787.71
649.002	46575.96
649.355	46749.75
649.707	46672.91
650.059	46849.86
650.411	47275.16
650.763	47343.4
651.115	47682.6
651.467	47575.94
651.819	47489.39
652.171	47490.97
652.523	47321.26
652.875	47356.74
653.227	47262.95
653.578	47417.98
653.93	47191.32
654.282	47123.97
654.633	47130.75
654.985	47027.93
655.337	47129.85
655.688	46944.09
656.039	47161.71
656.391	46775.51
656.742	46882.62
657.094	46876.07
657.445	47081.71
657.796	46761.72
658.147	46923.3
658.498	46782.29
658.849	46939.12
659.2	46729.86
659.551	46681.27
659.902	46737.32
660.253	46737.54
660.604	46748.84
660.955	46504.78
661.306	46641.95
661.656	46585.46
662.007	46746.13
662.358	46677.43
662.708	46493.48
663.059	46571.44
663.409	46280.38
663.76	46624.32
664.11	46462.97
664.461	46704.77
664.811	46526.25
665.161	46400.38
665.511	46423.43
665.862	46430.21
666.212	46501.16
666.562	46555.4
666.912	46363.09
667.262	46162.64
667.612	46269.76
667.962	46217.1
668.312	46117.45
668.662	46262.07
669.011	46257.55
669.361	46185.69
669.711	46093.27
670.06	46013.49
670.41	46033.38
670.76	46107.95
671.109	46089.42
671.459	46067.28
671.808	45988.41
672.157	46050.33
672.507	45730.34
672.856	45829.54
673.205	45914.51
673.554	45905.93
673.904	45715.42
674.253	45997.45
674.602	45911.35
674.951	45238.6
675.3	45099.39
675.649	45707.29
675.998	45693.28
676.346	45697.8
676.695	45756.78
677.044	45469.1
677.393	45544.35
677.741	45486.73
678.09	45606.05
678.438	45353.17
678.787	45444.24
679.135	45456.45
679.484	45182.33
679.832	45396.11
680.181	45112.27
680.529	45084.25
680.877	44967.19
681.225	45067.53
681.573	45288.09
681.922	44955.44
682.27	44818.27
682.618	44802
682.966	44705.28
683.314	44784.15
683.661	44546.64
684.009	44349.13
684.357	44366.98
684.705	44416.02
685.053	44362.92
685.4	44240.88
685.748	44086.54
686.095	44082.02
686.443	43962.25
686.79	43711.86
687.138	43991.63
687.485	43790.28
687.832	43772.65
688.18	43661.24
688.527	43528.81
688.874	43447.46
689.221	43400.45
689.568	43235.04
689.915	43184.64
690.262	43201.36
690.609	43040.01
690.956	42873.69
691.303	42814.26
691.65	42710.3
691.997	42662.4
692.344	42353.25
692.69	42456.07
693.037	42380.82
693.383	42091.11
693.73	42290.65
694.077	41971.57
694.423	41966.82
694.769	41699.26
695.116	41754.17
695.462	41787.16
695.808	41586.72
696.155	41637.11
696.501	41427.85
696.847	41192.15
697.193	40919.16
697.539	41187.86
697.885	40961.42
698.231	40843.46
698.577	40831.93
698.923	40736.34
699.269	40429.01
699.614	40307.88
699.96	40244.38
700.306	40350.82
700.651	40065.85
700.997	40006.65
701.342	40045.06
701.688	39748.35
702.033	39654.11
702.379	39753.32
702.724	39462.48
703.069	39662.93
703.415	39097.74
703.76	39098.65
704.105	39081.47
704.45	39063.39
704.795	38726
705.14	38780.46
705.485	38816.85
705.83	38663.63
706.175	38743.18
706.52	38510.19
706.865	38510.64
707.209	38302.96
707.554	38167.37
707.899	38220.03
708.243	38064.32
708.588	37875.63
708.932	37681.51
709.277	37800.38
709.621	37625.24
709.966	37499.37
710.31	37600.61
710.654	37232.71
710.998	37238.13
711.342	37219.37
711.687	37131.92
712.031	36961.3
712.375	36811.48
712.719	37075.65
713.063	36756.79
713.407	36923.34
713.75	36692.61
714.094	36741.42
714.438	36510.01
714.782	36625.94
715.125	36378.04
715.469	36433.86
715.812	36176.24
716.156	36121.32
716.499	35978.05
716.843	36056.02
717.186	35868.45
717.53	36208.78
717.873	35902.8
718.216	35943.7
718.559	35763.14
718.902	35563.6
719.246	35478.4
719.589	35522.92
719.932	35272.98
720.275	35238.18
720.617	35224.62
720.96	35134.68
721.303	35063.27
721.646	35171.97
721.989	34910.06
722.331	34921.81
722.674	34985.31
723.016	34819.21
723.359	34647.24
723.701	34776.95
724.044	34548.94
724.386	34353.01
724.729	34592.32
725.071	34385.78
725.413	34392.33
725.755	34311.2
726.097	34108.04
726.439	34016.07
726.782	34038.67
727.124	34202.28
727.465	34070.08
727.807	33918.9
728.149	33731.1
728.491	33672.35
728.833	33843.19
729.175	33704.66
729.516	33645.23
729.858	33724.78
730.199	33637.1
730.541	33535.86
730.882	33510.32
731.224	33505.57
731.565	33222.64
731.906	33270.1
732.248	33419.47
732.589	33171.12
732.93	33055.42
733.271	32946.04
733.612	33061.97
733.953	32984.23
734.294	32914.4
734.635	32779.49
734.976	32881.18
735.317	32668.08
735.658	32698.14
735.999	32804.12
736.339	32578.37
736.68	32641.19
737.021	32426.28
737.361	32294.31
737.702	32485.71
738.042	32409.56
738.383	32177.47
738.723	32245.49
739.063	32164.59
739.404	32129.56
739.744	32164.37
740.084	32062.45
740.424	32049.34
740.764	31977.25
741.104	32017.48
741.444	31762.57
741.784	31710.82
742.124	31793.98
742.464	31699.07
742.804	31770.93
743.143	31637.6
743.483	31667.2
743.823	31395.57
744.162	31423.82
744.502	31478.96
744.841	31235.13
745.181	31359.64
745.52	31139.08
745.86	31138.4
746.199	31062.47
746.538	31102.93
746.877	30942.93
747.216	31002.36
747.556	30926.66
747.895	30907.45
748.234	30794.23
748.573	30616.84
748.911	30752.43
749.25	30705.42
749.589	30518.76
749.928	30556.72
750.267	30543.39
750.605	30348.14
750.944	30255.26
751.283	30254.81
751.621	30223.85
751.96	30156.28
752.298	30064.76
752.636	30109.96
752.975	29969.85
