Data from breadboard_white_FLMS001491_00054.txt Node
Date: Wed Feb 08 10:47:56 GMT 2017
User: dcchb
Spectrometer: FLMS00149
Trigger mode: 0
Integration Time (sec): 2.000000E-2
Scans to average: 10
Electric dark correction enabled: true
Nonlinearity correction enabled: false
Boxcar width: 0
XAxis mode: Wavelengths
Number of Pixels in Spectrum: 2048
>>>>>Begin Spectral Data<<<<<
341.393	-4.43
341.776	-4.43
342.16	-4.43
342.543	-62.06
342.927	-68.84
343.31	-63.42
343.693	-61.83
344.077	-79.01
344.46	-84.43
344.843	-43.98
345.226	-44.89
345.61	-29.52
345.993	-30.2
346.376	1.21
346.759	23.59
347.142	20.88
347.525	63.36
347.908	58.84
348.291	69.91
348.674	86.18
349.057	113.3
349.44	124.15
349.823	122.34
350.206	149.23
350.588	217.25
350.971	225.62
351.354	243.69
351.737	262.22
352.119	275.78
352.502	295.67
352.884	302
353.267	294.31
353.65	319.62
354.032	317.36
354.414	317.82
354.797	327.08
355.179	323.24
355.562	328.44
355.944	341.32
356.326	342.45
356.709	336.8
357.091	339.96
357.473	363.01
357.855	359.17
358.238	377.7
358.62	364.37
359.002	345.61
359.384	360.75
359.766	377.7
360.148	381.54
360.53	368.21
360.912	350.58
361.294	367.76
361.676	356.91
362.057	384.03
362.439	391.71
362.821	351.94
363.203	366.18
363.584	357.82
363.966	355.33
364.348	355.78
364.729	359.85
365.111	369.34
365.493	341.09
365.874	347.65
366.256	344.93
366.637	351.26
367.019	334.77
367.4	362.34
367.781	363.47
368.163	344.93
368.544	354.88
368.925	353.52
369.306	360.98
369.688	369.34
370.069	349.68
370.45	355.1
370.831	346.06
371.212	359.17
371.593	373.41
371.974	360.53
372.355	346.74
372.736	361.43
373.117	371.6
373.498	383.58
373.879	371.15
374.26	386.74
374.641	355.1
375.021	356.23
375.402	365.27
375.783	392.84
376.163	401.66
376.544	386.06
376.925	380.64
377.305	392.16
377.686	381.54
378.066	363.69
378.447	412.28
378.827	405.27
379.208	383.8
379.588	412.05
379.968	406.4
380.349	397.59
380.729	410.92
381.109	408.66
381.489	409.11
381.87	420.86
382.25	419.96
382.63	428.55
383.01	408.89
383.39	443.69
383.77	443.91
384.15	432.16
384.53	431.71
384.91	447.3
385.29	443.24
385.67	450.02
386.049	450.47
386.429	458.83
386.809	481.43
387.189	459.28
387.568	470.58
387.948	477.36
388.328	489.11
388.707	471.48
389.087	497.7
389.466	501.54
389.846	495.89
390.225	528.66
390.605	506.51
390.984	515.55
391.363	538.38
391.743	535.66
392.122	529.11
392.501	530.24
392.881	544.7
393.26	548.77
393.639	570.47
394.018	544.25
394.397	568.88
394.776	569.56
395.155	580.41
395.534	583.57
395.913	591.48
396.292	620.41
396.671	631.71
397.05	637.13
397.429	635.32
397.808	630.12
398.186	645.72
398.565	654.53
398.944	661.99
399.323	657.24
399.701	678.94
400.08	683.91
400.458	719.84
400.837	714.42
401.215	731.14
401.594	723.23
401.972	732.04
402.351	734.3
402.729	775.21
403.107	772.27
403.486	786.73
403.864	813.17
404.242	804.13
404.62	825.37
404.999	843.45
405.377	864.92
405.755	868.08
406.133	876.9
406.511	916.44
406.889	917.57
407.267	928.87
407.645	944.69
408.023	977.91
408.401	979.49
408.779	1020.62
409.156	1014.3
409.534	1042.77
409.912	1033.73
410.29	1088.64
410.667	1113.05
411.045	1138.36
411.422	1183.56
411.8	1164.57
412.178	1197.57
412.555	1234.85
412.933	1240.28
413.31	1233.72
413.687	1281.86
414.065	1313.04
414.442	1312.82
414.819	1337.68
415.197	1362.31
415.574	1387.84
415.951	1412.03
416.328	1437.79
416.705	1430.78
417.082	1454.28
417.46	1493.38
417.837	1532.47
418.214	1516.66
418.591	1539.93
418.967	1525.92
419.344	1576.09
419.721	1606.6
420.098	1638.23
420.475	1668.97
420.852	1647.5
421.228	1674.62
421.605	1718.68
421.982	1721.4
422.358	1751.23
422.735	1797.78
423.111	1784.9
423.488	1818.12
423.864	1837.55
424.241	1874.39
424.617	1902.18
424.994	1908.06
425.37	1915.06
425.746	1942.41
426.123	1946.02
426.499	1961.84
426.875	2032.8
427.251	2047.49
427.627	2094.49
428.003	2139.24
428.379	2147.37
428.756	2179.01
429.132	2224.21
429.507	2264.43
429.883	2272.79
430.259	2347.59
430.635	2333.58
431.011	2370.42
431.387	2419
431.763	2469.4
432.138	2440.02
432.514	2516.85
432.89	2539.9
433.265	2587.81
433.641	2634.37
434.016	2628.49
434.392	2685.44
434.767	2753.91
435.143	2740.13
435.518	2812.21
435.894	2807.69
436.269	2867.81
436.644	2931.76
437.02	2923.62
437.395	2956.62
437.77	2998.2
438.145	3032.32
438.52	3063.28
438.895	3100.79
439.271	3093.56
439.646	3176.72
440.021	3207.23
440.395	3215.14
440.77	3230.28
441.145	3263.05
441.52	3352.09
441.895	3312.77
442.27	3404.06
442.645	3390.5
443.019	3446.32
443.394	3423.5
443.769	3491.97
444.143	3455.14
444.518	3523.16
444.892	3528.13
445.267	3534.46
445.641	3555.25
446.016	3627.79
446.39	3646.99
446.764	3649.93
447.139	3702.81
447.513	3723.38
447.887	3761.57
448.262	3775.8
448.636	3785.07
449.01	3842.7
449.384	3897.84
449.758	3941.9
450.132	3984.61
450.506	3975.35
450.88	3969.92
451.254	4000.43
451.628	4087.43
452.002	4126.98
452.376	4202.46
452.75	4225.96
453.123	4246.07
453.497	4343.47
453.871	4363.59
454.244	4455.11
454.618	4531.72
454.992	4531.94
455.365	4550.7
455.739	4693.97
456.112	4756.8
456.486	4763.8
456.859	4838.38
457.232	4914.76
457.606	4856.68
457.979	4960.18
458.352	5091.7
458.725	5119.05
459.099	5185.26
459.472	5327.18
459.845	5331.24
460.218	5385.71
460.591	5423.44
460.964	5456.21
461.337	5636.55
461.71	5687.84
462.083	5800.61
462.456	5811.91
462.829	5807.39
463.201	5914.05
463.574	5946.14
463.947	6139.36
464.32	6225.46
464.692	6219.58
465.065	6254.38
465.438	6358.34
465.81	6430.65
466.183	6545.45
466.555	6689.17
466.928	6733.02
467.3	6723.75
467.672	6861.15
468.045	7022.27
468.417	7026.79
468.789	7142.72
469.161	7228.37
469.534	7310.4
469.906	7558.53
470.278	7533.67
470.65	7625.87
471.022	7783.38
471.394	8012.76
471.766	8040.78
472.138	8161.68
472.51	8312.86
472.882	8418.62
473.253	8491.16
473.625	8677.6
473.997	8812.28
474.369	8922.11
474.74	9034.65
475.112	9179.73
475.484	9315.55
475.855	9509.89
476.227	9671.92
476.598	9921.18
476.97	9968.86
477.341	10133.38
477.713	10366.37
478.084	10445.23
478.455	10593.7
478.827	10879.12
479.198	11099.45
479.569	11108.72
479.94	11431.87
480.311	11564.75
480.682	11883.84
481.053	12088.13
481.424	12254.9
481.795	12434.33
482.166	12595.23
482.537	12802.46
482.908	13115.9
483.279	13227.99
483.65	13511.14
484.021	13718.59
484.391	13844.92
484.762	14005.82
485.133	14077
485.503	14327.17
485.874	14587.5
486.244	14843.76
486.615	15109.29
486.985	15247.14
487.356	15550.86
487.726	15700.46
488.097	16073.11
488.467	16082.83
488.837	16379.99
489.207	16580.21
489.578	16781.34
489.948	17033.08
490.318	17332.28
490.688	17276.92
491.058	17593.52
491.428	17881.42
491.798	18047.75
492.168	18378.81
492.538	18522.31
492.908	18688.86
493.278	18973.82
493.648	19065.57
494.017	19267.15
494.387	19487.48
494.757	19622.62
495.126	19943.97
495.496	19908.26
495.866	20143.51
496.235	20439.32
496.605	20523.16
496.974	20587.57
497.344	20813.77
497.713	20955.01
498.082	21083.6
498.452	21363.36
498.821	21456.7
499.19	21512.06
499.559	21776.46
499.928	22020.3
500.298	22108.43
500.667	22375.32
501.036	22413.05
501.405	22517.46
501.774	22518.14
502.143	22893.95
502.512	22999.25
502.88	23130.32
503.249	23198.57
503.618	23527.83
503.987	23531.67
504.356	23794.94
504.724	23831.77
505.093	24064.54
505.462	24041.03
505.83	24306.79
506.199	24588.36
506.567	24851.63
506.936	24887.79
507.304	25133.21
507.672	25393.54
508.041	25431.96
508.409	25698.84
508.777	25888.44
509.145	26060.64
509.514	25957.59
509.882	26366.62
510.25	26416.34
510.618	26668.54
510.986	26801.19
511.354	27040.96
511.722	27234.62
512.09	27450.44
512.458	27495.86
512.826	27770.65
513.193	27905.11
513.561	28069.4
513.929	28372.45
514.297	28580.35
514.664	28841.36
515.032	28939.44
515.4	29173.55
515.767	29348.24
516.135	29440.44
516.502	29223.27
516.869	29913.65
517.237	30096.69
517.604	29988.45
517.972	30414.88
518.339	30628.66
518.706	30702.33
519.073	30947.52
519.44	31235.2
519.808	31606.49
520.175	31643.55
520.542	31984.78
520.909	32244.43
521.276	32208.73
521.643	32591.54
522.009	32949.27
522.376	33032.66
522.743	33258.65
523.11	33596.94
523.477	33930.49
523.843	34050.71
524.21	34593.98
524.577	34705.84
524.943	34930.01
525.31	35055.21
525.676	35456.1
526.043	35658.13
526.409	35874.17
526.776	36156.87
527.142	36285.23
527.508	36606.81
527.874	36821.72
528.241	37069.17
528.607	37171.99
528.973	37496.5
529.339	37609.94
529.705	37900.56
530.071	38275.24
530.437	38501.45
530.803	38654.66
531.169	38885.62
531.535	38845.17
531.901	39077.48
532.267	39329.45
532.632	39523.57
532.998	39550.23
533.364	39940.73
533.73	39997
534.095	40261.85
534.461	40528.06
534.826	40772.8
535.192	40681.5
535.557	41052.79
535.923	40997.2
536.288	41204.88
536.653	41352.22
537.019	41456.4
537.384	41716.05
537.749	41812.54
538.114	42096.83
538.479	42143.16
538.845	42315.81
539.21	42238.07
539.575	42540.44
539.94	42601
540.305	42858.39
540.67	42886.87
541.034	43054.55
541.399	43280.3
541.764	43272.62
542.129	43664.02
542.494	43729.1
542.858	43779.72
543.223	43941.98
543.587	44287.96
543.952	43973.17
544.316	44279.37
544.681	44293.16
545.045	44635.52
545.41	44672.58
545.774	44868.51
546.138	44932.91
546.503	44911.22
546.867	45073.7
547.231	45350.3
547.595	45409.29
547.959	45539.9
548.324	45598.43
548.688	45766.11
549.052	46020.12
549.416	46108.25
549.779	46205.88
550.143	46275.03
550.507	46588.92
550.871	46733.55
551.235	46719.99
551.599	47040.66
551.962	46971.73
552.326	47223.7
552.689	47331.72
553.053	47367.43
553.417	47468.89
553.78	47955.21
554.143	47830.92
554.507	48036.56
554.87	48280.62
555.234	48570.11
555.597	48390
555.96	48537.57
556.323	48740.27
556.686	48745.47
557.05	49036.54
557.413	49195.4
557.776	49177.32
558.139	49562.4
558.502	49494.83
558.865	49727.14
559.228	49942.73
559.59	50058.43
559.953	50166.22
560.316	50527.57
560.679	50549.49
561.041	50664.06
561.404	50888.24
561.767	51104.28
562.129	51032.87
562.492	51358.51
562.854	51345.85
563.217	51390.82
563.579	51459.3
563.941	51747.88
564.304	51854.99
564.666	52102.22
565.028	52136.34
565.39	52240.75
565.753	52458.82
566.115	52537.91
566.477	52658.14
566.839	52824.91
567.201	52970.44
567.563	53073.27
567.925	53123.21
568.287	53194.84
568.648	53269.19
569.01	53514.16
569.372	53701.95
569.734	53613.14
570.095	53860.59
570.457	53926.35
570.819	53976.97
571.18	54011.55
571.542	54190.98
571.903	54271.2
572.265	54341.93
572.626	54441.59
572.987	54396.39
573.349	54599.78
573.71	54676.84
574.071	54755.26
574.432	54800.45
574.794	55001.8
575.155	54968.36
575.516	55020.56
575.877	55134.68
576.238	55176.04
576.599	55251.06
576.96	55265.75
577.32	55277.5
577.681	55328.57
578.042	55453.09
578.403	55430.49
578.763	55405.86
579.124	55503.48
579.485	55610.37
579.845	55658.51
580.206	55636.81
580.566	55625.74
580.927	55640.43
581.287	55771.73
581.648	55606.76
582.008	55797.71
582.368	55715
582.728	55791.39
583.089	55806.53
583.449	55686.53
583.809	55809.92
584.169	55904.6
584.529	55825.74
584.889	56044.94
585.249	55793.42
585.609	55679.52
585.969	55888.33
586.329	55829.13
586.688	55877.71
587.048	55901.44
587.408	55832.06
587.768	55896.24
588.127	55979.4
588.487	55824.38
588.846	56065.73
589.206	55890.14
589.565	55890.37
589.925	55987.99
590.284	55926.75
590.643	55933.98
591.003	56045.62
591.362	56060.31
591.721	56057.14
592.08	56097.37
592.44	56112.73
592.799	56075.22
593.158	56039.52
593.517	56075.9
593.876	56112.96
594.235	56033.19
594.593	56157.7
594.952	56131.72
595.311	56045.16
595.67	56051.27
596.029	56267.53
596.387	56280.86
596.746	56290.36
597.104	56145.5
597.463	56169.23
597.822	56255.1
598.18	56161.09
598.538	56185.73
598.897	56323.12
599.255	56173.52
599.613	56535.55
599.972	56350.69
600.33	56423.69
600.688	56264.59
601.046	56383.46
601.404	56577.13
601.762	56401.31
602.12	56539.39
602.478	56565.6
602.836	56582.55
603.194	56483.12
603.552	56505.72
603.91	56418.04
604.268	56558.6
604.625	56419.17
604.983	56672.27
605.341	56490.12
605.698	56608.54
606.056	56648.54
606.413	56662.55
606.771	56824.35
607.128	56764.24
607.485	56576
607.843	56732.83
608.2	56857.35
608.557	56925.59
608.914	56878.14
609.272	56937.8
609.629	57013.73
609.986	57089.43
610.343	56930.57
610.7	57146.38
611.057	57113.16
611.414	57124.46
611.771	57176.66
612.127	57208.75
612.484	57221.63
612.841	57282.65
613.198	57196.77
613.554	57225.47
613.911	57366.71
614.267	57297.11
614.624	57357.67
614.98	57348.86
615.337	57422.3
615.693	57459.82
616.05	57434.73
616.406	57539.81
616.762	57450.33
617.118	57422.98
617.475	57547.27
617.831	57565.58
618.187	57615.07
618.543	57610.32
618.899	57716.53
619.255	57636.31
619.611	57650.32
619.967	57721.05
620.323	57755.63
620.678	57693.93
621.034	57630.66
621.39	57593.15
621.746	57596.08
622.101	57826.13
622.457	57623.43
622.812	57706.14
623.168	57727.61
623.523	57719.47
623.879	57804.89
624.234	57663.88
624.589	57737.55
624.945	57720.37
625.3	57737.78
625.655	57718.57
626.01	57753.82
626.365	57704.78
626.72	57713.6
627.075	57712.24
627.43	57736.87
627.785	57680.15
628.14	57672.01
628.495	57748.17
628.85	57722.18
629.205	57620.72
629.559	57765.8
629.914	57600.83
630.269	57622.75
630.623	57530.32
630.978	57492.58
631.332	57552.92
631.687	57662.75
632.041	57519.7
632.396	57536.88
632.75	57420.72
633.104	57484.67
633.459	57386.82
633.813	57378.69
634.167	57319.48
634.521	57250.33
634.875	57340.72
635.229	57243.55
635.583	57195.64
635.937	57206.04
636.291	57147.28
636.645	57166.27
636.999	57119.94
637.352	57168.53
637.706	56992.03
638.06	57161.07
638.413	57085.36
638.767	56953.16
639.121	57000.62
639.474	56823.22
639.828	56839.04
640.181	56858.7
640.534	56796.33
640.888	56743.45
641.241	56654.19
641.594	56752.26
641.947	56774.19
642.301	56682.21
642.654	56645.15
643.007	56646.05
643.36	56638.37
643.713	56541.2
644.066	56641.08
644.419	56480.18
644.771	56319.51
645.124	56153.86
645.477	56043.81
645.83	55865.51
646.182	55752.07
646.535	55628.23
646.888	55656.7
647.24	55469.13
647.593	55566.99
647.945	55553.2
648.298	55416.93
648.65	55425.07
649.002	55326.09
649.355	55397.05
649.707	55373.77
650.059	55502.13
650.411	55904.83
650.763	55858.5
651.115	56079.29
651.467	55972.17
651.819	55955.9
652.171	55882.68
652.523	55856.7
652.875	55803.59
653.227	55673.2
653.578	55863.02
653.93	55793.65
654.282	55671.84
654.633	55683.82
654.985	55695.12
655.337	55757.26
655.688	55684.27
656.039	55737.38
656.391	55475.01
656.742	55550.71
657.094	55506.65
657.445	55684.95
657.796	55553.43
658.147	55492.86
658.498	55569.25
658.849	55624.61
659.2	55499.87
659.551	55485.63
659.902	55501.22
660.253	55425.52
660.604	55486.76
660.955	55345.97
661.306	55389.59
661.656	55352.98
662.007	55376.03
662.358	55335.58
662.708	55315.92
663.059	55271.17
663.409	55179.42
663.76	55341
664.11	55364.05
664.461	55354.11
664.811	55252.42
665.161	55275.47
665.511	55222.36
665.862	55206.77
666.212	55263.94
666.562	55211.74
666.912	55170.16
667.262	55205.64
667.612	55197.05
667.962	55180.1
668.312	55144.85
668.662	55243.38
669.011	55134
669.361	55111.63
669.711	55095.59
670.06	55086.09
670.41	54995.93
670.76	54941.69
671.109	55071.63
671.459	54979.43
671.808	54840.68
672.157	54993.89
672.507	54863.95
672.856	54819.21
673.205	54857.85
673.554	54922.71
673.904	54762.49
674.253	54832.09
674.602	54791.19
674.951	54430.07
675.3	54207.47
675.649	54772.66
675.998	54676.61
676.346	54738.08
676.695	54760.45
677.044	54478.2
677.393	54629.38
677.741	54605.88
678.09	54587.35
678.438	54464.64
678.787	54515.04
679.135	54482.72
679.484	54353.91
679.832	54415.6
680.181	54277.98
680.529	54391.87
680.877	54258.77
681.225	54241.6
681.573	54362.05
681.922	54138.55
682.27	54013.81
682.618	54103.97
682.966	54003.41
683.314	54045.9
683.661	53898.33
684.009	53827.14
684.357	53728.62
684.705	53757.09
685.053	53727.49
685.4	53585.34
685.748	53566.13
686.095	53538.11
686.443	53454.27
686.79	53328.85
687.138	53456.53
687.485	53445.23
687.832	53343.09
688.18	53285.69
688.527	53054.28
688.874	53163.43
689.221	53004.57
689.568	52922.76
689.915	52881.18
690.262	52836.44
690.609	52779.04
690.956	52661.52
691.303	52636.67
691.65	52586.05
691.997	52384.47
692.344	52225.6
692.69	52204.81
693.037	52302.66
693.383	51991.94
693.73	52031.03
694.077	51905.39
694.423	51895.9
694.769	51794.88
695.116	51678.05
695.462	51676.01
695.808	51525.28
696.155	51518.96
696.501	51383.14
696.847	51240.09
697.193	51039.87
697.539	51159.42
697.885	50917.84
698.231	50770.05
698.577	50796.26
698.923	50796.26
699.269	50640.34
699.614	50398.08
699.96	50389.72
700.306	50341.81
700.651	50208.26
700.997	50098.88
701.342	50088.71
701.688	50001.26
702.033	49846.01
702.379	49775.5
702.724	49674.94
703.069	49739.79
703.415	49433.36
703.76	49434.94
704.105	49407.37
704.45	49265
704.795	49013.71
705.14	48873.6
705.485	48934.62
705.83	48740.72
706.175	48734.62
706.52	48645.81
706.865	48454.18
707.209	48491.24
707.554	48208.99
707.899	48402.43
708.243	48131.47
708.588	48079.72
708.932	47918.6
709.277	47914.98
709.621	47774.2
709.966	47481.1
710.31	47690.36
710.654	47337.82
710.998	47439.06
711.342	47453.98
711.687	47243.59
712.031	47132.86
712.375	46869.13
712.719	46981.22
713.063	47000.66
713.407	46961.34
713.75	46694
714.094	46696.03
714.438	46623.27
714.782	46572.42
715.125	46457.17
715.469	46480.22
715.812	46266.21
716.156	46114.35
716.499	46029.16
716.843	46197.97
717.186	45689.96
717.53	45968.82
717.873	45885.66
718.216	45863.29
718.559	45721.59
718.902	45250.19
719.246	45484.09
719.589	45302.4
719.932	45249.29
720.275	45206.58
720.617	45027.6
720.96	45065.79
721.303	45102.18
721.646	45081.61
721.989	44834.84
722.331	44972.69
722.674	44804.78
723.016	44745.57
723.359	44489.76
723.701	44646.14
724.044	44292.03
724.386	44221.52
724.729	44395.98
725.071	44179.71
725.413	44273.95
725.755	44068.98
726.097	43889.78
726.439	43785.83
726.782	43803
727.124	43886.39
727.465	43764.58
727.807	43731.14
728.149	43466.74
728.491	43455.89
728.833	43415.67
729.175	43297.03
729.516	43321.66
729.858	43285.73
730.199	43234.65
730.541	43202.11
730.882	43063.81
731.224	43144.04
731.565	42903.82
731.906	42944.04
732.248	42936.36
732.589	42699.98
732.93	42537.95
733.271	42668.79
733.612	42629.92
733.953	42481
734.294	42259.31
734.635	42326.66
734.976	42214.79
735.317	42168.69
735.658	42114.68
735.999	42049.83
736.339	41998.75
736.68	42149.03
737.021	41938.64
737.361	41742.72
737.702	41863.16
738.042	41706.11
738.383	41613.68
738.723	41716.05
739.063	41495.26
739.404	41655.71
739.744	41500.91
740.084	41309.96
740.424	41304.31
740.764	41229.06
741.104	41243.07
741.444	40937.09
741.784	40987.26
742.124	41115.61
742.464	40998.55
742.804	40720.37
743.143	40800.14
743.483	40641.5
743.823	40511.34
744.162	40563.31
744.502	40506.82
744.841	40405.35
745.181	40582.07
745.52	40328.52
745.86	40356.54
746.199	40331.68
746.538	40230.44
746.877	40257.78
747.216	39996.55
747.556	39927.4
747.895	39835.42
748.234	39811.02
748.573	39636.78
748.911	39596.78
749.25	39658.48
749.589	39432.49
749.928	39542.77
750.267	39525.83
750.605	39347.52
750.944	39209.68
751.283	39018.72
751.621	38971.04
751.96	38892.85
752.298	39024.14
752.636	38891.72
752.975	38611.05
