Data from breadboard_black_back_FLMS001491_00019.txt Node
Date: Wed Feb 08 10:50:02 GMT 2017
User: dcchb
Spectrometer: FLMS00149
Trigger mode: 0
Integration Time (sec): 2.000000E-2
Scans to average: 10
Electric dark correction enabled: true
Nonlinearity correction enabled: false
Boxcar width: 0
XAxis mode: Wavelengths
Number of Pixels in Spectrum: 2048
>>>>>Begin Spectral Data<<<<<
341.393	-9.8
341.776	-9.8
342.16	-9.8
342.543	-59.74
342.927	-83.25
343.31	-64.94
343.693	-68.33
344.077	-60.65
344.46	-49.12
344.843	-45.06
345.226	-58.61
345.61	-27.88
345.993	-26.52
346.376	-17.94
346.759	5.34
347.142	30.65
347.525	46.92
347.908	70.65
348.291	64.09
348.674	89.86
349.057	111.55
349.44	115.17
349.823	163.75
350.206	188.84
350.588	203.75
350.971	201.04
351.354	222.06
351.737	233.36
352.119	235.62
352.502	250.98
352.884	287.14
353.267	297.31
353.65	282.39
354.032	294.37
354.414	338.21
354.797	303.86
355.179	336.18
355.562	342.05
355.944	348.83
356.326	327.59
356.709	330.98
357.091	349.51
357.473	341.6
357.855	355.39
358.238	351.09
358.62	334.6
359.002	339.57
359.384	334.37
359.766	375.05
360.148	361.49
360.53	357.87
360.912	354.93
361.294	363.52
361.676	334.37
362.057	336.18
362.439	327.82
362.821	340.7
363.203	332.56
363.584	343.41
363.966	351.09
364.348	342.51
364.729	333.69
365.111	337.99
365.493	329.4
365.874	361.26
366.256	330.53
366.637	340.7
367.019	358.32
367.4	335.5
367.781	355.39
368.163	347.48
368.544	345.22
368.925	344.99
369.306	340.7
369.688	357.87
370.069	351.32
370.45	362.84
370.831	377.53
371.212	341.83
371.593	345.44
371.974	360.58
372.355	339.12
372.736	359.45
373.117	362.39
373.498	344.99
373.879	350.87
374.26	348.61
374.641	351.09
375.021	349.51
375.402	370.08
375.783	366.69
376.163	388.15
376.544	374.37
376.925	355.16
377.305	381.6
377.686	381.15
378.066	383.86
378.447	359
378.827	379.34
379.208	398.55
379.588	396.06
379.968	392.67
380.349	366.01
380.729	392.9
381.109	402.84
381.489	403.75
381.87	387.48
382.25	448.04
382.63	406.68
383.01	394.93
383.39	437.64
383.77	418.44
384.15	432.9
384.53	439.68
384.91	446.46
385.29	436.97
385.67	437.42
386.049	421.37
386.429	444.2
386.809	440.81
387.189	437.19
387.568	451.43
387.948	458.89
388.328	436.97
388.707	440.81
389.087	460.69
389.466	452.78
389.846	472.67
390.225	472.45
390.605	471.54
390.984	497.08
391.363	495.27
391.743	487.81
392.122	475.16
392.501	512.67
392.881	518.77
393.26	515.38
393.639	523.97
394.018	510.86
394.397	533.69
394.776	566.45
395.155	518.32
395.534	535.27
395.913	549.28
396.292	531.65
396.671	536.4
397.05	553.12
397.429	534.82
397.808	561.03
398.186	566.68
398.565	567.36
398.944	555.83
399.323	557.87
399.701	569.84
400.08	577.75
400.458	616.85
400.837	577.53
401.215	594.7
401.594	610.75
401.972	597.64
402.351	596.51
402.729	629.96
403.107	620.24
403.486	615.94
403.864	644.87
404.242	636.51
404.62	654.36
404.999	633.12
405.377	658.43
405.755	640.12
406.133	686.45
406.511	660.91
406.889	701.14
407.267	691.87
407.645	710.41
408.023	716.73
408.401	711.76
408.779	704.98
409.156	725.09
409.534	725.32
409.912	751.53
410.29	761.03
410.667	755.83
411.045	768.26
411.422	789.27
411.8	781.14
412.178	790.63
412.555	814.13
412.933	815.94
413.31	808.71
413.687	795.83
414.065	834.7
414.442	853.45
414.819	868.14
415.197	863.85
415.574	868.82
415.951	861.81
416.328	911.53
416.705	899.55
417.082	906.33
417.46	920.12
417.837	920.79
418.214	926.22
418.591	947.23
418.967	929.61
419.344	944.3
419.721	965.31
420.098	968.7
420.475	998.31
420.852	983.62
421.228	1010.28
421.605	1009.38
421.982	1026.33
422.358	1038.08
422.735	1045.09
423.111	1051.41
423.488	1049.83
423.864	1075.82
424.241	1065.42
424.617	1098.64
424.994	1106.55
425.37	1128.47
425.746	1091.64
426.123	1137.74
426.499	1133.67
426.875	1144.07
427.251	1162.37
427.627	1163.05
428.003	1187.91
428.379	1209.83
428.756	1228.36
429.132	1261.35
429.507	1251.18
429.883	1280.33
430.259	1280.79
430.635	1284.4
431.011	1319.43
431.387	1347.68
431.763	1374.12
432.138	1360.56
432.514	1384.51
432.89	1396.71
433.265	1430.61
433.641	1441.23
434.016	1486.43
434.392	1518.29
434.767	1501.8
435.143	1518.75
435.518	1554.22
435.894	1505.19
436.269	1557.61
436.644	1540.89
437.02	1575.92
437.395	1620.21
437.77	1598.52
438.145	1642.58
438.52	1648.01
438.895	1679.42
439.271	1641
439.646	1703.15
440.021	1718.74
440.395	1717.61
440.77	1717.84
441.145	1714.9
441.52	1757.84
441.895	1750.38
442.27	1792.86
442.645	1770.04
443.019	1833.77
443.394	1811.39
443.769	1849.81
444.143	1833.09
444.518	1849.13
444.892	1876.02
445.267	1860.21
445.641	1932.07
446.016	1897.27
446.39	1928.45
446.764	1915.35
447.139	1928.23
447.513	1971.84
447.887	1981.11
448.262	1953.54
448.636	1995.79
449.01	1989.47
449.384	2036.92
449.758	2040.31
450.132	2071.5
450.506	2088.9
450.88	2113.08
451.254	2104.72
451.628	2152.85
452.002	2169.8
452.376	2154.89
452.75	2229.46
453.123	2232.85
453.497	2269.91
453.871	2264.26
454.244	2316.92
454.618	2355.79
454.992	2410.02
455.365	2355.56
455.739	2409.57
456.112	2447.76
456.486	2473.3
456.859	2481.88
457.232	2569.79
457.606	2547.64
457.979	2577.47
458.352	2642.11
458.725	2688.43
459.099	2699.28
459.472	2748.32
459.845	2760.52
460.218	2797.58
460.591	2780.18
460.964	2850.46
461.337	2887.97
461.71	2920.52
462.083	2975.88
462.456	2975.43
462.829	3041.87
463.201	3046.16
463.574	3082.32
463.947	3134.07
464.32	3184.46
464.692	3212.94
465.065	3228.98
465.438	3274.18
465.81	3357.57
466.183	3350.79
466.555	3487.06
466.928	3441.18
467.3	3458.81
467.672	3529.09
468.045	3614.74
468.417	3606.6
468.789	3632.81
469.161	3650.67
469.534	3783.09
469.906	3832.13
470.278	3846.14
470.65	3892.69
471.022	3965.01
471.394	4026.48
471.766	4098.79
472.138	4135.17
472.51	4219.69
472.882	4228.73
473.253	4342.63
473.625	4376.3
473.997	4444.77
474.369	4469.4
474.74	4523.41
475.112	4645.89
475.484	4701.94
475.855	4792.33
476.227	4859.22
476.598	4974.02
476.97	5009.95
477.341	5135.15
477.713	5188.93
478.084	5239.78
478.455	5374.69
478.827	5376.05
479.198	5618.52
479.569	5599.99
479.94	5713.89
480.311	5791.4
480.682	5875.02
481.053	6049.93
481.424	6111.17
481.795	6195.91
482.166	6306.42
482.537	6354.55
482.908	6483.36
483.279	6549.12
483.65	6720.19
484.021	6786.86
484.391	6919.28
484.762	6922.9
485.133	7060.97
485.503	7150.46
485.874	7230.01
486.244	7381.42
486.615	7518.14
486.985	7591.81
487.356	7727.85
487.726	7744.34
488.097	7945.02
488.467	7954.96
488.837	8149.76
489.207	8186.37
489.578	8400.6
489.948	8408.06
490.318	8535.28
490.688	8582.29
491.058	8722.17
491.428	8817.54
491.798	8923.3
492.168	9080.35
492.538	9156.06
492.908	9256.17
493.278	9389.95
493.648	9364.64
494.017	9484.86
494.387	9621.58
494.757	9694.12
495.126	9855.48
495.496	9808.02
495.866	9870.39
496.235	10037.17
496.605	10039.88
496.974	10196.03
497.344	10342.02
497.713	10359.19
498.082	10405.97
498.452	10543.59
498.821	10618.62
499.19	10668.34
499.559	10771.61
499.928	10878.73
500.298	10946.07
500.667	11009.12
501.036	10924.37
501.405	11131.15
501.774	11169.79
502.143	11311.03
502.512	11365.49
502.88	11397.36
503.249	11438.48
503.618	11540.4
503.987	11673.51
504.356	11748.98
504.724	11819.94
505.093	11822.88
505.462	11860.39
505.83	12048.86
506.199	12126.15
506.567	12345.58
506.936	12275.07
507.304	12465.12
507.672	12504.9
508.041	12517.1
508.409	12672.12
508.777	12729.07
509.145	12827.37
509.514	12860.59
509.882	13045.9
510.25	13064.43
510.618	13114.6
510.986	13240.7
511.354	13327.25
511.722	13502.16
512.09	13665.32
512.458	13643.62
512.826	13637.52
513.193	13889.72
513.561	13872.09
513.929	14001.36
514.297	14147.57
514.664	14255.36
515.032	14294.68
515.4	14423.72
515.767	14488.57
516.135	14578.06
516.502	14569.7
516.869	14721.11
517.237	14948.22
517.604	14824.61
517.972	15078.61
518.339	15205.39
518.706	15300.98
519.073	15311.38
519.44	15402
519.808	15667.3
520.175	15621.2
520.542	15806.73
520.909	15976.44
521.276	15977.35
521.643	16100.73
522.009	16196.33
522.376	16318.58
522.743	16556.54
523.11	16642.42
523.477	16900.04
523.843	16860.71
524.21	17079.47
524.577	17220.93
524.943	17347.71
525.31	17388.16
525.676	17706.79
526.043	17638.55
526.409	17791.76
526.776	17932.33
527.142	18008.71
527.508	18074.69
527.874	18308.59
528.241	18412.99
528.607	18594.68
528.973	18789.25
529.339	18741.34
529.705	18994.22
530.071	19093.2
530.437	19120.09
530.803	19260.43
531.169	19362.8
531.535	19321.89
531.901	19525.5
532.267	19609.12
532.632	19695.44
532.998	19814.54
533.364	19903.35
533.73	19987.41
534.095	20175.2
534.461	20138.37
534.826	20315.09
535.192	20316.9
535.557	20639.6
535.923	20550.34
536.288	20692.25
536.653	20860.84
537.019	20765.92
537.384	20934.05
537.749	21028.29
538.114	21044.79
538.479	21231.67
538.845	21299.92
539.21	21363.87
539.575	21475.51
539.94	21353.48
540.305	21624.43
540.67	21522.06
541.034	21608.39
541.399	21834.6
541.764	21825.1
542.129	21930.86
542.494	22032.56
542.858	22080.92
543.223	22094.7
543.587	22249.05
543.952	22186.45
544.316	22334.7
544.681	22276.39
545.045	22501.24
545.41	22550.96
545.774	22725.19
546.138	22757.06
546.503	22855.36
546.867	22840.22
547.231	23044.96
547.595	23029.82
547.959	23117.95
548.324	23199.31
548.688	23244.73
549.052	23315.69
549.416	23333.31
549.779	23378.74
550.143	23483.14
550.507	23714.77
550.871	23700.31
551.235	23775.56
551.599	23934.88
551.962	23931.94
552.326	24046.51
552.689	24260.97
553.053	24154.76
553.417	24186.4
553.78	24576.67
554.143	24506.16
554.507	24713.84
554.87	24589.55
555.234	24912.93
555.597	24807.17
555.96	24932.59
556.323	25033.38
556.686	25191.12
557.05	25364.67
557.413	25351.11
557.776	25454.61
558.139	25628.62
558.502	25633.82
558.865	25770.54
559.228	25908.61
559.59	26046.01
559.953	26092.79
560.316	26397.41
560.679	26421.37
561.041	26601.02
561.404	26697.07
561.767	26720.12
562.129	26714.24
562.492	27098.19
562.854	27060.45
563.217	27101.35
563.579	27173.44
563.941	27447.1
564.304	27455.92
564.666	27698.62
565.028	27761.67
565.39	27784.27
565.753	27997.6
566.115	28064.04
566.477	28316.91
566.839	28238.49
567.201	28435.33
567.563	28532.72
567.925	28710.8
568.287	28747.63
568.648	28774.3
569.01	28974.52
569.372	29185.81
569.734	29124.8
570.095	29344.23
570.457	29325.25
570.819	29507.61
571.18	29495.18
571.542	29726.59
571.903	29661.06
572.265	29874.84
572.626	29950.99
572.987	29963.2
573.349	29946.7
573.71	30025.34
574.071	30226.24
574.432	30323.64
574.794	30556.17
575.155	30495.84
575.516	30485.44
575.877	30728.82
576.238	30679.11
576.599	30769.73
576.96	30743.06
577.32	30819.44
577.681	30901.25
578.042	31065.54
578.403	31051.75
578.763	31087.23
579.124	31144.18
579.485	31315.02
579.845	31305.31
580.206	31115.26
580.566	31341.46
580.927	31345.53
581.287	31418.52
581.648	31284.06
582.008	31548.69
582.368	31506.66
582.728	31509.14
583.089	31496.49
583.449	31510.73
583.809	31463.72
584.169	31609.03
584.529	31535.58
584.889	31742.36
585.249	31631.63
585.609	31479.09
585.969	31793.88
586.329	31531.52
586.688	31646.09
587.048	31488.58
587.408	31554.79
587.768	31653.32
588.127	31548.24
588.487	31560.67
588.846	31737.61
589.206	31680.66
589.565	31575.81
589.925	31774.9
590.284	31637.28
590.643	31771.96
591.003	31880.21
591.362	31810.38
591.721	31825.52
592.08	31868.23
592.44	31912.52
592.799	31972.86
593.158	31739.42
593.517	31847.89
593.876	31880.88
594.235	31875.69
594.593	31916.36
594.952	31976.48
595.311	31912.75
595.67	31948.68
596.029	32159.75
596.387	32079.3
596.746	32180.31
597.104	32032.29
597.463	31966.08
597.822	32105.74
598.18	32036.81
598.538	32058.96
598.897	32336.01
599.255	32080.2
599.613	32388.22
599.972	32252.17
600.33	32460.76
600.688	32114.55
601.046	32283.59
601.404	32461.66
601.762	32360.19
602.12	32483.58
602.478	32400.87
602.836	32595.22
603.194	32430.93
603.552	32508.44
603.91	32482.23
604.268	32595.22
604.625	32505.73
604.983	32660.07
605.341	32546.4
605.698	32706.63
606.056	32750.01
606.413	32694.65
606.771	32779.17
607.128	32829.11
607.485	32602
607.843	32874.08
608.2	33019.39
608.557	32997.01
608.914	32909.33
609.272	33013.06
609.629	33204.01
609.986	33305.71
610.343	33058.93
610.7	33387.74
611.057	33252.37
611.414	33328.08
611.771	33234.07
612.127	33380.28
612.484	33342.09
612.841	33399.26
613.198	33310.45
613.554	33382.54
613.911	33651.23
614.267	33531.91
614.624	33494.18
614.98	33623.66
615.337	33832.47
615.693	33673.83
616.05	33675.64
616.406	33824.79
616.762	33658.47
617.118	33717.67
617.475	33760.61
617.831	33864.56
618.187	33848.97
618.543	33889.19
618.899	34123.09
619.255	34156.76
619.611	33943.2
619.967	34001.96
620.323	34182.75
620.678	33963.32
621.034	34040.15
621.39	33895.07
621.746	33960.6
622.101	34373.02
622.457	33927.84
622.812	34140.26
623.168	34228.39
623.523	34227.26
623.879	34227.04
624.234	34019.59
624.589	34025.46
624.945	34056.19
625.3	34213.03
625.655	34088.74
626.01	34066.82
626.365	34090.77
626.72	34132.13
627.075	34030.88
627.43	34153.14
627.785	34025.46
628.14	34250.77
628.495	34008.51
628.85	34011.68
629.205	33961.06
629.559	34085.57
629.914	33962.86
630.269	33895.07
630.623	33883.77
630.978	33905.24
631.332	33948.4
631.687	34026.82
632.041	33931.9
632.396	33855.3
632.75	33732.59
633.104	33791.34
633.459	33701.4
633.813	33702.53
634.167	33653.27
634.521	33700.95
634.875	33751.8
635.229	33571.24
635.583	33321.75
635.937	33457.57
636.291	33386.38
636.645	33378.47
636.999	33300.51
637.352	33413.27
637.706	33267.06
638.06	33337.57
638.413	33303.45
638.767	33079.72
639.121	33062.77
639.474	33085.15
639.828	33100.74
640.181	33049.22
640.534	32989.1
640.888	32962.44
641.241	32788.66
641.594	32932.83
641.947	32963.57
642.301	32839.05
642.654	32880.63
643.007	32846.51
643.36	32768.55
643.713	32544.37
644.066	32764.03
644.419	32483.58
644.771	32482.68
645.124	32174.44
645.477	32211.05
645.83	31904.39
646.182	31788.68
646.535	31595.02
646.888	31598.41
647.24	31349.37
647.593	31529.03
647.945	31502.14
648.298	31327
648.65	31345.76
649.002	31181.92
649.355	31384.85
649.707	31492.42
650.059	31548.01
650.411	31841.34
650.763	31880.43
651.115	32179.18
651.467	32052.18
651.819	32044.72
652.171	31908.68
652.523	31796.14
652.875	31772.64
653.227	31775.58
653.578	31869.81
653.93	31803.37
654.282	31682.47
654.633	31658.52
654.985	31663.94
655.337	31602.02
655.688	31678.4
656.039	31754.56
656.391	31482.03
656.742	31475.7
657.094	31500.33
657.445	31567.45
657.796	31551.4
658.147	31418.07
658.498	31445.42
658.849	31503.27
659.2	31508.24
659.551	31303.05
659.902	31479.77
660.253	31377.62
660.604	31443.83
660.955	31288.58
661.306	31283.84
661.656	31354.35
662.007	31258.53
662.358	31198.19
662.708	31245.2
663.059	31180.79
663.409	31044.3
663.76	31228.47
664.11	31148.93
664.461	31223.5
664.811	31306.21
665.161	31286.1
665.511	31189.6
665.862	31145.99
666.212	31085.88
666.562	31209.94
666.912	31096.05
667.262	31033
667.612	31004.52
667.962	31118.42
668.312	30997.07
668.662	31125.65
669.011	31089.72
669.361	31093.11
669.711	30938.76
670.06	30977.63
670.41	30872.78
670.76	30754.59
671.109	30954.13
671.459	30875.26
671.808	30844.75
672.157	30988.48
672.507	30756.39
672.856	30594.37
673.205	30689.96
673.554	30815.38
673.904	30746
674.253	30802.5
674.602	30790.97
674.951	30244.77
675.3	30240.48
675.649	30715.49
675.998	30504.42
676.346	30521.82
676.695	30607.02
677.044	30415.39
677.393	30529.28
677.741	30498.32
678.09	30432.11
678.438	30394.14
678.787	30362.73
679.135	30519.34
679.484	30171.33
679.832	30370.42
680.181	30102.4
680.529	30136.3
680.877	30163.64
681.225	30155.96
681.573	30328.16
681.922	29999.35
682.27	29974.49
682.618	29983.53
682.966	29951.67
683.314	29923.42
683.661	29941.73
684.009	29762.3
684.357	29583.54
684.705	29615.18
685.053	29668.29
685.4	29562.98
685.748	29461.51
686.095	29407.73
686.443	29427.16
686.79	29306.04
687.138	29253.61
687.485	29340.39
687.832	29167.96
688.18	29240.73
688.527	28954.18
688.874	29098.81
689.221	28900.85
689.568	28833.96
689.915	28846.16
690.262	28825.82
690.609	28641.87
690.956	28669.22
691.303	28593.97
691.65	28398.49
691.997	28499.73
692.344	28320.53
692.69	28228.1
693.037	28341.77
693.383	28100.65
693.73	28140.19
694.077	27916.02
694.423	27967.32
694.769	27949.24
695.116	27831.73
695.462	27774.55
695.808	27718.96
696.155	27785.85
696.501	27508.57
696.847	27529.81
697.193	27326.43
697.539	27298.41
697.885	27241.46
698.231	27047.57
698.577	27141.8
698.923	27062.93
699.269	27038.75
699.614	26770.51
699.96	26759.66
700.306	26796.72
700.651	26689.38
700.997	26581.82
701.342	26608.48
701.688	26597.41
702.033	26372.33
702.379	26484.19
702.724	26275.38
703.069	26358.54
703.415	26156.97
703.76	26013.24
704.105	26025.9
704.45	25886.24
704.795	25879.91
705.14	25730.54
705.485	25777.09
705.83	25603.54
706.175	25564.89
706.52	25544.78
706.865	25523.31
707.209	25448.29
707.554	25394.28
707.899	25293.71
708.243	25270.21
708.588	25226.82
708.932	25071.35
709.277	25088.07
709.621	25099.82
709.966	24895.76
710.31	25041.52
710.654	24821.41
710.998	24773.73
711.342	24792.71
711.687	24686.05
712.031	24562.21
712.375	24487.63
712.719	24613.05
713.063	24547.97
713.407	24621.19
713.75	24475.2
714.094	24401.31
714.438	24325.15
714.782	24310.46
715.125	24198.38
715.469	24161.77
715.812	24083.58
716.156	23979.4
716.499	23930.36
716.843	24023.01
717.186	23843.58
717.53	23991.15
717.873	23848.55
718.216	23875.67
718.559	23768.1
718.902	23700.08
719.246	23750.7
719.589	23602.68
719.932	23458.06
720.275	23564.95
720.617	23471.39
720.96	23373.31
721.303	23438.17
721.646	23415.8
721.989	23279.53
722.331	23313.2
722.674	23222.13
723.016	23240.43
723.359	23190.04
723.701	23210.6
724.044	22888.58
724.386	22904.85
724.729	22996.82
725.071	22820.56
725.413	22938.75
725.755	22828.02
726.097	22879.77
726.439	22722.93
726.782	22778.98
727.124	22725.42
727.465	22594.12
727.807	22586.67
728.149	22576.5
728.491	22617.17
728.833	22553.9
729.175	22494.92
729.516	22556.61
729.858	22384.41
730.199	22437.29
730.541	22466.22
730.882	22288.14
731.224	22412.89
731.565	22224.42
731.906	22264.87
732.248	22245.43
732.589	22056.74
732.93	22004.99
733.271	22065.32
733.612	22033.46
733.953	22033.69
734.294	21917.98
734.635	21850.64
734.976	21934.48
735.317	21821.26
735.658	21867.36
735.999	21903.29
736.339	21858.32
736.68	21843.41
737.021	21661.94
737.361	21654.26
737.702	21690.64
738.042	21623.98
738.383	21535.39
738.723	21537.65
739.063	21443.19
739.404	21602.51
739.744	21515.28
740.084	21373.14
740.424	21383.08
740.764	21392.8
741.104	21462.85
741.444	21293.82
741.784	21296.3
742.124	21279.81
742.464	21348.96
742.804	21119.13
743.143	21154.39
743.483	21200.04
743.823	21014.73
744.162	20994.84
744.502	21057.21
744.841	20946.71
745.181	21045.46
745.52	20901.74
745.86	20952.81
746.199	20896.54
746.538	20809.09
746.877	20828.75
747.216	20755.08
747.556	20768.86
747.895	20630.33
748.234	20631.46
748.573	20624.46
748.911	20511.92
749.25	20584.23
749.589	20446.16
749.928	20453.39
750.267	20491.35
750.605	20384.92
750.944	20351.02
751.283	20173.62
751.621	20293.39
751.96	20237.35
752.298	20048.65
752.636	20193.06
752.975	20065.15
753.313	19992.61
753.651	20011.14
753.989	19971.14
