Data from breadboard_black_back_FLMS001491_00001.txt Node
Date: Wed Feb 08 10:49:51 GMT 2017
User: dcchb
Spectrometer: FLMS00149
Trigger mode: 0
Integration Time (sec): 2.000000E-2
Scans to average: 10
Electric dark correction enabled: true
Nonlinearity correction enabled: false
Boxcar width: 0
XAxis mode: Wavelengths
Number of Pixels in Spectrum: 2048
>>>>>Begin Spectral Data<<<<<
341.393	-20.24
341.776	-20.24
342.16	-20.24
342.543	-70.41
342.927	-58.2
343.31	-63.18
343.693	-73.35
344.077	-67.47
344.46	-63.18
344.843	-23.18
345.226	-49.17
345.61	-43.52
345.993	-4.65
346.376	-13.01
346.759	-3.52
347.142	26.31
347.525	23.83
347.908	53.2
348.291	83.49
348.674	102.92
349.057	114.45
349.44	122.81
349.823	147.67
350.206	156.03
350.588	196.03
350.971	216.14
351.354	221.56
351.737	242.58
352.119	262.92
352.502	266.08
352.884	293.42
353.267	283.93
353.65	307.66
354.032	309.47
354.414	329.58
354.797	311.96
355.179	310.83
355.562	327.55
355.944	342.46
356.326	333.42
356.709	331.16
357.091	349.02
357.473	351.5
357.855	326.42
358.238	358.96
358.62	347.66
359.002	332.75
359.384	348.34
359.766	368
360.148	335.01
360.53	343.37
360.912	352.41
361.294	357.83
361.676	344.72
362.057	349.47
362.439	350.15
362.821	341.33
363.203	325.29
363.584	331.84
363.966	342.91
364.348	331.62
364.729	351.28
365.111	330.49
365.493	338.4
365.874	331.39
366.256	330.26
366.637	335.46
367.019	351.95
367.4	328.68
367.781	329.81
368.163	327.32
368.544	320.99
368.925	321.9
369.306	335.68
369.688	340.2
370.069	336.81
370.45	351.05
370.831	339.07
371.212	332.07
371.593	339.3
371.974	354.21
372.355	344.72
372.736	339.98
373.117	359.41
373.498	361.45
373.879	349.02
374.26	374.33
374.641	323.03
375.021	359.19
375.402	371.84
375.783	360.09
376.163	388.11
376.544	356.47
376.925	376.13
377.305	352.41
377.686	393.53
378.066	369.58
378.447	376.13
378.827	372.07
379.208	384.95
379.588	418.84
379.968	386.98
380.349	389.02
380.729	382.46
381.109	379.52
381.489	392.63
381.87	403.7
382.25	418.17
382.63	417.26
383.01	405.06
383.39	414.78
383.77	414.78
384.15	423.59
384.53	411.84
384.91	422.69
385.29	436.92
385.67	430.82
386.049	438.51
386.429	431.05
386.809	441.9
387.189	436.92
387.568	428.11
387.948	439.18
388.328	448.45
388.707	457.49
389.087	441.44
389.466	482.57
389.846	463.36
390.225	473.76
390.605	470.37
390.984	482.12
391.363	472.4
391.743	473.08
392.122	465.85
392.501	480.54
392.881	502.01
393.26	506.98
393.639	505.17
394.018	516.24
394.397	530.25
394.776	517.15
395.155	522.8
395.534	544.04
395.913	530.03
396.292	558.73
396.671	534.55
397.05	545.62
397.429	546.53
397.808	537.26
398.186	558.28
398.565	539.07
398.944	556.02
399.323	561.67
399.701	569.12
400.08	578.61
400.458	579.97
400.837	572.29
401.215	587.65
401.594	612.06
401.972	602.79
402.351	589.69
402.729	609.12
403.107	611.83
403.486	604.6
403.864	609.12
404.242	638.05
404.62	621.78
404.999	652.74
405.377	658.39
405.755	648.22
406.133	669.46
406.511	652.29
406.889	673.75
407.267	673.3
407.645	687.76
408.023	681.44
408.401	707.88
408.779	704.04
409.156	709.68
409.534	742.23
409.912	729.57
410.29	750.14
410.667	758.27
411.045	754.2
411.422	763.47
411.8	777.03
412.178	769.34
412.555	795.11
412.933	803.69
413.31	788.55
413.687	813.64
414.065	820.19
414.442	814.99
414.819	859.06
415.197	847.76
415.574	857.7
415.951	902
416.328	866.52
416.705	892.96
417.082	862.9
417.46	894.31
417.837	916.23
418.214	932.28
418.591	911.94
418.967	910.58
419.344	944.48
419.721	950.36
420.098	938.15
420.475	973.41
420.852	946.51
421.228	1000.3
421.605	991.94
421.982	960.53
422.358	993.75
422.735	1010.92
423.111	1024.48
423.488	1009.79
423.864	1037.59
424.241	1062.22
424.617	1077.81
424.994	1059.96
425.37	1075.1
425.746	1101.31
426.123	1099.05
426.499	1114.87
426.875	1101.54
427.251	1104.02
427.627	1157.13
428.003	1159.84
428.379	1176.11
428.756	1210.46
429.132	1198.94
429.507	1227.86
429.883	1261.53
430.259	1244.36
430.635	1254.53
431.011	1289.56
431.387	1322.78
431.763	1312.38
432.138	1310.8
432.514	1368.42
432.89	1365.26
433.265	1383.34
433.641	1405.94
434.016	1382.66
434.392	1426.28
434.767	1460.85
435.143	1445.26
435.518	1475.31
435.894	1480.51
436.269	1488.87
436.644	1557.35
437.02	1552.15
437.395	1540.17
437.77	1548.76
438.145	1593.28
438.52	1600.73
438.895	1621.75
439.271	1647.06
439.646	1668.53
440.021	1680.51
440.395	1659.72
440.77	1663.33
441.145	1696.78
441.52	1718.25
441.895	1749.21
442.27	1717.79
442.645	1751.92
443.019	1787.85
443.394	1746.27
443.769	1788.75
444.143	1792.37
444.518	1814.06
444.892	1837.11
445.267	1843.44
445.641	1840.73
446.016	1853.16
446.39	1871.69
446.764	1873.95
447.139	1870.11
447.513	1902.42
447.887	1900.61
448.262	1939.93
448.636	1946.26
449.01	1980.39
449.384	1996.88
449.758	1997.11
450.132	2053.83
450.506	2024.23
450.88	2063.1
451.254	2067.16
451.628	2122.53
452.002	2097.9
452.376	2114.85
452.75	2186.71
453.123	2179.02
453.497	2183.09
453.871	2210.21
454.244	2264.67
454.618	2293.15
454.992	2328.85
455.365	2314.84
455.739	2341.28
456.112	2376.99
456.486	2418.79
456.859	2441.62
457.232	2508.28
457.606	2496.3
457.979	2487.04
458.352	2567.94
458.725	2598.22
459.099	2616.53
459.472	2646.13
459.845	2708.5
460.218	2694.27
460.591	2736.98
460.964	2773.36
461.337	2817.43
461.71	2858.78
462.083	2930.64
462.456	2885.22
462.829	2926.35
463.201	2987.82
463.574	2965.44
463.947	3045.67
464.32	3098.55
464.692	3139.9
465.065	3144.87
465.438	3165.44
465.81	3229.62
466.183	3268.94
466.555	3353.23
466.928	3385.55
467.3	3376.06
467.672	3468.48
468.045	3501.48
468.417	3515.49
468.789	3533.57
469.161	3588.03
469.534	3645.43
469.906	3717.29
470.278	3735.14
470.65	3774.01
471.022	3873.67
471.394	3949.6
471.766	3979.88
472.138	4047.9
472.51	4108.92
472.882	4142.36
473.253	4217.62
473.625	4272.53
473.997	4355.01
474.369	4380.77
474.74	4417.38
475.112	4504.84
475.484	4584.39
475.855	4684.72
476.227	4698.96
476.598	4825.06
476.97	4830.71
477.341	4939.86
477.713	5098.5
478.084	5070.93
478.455	5213.75
478.827	5258.49
479.198	5406.06
479.569	5394.53
479.94	5575.32
480.311	5592.95
480.682	5737.58
481.053	5861.87
481.424	5950.9
481.795	6073.16
482.166	6083.33
482.537	6208.75
482.908	6316.99
483.279	6359.48
483.65	6445.35
484.021	6648.29
484.391	6745.46
484.762	6785.23
485.133	6823.87
485.503	6945.9
485.874	7086.92
486.244	7136.86
486.615	7311.55
486.985	7391.09
487.356	7523.74
487.726	7508.6
488.097	7812.32
488.467	7774.58
488.837	7884.64
489.207	8047.8
489.578	8207.79
489.948	8179.54
490.318	8343.83
490.688	8375.7
491.058	8502.7
491.428	8593.32
491.798	8676.71
492.168	8870.83
492.538	8901.11
492.908	9036.25
493.278	9193.3
493.648	9205.96
494.017	9242.57
494.387	9329.35
494.757	9402.79
495.126	9557.36
495.496	9572.28
495.866	9691.6
496.235	9769.79
496.605	9837.58
496.974	9888.2
497.344	9995.77
497.713	10042.55
498.082	10173.62
498.452	10269.21
498.821	10336.78
499.19	10350.56
499.559	10517.79
499.928	10508.75
500.298	10579.48
500.667	10707.16
501.036	10744
501.405	10830.32
501.774	10908.06
502.143	10969.53
502.512	11030.32
502.88	11097.43
503.249	11158.9
503.618	11158.9
503.987	11286.58
504.356	11412.23
504.724	11512.56
505.093	11542.39
505.462	11627.36
505.83	11663.75
506.199	11863.97
506.567	11884.98
506.936	11904.42
507.304	12108.03
507.672	12133.11
508.041	12186.67
508.409	12336.72
508.777	12431.86
509.145	12467.79
509.514	12497.85
509.882	12734
510.25	12708.01
510.618	12757.5
510.986	12846.31
511.354	12984.62
511.722	13120.43
512.09	13204.05
512.458	13209.47
512.826	13350.03
513.193	13456.02
513.561	13374.66
513.929	13545.28
514.297	13668.21
514.664	13836.12
515.032	13867.98
515.4	14045.83
515.767	14064.81
516.135	14187.97
516.502	14131.25
516.869	14465.71
517.237	14404.24
517.604	14455.09
517.972	14670.67
518.339	14772.82
518.706	14831.57
519.073	14931.46
519.44	15015.3
519.808	15168.51
520.175	15207.61
520.542	15335.97
520.909	15482.63
521.276	15505
521.643	15593.59
522.009	15786.8
522.376	15896.86
522.743	16004.2
523.11	16159.67
523.477	16386.33
523.843	16397.41
524.21	16650.51
524.577	16754.46
524.943	16844.4
525.31	16967.11
525.676	17103.6
526.043	17226.54
526.409	17238.74
526.776	17520.09
527.142	17458.62
527.508	17621.1
527.874	17824.94
528.241	17908.78
528.607	17987.65
528.973	18217.47
529.339	18186.29
529.705	18381.08
530.071	18501.31
530.437	18676.22
530.803	18687.29
531.169	18855.2
531.535	18842.09
531.901	19025.14
532.267	19162.98
532.632	19237.33
532.998	19227.62
533.364	19341.74
533.73	19400.49
534.095	19623.76
534.461	19680.49
534.826	19785.57
535.192	19883.64
535.557	20028.95
535.923	19976.3
536.288	20045.22
536.653	20221.04
537.019	20102.85
537.384	20299.23
537.749	20325.67
538.114	20407.25
538.479	20520.69
538.845	20645.21
539.21	20572.67
539.575	20758.42
539.94	20740.57
540.305	20857.86
540.67	20846.78
541.034	21030.96
541.399	21108.02
541.764	21115.93
542.129	21283.38
542.494	21268.47
542.858	21278.18
543.223	21429.59
543.587	21617.61
543.952	21623.03
544.316	21712.3
544.681	21658.74
545.045	21770.37
545.41	22046.07
545.774	22000.65
546.138	21996.13
546.503	22137.37
546.867	22090.82
547.231	22311.38
547.595	22333.52
547.959	22531.48
548.324	22544.59
548.688	22528.09
549.052	22660.52
549.416	22737.81
549.779	22737.35
550.143	22873.4
550.507	22984.81
550.871	22974.86
551.235	23020.74
551.599	23203.33
551.962	23194.52
552.326	23478.13
552.689	23541.63
553.053	23458.47
553.417	23520.61
553.78	23870.88
554.143	23768.74
554.507	23907.72
554.87	24057.55
555.234	24271.78
555.597	24083.08
555.96	24166.7
556.323	24361.49
556.686	24369.4
557.05	24568.27
557.413	24657.3
557.776	24703.63
558.139	24916.51
558.502	24881.93
558.865	24967.8
559.228	25158.76
559.59	25251.19
559.953	25201.7
560.316	25655.02
560.679	25629.93
561.041	25701.57
561.404	25760.33
561.767	26111.28
562.129	25890.72
562.492	26163.25
562.854	26229.01
563.217	26296.81
563.579	26379.52
563.941	26612.51
564.304	26650.47
564.666	26854.76
565.028	26814.54
565.39	26930.24
565.753	27097.92
566.115	27293.62
566.477	27304.24
566.839	27502.88
567.201	27611.58
567.563	27666.26
567.925	27894.28
568.287	27766.6
568.648	27850.67
569.01	28046.82
569.372	28139.47
569.734	28141.73
570.095	28374.27
570.457	28541.95
570.819	28522.51
571.18	28498.11
571.542	28735.84
571.903	28748.95
572.265	28852.45
572.626	29065.78
572.987	28970.18
573.349	29074.14
573.71	29250.86
574.071	29263.06
574.432	29517.29
574.794	29612.43
575.155	29652.43
575.516	29571.3
575.877	29694.23
576.238	29762.93
576.599	29910.27
576.96	29818.75
577.32	29847.9
577.681	30016.03
578.042	30072.75
578.403	30122.47
578.763	30054.68
579.124	30220.77
579.485	30250.6
579.845	30376.7
580.206	30365.85
580.566	30382.12
580.927	30325.86
581.287	30498.96
581.648	30363.82
582.008	30526.75
582.368	30553.65
582.728	30590.93
583.089	30532.86
583.449	30498.51
583.809	30511.39
584.169	30599.75
584.529	30574.66
584.889	30776.92
585.249	30631.61
585.609	30481.11
585.969	30710.7
586.329	30591.16
586.688	30651.27
587.048	30680.65
587.408	30559.52
587.768	30612.4
588.127	30590.48
588.487	30541.67
588.846	30869.12
589.206	30687.88
589.565	30476.81
589.925	30765.17
590.284	30660.99
590.643	30735.79
591.003	30845.16
591.362	30837.71
591.721	30896.01
592.08	30856.69
592.44	30911.15
592.799	30944.6
593.158	30875.45
593.517	30858.5
593.876	30900.76
594.235	30798.61
594.593	30843.81
594.952	31037.25
595.311	30853.07
595.67	30934.88
596.029	31184.14
596.387	31250.58
596.746	31149.56
597.104	30934.2
597.463	31067.08
597.822	31212.39
598.18	31091.03
598.538	31072.28
598.897	31159.51
599.255	31018.04
599.613	31419.16
599.972	31195.44
600.33	31375.32
600.688	31210.35
601.046	31295.32
601.404	31346.39
601.762	31270.69
602.12	31489.44
602.478	31477.92
602.836	31543.22
603.194	31391.14
603.552	31510
603.91	31345.72
604.268	31583.22
604.625	31494.41
604.983	31701.86
605.341	31408.99
605.698	31606.95
606.056	31696.44
606.413	31630.23
606.771	31812.6
607.128	31799.71
607.485	31656.89
607.843	31820.05
608.2	31928.07
608.557	31954.96
608.914	31914.74
609.272	32111.8
609.629	32102.08
609.986	32179.82
610.343	32002.42
610.7	32195.41
611.057	32295.07
611.414	32137.56
611.771	32163.77
612.127	32345.46
612.484	32194.28
612.841	32348.17
613.198	32231.79
613.554	32282.64
613.911	32491
614.267	32521.96
614.624	32428.62
614.98	32591.11
615.337	32711.1
615.693	32555.4
616.05	32679.92
616.406	32727.6
616.762	32528.28
617.118	32734.38
617.475	32654.83
617.831	32759.24
618.187	32815.06
618.543	32848.73
618.899	33018.44
619.255	32920.82
619.611	32905
619.967	33147.93
620.323	32983.86
620.678	33047.82
621.034	32973.47
621.39	32860.03
621.746	32950.64
622.101	33233.12
622.457	32935.73
622.812	32975.73
623.168	33110.41
623.523	33044.43
623.879	33212.56
624.234	33024.54
624.589	33093.92
624.945	33073.81
625.3	33115.61
625.655	33136.85
626.01	33134.82
626.365	33090.3
626.72	33143.41
627.075	33158.1
627.43	33046.69
627.785	32977.54
628.14	33111.32
628.495	33014.37
628.85	33034.26
629.205	32905.45
629.559	33029.74
629.914	32872.23
630.269	32895.28
630.623	32882.17
630.978	32812.57
631.332	33002.85
631.687	32905.45
632.041	32910.87
632.396	32846.47
632.75	32669.97
633.104	32814.83
633.459	32654.61
633.813	32759.92
634.167	32575.97
634.521	32585.23
634.875	32727.6
635.229	32564.44
635.583	32412.81
635.937	32460.49
636.291	32357.89
636.645	32365.58
636.999	32219.14
637.352	32415.97
637.706	32154.51
638.06	32418.91
638.413	32204.68
638.767	32215.3
639.121	32161.06
639.474	32055.53
639.828	32067.28
640.181	31962.2
640.534	32049.88
640.888	31931.69
641.241	31820.05
641.594	31960.39
641.947	31950.22
642.301	31885.59
642.654	31812.82
643.007	31832.26
643.36	31750.9
643.713	31697.8
644.066	31789.55
644.419	31512.26
644.771	31473.62
645.124	31173.29
645.477	31050.58
645.83	31022.56
646.182	30773.75
646.535	30626.86
646.888	30614.21
647.24	30484.72
647.593	30620.08
647.945	30435.91
648.298	30275.24
648.65	30279.98
649.002	30266.2
649.355	30350.04
649.707	30373.54
650.059	30508.22
650.411	30890.36
650.763	30926.74
651.115	31230.92
651.467	31067.98
651.819	31116.79
652.171	30933.52
652.523	30952.51
652.875	30841.1
653.227	30557.71
653.578	30975.1
653.93	30732.85
654.282	30739.4
654.633	30724.49
654.985	30684.26
655.337	30732.4
655.688	30635.9
656.039	30774.66
656.391	30492.18
656.742	30648.56
657.094	30490.82
657.445	30634.32
657.796	30583.93
658.147	30503.48
658.498	30422.8
658.849	30422.35
659.2	30378.51
659.551	30421.67
659.902	30450.82
660.253	30422.58
660.604	30468
660.955	30280.21
661.306	30452.63
661.656	30366.98
662.007	30262.81
662.358	30173.99
662.708	30223.71
663.059	30257.61
663.409	29992.53
663.76	30348.68
664.11	30259.87
664.461	30359.98
664.811	30175.58
665.161	30250.38
665.511	30210.38
665.862	30204.5
666.212	30284.95
666.562	30105.3
666.912	30174.9
667.262	30100.78
667.612	30136.26
667.962	30170.83
668.312	30108.46
668.662	30145.52
669.011	30065.07
669.361	29936.71
669.711	29993.21
670.06	30047.44
670.41	29911.63
670.76	29933.1
671.109	30134.67
671.459	29960.67
671.808	29940.1
672.157	29938.75
672.507	29768.36
672.856	29823.95
673.205	29774.68
673.554	29918.41
673.904	29681.8
674.253	29871.63
674.602	29748.7
674.951	29367.69
675.3	29265.09
675.649	29627.79
675.998	29635.48
676.346	29628.02
676.695	29722.26
677.044	29428.48
677.393	29499.44
677.741	29569.49
678.09	29373.56
678.438	29455.14
678.787	29516.61
679.135	29452.66
679.484	29232.1
679.832	29335.15
680.181	29131.76
680.529	29363.39
680.877	29210.63
681.225	29139.22
681.573	29314.81
681.922	29052.22
682.27	29023.74
682.618	29062.84
682.966	29057.41
683.314	28938.77
683.661	28892.67
684.009	28751.43
684.357	28661.94
684.705	28709.85
685.053	28695.16
685.4	28690.87
685.748	28541.5
686.095	28453.59
686.443	28297.21
686.79	28326.59
687.138	28472.34
687.485	28407.26
687.832	28364.55
688.18	28325
688.527	28090.43
688.874	28122.98
689.221	28022.64
689.568	27950.32
689.915	28020.38
690.262	27968.4
690.609	27810.22
690.956	27699.26
691.303	27666.94
691.65	27617
691.997	27594.63
692.344	27327.97
692.69	27337.46
693.037	27380.62
693.383	27173.85
693.73	27237.57
694.077	27109.89
694.423	27130.46
694.769	27023.8
695.116	26898.6
695.462	26761.88
695.808	26817.02
696.155	26948.54
696.501	26661.77
696.847	26637.14
697.193	26473.98
697.539	26505.16
697.885	26355.11
698.231	26301.33
698.577	26317.37
698.923	26125.97
699.269	26143.82
699.614	25943.15
699.96	25883.26
700.306	25906.99
700.651	25853.66
700.997	25772.98
701.342	25645.07
701.688	25664.96
702.033	25510.84
702.379	25652.31
702.724	25382.26
703.069	25512.42
703.415	25243.5
703.76	25323.95
704.105	25161.7
704.45	25168.25
704.795	24996.96
705.14	24931.65
705.485	24918.31
705.83	24897.98
706.175	24774.36
706.52	24710.41
706.865	24623.41
707.209	24677.87
707.554	24521.49
707.899	24705.44
708.243	24480.36
708.588	24479.46
708.932	24261.83
709.277	24357.2
709.621	24297.31
709.966	24121.05
710.31	24128.05
710.654	23966.7
710.998	23969.41
711.342	23990.88
711.687	23940.71
712.031	23873.6
712.375	23740.72
712.719	23713.83
713.063	23804.22
713.407	23816.87
713.75	23643.77
714.094	23680.38
714.438	23463.21
714.782	23506.15
715.125	23384.79
715.469	23510.22
715.812	23301.63
716.156	23365.36
716.499	23240.39
716.843	23203.78
717.186	23117.23
717.53	23167.17
717.873	23142.09
718.216	23190.22
718.559	23056.89
718.902	22813.74
719.246	22872.04
719.589	22818.48
719.932	22774.42
720.275	22716.34
720.617	22794.3
720.96	22768.54
721.303	22675.21
721.646	22671.14
721.989	22534.87
722.331	22527.64
722.674	22616
723.016	22640.86
723.359	22461.66
723.701	22466.85
724.044	22296.91
724.386	22201.77
724.729	22286.07
725.071	22159.52
725.413	22275.45
725.755	22162.45
726.097	22146.41
726.439	22114.55
726.782	22047.43
727.124	22099.63
727.465	22070.48
727.807	21969.01
728.149	21973.98
728.491	21781.67
728.833	21897.83
729.175	21782.8
729.516	21630.26
729.858	21710.04
730.199	21734.22
730.541	21770.6
730.882	21559.76
731.224	21747.32
731.565	21482.47
731.906	21554.33
732.248	21529.93
732.589	21413.77
732.93	21319.76
733.271	21386.43
733.612	21328.8
733.953	21451.74
734.294	21242.25
734.635	21142.37
734.976	21371.97
735.317	21159.09
735.658	21204.51
735.999	21185.08
736.339	21085.87
736.68	21139.43
737.021	21108.7
737.361	20893.33
737.702	21113.89
738.042	20902.83
738.383	20897.4
738.723	20917.51
739.063	20864.41
739.404	20859.21
739.744	20670.74
740.084	20645.43
740.424	20707.8
740.764	20655.6
741.104	20747.12
741.444	20630.52
741.784	20531.54
742.124	20677.75
742.464	20598.65
742.804	20477.3
743.143	20512.33
743.483	20458.09
743.823	20389.17
744.162	20395.49
744.502	20436.17
744.841	20261.71
745.181	20360.92
745.52	20169.74
745.86	20247.7
746.199	20191.43
746.538	20113.92
746.877	20196.86
747.216	20175.39
747.556	20103.75
747.895	20090.87
748.234	20010.19
748.573	19947.6
748.911	19887.03
749.25	19901.72
749.589	19821.27
749.928	19838.45
750.267	19857.2
750.605	19739.69
750.944	19753.25
751.283	19566.59
751.621	19663.99
751.96	19544.67
752.298	19621.73
752.636	19438.91
752.975	19480.94
753.313	19403.88
753.651	19423.32
753.989	19221.06
754.327	19194.85
754.666	19185.81
