Data from breadboard_white_FLMS001491_00052.txt Node
Date: Wed Feb 08 10:47:55 GMT 2017
User: dcchb
Spectrometer: FLMS00149
Trigger mode: 0
Integration Time (sec): 2.000000E-2
Scans to average: 10
Electric dark correction enabled: true
Nonlinearity correction enabled: false
Boxcar width: 0
XAxis mode: Wavelengths
Number of Pixels in Spectrum: 2048
>>>>>Begin Spectral Data<<<<<
341.393	-30.99
341.776	-30.99
342.16	-30.99
342.543	-67.15
342.927	-50.42
343.31	-73.25
343.693	-74.6
344.077	-58.33
344.46	-69.4
344.843	-66.92
345.226	-42.06
345.61	-25.56
345.993	-9.97
346.376	-13.14
346.759	6.3
347.142	21.44
347.525	40.42
347.908	70.7
348.291	73.87
348.674	91.27
349.057	129.23
349.44	131.72
349.823	145.5
350.206	177.37
350.588	216.46
350.971	225.73
351.354	259.85
351.737	234.54
352.119	254.43
352.502	287.87
352.884	300.98
353.267	298.95
353.65	294.43
354.032	311.15
354.414	322.45
354.797	342.34
355.179	320.87
355.562	327.65
355.944	344.82
356.326	347.53
356.709	364.93
357.091	348.44
357.473	357.02
357.855	365.84
358.238	368.1
358.62	352.05
359.002	338.49
359.384	368.78
359.766	377.81
360.148	352.28
360.53	358.38
360.912	365.84
361.294	364.48
361.676	350.7
362.057	364.71
362.439	334.88
362.821	358.15
363.203	367.19
363.584	345.73
363.966	354.31
364.348	339.4
364.729	338.72
365.111	352.96
365.493	354.99
365.874	338.72
366.256	345.05
366.637	339.4
367.019	342.79
367.4	353.86
367.781	353.86
368.163	333.75
368.544	356.12
368.925	325.16
369.306	357.02
369.688	351.83
370.069	367.19
370.45	356.12
370.831	354.76
371.212	376.91
371.593	370.58
371.974	366.29
372.355	362.45
372.736	362.9
373.117	373.75
373.498	372.17
373.879	374.65
374.26	358.15
374.641	362.9
375.021	372.39
375.402	383.46
375.783	359.74
376.163	393.41
376.544	392.96
376.925	408.77
377.305	395.44
377.686	353.41
378.066	386.4
378.447	401.09
378.827	387.53
379.208	384.59
379.588	371.94
379.968	405.61
380.349	380.98
380.729	410.58
381.109	380.3
381.489	430.69
381.87	393.63
382.25	412.39
382.63	427.08
383.01	407.19
383.39	448.1
383.77	430.02
384.15	447.19
384.53	437.47
384.91	430.47
385.29	441.09
385.67	442.45
386.049	457.36
386.429	468.66
386.809	453.75
387.189	452.39
387.568	451.71
387.948	436.57
388.328	491.48
388.707	488.32
389.087	515.21
389.466	510.01
389.846	508.66
390.225	500.3
390.605	497.81
390.984	506.85
391.363	524.93
391.743	524.48
392.122	517.47
392.501	537.36
392.881	550.01
393.26	545.72
393.639	558.6
394.018	594.98
394.397	561.31
394.776	578.26
395.155	577.36
395.534	583.23
395.913	596.57
396.292	613.51
396.671	620.97
397.05	634.76
397.429	632.95
397.808	629.33
398.186	647.41
398.565	639.73
398.944	638.37
399.323	650.12
399.701	677.02
400.08	693.06
400.458	711.82
400.837	724.02
401.215	724.92
401.594	736.22
401.972	745.49
402.351	738.94
402.729	773.74
403.107	785.49
403.486	768.99
403.864	802.21
404.242	800.85
404.62	819.16
404.999	824.36
405.377	846.5
405.755	860.74
406.133	895.77
406.511	891.47
406.889	917.69
407.267	915.43
407.645	960.17
408.023	950.91
408.401	996.33
408.779	1000.17
409.156	1054.18
409.534	1042.2
409.912	1065.93
410.29	1070.23
410.667	1128.3
411.045	1111.58
411.422	1162.88
411.8	1158.36
412.178	1200.62
412.555	1228.19
412.933	1227.28
413.31	1270.67
413.687	1275.19
414.065	1303.67
414.442	1331.24
414.819	1334.63
415.197	1397.68
415.574	1411.01
415.951	1428.41
416.328	1426.37
416.705	1431.57
417.082	1449.43
417.46	1472.48
417.837	1505.47
418.214	1512.25
418.591	1517.22
418.967	1568.74
419.344	1601.06
419.721	1587.05
420.098	1607.61
420.475	1616.88
420.852	1682.64
421.228	1681.74
421.605	1692.81
421.982	1761.51
422.358	1747.5
422.735	1774.61
423.111	1787.95
423.488	1834.27
423.864	1823.65
424.241	1865.23
424.617	1880.6
424.994	1901.84
425.37	1892.35
425.746	1941.84
426.123	1982.29
426.499	2000.15
426.875	2030.43
427.251	2059.35
427.627	2108.39
428.003	2112.91
428.379	2153.81
428.756	2186.81
429.132	2236.75
429.507	2228.39
429.883	2269.52
430.259	2348.38
430.635	2336.18
431.011	2376.63
431.387	2439.68
431.763	2458.44
432.138	2473.13
432.514	2509.51
432.89	2564.88
433.265	2601.71
433.641	2620.24
434.016	2663.86
434.392	2725.55
434.767	2799.45
435.143	2749.96
435.518	2804.42
435.894	2835.6
436.269	2848.71
436.644	2898.65
437.02	2932.78
437.395	2936.17
437.77	2964.19
438.145	3087.57
438.52	3044.64
438.895	3108.14
439.271	3111.08
439.646	3206.44
440.021	3203.05
440.395	3279.89
440.77	3209.83
441.145	3202.15
441.52	3360.34
441.895	3318.08
442.27	3330.28
442.645	3380.9
443.019	3392.88
443.394	3434.46
443.769	3474.23
444.143	3432.88
444.518	3511.29
444.892	3535.7
445.267	3552.19
445.641	3617.96
446.016	3629.48
446.39	3688.01
446.764	3710.38
447.139	3687.11
447.513	3730.27
447.887	3770.49
448.262	3798.52
448.636	3776.14
449.01	3885.07
449.384	3883.03
449.758	3902.92
450.132	3946.53
450.506	4003.03
450.88	4019.75
451.254	4027.44
451.628	4097.94
452.002	4168.9
452.376	4205.06
452.75	4226.98
453.123	4248.22
453.497	4313.76
453.871	4398.73
454.244	4458.61
454.618	4496.58
454.992	4574.77
455.365	4557.14
455.739	4700.87
456.112	4742.22
456.486	4747.87
456.859	4827.42
457.232	4913.74
457.606	4923.01
457.979	4971.14
458.352	5088.88
458.725	5145.6
459.099	5161.42
459.472	5265.14
459.845	5364.58
460.218	5381.3
460.591	5413.84
460.964	5475.53
461.337	5603.89
461.71	5640.05
462.083	5784.9
462.456	5749.88
462.829	5820.38
463.201	5954.62
463.574	5929.99
463.947	6031.23
464.32	6206.36
464.692	6250.88
465.065	6322.29
465.438	6388.5
465.81	6459.01
466.183	6516.64
466.555	6680.02
466.928	6725.67
467.3	6740.81
467.672	6843.86
468.045	7043.4
468.417	7021.71
468.789	7135.38
469.161	7217.41
469.534	7337.18
469.906	7495.82
470.278	7525.65
470.65	7661.92
471.022	7786.66
471.394	7998.41
471.766	7987.56
472.138	8166.08
472.51	8313.65
472.882	8435.23
473.253	8460.99
473.625	8696.47
473.997	8847.2
474.369	8889.91
474.74	9022.79
475.112	9250.12
475.484	9369.44
475.855	9520.63
476.227	9613.5
476.598	9927.39
476.97	10000.39
477.341	10261.62
477.713	10321.73
478.084	10387.5
478.455	10708.62
478.827	10728.28
479.198	11108.38
479.569	11108.15
479.94	11452.78
480.311	11565.77
480.682	11827.01
481.053	12132.99
481.424	12343.15
481.795	12418.85
482.166	12631.96
482.537	12711.28
482.908	13073.75
483.279	13242.56
483.65	13462.89
484.021	13677.35
484.391	13865.14
484.762	14035.76
485.133	14165.93
485.503	14412.47
485.874	14668.06
486.244	14726.36
486.615	15068.28
486.985	15276.41
487.356	15583.97
487.726	15644.08
488.097	16017.86
488.467	16020.57
488.837	16403.16
489.207	16515.92
489.578	16785.29
489.948	16990.71
490.318	17291.49
490.688	17312.06
491.058	17610.13
491.428	17891.7
491.798	18089.67
492.168	18514.29
492.538	18512.93
492.908	18714.96
493.278	18956.54
493.648	19037.44
494.017	19368.28
494.387	19465
494.757	19544.99
495.126	19854.14
495.496	19959.67
495.866	20114.47
496.235	20388.59
496.605	20540.67
496.974	20635.36
497.344	20877.84
497.713	20930.27
498.082	21110.6
498.452	21393.99
498.821	21592.17
499.19	21564.15
499.559	21905.16
499.928	22028.32
500.298	22061.31
500.667	22337.92
501.036	22374.52
501.405	22548.98
501.774	22691.35
502.143	22833.72
502.512	22946.49
502.88	23278.23
503.249	23193.71
503.618	23418.57
503.987	23539.92
504.356	23828.5
504.724	23906.69
505.093	24015.16
505.462	24040.02
505.83	24321.82
506.199	24472.1
506.567	24882.26
506.936	24902.82
507.304	25190.72
507.672	25207.22
508.041	25361.34
508.409	25597.72
508.777	25836.58
509.145	26069.12
509.514	26134.65
509.882	26309.11
510.25	26484.93
510.618	26647.86
510.986	26688.99
511.354	26944.8
511.722	27232.25
512.09	27451.68
512.458	27523.77
512.826	27746.36
513.193	28021.38
513.561	28006.24
513.929	28285.33
514.297	28584.3
514.664	28735.94
515.032	28998.98
515.4	29220.22
515.767	29335.92
516.135	29445.98
516.502	29475.81
516.869	29926.87
517.237	30159.86
517.604	30111.95
517.972	30363.47
518.339	30627.19
518.706	30778.37
519.073	30915.77
519.44	31160.73
519.808	31560.95
520.175	31590.1
520.542	32035.97
520.909	32112.57
521.276	32211.1
521.643	32557.31
522.009	32837.07
522.376	33105.99
522.743	33295.82
523.11	33632.31
523.477	33886.31
523.843	34129.7
524.21	34383.93
524.577	34750.24
524.943	34780.07
525.31	35192.27
525.676	35415.54
526.043	35615.53
526.409	35817.11
526.776	36310.88
527.142	36497.77
527.508	36645.34
527.874	36798.55
528.241	37053.69
528.607	37123.52
528.973	37684.4
529.339	37521.02
529.705	37943.83
530.071	38333.65
530.437	38438.96
530.803	38605.28
531.169	38799.86
531.535	38824.71
531.901	39130.47
532.267	39388.54
532.632	39547.41
532.998	39612.72
533.364	39849.77
533.73	39954.4
534.095	40442.75
534.461	40477.1
534.826	40639.13
535.192	40755.74
535.557	41137.42
535.923	41095.61
536.288	41356.85
536.653	41467.58
537.019	41506
537.384	41759.1
537.749	41959.77
538.114	42056.27
538.479	42106.66
538.845	42362.7
539.21	42230.27
539.575	42529.02
539.94	42694.67
540.305	42851.27
540.67	42917.49
541.034	43155.22
541.399	43299.62
541.764	43470.47
542.129	43576.23
542.494	43557.02
542.858	43837.24
543.223	43860.97
543.587	44110.68
543.952	43994.97
544.316	44381.4
544.681	44247.85
545.045	44632.24
545.41	44887.15
545.774	44900.26
546.138	44931.22
546.503	45046.24
546.867	45119.24
547.231	45404.65
547.595	45471.77
547.959	45606.91
548.324	45740.92
548.688	45815.72
549.052	45916.73
549.416	46062.72
549.779	46096.39
550.143	46321.47
550.507	46498.64
550.871	46749.93
551.235	46652.98
551.599	47070.6
551.962	47064.72
552.326	47264.72
552.689	47440.53
553.053	47353.08
553.417	47536.12
553.78	48026.73
554.143	47756.91
554.507	48167.07
554.87	48189.44
555.234	48664.45
555.597	48323.67
555.96	48567.96
556.323	48782.19
556.686	48933.6
557.05	49139.02
557.413	49230.99
557.776	49242.74
558.139	49574.71
558.502	49578.33
558.865	49722.73
559.228	49873.46
559.59	50114.36
559.953	50105.32
560.316	50457.4
560.679	50503.5
561.041	50729.71
561.404	50879.54
561.767	51064.62
562.129	51025.52
562.492	51338.96
562.854	51362.46
563.217	51404.95
563.579	51511.39
563.941	51769.01
564.304	51980.53
564.666	52130.58
565.028	52116.57
565.39	52307.07
565.753	52525.82
566.115	52523.11
566.477	52715.87
566.839	52808.75
567.201	52976.88
567.563	53049.65
567.925	53179.59
568.287	53253.03
568.648	53291.45
569.01	53498.68
569.372	53747.49
569.734	53660.93
570.095	53804.66
570.457	54008.95
570.819	54070.64
571.18	54098.89
571.542	54192.45
571.903	54263.86
572.265	54342.5
572.626	54410.97
572.987	54444.87
573.349	54612.32
573.71	54712.66
574.071	54754.69
574.432	54777.29
574.794	54988.58
575.155	54992.65
575.516	54956.72
575.877	55105.87
576.238	55159.88
576.599	55203.72
576.96	55297.73
577.32	55224.51
577.681	55339.08
578.042	55475.35
578.403	55394.67
578.763	55469.7
579.124	55487.1
579.485	55625.4
579.845	55637.38
580.206	55670.15
580.566	55631.05
580.927	55704.72
581.287	55738.39
581.648	55710.15
582.008	55898.61
582.368	55739.75
582.728	55787.43
583.089	55706.53
583.449	55852.74
583.809	55927.99
584.169	55846.41
584.529	55832.63
584.889	55994.43
585.249	55880.31
585.609	55797.37
585.969	55902.46
586.329	55805.96
586.688	55886.19
587.048	55918.73
587.408	55878.28
587.768	55898.84
588.127	55838.73
588.487	55870.14
588.846	56075.56
589.206	55862.23
589.565	55844.15
589.925	56024.49
590.284	56020.42
590.643	55938.16
591.003	56002.79
591.362	56087.76
591.721	56030.36
592.08	56007.09
592.44	56125.05
592.799	56063.81
593.158	56127.99
593.517	56030.81
593.876	56100.64
594.235	55993.08
594.593	56103.81
594.952	56174.09
595.311	56074.2
595.67	56137.03
596.029	56258.15
596.387	56224.71
596.746	56299.73
597.104	56146.07
597.463	56207.76
597.822	56275.33
598.18	56193.07
598.538	56215.67
598.897	56352.61
599.255	56175.44
599.613	56455.21
599.972	56316.23
600.33	56417.02
600.688	56291.6
601.046	56403.46
601.404	56539.95
601.762	56457.24
602.12	56636.22
602.478	56593.74
602.836	56551.25
603.194	56439.17
603.552	56486.62
603.91	56505.38
604.268	56636.9
604.625	56546.06
604.983	56617.01
605.341	56558.48
605.698	56633.74
606.056	56695.66
606.413	56687.75
606.771	56762.55
607.128	56835.31
607.485	56676.22
607.843	56711.7
608.2	56903.33
608.557	56919.38
608.914	56820.85
609.272	57028.75
609.629	56990.56
609.986	57102.88
610.343	56999.38
610.7	57189.2
611.057	57120.05
611.414	57105.59
611.771	57180.39
612.127	57177.68
612.484	57186.72
612.841	57337
613.198	57202.08
613.554	57210.44
613.911	57390.33
614.267	57294.51
614.624	57279.14
614.98	57382.64
615.337	57459.25
615.693	57349.42
616.05	57376.09
616.406	57557.55
616.762	57444.79
617.118	57419.03
617.475	57464.22
617.831	57581.96
618.187	57552.13
618.543	57602.07
618.899	57742.41
619.255	57730.21
619.611	57707.38
619.967	57750.32
620.323	57720.49
620.678	57731.79
621.034	57617.67
621.39	57604.78
621.746	57573.37
622.101	57904.89
622.457	57652.47
622.812	57738.34
623.168	57802.29
623.523	57711.9
623.879	57853.37
624.234	57658.57
624.589	57680.04
624.945	57770.43
625.3	57770.66
625.655	57792.8
626.01	57780.6
626.365	57735.63
626.72	57730.66
627.075	57731.11
627.43	57678.23
627.785	57677.55
628.14	57716.42
628.495	57702.64
628.85	57653.6
629.205	57620.83
629.559	57727.27
629.914	57540.15
630.269	57635.97
630.623	57543.54
630.978	57495.18
631.332	57579.02
631.687	57583.09
632.041	57513.26
632.396	57547.39
632.75	57454.28
633.104	57480.27
633.459	57413.15
633.813	57366.15
634.167	57358.46
634.521	57272.59
634.875	57404.56
635.229	57218.13
635.583	57155.98
635.937	57178.58
636.291	57160.73
636.645	57165.7
636.999	57053.39
637.352	57163.21
637.706	57024.69
638.06	57138.36
638.413	57049.77
638.767	56927.74
639.121	56969.55
639.474	56812.94
639.828	56825.82
640.181	56862.88
640.534	56861.08
640.888	56785.15
641.241	56660.4
641.594	56718.71
641.947	56769.55
642.301	56701.98
642.654	56711.47
643.007	56700.85
643.36	56617.01
643.713	56567.3
644.066	56645.94
644.419	56518.26
644.771	56378.38
645.124	56164.37
645.477	56099.51
645.83	55897.49
646.182	55783.59
646.535	55670.82
646.888	55710.15
647.24	55463.6
647.593	55617.04
647.945	55609.58
648.298	55431.73
648.65	55343.38
649.002	55264.73
649.355	55464.5
649.707	55362.13
650.059	55466.76
650.411	55839.63
650.763	55832.85
651.115	56095.9
651.467	55996.92
651.819	56009.35
652.171	55815.91
652.523	55824.72
652.875	55795.11
653.227	55650.03
653.578	55873.98
653.93	55818.62
654.282	55724.16
654.633	55634.22
654.985	55686.87
655.337	55695.46
655.688	55669.47
656.039	55827.2
656.391	55493.2
656.742	55517.38
657.094	55594.89
657.445	55690.26
657.796	55548.12
658.147	55506.99
658.498	55506.31
658.849	55565.74
659.2	55431.06
659.551	55355.8
659.902	55533.43
660.253	55422.02
660.604	55520.09
660.955	55301.34
661.306	55451.85
661.656	55363.26
662.007	55327.56
662.358	55345.41
662.708	55398.29
663.059	55302.02
663.409	55165.75
663.76	55399.65
664.11	55290.27
664.461	55308.35
664.811	55282.36
665.161	55331.17
665.511	55162.14
665.862	55209.82
666.212	55233.55
666.562	55225.86
666.912	55164.4
667.262	55121.91
667.612	55133.44
667.962	55115.13
668.312	55117.62
668.662	55309.7
669.011	55109.26
669.361	55045.08
669.711	55058.64
670.06	55062.03
670.41	55067.9
670.76	54920.56
671.109	54989.26
671.459	55015.25
671.808	54866.55
672.157	55008.24
672.507	54723.96
672.856	54726.67
673.205	54887.57
673.554	54894.35
673.904	54855.25
674.253	54952.43
674.602	54840.11
674.951	54443.06
675.3	54325.32
675.649	54716.05
675.998	54726.22
676.346	54622.04
676.695	54787.91
677.044	54573
677.393	54591.53
677.741	54653.9
678.09	54592.89
678.438	54485.77
678.787	54542.04
679.135	54611.42
679.484	54300.46
679.832	54442.16
680.181	54290.07
680.529	54406.68
680.877	54247.36
681.225	54265.89
681.573	54374.59
681.922	54149.51
682.27	54104.54
682.618	54128.04
682.966	53996.74
683.314	54034.71
683.661	53956.07
684.009	53746.36
684.357	53793.59
684.705	53701.84
685.053	53776.64
685.4	53693.48
685.748	53530.54
686.095	53524.21
686.443	53376.65
686.79	53339.36
687.138	53448.74
687.485	53367.83
687.832	53272.02
688.18	53319.47
688.527	53154.96
688.874	53060.72
689.221	53008.97
689.568	52920.16
689.915	52867.06
690.262	52901.63
690.609	52676.33
690.956	52687.4
691.303	52598.36
691.65	52417.8
691.997	52430.68
692.344	52242.21
692.69	52259.16
693.037	52254.42
693.383	51978.94
693.73	52044.25
694.077	51884.48
694.423	51750.25
694.769	51724.49
695.116	51653.75
695.462	51662.57
695.808	51452.86
696.155	51543.25
696.501	51239.3
696.847	51204.28
697.193	51131.28
697.539	51205.86
697.885	50930.61
698.231	50781.46
698.577	50892.19
698.923	50674.57
699.269	50583.73
699.614	50345.09
699.96	50347.35
700.306	50371.75
700.651	50194.13
700.997	50162.72
701.342	50034.36
701.688	49976.96
702.033	49879.11
702.379	49816.97
702.724	49731.55
703.069	49855.16
703.415	49387.83
703.76	49426.47
704.105	49480.25
704.45	49304.21
704.795	48977.67
705.14	49003.66
705.485	49000.72
705.83	48745.13
706.175	48746.94
706.52	48525.25
706.865	48527.96
707.209	48392.37
707.554	48330.68
707.899	48292.71
708.243	48190.12
708.588	48131.14
708.932	47836.91
709.277	47876.23
709.621	47829.67
709.966	47617.93
710.31	47786.96
710.654	47283.93
710.998	47322.57
711.342	47438.5
711.687	47184.27
712.031	47164.16
712.375	47015.46
712.719	47039.64
713.063	47012.52
713.407	47051.84
713.75	46844.62
714.094	46816.59
714.438	46661.8
714.782	46648.24
715.125	46403.27
715.469	46528.92
715.812	46170.06
716.156	46002.38
716.499	46095.03
716.843	46181.81
717.186	45851.2
717.53	46004.19
717.873	45969.84
718.216	45739.33
718.559	45605.1
718.902	45352.68
719.246	45455.05
719.589	45317.65
719.932	45240.14
720.275	45003.31
720.617	45161.27
720.96	45069.07
721.303	45130.99
721.646	44970.99
721.989	44891.67
722.331	44860.26
722.674	44707.5
723.016	44780.49
723.359	44598.35
723.701	44694.16
724.044	44235.42
724.386	44261.18
724.729	44419.59
725.071	44335.76
725.413	44321.29
725.755	44010.11
726.097	43948.42
726.439	43734.42
726.782	43931.7
727.124	44011.7
727.465	43716.56
727.807	43728.99
728.149	43581.42
728.491	43494.87
728.833	43587.07
729.175	43402.9
729.516	43194.32
729.858	43209.91
730.199	43219.85
730.541	43046.75
730.882	43055.56
731.224	43097.14
731.565	42874.1
731.906	42771.95
732.248	42932.18
732.589	42729.47
732.93	42612.86
733.271	42635.01
733.612	42644.95
733.953	42636.14
734.294	42460.32
734.635	42235.47
734.976	42433.21
735.317	42036.38
735.658	42081.8
735.999	42101.01
736.339	42052.88
736.68	41960.22
737.021	41807.46
737.361	41765.65
737.702	41822.37
738.042	41723.17
738.383	41679.78
738.723	41830.74
739.063	41537.18
739.404	41573.12
739.744	41514.13
740.084	41287.7
740.424	41290.86
740.764	41178.1
741.104	41370.86
741.444	40911.44
741.784	41021.27
742.124	40946.47
742.464	41016.97
742.804	40822.63
743.143	40692.01
743.483	40789.63
743.823	40508.29
744.162	40449.76
744.502	40457.67
744.841	40428.29
745.181	40572.24
745.52	40357.78
745.86	40362.53
746.199	40245.24
746.538	40247.05
746.877	40259.48
747.216	40176.54
747.556	39871.24
747.895	40019.26
748.234	39675.31
748.573	39876.21
748.911	39496.79
749.25	39577.01
749.589	39431.93
749.928	39463.34
750.267	39396.9
750.605	39240.3
750.944	39205.49
751.283	39076.46
751.621	39262.89
751.96	38805.28
752.298	38824.94
