Data from breadboard_white_FLMS001491_00091.txt Node
Date: Wed Feb 08 10:48:32 GMT 2017
User: dcchb
Spectrometer: FLMS00149
Trigger mode: 0
Integration Time (sec): 2.000000E-2
Scans to average: 10
Electric dark correction enabled: true
Nonlinearity correction enabled: false
Boxcar width: 0
XAxis mode: Wavelengths
Number of Pixels in Spectrum: 2048
>>>>>Begin Spectral Data<<<<<
341.393	6.57
341.776	6.57
342.16	6.57
342.543	-54.45
342.927	-78.4
343.31	-66.88
343.693	-70.49
344.077	-93.54
344.46	-64.16
344.843	-57.39
345.226	-38.85
345.61	-14.45
345.993	-6.09
346.376	-17.61
346.759	12.67
347.142	24.19
347.525	47.92
347.908	56.96
348.291	73.46
348.674	93.12
349.057	121.14
349.44	134.25
349.823	155.72
350.206	145.77
350.588	213.34
350.971	208.37
351.354	230.97
351.737	263.96
352.119	251.53
352.502	266.9
352.884	276.62
353.267	299.22
353.65	301.02
354.032	311.87
354.414	316.62
354.797	318.2
355.179	334.47
355.562	326.33
355.944	307.35
356.326	348.93
356.709	343.06
357.091	350.74
357.473	355.26
357.855	353.68
358.238	355.94
358.62	346.9
359.002	361.13
359.384	367.24
359.766	358.65
360.148	350.74
360.53	351.87
360.912	344.64
361.294	337.63
361.676	357.29
362.057	344.19
362.439	348.48
362.821	343.28
363.203	340.34
363.584	356.16
363.966	349.16
364.348	328.14
364.729	344.86
365.111	348.93
365.493	337.18
365.874	342.6
366.256	351.87
366.637	341.02
367.019	341.47
367.4	329.72
367.781	352.55
368.163	346.22
368.544	336.73
368.925	347.12
369.306	335.37
369.688	345.77
370.069	340.34
370.45	330.4
370.831	327.69
371.212	345.77
371.593	322.04
371.974	342.15
372.355	345.77
372.736	363.39
373.117	344.86
373.498	350.06
373.879	341.25
374.26	342.15
374.641	337.86
375.021	356.84
375.402	354.58
375.783	372.43
376.163	376.73
376.544	375.37
376.925	346.45
377.305	359.33
377.686	366.11
378.066	376.05
378.447	381.47
378.827	369.72
379.208	371.53
379.588	371.98
379.968	346.9
380.349	377.86
380.729	373.79
381.109	402.49
381.489	385.54
381.87	390.74
382.25	393.22
382.63	384.64
383.01	403.17
383.39	387.12
383.77	394.81
384.15	415.14
384.53	407.69
384.91	389.16
385.29	379.44
385.67	435.93
386.049	425.54
386.429	416.5
386.809	420.79
387.189	419.89
387.568	436.16
387.948	429.83
388.328	448.14
388.707	440.68
389.087	433.45
389.466	443.84
389.846	444.3
390.225	460.34
390.605	444.52
390.984	473.22
391.363	480.23
391.743	483.39
392.122	470.28
392.501	478.42
392.881	472.09
393.26	484.3
393.639	502.6
394.018	494.69
394.397	476.61
394.776	497.18
395.155	503.73
395.534	533.56
395.913	531.75
396.292	528.81
396.671	562.94
397.05	545.08
397.429	548.7
397.808	536.72
398.186	581.69
398.565	559.32
398.944	567
399.323	571.3
399.701	596.61
400.08	599.32
400.458	600.45
400.837	594.35
401.215	617.4
401.594	651.75
401.972	644.74
402.351	649.94
402.729	656.27
403.107	666.21
403.486	690.17
403.864	681.58
404.242	700.33
404.62	704.4
404.999	695.14
405.377	729.71
405.755	741.69
406.133	755.25
406.511	728.13
406.889	782.14
407.267	789.6
407.645	818.98
408.023	807.45
408.401	827.34
408.779	844.96
409.156	856.49
409.534	877.73
409.912	885.64
410.29	906.88
410.667	900.33
411.045	929.71
411.422	955.24
411.8	934.68
412.178	979.88
412.555	1004.96
412.933	1019.42
413.31	1039.53
413.687	1048.57
414.065	1055.13
414.442	1081.12
414.819	1109.36
415.197	1103.49
415.574	1128.57
415.951	1156.59
416.328	1151.17
416.705	1171.28
417.082	1211.96
417.46	1202.02
417.837	1236.37
418.214	1204.5
418.591	1260.32
418.967	1286.76
419.344	1319.53
419.721	1331.05
420.098	1305.74
420.475	1353.2
420.852	1352.75
421.228	1372.86
421.605	1393.88
421.982	1392.29
422.358	1413.76
422.735	1440.88
423.111	1460.54
423.488	1481.56
423.864	1476.13
424.241	1537.83
424.617	1543.7
424.994	1552.29
425.37	1563.59
425.746	1583.93
426.123	1572.4
426.499	1585.74
426.875	1646.98
427.251	1659.41
427.627	1666.19
428.003	1703.25
428.379	1696.24
428.756	1766.97
429.132	1760.42
429.507	1799.06
429.883	1821.44
430.259	1870.47
430.635	1870.02
431.011	1895.56
431.387	1952.51
431.763	1980.08
432.138	1985.95
432.514	2005.39
432.89	2034.54
433.265	2060.75
433.641	2126.06
434.016	2129.68
434.392	2126.74
434.767	2199.73
435.143	2170.13
435.518	2223.01
435.894	2240.41
436.269	2265.04
436.644	2303.46
437.02	2348.43
437.395	2383
437.77	2392.95
438.145	2453.96
438.52	2459.84
438.895	2467.75
439.271	2463.23
439.646	2534.41
440.021	2564.24
440.395	2568.08
440.77	2575.77
441.145	2596.33
441.52	2643.79
441.895	2639.94
442.27	2693.05
442.645	2724.91
443.019	2736.67
443.394	2726.04
443.769	2765.59
444.143	2726.72
444.518	2804.46
444.892	2792.71
445.267	2803.1
445.641	2846.49
446.016	2874.51
446.39	2867.06
446.764	2930.11
447.139	2901.86
447.513	2960.61
447.887	2950.9
448.262	2986.38
448.636	3000.16
449.01	3079.93
449.384	3095.53
449.758	3133.27
450.132	3150.21
450.506	3195.41
450.88	3221.85
451.254	3221.17
451.628	3240.61
452.002	3278.12
452.376	3315.18
452.75	3340.72
453.123	3379.81
453.497	3467.04
453.871	3451.67
454.244	3550.2
454.618	3572.58
454.992	3585.46
455.365	3576.19
455.739	3725.11
456.112	3761.27
456.486	3771.21
456.859	3803.98
457.232	3901.15
457.606	3879.01
457.979	3929.63
458.352	4028.61
458.725	4027.93
459.099	4063.64
459.472	4173.01
459.845	4212.33
460.218	4243.74
460.591	4317.64
460.964	4295.72
461.337	4436.51
461.71	4497.07
462.083	4575.04
462.456	4538.65
462.829	4625.2
463.201	4669.27
463.574	4707.46
463.947	4772.54
464.32	4889.83
464.692	4895.93
465.065	4994.91
465.438	5024.29
465.81	5134.57
466.183	5149.26
466.555	5271.74
466.928	5295.92
467.3	5295.92
467.672	5408.46
468.045	5563.26
468.417	5520.55
468.789	5568.23
469.161	5680.99
469.534	5792.63
469.906	5904.94
470.278	5943.36
470.65	6025.62
471.022	6132.51
471.394	6196.69
471.766	6305.16
472.138	6394.87
472.51	6499.73
472.882	6587.86
473.253	6680.97
473.625	6781.08
473.997	6888.87
474.369	6980.4
474.74	7038.7
475.112	7203.89
475.484	7289.09
475.855	7471.68
476.227	7529.08
476.598	7809.07
476.97	7814.72
477.341	8009.97
477.713	8119.12
478.084	8165.68
478.455	8412.22
478.827	8450.64
479.198	8723.63
479.569	8706.9
479.94	8955.48
480.311	9069.38
480.682	9223.05
481.053	9484.74
481.424	9664.84
481.795	9737.84
482.166	9808.12
482.537	10025.29
482.908	10195.45
483.279	10329.69
483.65	10503.69
484.021	10720.18
484.391	10838.83
484.762	10922.44
485.133	11089.89
485.503	11195.65
485.874	11512.93
486.244	11568.75
486.615	11822.53
486.985	11992.69
487.356	12135.51
487.726	12208.51
488.097	12534.83
488.467	12597.2
488.837	12864.76
489.207	12966.45
489.578	13168.71
489.948	13321.25
490.318	13434.01
490.688	13531.18
491.058	13687.11
491.428	13974.79
491.798	14087.1
492.168	14431.27
492.538	14497.49
492.908	14635.34
493.278	14805.05
493.648	14786.29
494.017	15129.79
494.387	15174.98
494.757	15363.23
495.126	15553.73
495.496	15636.67
495.866	15745.14
496.235	15830.78
496.605	15977.67
496.974	16121.62
497.344	16306.48
497.713	16412.92
498.082	16565.45
498.452	16701.27
498.821	16853.81
499.19	16874.37
499.559	17142.84
499.928	17239.79
500.298	17290.63
500.667	17420.35
501.036	17402.04
501.405	17673.67
501.774	17665.09
502.143	17884.29
502.512	17907.57
502.88	18140.78
503.249	18224.62
503.618	18325.18
503.987	18498.51
504.356	18632.29
504.724	18667.77
505.093	18778.73
505.462	19049.23
505.83	19072.51
506.199	19217.59
506.567	19555.88
506.936	19429.79
507.304	19854.18
507.672	19740.96
508.041	19903.67
508.409	20000.39
508.777	20201.97
509.145	20354.73
509.514	20388.86
509.882	20616.65
510.25	20632.24
510.618	20848.51
510.986	20921.27
511.354	21122.62
511.722	21417.3
512.09	21567.58
512.458	21519.45
512.826	21796.5
513.193	21871.98
513.561	22015.48
513.929	22230.16
514.297	22429.25
514.664	22597.84
515.032	22701.56
515.4	22907.66
515.767	22962.35
516.135	23143.13
516.502	23149.01
516.869	23469.68
517.237	23534.76
517.604	23646.62
517.972	23953.06
518.339	24146.72
518.706	24081.19
519.073	24357.79
519.44	24499.71
519.808	24819.02
520.175	24835.07
520.542	25051.56
520.909	25245.45
521.276	25342.85
521.643	25671.88
522.009	25866.68
522.376	25937.41
522.743	26228.25
523.11	26442.71
523.477	26708.24
523.843	26818.52
524.21	27120.2
524.577	27160.88
524.943	27501.89
525.31	27580.53
525.676	27816.23
526.043	28148.2
526.409	28301.64
526.776	28499.38
527.142	28714.06
527.508	28669.54
527.874	29059.36
528.241	29217.78
528.607	29335.74
528.973	29604.43
529.339	29651.44
529.705	30053.69
530.071	30134.59
530.437	30423.85
530.803	30466.56
531.169	30756.49
531.535	30578.87
531.901	30791.07
532.267	31012.98
532.632	31151.96
532.998	31346.08
533.364	31559.18
533.73	31646.64
534.095	31866.29
534.461	31922.11
534.826	32122.33
535.192	32324.14
535.557	32605.71
535.923	32441.65
536.288	32703.11
536.653	32906.27
537.019	32735.42
537.384	33061.07
537.749	33177.22
538.114	33387.61
538.479	33358.23
538.845	33516.2
539.21	33422.86
539.575	33804.77
539.94	33829.18
540.305	33997.09
540.67	33983.75
541.034	34155.95
541.399	34224.42
541.764	34478.43
542.129	34617.86
542.494	34625.54
542.858	34794.35
543.223	34793.22
543.587	35050.62
543.952	34958.87
544.316	35152.76
544.681	35231.18
545.045	35514.56
545.41	35632.52
545.774	35718.62
546.138	35859.86
546.503	35953.19
546.867	35868
547.231	36216.91
547.595	36358.83
547.959	36379.4
548.324	36469.34
548.688	36501.2
549.052	36615.55
549.416	36764.25
549.779	36978.7
550.143	36993.39
550.507	37155.87
550.871	37387.51
551.235	37192.26
551.599	37634.05
551.962	37709.76
552.326	37790.43
552.689	38072.46
553.053	37935.06
553.417	38034.04
553.78	38505.89
554.143	38443.75
554.507	38798.32
554.87	38770.29
555.234	39088.25
555.597	38826.34
555.96	39294.57
556.323	39323.95
556.686	39406.44
557.05	39642.59
557.413	39841.45
557.776	39955.35
558.139	40065.4
558.502	40272.18
558.865	40426.75
559.228	40637.59
559.59	40801.2
559.953	40771.37
560.316	41132.27
560.679	41172.72
561.041	41461.75
561.404	41713.72
561.767	41971.79
562.129	41794.4
562.492	42158.45
562.854	42177.44
563.217	42162.52
563.579	42280.03
563.941	42562.51
564.304	42870.53
564.666	43135.83
565.028	43144.64
565.39	43384.18
565.753	43583.27
566.115	43661.46
566.477	43867.34
566.839	43816.72
567.201	44106.88
567.563	44216.48
567.925	44423.48
568.287	44476.36
568.648	44552.06
569.01	44832.51
569.372	45016.91
569.734	44922.67
570.095	45383.23
570.457	45376.9
570.819	45515.2
571.18	45599.04
571.542	45789.54
571.903	45826.61
572.265	46062.31
572.626	46194.28
572.987	46218.91
573.349	46356.54
573.71	46446.25
574.071	46538.68
574.432	46632.01
574.794	46889.85
575.155	46819.35
575.516	46772.34
575.877	47066.12
576.238	47092.34
576.599	47156.51
576.96	47204.2
577.32	47326.68
577.681	47364.64
578.042	47448.94
578.403	47534.36
578.763	47478.09
579.124	47477.86
579.485	47665.2
579.845	47782.71
580.206	47761.02
580.566	47668.59
580.927	47830.62
581.287	47852.32
581.648	47690.74
582.008	47988.58
582.368	47922.14
582.728	48064.97
583.089	47942.26
583.449	47943.84
583.809	48002.82
584.169	48097.28
584.529	48017.73
584.889	48269.25
585.249	48047.34
585.609	47915.36
585.969	48129.14
586.329	48004.85
586.688	48123.49
587.048	48145.64
587.408	47951.52
587.768	48029.03
588.127	48059.99
588.487	48023.38
588.846	48344.96
589.206	47985.19
589.565	48098.64
589.925	48277.84
590.284	48102.48
590.643	48236.03
591.003	48287.78
591.362	48369.82
591.721	48290.5
592.08	48332.3
592.44	48370.49
592.799	48369.14
593.158	48379.08
593.517	48414.33
593.876	48454.33
594.235	48311.51
594.593	48315.81
594.952	48453.2
595.311	48291.17
595.67	48294.34
596.029	48752.4
596.387	48619.3
596.746	48805.51
597.104	48510.6
597.463	48482.13
597.822	48723.48
598.18	48484.84
598.538	48612.52
598.897	48717.83
599.255	48336.6
599.613	49052.51
599.972	48685.97
600.33	48793.08
600.688	48845.74
601.046	48815.23
601.404	48959.63
601.762	48816.58
602.12	49005.96
602.478	49060.87
602.836	49007.31
603.194	48869.69
603.552	49031.27
603.91	48864.27
604.268	49162.11
604.625	48991.27
604.983	49185.61
605.341	48970.7
605.698	49305.61
606.056	49216.35
606.413	49271.71
606.771	49349.9
607.128	49347.87
607.485	49241.88
607.843	49328.21
608.2	49548.09
608.557	49483.23
608.914	49384.48
609.272	49792.83
609.629	49730.01
609.986	49787.63
610.343	49555.32
610.7	49839.61
611.057	49716.9
611.414	49814.52
611.771	49760.29
612.127	49941.3
612.484	49899.95
612.841	49948.08
613.198	49847.52
613.554	49908.98
613.911	50126.15
614.267	50171.35
614.624	50185.36
614.98	50204.8
615.337	50291.12
615.693	50226.94
616.05	50259.48
616.406	50434.39
616.762	50342.42
617.118	50372.25
617.475	50423.1
617.831	50413.15
618.187	50448.63
618.543	50476.2
618.899	50704.9
619.255	50629.42
619.611	50599.14
619.967	50673.26
620.323	50667.16
620.678	50572.47
621.034	50506.48
621.39	50568.18
621.746	50523.88
622.101	50868.06
622.457	50562.07
622.812	50679.36
623.168	50787.38
623.523	50789.19
623.879	50875.96
624.234	50642.3
624.589	50637.55
624.945	50657.44
625.3	50823.99
625.655	50645.24
626.01	50745.35
626.365	50694.05
626.72	50623.99
627.075	50574.96
627.43	50664.44
627.785	50529.31
628.14	50681.85
628.495	50715.97
628.85	50646.82
629.205	50420.84
629.559	50628.51
629.914	50556.88
630.269	50573.37
630.623	50454.73
630.978	50411.57
631.332	50544
631.687	50567.72
632.041	50381.06
632.396	50478.46
632.75	50273.72
633.104	50416.77
633.459	50249.99
633.813	50115.98
634.167	50159.83
634.521	50081.86
634.875	50165.93
635.229	50145.36
635.583	49855.65
635.937	49899.95
636.291	49891.58
636.645	49934.97
636.999	49844.81
637.352	49949.21
637.706	49637.58
638.06	49825.37
638.413	49748.99
638.767	49652.72
639.121	49730.68
639.474	49432.84
639.828	49473.74
640.181	49496.57
640.534	49571.82
640.888	49394.42
641.241	49172.28
641.594	49210.47
641.947	49395.1
642.301	49167.99
642.654	49279.85
643.007	49233.97
643.36	49140.19
643.713	49062.45
644.066	49148.33
644.419	48925.06
644.771	48763.03
645.124	48621.79
645.477	48447.1
645.83	48176.37
646.182	47938.19
646.535	47784.29
646.888	47756.72
647.24	47530.29
647.593	47848.25
647.945	47519.22
648.298	47579.1
648.65	47389.28
649.002	47196.29
649.355	47514.92
649.707	47352.67
650.059	47498.65
650.411	48082.59
650.763	48193.78
651.115	48484.84
651.467	48295.69
651.819	48110.16
652.171	48174.11
652.523	47986.32
652.875	48129.37
653.227	47857.96
653.578	48105.42
653.93	47939.77
654.282	47808.7
654.633	47873.33
654.985	47862.03
655.337	47867.46
655.688	47865.2
656.039	47915.59
656.391	47618.88
656.742	47501.36
657.094	47536.39
657.445	47828.81
657.796	47610.51
658.147	47464.53
658.498	47627.69
658.849	47540.91
659.2	47536.62
659.551	47348.83
659.902	47554.7
660.253	47490.97
660.604	47423.63
660.955	47306.57
661.306	47546.11
661.656	47306.11
662.007	47331.65
662.358	47319.22
662.708	47288.71
663.059	47337.07
663.409	47050.08
663.76	47307.92
664.11	47398.09
664.461	47350.63
664.811	47257.98
665.161	47330.07
665.511	47147.93
665.862	47143.63
666.212	47187.47
666.562	47223.18
666.912	47204.87
667.262	47228.15
667.612	47175.04
667.962	47185.21
668.312	47121.71
668.662	47221.82
669.011	47123.29
669.361	46937.99
669.711	47006.46
670.06	46852.57
670.41	46834.26
670.76	46904.09
671.109	47028.61
671.459	46895.28
671.808	46874.26
672.157	46788.39
672.507	46556.3
672.856	46623.65
673.205	46647.15
673.554	46782.06
673.904	46535.06
674.253	46932.79
674.602	46675.17
674.951	46130.78
675.3	45934.4
675.649	46524.67
675.998	46501.16
676.346	46284.22
676.695	46502.75
677.044	46237.67
677.393	46267.95
677.741	46465.69
678.09	46158.12
678.438	46248.52
678.787	46153.15
679.135	46144.79
679.484	45892.14
679.832	46155.86
680.181	45848.75
680.529	45870.22
680.877	45803.78
681.225	45814.63
681.573	45961.29
681.922	45723.11
682.27	45550.23
682.618	45612.6
682.966	45434.3
683.314	45545.94
683.661	45409.67
684.009	45321.76
684.357	45208.54
684.705	45143.23
685.053	45161.31
685.4	45127.87
685.748	44833.19
686.095	44689.46
686.443	44686.97
686.79	44583.93
687.138	44832.06
687.485	44756.8
687.832	44646.07
688.18	44630.48
688.527	44267.32
688.874	44438.85
689.221	44154.11
689.568	44027.56
689.915	44053.09
690.262	44065.07
690.609	43911.63
690.956	43685.87
691.303	43762.03
691.65	43551.86
691.997	43355.48
692.344	43192.32
692.69	43106.23
693.037	43268.25
693.383	42897.42
693.73	43069.16
694.077	42776.06
694.423	42779.23
694.769	42616.52
695.116	42478.67
695.462	42466.47
695.808	42411.55
696.155	42402.52
696.501	42001.4
696.847	42139.47
697.193	41761.4
697.539	41995.07
697.885	41664
698.231	41484.8
698.577	41650.67
698.923	41392.6
699.269	41296.56
699.614	41047.97
699.96	41016.11
700.306	40953.51
700.651	40916.45
700.997	40822.67
701.342	40748.32
701.688	40699.96
702.033	40549.68
702.379	40453.41
702.724	40500.19
703.069	40446.86
703.415	39971.17
703.76	39915.12
704.105	39970.49
704.45	39815.46
704.795	39581.12
705.14	39452.54
705.485	39465.64
705.83	39363.95
706.175	39394.68
706.52	39306.33
706.865	39051.87
707.209	39051.42
707.554	38902.04
707.899	39099.55
708.243	38808.94
708.588	38700.92
708.932	38481.71
709.277	38350.19
709.621	38395.39
709.966	38174.6
710.31	38296.41
710.654	37935.97
710.998	38013.48
711.342	38067.94
711.687	37818.68
712.031	37692.36
712.375	37553.83
712.719	37688.97
713.063	37712.92
713.407	37674.28
713.75	37435.41
714.094	37543.21
714.438	37201.52
714.782	37200.17
715.125	36948.87
715.469	37143.67
715.812	36863.9
716.156	36674.76
716.499	36800.85
716.843	36829.33
717.186	36621.88
717.53	36736.45
717.873	36489
718.216	36613.06
718.559	36509.11
718.902	36079.29
719.246	36312.96
719.589	36216.69
719.932	35971.72
720.275	36132.85
720.617	35977.15
720.96	35857.38
721.303	35915
721.646	35976.7
721.989	35610.38
722.331	35763.82
722.674	35615.35
723.016	35521.79
723.359	35507.33
723.701	35524.28
724.044	35250.39
724.386	35076.83
724.729	35272.76
725.071	35192.54
725.413	35153.89
725.755	35084.97
726.097	34846.56
726.439	34637.07
726.782	34804.52
727.124	34959.09
727.465	34730.85
727.807	34550.74
728.149	34624.64
728.491	34454.7
728.833	34560.91
729.175	34432.56
729.516	34254.25
729.858	34242.96
730.199	34428.71
730.541	34102.17
730.882	34175.61
731.224	34199.11
731.565	33990.31
731.906	34029.63
732.248	33955.05
732.589	33782.18
732.93	33733.14
733.271	33731.33
733.612	33650.43
733.953	33856.98
734.294	33557.32
734.635	33471.68
734.976	33591.22
735.317	33550.09
735.658	33457.21
735.999	33389.87
736.339	33333.6
736.68	33261.96
737.021	33268.52
737.361	32933.61
737.702	33200.27
738.042	32940.84
738.383	32900.39
738.723	33102.42
739.063	32843.67
739.404	32908.08
739.744	32732.71
740.084	32629.44
740.424	32690.23
740.764	32685.71
741.104	32773.62
741.444	32426.73
741.784	32348.54
742.124	32506.96
742.464	32387.86
742.804	32286.17
743.143	32197.13
743.483	32319.39
743.823	31928.21
744.162	32086.85
744.502	32082.11
744.841	31847.31
745.181	31986.29
745.52	31863.58
745.86	31864.71
746.199	31783.81
746.538	31615.91
746.877	31781.78
747.216	31712.17
747.556	31589.69
747.895	31511.95
748.234	31346.53
748.573	31331.62
748.911	31394.44
749.25	31387.66
749.589	31128.69
749.928	31378.62
750.267	31154
750.605	30894.8
750.944	30979.31
751.283	30881.01
751.621	30980.89
751.96	30777.06
752.298	30808.7
752.636	30597.85
