Data from breadboard_black_back_FLMS001491_00021.txt Node
Date: Wed Feb 08 10:50:09 GMT 2017
User: dcchb
Spectrometer: FLMS00149
Trigger mode: 0
Integration Time (sec): 2.000000E-2
Scans to average: 10
Electric dark correction enabled: true
Nonlinearity correction enabled: false
Boxcar width: 0
XAxis mode: Wavelengths
Number of Pixels in Spectrum: 2048
>>>>>Begin Spectral Data<<<<<
341.393	-32.84
341.776	-32.84
342.16	-32.84
342.543	-39.17
342.927	-50.46
343.31	-67.41
343.693	-71.03
344.077	-65.83
344.46	-47.98
344.843	-59.28
345.226	-26.74
345.61	-37.36
345.993	-26.51
346.376	-12.73
346.759	34.73
347.142	19.59
347.525	41.51
347.908	55.52
348.291	58.46
348.674	92.36
349.057	112.69
349.44	123.77
349.823	123.99
350.206	160.6
350.588	212.35
350.971	225.01
351.354	207.38
351.737	239.47
352.119	252.35
352.502	270.2
352.884	272.46
353.267	291.9
353.65	302.07
354.032	285.8
354.414	300.26
354.797	329.86
355.179	346.36
355.562	329.41
355.944	327.6
356.326	342.97
356.709	333.48
357.091	342.75
357.473	351.33
357.855	350.88
358.238	349.3
358.62	351.11
359.002	331.67
359.384	349.98
359.766	360.37
360.148	345.68
360.53	372.57
360.912	338
361.294	365.12
361.676	331.45
362.057	335.97
362.439	359.47
362.821	367.15
363.203	338.68
363.584	338
363.966	344.55
364.348	345.23
364.729	328.28
365.111	355.17
365.493	334.16
365.874	326.47
366.256	328.28
366.637	335.51
367.019	355.4
367.4	338.68
367.781	330.99
368.163	335.06
368.544	333.48
368.925	352.46
369.306	336.42
369.688	349.3
370.069	328.06
370.45	326.02
370.831	333.25
371.212	341.62
371.593	334.84
371.974	332.8
372.355	352.91
372.736	365.34
373.117	364.89
373.498	365.8
373.879	348.62
374.26	352.46
374.641	352.69
375.021	351.56
375.402	363.76
375.783	374.61
376.163	375.06
376.544	380.94
376.925	385.68
377.305	377.55
377.686	378.68
378.066	389.07
378.447	382.29
378.827	373.25
379.208	378.45
379.588	394.95
379.968	392.46
380.349	369.64
380.729	386.81
381.109	376.19
381.489	395.85
381.87	409.64
382.25	401.73
382.63	421.39
383.01	410.31
383.39	401.95
383.77	409.41
384.15	416.42
384.53	414.83
384.91	435.17
385.29	424.1
385.67	429.52
386.049	441.5
386.429	441.27
386.809	437.66
387.189	456.87
387.568	434.49
387.948	451.89
388.328	442.18
388.707	465.68
389.087	438.34
389.466	443.76
389.846	485.34
390.225	499.58
390.605	486.47
390.984	453.48
391.363	504.1
391.743	498.22
392.122	503.19
392.501	495.96
392.881	488.73
393.26	495.74
393.639	486.7
394.018	524.44
394.397	533.25
394.776	521.5
395.155	514.72
395.534	503.87
395.913	527.37
396.292	514.04
396.671	539.8
397.05	545
397.429	559.46
397.808	538.9
398.186	549.75
398.565	555.62
398.944	562.4
399.323	562.85
399.701	569.41
400.08	579.8
400.458	602.85
400.837	585.68
401.215	603.76
401.594	590.42
401.972	584.55
402.351	587.94
402.729	605.56
403.107	589.29
403.486	613.92
403.864	598.78
404.242	641.72
404.62	633.81
404.999	653.25
405.377	665.22
405.755	647.82
406.133	685.56
406.511	672.23
406.889	657.77
407.267	683.75
407.645	675.17
408.023	701.61
408.401	715.62
408.779	722.4
409.156	709.97
409.534	738.44
409.912	723.75
410.29	746.35
410.667	742.96
411.045	756.29
411.422	769.4
411.8	747.25
412.178	795.84
412.555	773.69
412.933	784.09
413.31	817.31
413.687	825.22
414.065	833.35
414.442	826.8
414.819	829.06
415.197	832.45
415.574	844.2
415.951	874.71
416.328	862.73
416.705	876.97
417.082	906.35
417.46	891.88
417.837	900.02
418.214	884.88
418.591	912.22
418.967	921.04
419.344	956.29
419.721	943.63
420.098	950.64
420.475	971.43
420.852	956.97
421.228	977.76
421.605	975.5
421.982	1005.55
422.358	1025.89
422.735	1021.37
423.111	1009.85
423.488	1045.33
423.864	1026.57
424.241	1058.43
424.617	1056.17
424.994	1072.22
425.37	1102.73
425.746	1064.53
426.123	1123.06
426.499	1105.21
426.875	1115.83
427.251	1127.81
427.627	1177.3
428.003	1182.05
428.379	1191.08
428.756	1195.15
429.132	1201.03
429.507	1220.69
429.883	1265.88
430.259	1261.59
430.635	1284.64
431.011	1264.3
431.387	1300.01
431.763	1334.58
432.138	1346.56
432.514	1337.52
432.89	1353.11
433.265	1397.41
433.641	1401.93
434.016	1393.11
434.392	1456.84
434.767	1461.36
435.143	1448.25
435.518	1464.07
435.894	1488.48
436.269	1509.72
436.644	1533.45
437.02	1530.06
437.395	1523.96
437.77	1598.76
438.145	1581.58
438.52	1622.03
438.895	1602.83
439.271	1613.22
439.646	1644.63
440.021	1675.14
440.395	1701.58
440.77	1681.69
441.145	1688.92
441.52	1715.82
441.895	1723.05
442.27	1713.56
442.645	1743.39
443.019	1796.27
443.394	1785.19
443.769	1808.24
444.143	1810.5
444.518	1841.24
444.892	1815.25
445.267	1843.95
445.641	1862.25
446.016	1855.93
446.39	1880.56
446.764	1895.92
447.139	1912.65
447.513	1932.53
447.887	1923.95
448.262	1955.13
448.636	1955.36
449.01	1986.77
449.384	2001.01
449.758	2001.46
450.132	2019.99
450.506	2039.88
450.88	2050.04
451.254	2053.21
451.628	2058.86
452.002	2116.71
452.376	2117.16
452.75	2122.81
453.123	2176.37
453.497	2215.92
453.871	2223.37
454.244	2246.65
454.618	2276.03
454.992	2318.74
455.365	2314.67
455.739	2379.98
456.112	2361.9
456.486	2433.76
456.859	2426.76
457.232	2441.9
457.606	2474.67
457.979	2507.43
458.352	2564.61
458.725	2572.52
459.099	2604.38
459.472	2678.95
459.845	2690.03
460.218	2687.99
460.591	2725.51
460.964	2750.82
461.337	2803.02
461.71	2837.59
462.083	2912.17
462.456	2864.26
462.829	2928.21
463.201	2957.59
463.574	2970.47
463.947	3018.61
464.32	3099.73
464.692	3097.48
465.065	3167.53
465.438	3214.31
465.81	3199.17
466.183	3253.4
466.555	3351.03
466.928	3306.28
467.3	3348.77
467.672	3441.65
468.045	3509.89
468.417	3461.08
468.789	3495.88
469.161	3563.45
469.534	3620.4
469.906	3720.51
470.278	3706.05
470.65	3761.41
471.022	3870.34
471.394	3896.1
471.766	3949.2
472.138	4030.56
472.51	4107.17
472.882	4138.58
473.253	4144.23
473.625	4212.93
473.997	4362.75
474.369	4372.24
474.74	4424.9
475.112	4493.82
475.484	4603.65
475.855	4609.75
476.227	4663.99
476.598	4820.82
476.97	4849.07
477.341	4954.6
477.713	5022.4
478.084	5042.06
478.455	5184.2
478.827	5249.06
479.198	5366.34
479.569	5409.28
479.94	5554.36
480.311	5611.31
480.682	5748.48
481.053	5941.02
481.424	5934.46
481.795	6008.36
482.166	6086.1
482.537	6145.08
482.908	6310.27
483.279	6362.7
483.65	6410.61
484.021	6661.45
484.391	6684.73
484.762	6773.31
485.133	6854.21
485.503	6887.43
485.874	7059.63
486.244	7091.27
486.615	7246.74
486.985	7329.68
487.356	7462.56
487.726	7497.59
488.097	7669.56
488.467	7725.83
488.837	7919.5
489.207	7981.41
489.578	8076.1
489.948	8137.57
490.318	8288.53
490.688	8289.43
491.058	8402.42
491.428	8508.63
491.798	8652.13
492.168	8803.77
492.538	8856.42
492.908	9024.55
493.278	9053.02
493.648	9125.34
494.017	9255.96
494.387	9265.45
494.757	9419.34
495.126	9502.28
495.496	9460.7
495.866	9564.42
496.235	9756.96
496.605	9817.75
496.974	9917.63
497.344	10036.73
497.713	10016.84
498.082	10078.08
498.452	10211.41
498.821	10239.66
499.19	10327.34
499.559	10432.65
499.928	10457.73
500.298	10534.79
500.667	10648.91
501.036	10630.61
501.405	10800.78
501.774	10826.76
502.143	10960.55
502.512	10969.58
502.88	11082.35
503.249	11142.24
503.618	11191.5
503.987	11280.54
504.356	11339.52
504.724	11472.62
505.093	11480.08
505.462	11549.91
505.83	11578.16
506.199	11659.74
506.567	11814.08
506.936	11859.96
507.304	12037.35
507.672	12080.29
508.041	12148.54
508.409	12219.72
508.777	12337.91
509.145	12423.33
509.514	12409.77
509.882	12464.01
510.25	12689.77
510.618	12745.58
510.986	12772.7
511.354	12922.08
511.722	12951.45
512.09	13154.61
512.458	13160.04
512.826	13252.91
513.193	13331.78
513.561	13415.4
513.929	13549.63
514.297	13766.57
514.664	13784.2
515.032	13783.3
515.4	14007.92
515.767	14031.65
516.135	14180.12
516.502	14092.44
516.869	14354.81
517.237	14413.11
517.604	14408.36
517.972	14600.22
518.339	14734.23
518.706	14731.29
519.073	14752.99
519.44	14928.8
519.808	15135.12
520.175	15116.82
520.542	15359.3
520.909	15481.56
521.276	15454.89
521.643	15538.96
522.009	15714.09
522.376	15910.47
522.743	15969.23
523.11	16142.33
523.477	16287.41
523.843	16415.99
524.21	16571.25
524.577	16661.19
524.943	16794.52
525.31	16867.51
525.676	17024.57
526.043	17131.68
526.409	17158.12
526.776	17445.12
527.142	17490.99
527.508	17603.76
527.874	17742.51
528.241	17847.14
528.607	17883.98
528.973	18068.38
529.339	18095.27
529.705	18245.55
530.071	18415.04
530.437	18530.52
530.803	18566.67
531.169	18772.54
531.535	18725.31
531.901	18878.76
532.267	18939.09
532.632	19135.25
532.998	19150.39
533.364	19241.68
533.73	19303.38
534.095	19442.58
534.461	19612.07
534.826	19588.79
535.192	19725.06
535.557	19885.51
535.923	19843.93
536.288	20016.13
536.653	20081.66
537.019	20095.67
537.384	20275.55
537.749	20309.9
538.114	20389.9
538.479	20453.18
538.845	20473.29
539.21	20529.11
539.575	20658.82
539.94	20715.09
540.305	20847.97
540.67	20849.55
541.034	20944.92
541.399	21101.52
541.764	21171.35
542.129	21066.72
542.494	21204.12
542.858	21324.34
543.223	21388.29
543.587	21422.64
543.952	21492.92
544.316	21571.79
544.681	21620.15
545.045	21719.58
545.41	21770.2
545.774	21991.67
546.138	22044.1
546.503	21943.76
546.867	22010.88
547.231	22198.22
547.595	22396.63
547.959	22440.92
548.324	22345.78
548.688	22437.76
549.052	22569.51
549.416	22584.19
549.779	22620.35
550.143	22833.45
550.507	22930.4
550.871	22933.34
551.235	22958.65
551.599	23187.79
551.962	23275.25
552.326	23296.94
552.689	23461.01
553.053	23292.2
553.417	23546.88
553.78	23679.31
554.143	23696.93
554.507	23802.69
554.87	23933.54
555.234	24112.74
555.597	24107.32
555.96	24048.34
556.323	24300.53
556.686	24298.95
557.05	24453.75
557.413	24512.51
557.776	24615.78
558.139	24768.54
558.502	24825.49
558.865	24839.73
559.228	25111.13
559.59	25162.43
559.953	25180.96
560.316	25528.52
560.679	25485.13
561.041	25575.98
561.404	25685.58
561.767	25927.84
562.129	25974.61
562.492	26042.63
562.854	26153.14
563.217	26200.37
563.579	26294.83
563.941	26461.61
564.304	26557.2
564.666	26718.77
565.028	26747.25
565.39	26937.53
565.753	27026.11
566.115	27189.04
566.477	27247.8
566.839	27390.62
567.201	27474.01
567.563	27517.17
567.925	27762.82
568.287	27759.88
568.648	27837.84
569.01	28037.61
569.372	28190.15
569.734	27977.72
570.095	28213.88
570.457	28368.45
570.819	28485.28
571.18	28484.83
571.542	28603.47
571.903	28746.07
572.265	28683.69
572.626	28851.15
572.987	28864.71
573.349	28971.6
573.71	29096.11
574.071	29257.69
574.432	29301.98
574.794	29623.33
575.155	29537.46
575.516	29415.2
575.877	29515.76
576.238	29529.32
576.599	29681.63
576.96	29722.54
577.32	29706.72
577.681	29877.79
578.042	29962.53
578.403	30092.47
578.763	29972.93
579.124	29970.44
579.485	30128.85
579.845	30179.47
580.206	30116.2
580.566	30167.27
580.927	30293.14
581.287	30304.67
581.648	30299.7
582.008	30441.39
582.368	30296.08
582.728	30556.19
583.089	30360.71
583.449	30379.92
583.809	30520.26
584.169	30480.94
584.529	30299.47
584.889	30579.24
585.249	30524.1
585.609	30521.61
585.969	30679.8
586.329	30484.33
586.688	30584.21
587.048	30436.87
587.408	30482.97
587.768	30545.57
588.127	30514.16
588.487	30550.99
588.846	30709.4
589.206	30436.19
589.565	30648.16
589.925	30708.73
590.284	30628.73
590.643	30616.3
591.003	30702.62
591.362	30746.01
591.721	30736.07
592.08	30712.34
592.44	30664.43
592.799	30760.93
593.158	30747.82
593.517	30708.95
593.876	30794.83
594.235	30734.49
594.593	30874.82
594.952	30943.97
595.311	30783.75
595.67	30947.14
596.029	31064.42
596.387	31035.72
596.746	31077.76
597.104	30840.93
597.463	30984.88
597.822	31081.37
598.18	31022.84
598.538	31060.13
598.897	31114.37
599.255	30952.56
599.613	31421.93
599.972	31137.42
600.33	31216.51
600.688	31205.44
601.046	31193.01
601.404	31276.17
601.762	31317.98
602.12	31405.88
602.478	31470.29
602.836	31493.34
603.194	31252.89
603.552	31258.77
603.91	31256.28
604.268	31494.47
604.625	31366.79
604.983	31625.99
605.341	31371.99
605.698	31469.84
606.056	31630.06
606.413	31533.34
606.771	31732.88
607.128	31588.93
607.485	31533.79
607.843	31673.22
608.2	31808.36
608.557	31918.19
608.914	31857.17
609.272	32087.22
609.629	32032.53
609.986	32157.28
610.343	31990.73
610.7	32276.59
611.057	32153.43
611.414	32091.74
611.771	32185.07
612.127	32275.92
612.484	32209.25
612.841	32308.23
613.198	32304.16
613.554	32249.93
613.911	32527.44
614.267	32383.26
614.624	32371.06
614.98	32512.52
615.337	32657.6
615.693	32553.65
616.05	32503.71
616.406	32767.2
616.762	32586.19
617.118	32601.11
617.475	32649.47
617.831	32644.95
618.187	32781.21
618.543	32798.16
618.899	32872.51
619.255	32945.28
619.611	32809.69
619.967	32901.66
620.323	32964.03
620.678	32848.11
621.034	32812.4
621.39	32829.8
621.746	32772.85
622.101	33185.95
622.457	32823.47
622.812	32908.89
623.168	33057.59
623.523	33029.12
623.879	33115.67
624.234	32865.73
624.589	33015.11
624.945	33008.1
625.3	32930.81
625.655	33018.27
626.01	32933.53
626.365	32919.74
626.72	32845.85
627.075	33007.42
627.43	33013.07
627.785	32962.9
628.14	33046.07
628.495	32969.01
628.85	32956.12
629.205	32752.97
629.559	32978.72
629.914	32799.74
630.269	32799.97
630.623	32760.65
630.978	32714.55
631.332	32895.79
631.687	32869.35
632.041	32605.85
632.396	32752.51
632.75	32691.05
633.104	32704.61
633.459	32391.85
633.813	32624.16
634.167	32499.19
634.521	32518.62
634.875	32535.35
635.229	32500.09
635.583	32275.69
635.937	32272.3
636.291	32303.94
636.645	32346.65
636.999	32241.12
637.352	32231.62
637.706	32098.97
638.06	32202.02
638.413	32190.95
638.767	32107.79
639.121	32141.91
639.474	31823.05
639.828	31878.64
640.181	32072.31
640.534	32008.35
640.888	31790.51
641.241	31678.19
641.594	31774.91
641.947	31886.32
642.301	31668.93
642.654	31821.24
643.007	31734.24
643.36	31640.45
643.713	31593.67
644.066	31706.21
644.419	31572.88
644.771	31253.34
645.124	31049.96
645.477	31116.4
645.83	30868.04
646.182	30649.52
646.535	30593.7
646.888	30565
647.24	30329.53
647.593	30495.85
647.945	30401.84
648.298	30322.75
648.65	30235.52
649.002	30147.84
649.355	30313.93
649.707	30295.18
650.059	30351.9
650.411	30838.67
650.763	30727.48
651.115	31105.55
651.467	30907.37
651.819	30945.56
652.171	30815.62
652.523	30755.28
652.875	30766.58
653.227	30696.98
653.578	30876.63
653.93	30850.19
654.282	30600.48
654.633	30692.23
654.985	30533.82
655.337	30640.25
655.688	30583.08
656.039	30739.01
656.391	30451.56
656.742	30450.65
657.094	30475.74
657.445	30666.24
657.796	30553.93
658.147	30505.79
658.498	30474.83
658.849	30419.69
659.2	30419.47
659.551	30320.71
659.902	30439.58
660.253	30396.64
660.604	30383.31
660.955	30336.98
661.306	30423.31
661.656	30250.89
662.007	30173.37
662.358	30213.37
662.708	30195.75
663.059	30108.97
663.409	29969.99
663.76	30380.6
664.11	30244.33
664.461	30238.68
664.811	30071.23
665.161	30247.27
665.511	30202.75
665.862	30199.59
666.212	30103.77
666.562	30249.98
666.912	30089.99
667.262	30025.81
667.612	29972.47
667.962	30069.87
668.312	30043.21
668.662	30140.61
669.011	29986.94
669.361	29961.63
669.711	29944.45
670.06	29920.72
670.41	29876.66
670.76	29828.07
671.109	29909.43
671.459	29925.47
671.808	29792.37
672.157	29830.33
672.507	29690.67
672.856	29670.34
673.205	29806.38
673.554	29784.46
673.904	29692.48
674.253	29895.87
674.602	29700.62
674.951	29264.92
675.3	29056.79
675.649	29632.82
675.998	29543.33
676.346	29562.09
676.695	29637.79
677.044	29433.05
677.393	29456.78
677.741	29341.3
678.09	29291.81
678.438	29409.55
678.787	29344.69
679.135	29389.89
679.484	29192.83
679.832	29220.86
680.181	29057.47
680.529	29355.54
680.877	29155.77
681.225	29088.2
681.573	29295.43
681.922	29012.05
682.27	28898.83
682.618	29083.46
682.966	28946.29
683.314	28933.41
683.661	28857.48
684.009	28715.56
684.357	28606.63
684.705	28650.93
685.053	28710.13
685.4	28636.46
685.748	28436.92
686.095	28448.67
686.443	28302.24
686.79	28166.42
687.138	28376.36
687.485	28259.53
687.832	28197.38
688.18	28141.56
688.527	28076.48
688.874	28107.66
689.221	28001.9
689.568	27969.82
689.915	27927.78
690.262	27865.41
690.609	27743.61
690.956	27759.88
691.303	27703.16
691.65	27465.65
691.997	27555.36
692.344	27314.01
692.69	27277.86
693.037	27284.18
693.383	27182.27
693.73	27196.28
694.077	27014.59
694.423	27071.99
694.769	26861.14
695.116	26847.81
695.462	26850.07
695.808	26714.48
696.155	26872.44
696.501	26621.83
696.847	26512.23
697.193	26358.11
697.539	26494.6
697.885	26301.61
698.231	26362.4
698.577	26130.54
698.923	26055.29
699.269	25969.42
699.614	25850.78
699.96	25857.78
700.306	25942.52
700.651	25817.1
700.997	25713.83
701.342	25597.67
701.688	25542.53
702.033	25512.03
702.379	25524
702.724	25417.11
703.069	25486.72
703.415	25145.26
703.76	25316.1
704.105	25192.04
704.45	25068.42
704.795	25006.28
705.14	24853.74
705.485	24917.69
705.83	24781.42
706.175	24830.24
706.52	24700.3
706.865	24819.84
707.209	24637.47
707.554	24463.92
707.899	24587.53
708.243	24454.65
708.588	24342.57
708.932	24117.71
709.277	24282.91
709.621	24228.67
709.966	23992.07
710.31	24052.86
710.654	23856.03
710.998	24014.67
711.342	24107.09
711.687	23852.41
712.031	23775.58
712.375	23737.38
712.719	23640.21
713.063	23749.14
713.407	23745.97
713.75	23542.36
714.094	23559.99
714.438	23423.95
714.782	23420.56
715.125	23391.4
715.469	23403.61
715.812	23253.33
716.156	23118.64
716.499	23214.91
716.843	23161.81
717.186	22963.85
717.53	23105.31
717.873	23133.33
718.216	23181.92
718.559	22958.42
718.902	22773.12
719.246	22865.32
719.589	22769.95
719.932	22679.56
720.275	22642.27
720.617	22635.49
720.96	22671.42
721.303	22639.56
721.646	22532.9
721.989	22517.08
722.331	22541.03
722.674	22449.96
723.016	22454.48
723.359	22424.65
723.701	22376.97
724.044	22239.12
724.386	22182.17
724.729	22185.79
725.071	22181.72
725.413	22121.38
725.755	22153.7
726.097	22112.79
726.439	22020.14
726.782	21982.85
727.124	22013.36
727.465	21993.02
727.807	21887.49
728.149	21889.75
728.491	21772.92
728.833	21662.18
729.175	21773.37
729.516	21576.09
729.858	21683.88
730.199	21683.65
730.541	21627.61
730.882	21562.07
731.224	21623.99
731.565	21364.11
731.906	21519.14
732.248	21467.84
732.589	21415.41
732.93	21330.67
733.271	21378.35
733.612	21415.64
733.953	21330.44
734.294	21236.43
734.635	21205.7
734.976	21192.59
735.317	21070.11
735.658	21188.3
735.999	21085.02
736.339	21031.01
736.68	21143.1
737.021	20957.8
737.361	20849.1
737.702	20955.99
738.042	20840.96
738.383	20768.42
738.723	20812.94
739.063	20720.74
739.404	20774.07
739.744	20810.46
740.084	20776.56
740.424	20679.61
740.764	20557.58
741.104	20743.56
741.444	20501.31
741.784	20462.22
742.124	20631.93
742.464	20607.3
742.804	20427.41
743.143	20393.29
743.483	20442.33
743.823	20368.43
744.162	20364.59
744.502	20332.28
744.841	20345.84
745.181	20327.08
745.52	20125.73
745.86	20218.38
746.199	20172.28
746.538	20172.96
746.877	20164.14
747.216	20134.32
747.556	20004.15
747.895	20051.83
748.234	20003.7
748.573	19980.42
748.911	19927.77
749.25	19913.08
749.589	19721.44
749.928	19881.21
750.267	19857.94
750.605	19730.94
750.944	19724.16
751.283	19617.72
751.621	19633.99
751.96	19501.56
752.298	19514.44
752.636	19557.38
752.975	19350.83
753.313	19307.44
753.651	19392.64
