Data from breadboard_white_FLMS001491_00065.txt Node
Date: Wed Feb 08 10:48:05 GMT 2017
User: dcchb
Spectrometer: FLMS00149
Trigger mode: 0
Integration Time (sec): 2.000000E-2
Scans to average: 10
Electric dark correction enabled: true
Nonlinearity correction enabled: false
Boxcar width: 0
XAxis mode: Wavelengths
Number of Pixels in Spectrum: 2048
>>>>>Begin Spectral Data<<<<<
341.393	-2.6
341.776	-2.6
342.16	-2.6
342.543	-71.75
342.927	-65.87
343.31	-69.49
343.693	-52.99
344.077	-77.4
344.46	-48.02
344.843	-51.64
345.226	-43.05
345.61	-32.43
345.993	-18.42
346.376	5.08
346.759	-1.69
347.142	18.42
347.525	60
347.908	55.48
348.291	86.66
348.674	76.72
349.057	92.77
349.44	133.67
349.823	139.09
350.206	157.4
350.588	203.72
350.971	213.67
351.354	252.31
351.737	256.6
352.119	280.33
352.502	270.39
352.884	288.92
353.267	286.89
353.65	298.64
354.032	314.68
354.414	330.05
354.797	321.46
355.179	328.47
355.562	342.7
355.944	358.52
356.326	345.41
356.709	363.27
357.091	342.02
357.473	358.07
357.855	343.83
358.238	344.74
358.62	341.12
359.002	342.48
359.384	361.01
359.766	361.91
360.148	344.74
360.53	348.58
360.912	349.71
361.294	350.84
361.676	358.52
362.057	354.91
362.439	351.97
362.821	332.31
363.203	351.29
363.584	354
363.966	345.19
364.348	364.17
364.729	337.73
365.111	348.58
365.493	315.58
365.874	334.34
366.256	343.83
366.637	359.2
367.019	358.07
367.4	325.3
367.781	342.48
368.163	345.19
368.544	332.53
368.925	341.8
369.306	368.69
369.688	358.52
370.069	352.87
370.45	333.66
370.831	338.18
371.212	342.48
371.593	341.57
371.974	347.67
372.355	352.65
372.736	352.19
373.117	372.76
373.498	362.59
373.879	354.91
374.26	350.39
374.641	335.92
375.021	350.39
375.402	370.27
375.783	351.97
376.163	373.66
376.544	369.82
376.925	370.05
377.305	350.39
377.686	384.96
378.066	368.01
378.447	396.49
378.827	380.67
379.208	384.06
379.588	399.42
379.968	398.29
380.349	388.13
380.729	402.81
381.109	400.1
381.489	398.29
381.87	387.67
382.25	385.41
382.63	380.22
383.01	399.88
383.39	393.1
383.77	402.14
384.15	406.88
384.53	413.66
384.91	410.27
385.29	417.96
385.67	425.86
386.049	440.78
386.429	423.15
386.809	436.94
387.189	429.48
387.568	446.2
387.948	429.48
388.328	456.82
388.707	436.03
389.087	443.49
389.466	443.72
389.846	457.05
390.225	464.28
390.605	462.02
390.984	466.77
391.363	485.3
391.743	478.52
392.122	488.24
392.501	483.26
392.881	508.57
393.26	516.48
393.639	516.71
394.018	512.42
394.397	507.22
394.776	523.04
395.155	507.22
395.534	539.99
395.913	525.07
396.292	544.73
396.671	566.88
397.05	571.4
397.429	567.56
397.808	585.18
398.186	589.02
398.565	587.44
398.944	595.35
399.323	603.49
399.701	589.93
400.08	593.09
400.458	632.86
400.837	647.78
401.215	640.1
401.594	635.12
401.972	641.68
402.351	663.6
402.729	682.13
403.107	681.9
403.486	690.26
403.864	689.81
404.242	701.56
404.62	725.29
404.999	746.31
405.377	749.47
405.755	759.87
406.133	792.86
406.511	776.82
406.889	806.65
407.267	810.04
407.645	812.97
408.023	850.71
408.401	843.25
408.779	866.76
409.156	928.68
409.534	873.54
409.912	902.01
410.29	948.34
410.667	936.36
411.045	951.27
411.422	985.62
411.8	989.69
412.178	996.02
412.555	1035.11
412.933	1036.47
413.31	1083.7
413.687	1099.52
414.065	1121.44
414.442	1101.78
414.819	1150.37
415.197	1139.97
415.574	1188.1
415.951	1199.4
416.328	1182.45
416.705	1218.61
417.082	1224.71
417.46	1237.14
417.837	1259.97
418.214	1283.47
418.591	1292.73
418.967	1323.24
419.344	1342.68
419.721	1375.9
420.098	1344.03
420.475	1377.48
420.852	1376.35
421.228	1389.45
421.605	1430.81
421.982	1436.91
422.358	1466.06
422.735	1485.05
423.111	1489.34
423.488	1526.63
423.864	1531.6
424.241	1541.77
424.617	1559.62
424.994	1565.72
425.37	1605.27
425.746	1582.67
426.123	1641.2
426.499	1677.58
426.875	1640.97
427.251	1705.6
427.627	1716.9
428.003	1749.45
428.379	1768.43
428.756	1772.04
429.132	1820.86
429.507	1859.5
429.883	1879.61
430.259	1904.92
430.635	1902.89
431.011	1951.47
431.387	1991.25
431.763	1989.44
432.138	2037.35
432.514	2053.17
432.89	2088.87
433.265	2127.97
433.641	2114.41
434.016	2158.47
434.392	2192.82
434.767	2218.13
435.143	2234.4
435.518	2297.45
435.894	2298.58
436.269	2369.09
436.644	2357.34
437.02	2384.01
437.395	2410.67
437.77	2428.07
438.145	2465.81
438.52	2499.71
438.895	2535.87
439.271	2519.59
439.646	2585.58
440.021	2584
440.395	2621.74
440.77	2600.95
441.145	2647.5
441.52	2718.23
441.895	2681.17
442.27	2705.35
442.645	2760.27
443.019	2782.41
443.394	2757.33
443.769	2820.38
444.143	2795.75
444.518	2855.86
444.892	2851.11
445.267	2898.34
445.641	2886.14
446.016	2931.56
446.39	2944.44
446.764	2959.36
447.139	3008.4
447.513	3044.78
447.887	3027.15
448.262	3029.64
448.636	3043.42
449.01	3078.68
449.384	3106.47
449.758	3134.95
450.132	3193.25
450.506	3195.28
450.88	3220.59
451.254	3241.84
451.628	3320.93
452.002	3365.22
452.376	3307.14
452.75	3423.07
453.123	3414.94
453.497	3460.59
453.871	3472.79
454.244	3594.37
454.618	3588.04
454.992	3602.96
455.365	3621.49
455.739	3725.89
456.112	3735.38
456.486	3796.4
456.859	3880.46
457.232	3908.48
457.606	3900.8
457.979	3974.7
458.352	4082.27
458.725	4098.54
459.099	4132.43
459.472	4260.34
459.845	4272.32
460.218	4276.38
460.591	4293.79
460.964	4345.54
461.337	4433.22
461.71	4513.44
462.083	4562.48
462.456	4582.82
462.829	4613.1
463.201	4713.89
463.574	4758.18
463.947	4781.23
464.32	4856.71
464.692	4868.46
465.065	4988.68
465.438	5029.36
465.81	5145.51
466.183	5196.36
466.555	5308
466.928	5297.6
467.3	5287.88
467.672	5412.63
468.045	5577.82
468.417	5576.01
468.789	5629.12
469.161	5684.71
469.534	5800.41
469.906	5937.36
470.278	5923.35
470.65	6005.15
471.022	6129.22
471.394	6249.21
471.766	6325.6
472.138	6402.43
472.51	6524.91
472.882	6611.24
473.253	6663.21
473.625	6717.9
473.997	6917.22
474.369	6978.46
474.74	7056.2
475.112	7196.31
475.484	7319.24
475.855	7419.13
476.227	7450.09
476.598	7711.55
476.97	7790.87
477.341	7901.37
477.713	8033.8
478.084	8081.48
478.455	8316.5
478.827	8394.69
479.198	8657.06
479.569	8640.11
479.94	8907.68
480.311	9008.24
480.682	9272.41
481.053	9399.87
481.424	9590.6
481.795	9671.95
482.166	9823.36
482.537	9982.68
482.908	10152.61
483.279	10179.73
483.65	10515.32
484.021	10666.73
484.391	10724.8
484.762	10894.06
485.133	10932.25
485.503	11205.69
485.874	11417.89
486.244	11452.24
486.615	11654.95
486.985	11840.25
487.356	12081.6
487.726	12132.9
488.097	12372.9
488.467	12441.14
488.837	12705.54
489.207	12795.48
489.578	13045.65
489.948	13139.43
490.318	13284.96
490.688	13458.29
491.058	13610.15
491.428	13883.59
491.798	13941.89
492.168	14164.71
492.538	14247.65
492.908	14470.92
493.278	14633.85
493.648	14652.61
494.017	14860.51
494.387	14973.28
494.757	15172.82
495.126	15213.72
495.496	15348.86
495.866	15560.38
496.235	15679.25
496.605	15813.03
496.974	15872.01
497.344	16123.3
497.713	16167.82
498.082	16324.43
498.452	16522.84
498.821	16587.02
499.19	16607.13
499.559	16814.59
499.928	16983.85
500.298	17035.37
500.667	17200.56
501.036	17204.18
501.405	17367.57
501.774	17390.16
502.143	17600.33
502.512	17721.91
502.88	17895.91
503.249	17917.83
503.618	18106.08
503.987	18183.59
504.356	18321.21
504.724	18388.56
505.093	18576.35
505.462	18659.51
505.83	18756
506.199	18988.77
506.567	19263.11
506.936	19180.63
507.304	19312.15
507.672	19477.57
508.041	19550.11
508.409	19655.64
508.777	19897.22
509.145	20058.79
509.514	20084.33
509.882	20281.16
510.25	20391.89
510.618	20482.06
510.986	20600.93
511.354	20804.99
511.722	20957.08
512.09	21149.84
512.458	21231.65
512.826	21400
513.193	21478.19
513.561	21481.58
513.929	21868.69
514.297	21934
514.664	22156.82
515.032	22255.35
515.4	22395.91
515.767	22594.32
516.135	22707.31
516.502	22599.52
516.869	23116.79
517.237	23170.58
517.604	23227.98
517.972	23530.79
518.339	23651.69
518.706	23738.47
519.073	23856.66
519.44	23949.54
519.808	24418.68
520.175	24355.63
520.542	24588.17
520.909	24742.29
521.276	24820.25
521.643	25093.01
522.009	25229.05
522.376	25525.77
522.743	25690.96
523.11	25974.57
523.477	26161.91
523.843	26358.06
524.21	26659.98
524.577	26786.3
524.943	26970.03
525.31	27090.25
525.676	27333.63
526.043	27482.1
526.409	27575.89
526.776	27961.41
527.142	27997.79
527.508	28145.14
527.874	28491.34
528.241	28696.53
528.607	28664.44
528.973	28984.89
529.339	29018.33
529.705	29332.45
530.071	29421.03
530.437	29670.52
530.803	29879.33
531.169	30050.85
531.535	29966.33
531.901	30237.28
532.267	30281.8
532.632	30541.23
532.998	30708.23
533.364	30861.9
533.73	31107.32
534.095	31240.65
534.461	31158.62
534.826	31523.13
535.192	31759.05
535.557	31957.69
535.923	31767.87
536.288	31856.68
536.653	32157.69
537.019	32105.71
537.384	32280.62
537.749	32476.32
538.114	32546.38
538.479	32660.27
538.845	32813.94
539.21	32764.9
539.575	33028.4
539.94	33032.24
540.305	33396.52
540.67	33274.49
541.034	33393.81
541.399	33481.27
541.764	33658.44
542.129	33756.74
542.494	33846.45
542.858	34031.08
543.223	34168.48
543.587	34310.4
543.952	34319.21
544.316	34425.65
544.681	34529.37
545.045	34705.19
545.41	34819.76
545.774	35036.25
546.138	35008.23
546.503	35024.95
546.867	35172.75
547.231	35412.52
547.595	35473.53
547.959	35495.9
548.324	35670.14
548.688	35872.62
549.052	35944.7
549.416	35966.17
549.779	35999.17
550.143	36270.57
550.507	36434.18
550.871	36401.42
551.235	36430.57
551.599	36768.41
551.962	36846.6
552.326	36967.5
552.689	37288.62
553.053	37205.69
553.417	37222.86
553.78	37738.33
554.143	37574.72
554.507	37894.03
554.87	37997.53
555.234	38301.03
555.597	38110.3
555.96	38360.01
556.323	38403.85
556.686	38529.95
557.05	38749.6
557.413	38845.87
557.776	38939.88
558.139	39172.19
558.502	39391.17
558.865	39506.64
559.228	39754.32
559.59	39852.17
559.953	40034.09
560.316	40401.54
560.679	40300.3
561.041	40681.98
561.404	40774.41
561.767	41088.52
562.129	40890.79
562.492	41356.09
562.854	41294.39
563.217	41374.62
563.579	41670.43
563.941	41916.98
564.304	42013.02
564.666	42252.56
565.028	42310.64
565.39	42404.65
565.753	42702.04
566.115	42797.41
566.477	43067
566.839	43086.21
567.201	43354.68
567.563	43302.25
567.925	43572.98
568.287	43671.51
568.648	43804.16
569.01	44045.51
569.372	44368.44
569.734	44234.2
570.095	44523.91
570.457	44541.99
570.819	44679.62
571.18	44604.59
571.542	45011.81
571.903	44979.27
572.265	45292.48
572.626	45332.48
572.987	45412.03
573.349	45513.04
573.71	45606.15
574.071	45727.95
574.432	45911.67
574.794	46084.55
575.155	46058.79
575.516	46020.15
575.877	46220.59
576.238	46257.2
576.599	46412.45
576.96	46474.82
577.32	46524.31
577.681	46619.9
578.042	46761.82
578.403	46860.12
578.763	46872.1
579.124	46884.76
579.485	46969.73
579.845	47109.61
580.206	47027.35
580.566	47078.65
580.927	47049.27
581.287	47356.38
581.648	47087.69
582.008	47426.89
582.368	47192.77
582.728	47325.42
583.089	47251.07
583.449	47267.8
583.809	47294.46
584.169	47374.01
584.529	47372.2
584.889	47632.76
585.249	47390.73
585.609	47145.77
585.969	47480.67
586.329	47395.25
586.688	47394.8
587.048	47443.16
587.408	47368.81
587.768	47361.13
588.127	47315.93
588.487	47241.13
588.846	47691.06
589.206	47376.72
589.565	47351.41
589.925	47635.92
590.284	47471.18
590.643	47461.24
591.003	47567
591.362	47613.1
591.721	47617.39
592.08	47530.39
592.44	47639.76
592.799	47675.24
593.158	47501.91
593.517	47649.71
593.876	47662.14
594.235	47658.75
594.593	47609.03
594.952	47714.79
595.311	47535.13
595.67	47646.77
596.029	47837.95
596.387	47868.23
596.746	47852.64
597.104	47709.59
597.463	47843.6
597.822	47951.62
598.18	47832.75
598.538	47855.35
598.897	47936.03
599.255	47655.58
599.613	48364.49
599.972	48004.95
600.33	48051.96
600.688	48122.92
601.046	48039.3
601.404	48231.39
601.762	48060.54
602.12	48382.8
602.478	48352.06
602.836	48397.94
603.194	48274.1
603.552	48318.84
603.91	48231.16
604.268	48381.89
604.625	48303.93
604.983	48433.42
605.341	48299.41
605.698	48447.43
606.056	48562.45
606.413	48437.03
606.771	48594.99
607.128	48644.94
607.485	48493.75
607.843	48549.8
608.2	48707.31
608.557	48863.91
608.914	48773.29
609.272	48933.29
609.629	49057.58
609.986	48974.87
610.343	48993.4
610.7	49122.89
611.057	49034.3
611.414	49044.7
611.771	49107.3
612.127	49284.24
612.484	49242.89
612.841	49313.62
613.198	49176.67
613.554	49310.45
613.911	49382.77
614.267	49408.53
614.624	49373.73
614.98	49454.63
615.337	49564.01
615.693	49635.64
616.05	49480.62
616.406	49749.99
616.762	49613.72
617.118	49524.91
617.475	49582.54
617.831	49635.64
618.187	49707.51
618.543	49720.39
618.899	49958.57
619.255	49892.59
619.611	49797.67
619.967	49911.34
620.323	50023.66
620.678	49872.25
621.034	49807.39
621.39	49860.04
621.746	49794.28
622.101	50098.46
622.457	49864.34
622.812	49874.28
623.168	49965.58
623.523	50092.81
623.879	50142.52
624.234	49882.19
624.589	49985.69
624.945	50060.94
625.3	50079.7
625.655	50025.92
626.01	50056.42
626.365	50052.36
626.72	50067.5
627.075	49923.32
627.43	49956.09
627.785	49750.22
628.14	49870.67
628.495	49971.91
628.85	49862.53
629.205	49849.42
629.559	50015.52
629.914	49734.17
630.269	49762.42
630.623	49797.9
630.978	49571.92
631.332	49768.75
631.687	49720.39
632.041	49540.96
632.396	49741.86
632.75	49571.69
633.104	49622.99
633.459	49398.81
633.813	49494.63
634.167	49443.33
634.521	49374.41
634.875	49408.98
635.229	49398.36
635.583	49228.42
635.937	49239.04
636.291	49083.79
636.645	49179.84
636.999	49022.78
637.352	48983.23
637.706	48808.1
638.06	49015.77
638.413	48854.87
638.767	48785.04
639.121	48838.38
639.474	48594.09
639.828	48759.96
640.181	48656.91
640.534	48640.42
640.888	48544.37
641.241	48420.76
641.594	48574.65
641.947	48682.22
642.301	48391.38
642.654	48401.55
643.007	48386.19
643.36	48282.01
643.713	48331.72
644.066	48366.98
644.419	48160.65
644.771	47996.14
645.124	47702.36
645.477	47594.79
645.83	47212.43
646.182	47104.64
646.535	46851.99
646.888	47035.71
647.24	46780.13
647.593	47071.87
647.945	46780.8
648.298	46637.53
648.65	46665.78
649.002	46414.71
649.355	46630.3
649.707	46550.98
650.059	46766.57
650.411	47140.79
650.763	47304.86
651.115	47569.71
651.467	47363.84
651.819	47423.95
652.171	47344.4
652.523	47178.08
652.875	47193.9
653.227	46974.02
653.578	47308.02
653.93	47138.31
654.282	47042.49
654.633	46942.38
654.985	46934.25
655.337	46969.27
655.688	46952.78
656.039	47025.32
656.391	46803.85
656.742	46799.56
657.094	46823.51
657.445	46936.51
657.796	46744.19
658.147	46665.1
658.498	46636.4
658.849	46738.09
659.2	46634.37
659.551	46631.66
659.902	46622.16
660.253	46658.1
660.604	46653.12
660.955	46350.98
661.306	46651.09
661.656	46480.92
662.007	46501.49
662.358	46428.04
662.708	46470.3
663.059	46422.17
663.409	46238.67
663.76	46467.59
664.11	46349.85
664.461	46410.87
664.811	46373.58
665.161	46303.98
665.511	46315.73
665.862	46236.19
666.212	46221.04
666.562	46351.44
666.912	46132.01
667.262	46175.62
667.612	46236.19
667.962	46152.57
668.312	46068.05
668.662	46217.43
669.011	46173.36
669.361	45980.15
669.711	46006.36
670.06	46014.72
670.41	45904.89
670.76	45956.87
671.109	45882.07
671.459	45865.35
671.808	45915.52
672.157	45988.73
672.507	45628.97
672.856	45677.56
673.205	45729.53
673.554	45871.22
673.904	45645.92
674.253	45754.62
674.602	45664
674.951	45226.95
675.3	45033.73
675.649	45608.41
675.998	45532.7
676.346	45502.65
676.695	45575.19
677.044	45384.68
677.393	45327.51
677.741	45465.36
678.09	45240.05
678.438	45146.04
678.787	45490.44
679.135	45208.87
679.484	44962.09
679.832	45262.88
680.181	44955.99
680.529	45104.01
680.877	44878.03
681.225	44820.86
681.573	45011.58
681.922	44565.27
682.27	44681.88
682.618	44655.89
682.966	44531.6
683.314	44619.28
683.661	44423.8
684.009	44351.94
684.357	44290.47
684.705	44172.51
685.053	44186.52
685.4	44191.27
685.748	44000.09
686.095	44010.26
686.443	43819.07
686.79	43565.3
687.138	43739.3
687.485	43855.23
687.832	43495.47
688.18	43652.52
688.527	43300.67
688.874	43469.48
689.221	43265.42
689.568	43018.42
689.915	42977.06
690.262	43105.65
690.609	42888.02
690.956	42738.88
691.303	42779.1
691.65	42674.7
691.997	42468.6
692.344	42387.02
692.69	42311.09
693.037	42320.36
693.383	42131.89
693.73	42122.17
694.077	41801.05
694.423	41898.45
694.769	41706.14
695.116	41568.96
695.462	41597.66
695.808	41573.94
696.155	41575.29
696.501	41221.63
696.847	41326.94
697.193	40746.61
697.539	41187.28
697.885	40805.82
698.231	40718.14
698.577	40649.21
698.923	40577.13
699.269	40354.08
699.614	40186.85
699.96	40149.57
700.306	40141.43
700.651	40005.16
700.997	39874.77
701.342	39917.48
701.688	39565.4
702.033	39382.58
702.379	39650.6
702.724	39415.57
703.069	39512.29
703.415	38915.7
703.76	39038.86
704.105	38972.87
704.45	38924.29
704.795	38792.77
705.14	38596.39
705.485	38657.85
705.83	38448.14
706.175	38533.34
706.52	38423.74
706.865	38283.4
707.209	38246.11
707.554	38113.69
707.899	38171.31
708.243	37833.02
708.588	37953.69
708.932	37648.84
709.277	37698.33
709.621	37486.36
709.966	37322.07
710.31	37447.72
710.654	37014.06
710.998	36946.71
711.342	37008.41
711.687	36932.48
712.031	36874.4
712.375	36838.92
712.719	36858.58
713.063	36725.48
713.407	36874.62
713.75	36565.48
714.094	36528.64
714.438	36397.8
714.782	36466.05
715.125	36263.79
715.469	36377.69
715.812	36049.56
716.156	35886.85
716.499	35896.8
716.843	35857.48
717.186	35666.75
717.53	35906.29
717.873	35756.91
718.216	35738.61
718.559	35661.1
718.902	35444.83
719.246	35437.83
719.589	35329.13
719.932	35231.5
720.275	35137.27
720.617	35127.32
720.96	35119.87
721.303	35049.59
721.646	35078.51
721.989	34678.3
722.331	35009.59
722.674	34793.55
723.016	34886.43
723.359	34611.63
723.701	34572.54
724.044	34434.24
724.386	34350.17
724.729	34435.14
725.071	34347.91
725.413	34320.57
725.755	34284.64
726.097	34235.6
726.439	33896.17
726.782	33875.38
727.124	34168.71
727.465	33917.19
727.807	33869.73
728.149	33809.39
728.491	33606.24
728.833	33713.8
729.175	33621.15
729.516	33383.87
729.858	33502.96
730.199	33591.55
730.541	33535.05
730.882	33319.91
731.224	33473.81
731.565	33095.74
731.906	33075.4
732.248	33271.33
732.589	33061.16
732.93	32914.95
733.271	32945.01
733.612	32932.58
733.953	32908.85
734.294	32809.65
734.635	32814.84
734.976	32702.08
735.317	32599.03
735.658	32540.95
735.999	32709.99
736.339	32489.43
736.68	32574.62
737.021	32431.12
737.361	32175.54
737.702	32368.08
738.042	32222.54
738.383	32110.68
738.723	32364.91
739.063	32069.1
739.404	32128.76
739.744	32013.06
740.084	31925.15
740.424	31839.5
740.764	31935.77
741.104	32012.38
741.444	31700.07
741.784	31584.82
742.124	31759.73
742.464	31566.74
742.804	31564.71
743.143	31509.57
743.483	31489.45
743.823	31286.07
744.162	31282.91
744.502	31408.33
744.841	31312.74
745.181	31317.93
745.52	31049.24
745.86	31089.92
746.199	30990.71
746.538	30868.91
746.877	31098.73
747.216	30952.07
747.556	30726.99
747.895	30883.14
748.234	30830.26
748.573	30668.91
748.911	30612.19
749.25	30582.81
749.589	30444.28
749.928	30402.25
750.267	30462.59
750.605	30332.42
750.944	30154.12
751.283	30087.01
751.621	30253.78
751.96	29925.2
752.298	30017.63
752.636	29969.95
752.975	29861.47
753.313	29747.35
