Data from breadboard_white_FLMS001491_00058.txt Node
Date: Wed Feb 08 10:47:57 GMT 2017
User: dcchb
Spectrometer: FLMS00149
Trigger mode: 0
Integration Time (sec): 2.000000E-2
Scans to average: 10
Electric dark correction enabled: true
Nonlinearity correction enabled: false
Boxcar width: 0
XAxis mode: Wavelengths
Number of Pixels in Spectrum: 2048
>>>>>Begin Spectral Data<<<<<
341.393	-23.93
341.776	-23.93
342.16	-23.93
342.543	-80.65
342.927	-65.73
343.31	-70.48
343.693	-71.83
344.077	-73.87
344.46	-49.69
344.843	-63.25
345.226	-34.1
345.61	-26.19
345.993	-4.72
346.376	7.26
346.759	-0.88
347.142	22.17
347.525	27.37
347.908	63.53
348.291	71.44
348.674	98.33
349.057	104.88
349.44	148.05
349.823	148.72
350.206	166.8
350.588	221.72
350.971	252
351.354	254.03
351.737	265.33
352.119	263.3
352.502	257.65
352.884	282.51
353.267	326.8
353.65	327.25
354.032	330.87
354.414	328.83
354.797	332.45
355.179	345.78
355.562	326.57
355.944	350.08
356.326	355.95
356.709	348.49
357.091	358.89
357.473	369.06
357.855	375.84
358.238	388.49
358.62	381.94
359.002	356.63
359.384	374.03
359.766	345.78
360.148	370.41
360.53	357.98
360.912	353.01
361.294	372.45
361.676	366.8
362.057	364.31
362.439	375.16
362.821	366.35
363.203	357.76
363.584	343.52
363.966	386.91
364.348	354.82
364.729	351.43
365.111	347.36
365.493	364.54
365.874	345.33
366.256	350.53
366.637	342.39
367.019	347.82
367.4	347.36
367.781	368.83
368.163	366.57
368.544	369.96
368.925	355.95
369.306	348.49
369.688	361.83
370.069	360.92
370.45	347.14
370.831	367.02
371.212	371.09
371.593	371.32
371.974	366.57
372.355	386.23
372.736	364.54
373.117	370.87
373.498	369.96
373.879	359.57
374.26	369.06
374.641	361.15
375.021	367.93
375.402	363.63
375.783	372.9
376.163	414.25
376.544	396.63
376.925	368.38
377.305	384.88
377.686	380.58
378.066	404.99
378.447	414.48
378.827	391.43
379.208	412.45
379.588	404.31
379.968	412.9
380.349	420.36
380.729	402.05
381.109	412.67
381.489	411.99
381.87	412.22
382.25	420.81
382.63	439.79
383.01	409.73
383.39	427.36
383.77	442.5
384.15	421.71
384.53	445.44
384.91	434.82
385.29	451.09
385.67	445.67
386.049	457.64
386.429	446.57
386.809	465.78
387.189	482.73
387.568	457.19
387.948	473.01
388.328	490.64
388.707	485.21
389.087	494.48
389.466	493.8
389.846	488.83
390.225	515.95
390.605	510.75
390.984	514.59
391.363	509.17
391.743	527.7
392.122	535.61
392.501	529.05
392.881	542.84
393.26	553.23
393.639	574.93
394.018	590.52
394.397	576.96
394.776	545.55
395.155	590.52
395.534	587.81
395.913	591.88
396.292	608.37
396.671	619.45
397.05	633.68
397.429	642.05
397.808	647.24
398.186	637.3
398.565	653.8
398.944	656.06
399.323	677.98
399.701	687.02
400.08	707.58
400.458	709.84
400.837	719.56
401.215	727.01
401.594	711.42
401.972	738.77
402.351	764.08
402.729	771.76
403.107	797.3
403.486	812.21
403.864	815.37
404.242	823.28
404.62	818.31
404.999	845.2
405.377	839.55
405.755	861.7
406.133	877.07
406.511	896.73
406.889	911.64
407.267	939.44
407.645	964.07
408.023	988.25
408.401	977.63
408.779	994.13
409.156	1033.22
409.534	1033.67
409.912	1048.81
410.29	1095.82
410.667	1104.18
411.045	1144.63
411.422	1143.73
411.8	1167.68
412.178	1202.48
412.555	1235.48
412.933	1230.05
413.31	1272.31
413.687	1269.6
414.065	1297.17
414.442	1336.26
414.819	1352.54
415.197	1374.68
415.574	1410.16
415.951	1406.54
416.328	1423.95
416.705	1437.5
417.082	1451.06
417.46	1515.69
417.837	1521.34
418.214	1562.02
418.591	1543.26
418.967	1562.93
419.344	1598.18
419.721	1614.45
420.098	1594.79
420.475	1643.37
420.852	1681.79
421.228	1720.21
421.605	1692.87
421.982	1706.42
422.358	1771.96
422.735	1795.46
423.111	1812.64
423.488	1856.02
423.864	1841.11
424.241	1872.3
424.617	1891.5
424.994	1907.55
425.37	1943.71
425.746	1944.84
426.123	1971.28
426.499	2025.96
426.875	2041.56
427.251	2050.6
427.627	2132.85
428.003	2106.87
428.379	2172.4
428.756	2146.41
429.132	2240.87
429.507	2265.05
429.883	2265.05
430.259	2313.41
430.635	2365.39
431.011	2357.93
431.387	2429.34
431.763	2460.98
432.138	2491.71
432.514	2523.35
432.89	2516.8
433.265	2575.33
433.641	2598.38
434.016	2651.71
434.392	2704.59
434.767	2761.99
435.143	2739.84
435.518	2788.43
435.894	2829.56
436.269	2872.5
436.644	2907.3
437.02	2944.13
437.395	2935.77
437.77	3024.13
438.145	3094.41
438.52	3088.08
438.895	3086.95
439.271	3091.25
439.646	3209.66
440.021	3209.21
440.395	3234.75
440.77	3185.48
441.145	3265.71
441.52	3326.49
441.895	3285.37
442.27	3375.53
442.645	3363.56
443.019	3441.75
443.394	3405.14
443.769	3468.64
444.143	3430.22
444.518	3516.55
444.892	3539.82
445.267	3600.61
445.641	3626.15
446.016	3617.79
446.39	3704.11
446.764	3675.41
447.139	3687.61
447.513	3746.37
447.887	3726.48
448.262	3787.73
448.636	3766.03
449.01	3883.99
449.384	3869.31
449.758	3921.28
450.132	3989.98
450.506	3986.82
450.88	4008.96
451.254	4054.16
451.628	4113.14
452.002	4115.85
452.376	4177.77
452.75	4219.35
453.123	4292.12
453.497	4324.89
453.871	4364.89
454.244	4424.54
454.618	4465.9
454.992	4553.58
455.365	4572.34
455.739	4665.44
456.112	4723.97
456.486	4744.54
456.859	4820.47
457.232	4888.71
457.606	4918.09
457.979	5007.13
458.352	5061.82
458.725	5138.42
459.099	5216.16
459.472	5278.99
459.845	5320.34
460.218	5379.1
460.591	5449.6
460.964	5492.31
461.337	5585.42
461.71	5682.36
462.083	5784.73
462.456	5750.39
462.829	5815.92
463.201	5905.18
463.574	5983.6
463.947	6047.55
464.32	6233.54
464.692	6247.55
465.065	6317.6
465.438	6439.41
465.81	6464.04
466.183	6508.33
466.555	6659.74
466.928	6746.29
467.3	6783.8
467.672	6866.06
468.045	7088.88
468.417	7050.01
468.789	7083.91
469.161	7237.13
469.534	7337.91
469.906	7560.51
470.278	7546.5
470.65	7701.52
471.022	7836.43
471.394	7981.97
471.766	8008.86
472.138	8199.81
472.51	8290.21
472.882	8459.47
473.253	8543.31
473.625	8685.68
473.997	8883.41
474.369	8886.57
474.74	8976.29
475.112	9174.7
475.484	9377.63
475.855	9524.98
476.227	9597.06
476.598	9856.04
476.97	10001.57
477.341	10193.66
477.713	10292.19
478.084	10387.33
478.455	10719.07
478.827	10769.69
479.198	11137.59
479.569	11084.71
479.94	11505.26
480.311	11557.69
480.682	11837.91
481.053	12067.96
481.424	12255.07
481.795	12420.94
482.166	12625.68
482.537	12910.65
482.908	13031.55
483.279	13267.7
483.65	13382.5
484.021	13744.75
484.391	13823.17
484.762	13998.08
485.133	14140.45
485.503	14333.66
485.874	14609.36
486.244	14789.92
486.615	15127.54
486.985	15192.17
487.356	15571.6
487.726	15701.31
488.097	15966.39
488.467	16032.38
488.837	16418.81
489.207	16616.99
489.578	16869.64
489.948	17000.71
490.318	17384.43
490.688	17296.52
491.058	17651.09
491.428	17861.03
491.798	18018.99
492.168	18410.39
492.538	18388.7
492.908	18658.52
493.278	19020.77
493.648	19105.29
494.017	19306.87
494.387	19491.95
494.757	19735.33
495.126	19846.51
495.496	19956.34
495.866	20151.14
496.235	20350.68
496.605	20513.16
496.974	20726.04
497.344	20736.43
497.713	20943.88
498.082	21053.26
498.452	21382.97
498.821	21417.54
499.19	21613.02
499.559	21886.68
499.928	22016.85
500.298	22031.09
500.667	22297.52
501.036	22335.71
501.405	22544.29
501.774	22629.72
502.143	22834
502.512	23014.79
502.88	23239.19
503.249	23230.6
503.618	23375.46
503.987	23635.56
504.356	23766.41
504.724	23888.21
505.093	24137.25
505.462	24089.11
505.83	24337.92
506.199	24573.39
506.567	24833.05
506.936	24879.37
507.304	25218.12
507.672	25150.78
508.041	25420.38
508.409	25654.95
508.777	25817.65
509.145	25971.1
509.514	26082.73
509.882	26285.89
510.25	26487.24
510.618	26530.86
510.986	26711.42
511.354	26962.71
511.722	27313.21
512.09	27483.6
512.458	27450.38
512.826	27772.63
513.193	27945.96
513.561	28131.27
513.929	28383.01
514.297	28583.23
514.664	28792.94
515.032	28834.07
515.4	29198.13
515.767	29339.82
516.135	29528.74
516.502	29378.01
516.869	29944.33
517.237	30103.87
517.604	30022.06
517.972	30476.97
518.339	30618.88
518.706	30751.08
519.073	31031.75
519.44	31032.43
519.808	31576.6
520.175	31516.71
520.542	32073.76
520.909	32147.21
521.276	32150.14
521.643	32582.9
522.009	32835.1
522.376	32989.44
522.743	33266.95
523.11	33646.6
523.477	33863.32
523.843	33991.9
524.21	34542.85
524.577	34761.15
524.943	34807.93
525.31	35174.47
525.676	35380.79
526.043	35684.29
526.409	35776.49
526.776	36226.42
527.142	36293.09
527.508	36554.55
527.874	36833.18
528.241	36966.29
528.607	37235.21
528.973	37535.09
529.339	37620.96
529.705	38037.67
530.071	38289.19
530.437	38420.71
530.803	38650.09
531.169	38800.59
531.535	38802.4
531.901	38983.86
532.267	39291.2
532.632	39572.1
532.998	39502.94
533.364	40000.11
533.73	40069.03
534.095	40257.05
534.461	40431.96
534.826	40685.51
535.192	40738.84
535.557	41204.59
535.923	41087.99
536.288	41413.4
536.653	41480.52
537.019	41377.92
537.384	41677.35
537.749	41841.41
538.114	42048.41
538.479	41987.85
538.845	42261.52
539.21	42329.08
539.575	42649.53
539.94	42529.31
540.305	42951.89
540.67	42847.72
541.034	43162.96
541.399	43257.87
541.764	43261.49
542.129	43579.22
542.494	43649.28
542.858	43780.12
543.223	44012.88
543.587	44185.76
543.952	44101.24
544.316	44360.22
544.681	44397.28
545.045	44673.43
545.41	44731.06
545.774	44995.68
546.138	44986.19
546.503	45000.88
546.867	45054.44
547.231	45385.05
547.595	45493.97
547.959	45540.75
548.324	45578.49
548.688	45874.3
549.052	45906.62
549.416	45984.36
549.779	46093.96
550.143	46335.53
550.507	46692.59
550.871	46809.87
551.235	46653.94
551.599	47015.74
551.962	47052.58
552.326	47140.26
552.689	47486.69
553.053	47246.7
553.417	47595.84
553.78	48024.53
554.143	47849.17
554.507	48025.43
554.87	48180
555.234	48414.8
555.597	48392.88
555.96	48616.15
556.323	48742.7
556.686	48770.5
557.05	49045.74
557.413	49158.96
557.776	49221.33
558.139	49558.95
558.502	49595.56
558.865	49663.36
559.228	49982.67
559.59	50001.88
559.953	50237.8
560.316	50620.17
560.679	50494.52
561.041	50731.12
561.404	50942.42
561.767	50993.04
562.129	50969.54
562.492	51400.03
562.854	51380.82
563.217	51344.44
563.579	51628.05
563.941	51794.82
564.304	51951.43
564.666	52039.56
565.028	52077.08
565.39	52230.07
565.753	52470.74
566.115	52616.72
566.477	52636.38
566.839	52681.13
567.201	52974.23
567.563	52943.72
567.925	53149.82
568.287	53241.79
568.648	53337.38
569.01	53461.9
569.372	53727.88
569.734	53597.26
570.095	53838.39
570.457	53921.55
570.819	53911.83
571.18	54013.3
571.542	54219.39
571.903	54267.53
572.265	54296.45
572.626	54419.16
572.987	54501.42
573.349	54486.51
573.71	54693.73
574.071	54719.95
574.432	54840.62
574.794	55093.95
575.155	55000.62
575.516	54959.04
575.877	55089.65
576.238	55128.07
576.599	55225.24
576.96	55282.42
577.32	55185.7
577.681	55370.32
578.042	55465.69
578.403	55472.69
578.763	55435.86
579.124	55508.17
579.485	55493.71
579.845	55673.59
580.206	55590.2
580.566	55555.18
580.927	55640.83
581.287	55725.34
581.648	55708.62
582.008	55852.8
582.368	55778.67
582.728	55834.27
583.089	55842.63
583.449	55756.3
583.809	55826.58
584.169	55872.91
584.529	55778.9
584.889	55989.29
585.249	55834.72
585.609	55766.7
585.969	55942.29
586.329	55827.71
586.688	55920.82
587.048	55928.95
587.408	55822.97
587.768	55970.08
588.127	55889.41
588.487	55919.91
588.846	56077.88
589.206	55862.97
589.565	55893.93
589.925	55975.51
590.284	55894.15
590.643	55965.11
591.003	56072
591.362	56095.05
591.721	56093.92
592.08	56030.19
592.44	56011.66
592.799	56092.11
593.158	56039.91
593.517	56061.38
593.876	56057.76
594.235	56001.49
594.593	56060.93
594.952	56166.01
595.311	56055.73
595.67	56102.06
596.029	56293.01
596.387	56257.31
596.746	56202.62
597.104	56158.33
597.463	56103.19
597.822	56224.76
598.18	56217.76
598.538	56190.87
598.897	56392.9
599.255	56146.57
599.613	56501.59
599.972	56358.55
600.33	56442.16
600.688	56306.34
601.046	56415.49
601.404	56498.43
601.762	56441.03
602.12	56577.07
602.478	56594.25
602.836	56584.98
603.194	56446.45
603.552	56586.56
603.91	56469.05
604.268	56561.25
604.625	56503.18
604.983	56647.58
605.341	56497.53
605.698	56705.43
606.056	56701.14
606.413	56684.64
606.771	56782.72
607.128	56828.14
607.485	56666.33
607.843	56756.05
608.2	56875.37
608.557	56893.45
608.914	56813
609.272	56921.7
609.629	57029.94
609.986	57134.12
610.343	56935.03
610.7	57175.25
611.057	57055.25
611.414	57045.31
611.771	57060.9
612.127	57267.68
612.484	57257.51
612.841	57314.23
613.198	57209.37
613.554	57135.93
613.911	57352.87
614.267	57341.8
614.624	57329.14
614.98	57329.14
615.337	57434.68
615.693	57407.78
616.05	57380.89
616.406	57490.72
616.762	57486.43
617.118	57491.62
617.475	57389.25
617.831	57521.45
618.187	57558.51
618.543	57584.28
618.899	57700.88
619.255	57639.64
619.611	57620.21
619.967	57716.93
620.323	57776.81
620.678	57619.53
621.034	57619.3
621.39	57559.19
621.746	57620.43
622.101	57871.5
622.457	57652.07
622.812	57699.08
623.168	57786.31
623.523	57735.91
623.879	57819.3
624.234	57634.22
624.589	57678.96
624.945	57782.46
625.3	57721.22
625.655	57737.95
626.01	57748.57
626.365	57716.25
626.72	57664.05
627.075	57774.55
627.43	57723.93
627.785	57632.64
628.14	57728
628.495	57724.39
628.85	57694.33
629.205	57621.79
629.559	57731.84
629.914	57570.49
630.269	57655.24
630.623	57567.78
630.978	57453.66
631.332	57634.45
631.687	57680.77
632.041	57486.65
632.396	57537.5
632.75	57463.15
633.104	57520.55
633.459	57356.03
633.813	57324.62
634.167	57378.41
634.521	57286.88
634.875	57329.82
635.229	57328.24
635.583	57167.56
635.937	57203.04
636.291	57106.78
636.645	57121.01
636.999	57047.57
637.352	57088.47
637.706	57037.17
638.06	57134.35
638.413	57011.41
638.767	56930.28
639.121	57037.17
639.474	56807.57
639.828	56845.09
640.181	56880.57
640.534	56838.99
640.888	56749.27
641.241	56660.01
641.594	56727.8
641.947	56857.97
642.301	56671.08
642.654	56685.32
643.007	56677.86
643.36	56615.49
643.713	56570.52
644.066	56675.6
644.419	56531.88
644.771	56348.38
645.124	56148.83
645.477	56048.5
645.83	55853.93
646.182	55696.87
646.535	55623.65
646.888	55670.43
647.24	55493.26
647.593	55633.14
647.945	55549.98
648.298	55390.89
648.65	55363.54
649.002	55295.3
649.355	55403.32
649.707	55347.05
650.059	55498.91
650.411	55783.42
650.763	55877.2
651.115	56085.33
651.467	56003.98
651.819	55952
652.171	55878.33
652.523	55736.19
652.875	55878.56
653.227	55699.13
653.578	55875.62
653.93	55871.55
654.282	55694.84
654.633	55688.96
654.985	55664.33
655.337	55676.76
655.688	55659.81
656.039	55782.74
656.391	55475.41
656.742	55514.73
657.094	55535.97
657.445	55640.83
657.796	55545.01
658.147	55514.05
658.498	55556.53
658.849	55527.83
659.2	55491
659.551	55397.22
659.902	55578.23
660.253	55452.36
660.604	55459.13
660.955	55338.91
661.306	55407.16
661.656	55380.94
662.007	55418.91
662.358	55373.94
662.708	55296.43
663.059	55278.57
663.409	55149.99
663.76	55394.73
664.11	55322.64
664.461	55347.27
664.811	55256.43
665.161	55220.27
665.511	55221.18
665.862	55223.66
666.212	55265.24
666.562	55328.74
666.912	55207.16
667.262	55088.07
667.612	55181.18
667.962	55144.57
668.312	55034.06
668.662	55275.64
669.011	55163.78
669.361	55115.42
669.711	55004.68
670.06	55118.8
670.41	54992.48
670.76	54973.27
671.109	55069.99
671.459	54978.7
671.808	54905.03
672.157	55019.37
672.507	54799.94
672.856	54772.15
673.205	54847.85
673.554	54931.69
673.904	54819.15
674.253	54917
674.602	54831.81
674.951	54471.36
675.3	54314.31
675.649	54660.06
675.998	54669.55
676.346	54710.45
676.695	54721.53
677.044	54512.04
677.393	54596.78
677.741	54665.94
678.09	54592.94
678.438	54449.9
678.787	54545.03
679.135	54531.25
679.484	54269.79
679.832	54466.39
680.181	54303.01
680.529	54372.38
680.877	54284.48
681.225	54237.02
681.573	54396.34
681.922	54145.5
682.27	54012.17
682.618	54030.92
682.966	53989.34
683.314	54126.06
683.661	53939.17
684.009	53753.87
684.357	53736.02
684.705	53765.17
685.053	53770.14
685.4	53673.65
685.748	53543.48
686.095	53511.39
686.443	53412.64
686.79	53312.75
687.138	53371.96
687.485	53410.15
687.832	53243.37
688.18	53265.52
688.527	53134.68
688.874	53062.14
689.221	53012.42
689.568	52883.84
689.915	52920.9
690.262	52776.27
690.609	52646.1
690.956	52621.02
691.303	52657.63
691.65	52399.55
691.997	52351.19
692.344	52259.9
692.69	52211.08
693.037	52215.6
693.383	52053.57
693.73	52070.3
694.077	51880.02
694.423	51875.95
694.769	51682.51
695.116	51649.97
695.462	51605.23
695.808	51570.42
696.155	51505.34
696.501	51334.72
696.847	51285.46
697.193	51051.79
697.539	51180.83
697.885	50903.77
698.231	50856.09
698.577	50744.68
698.923	50774.96
699.269	50562.54
699.614	50394.64
699.96	50262.66
700.306	50296.56
700.651	50231.02
700.997	50066.28
701.342	50090.69
701.688	50005.27
702.033	49789.91
702.379	49821.09
702.724	49723.47
703.069	49760.98
703.415	49352.4
703.76	49420.2
704.105	49343.14
704.45	49309.24
704.795	48990.15
705.14	48951.74
705.485	48979.76
705.83	48674
706.175	48750.38
706.52	48616.15
706.865	48505.19
707.209	48420.68
707.554	48351.98
707.899	48348.36
708.243	48124.41
708.588	48106.56
708.932	47966
709.277	47825.89
709.621	47911.76
709.966	47510.87
710.31	47763.52
710.654	47276.07
710.998	47459.12
711.342	47452.34
711.687	47190.88
712.031	47075.17
712.375	46976.19
712.719	47020.26
713.063	46938
713.407	47059.81
713.75	46738.01
714.094	46714.96
714.438	46566.71
714.782	46681.06
715.125	46422.08
715.469	46473.83
715.812	46184.8
716.156	46083.79
716.499	46184.12
716.843	46094.86
717.186	45884.02
717.53	45961.76
717.873	45922.44
718.216	45832.27
718.559	45565.61
718.902	45362.23
719.246	45425.5
719.589	45245.17
719.932	45254.21
720.275	45159.29
720.617	45202.68
720.96	45150.48
721.303	45020.09
721.646	45079.29
721.989	44839.53
722.331	44819.19
722.674	44753.2
723.016	44759.76
723.359	44674.56
723.701	44719.98
724.044	44471.18
724.386	44289.49
724.729	44398.86
725.071	44150.73
725.413	44172.65
725.755	44155.48
726.097	43970.62
726.439	43796.16
726.782	43871.42
727.124	43967.69
727.465	43709.61
727.807	43647.69
728.149	43584.42
728.491	43511.43
728.833	43578.09
729.175	43237.31
729.516	43337.65
729.858	43204.54
730.199	43203.19
730.541	43237.08
730.882	43011.33
731.224	43130.42
731.565	42779.24
731.906	42946.24
732.248	43026.92
732.589	42807.94
732.93	42460.61
733.271	42455.18
733.612	42563.65
733.953	42512.36
734.294	42427.16
734.635	42248.63
734.976	42395.07
735.317	42192.82
735.658	42106.94
735.999	42120.28
736.339	42097.45
736.68	42179.71
737.021	41908.3
737.361	41709.44
737.702	41913.73
738.042	41763.68
738.383	41614.08
738.723	41751.25
739.063	41476
739.404	41621.98
739.744	41620.18
740.084	41316.23
740.424	41307.19
740.764	41282.56
741.104	41299.96
741.444	41062.23
741.784	40991.49
742.124	41155.1
742.464	40866.07
742.804	40819.07
743.143	40720.54
743.483	40869.46
743.823	40447.33
744.162	40543.14
744.502	40573.42
744.841	40335.46
745.181	40526.65
745.52	40414.78
745.86	40361.45
746.199	40241.46
746.538	40188.58
746.877	40237.84
747.216	40202.81
747.556	39945.87
747.895	40012.31
748.234	39796.5
748.573	39630.62
748.911	39687.12
749.25	39642.83
749.589	39518.76
749.928	39441.25
750.267	39428.37
750.605	39098.44
750.944	39247.58
751.283	39041.49
751.621	39284.19
751.96	38904.32
752.298	38868.38
752.636	38877.42
