Data from breadboard_black_back_FLMS001491_00061.txt Node
Date: Wed Feb 08 10:50:43 GMT 2017
User: dcchb
Spectrometer: FLMS00149
Trigger mode: 0
Integration Time (sec): 2.000000E-2
Scans to average: 10
Electric dark correction enabled: true
Nonlinearity correction enabled: false
Boxcar width: 0
XAxis mode: Wavelengths
Number of Pixels in Spectrum: 2048
>>>>>Begin Spectral Data<<<<<
341.393	-33.16
341.776	-33.16
342.16	-33.16
342.543	-53.5
342.927	-71.81
343.31	-77
343.693	-76.55
344.077	-56.67
344.46	-42.88
344.843	-41.98
345.226	-35.87
345.61	-53.28
345.993	-30.23
346.376	3.67
346.759	17.46
347.142	32.6
347.525	37.34
347.908	52.94
348.291	82.77
348.674	74.18
349.057	113.5
349.44	124.12
349.823	137
350.206	156.21
350.588	195.31
350.971	206.38
351.354	223.1
351.737	240.95
352.119	237.11
352.502	267.17
352.884	267.62
353.267	281.18
353.65	293.61
354.032	291.35
354.414	313.49
354.797	314.17
355.179	314.62
355.562	317.11
355.944	339.48
356.326	341.74
356.709	363.21
357.091	335.87
357.473	344.23
357.855	360.27
358.238	344.68
358.62	358.47
359.002	347.62
359.384	352.59
359.766	355.53
360.148	335.64
360.53	346.94
360.912	353.04
361.294	356.88
361.676	349.88
362.057	337.67
362.439	328.18
362.821	331.8
363.203	333.16
363.584	357.56
363.966	332.93
364.348	338.35
364.729	322.53
365.111	343.78
365.493	330.22
365.874	323.21
366.256	327.28
366.637	345.81
367.019	344
367.4	338.35
367.781	338.13
368.163	331.8
368.544	334.06
368.925	331.35
369.306	326.83
369.688	328.86
370.069	331.8
370.45	345.58
370.831	354.85
371.212	326.15
371.593	340.61
371.974	369.99
372.355	352.59
372.736	334.06
373.117	344.45
373.498	361.85
373.879	346.94
374.26	340.84
374.641	332.7
375.021	357.11
375.402	332.48
375.783	339.93
376.163	398.92
376.544	365.47
376.925	362.98
377.305	353.27
377.686	371.8
378.066	364.34
378.447	373.61
378.827	378.35
379.208	377
379.588	376.09
379.968	396.66
380.349	366.6
380.729	384.23
381.109	395.07
381.489	393.72
381.87	396.88
382.25	388.75
382.63	402.98
383.01	382.42
383.39	406.83
383.77	408.63
384.15	399.37
384.53	393.72
384.91	395.75
385.29	412.48
385.67	426.94
386.049	404.79
386.429	412.02
386.809	423.77
387.189	444.34
387.568	434.62
387.948	414.96
388.328	441.17
388.707	436.88
389.087	433.72
389.466	436.2
389.846	454.96
390.225	456.77
390.605	448.63
390.984	447.5
391.363	470.33
391.743	470.78
392.122	471
392.501	486.37
392.881	498.8
393.26	485.47
393.639	505.13
394.018	494.96
394.397	484.79
394.776	479.82
395.155	484.79
395.534	485.92
395.913	523.21
396.292	516.65
396.671	540.83
397.05	484.79
397.429	531.57
397.808	533.6
398.186	523.66
398.565	531.79
398.944	513.49
399.323	529.76
399.701	570.66
400.08	537.67
400.458	548.06
400.837	550.55
401.215	571.57
401.594	576.09
401.972	571.34
402.351	580.38
402.729	595.3
403.107	594.62
403.486	583.54
403.864	591.68
404.242	610.89
404.62	611.11
404.999	604.79
405.377	618.57
405.755	626.25
406.133	623.99
406.511	620.38
406.889	657.21
407.267	645.01
407.645	648.63
408.023	671
408.401	673.94
408.779	680.72
409.156	679.36
409.534	712.58
409.912	687.27
410.29	711.22
410.667	729.53
411.045	714.16
411.422	719.59
411.8	755.97
412.178	740.15
412.555	756.87
412.933	755.97
413.31	736.99
413.687	774.95
414.065	767.04
414.442	797.78
414.819	801.62
415.197	825.8
415.574	838.45
415.951	824.89
416.328	830.77
416.705	810.2
417.082	817.44
417.46	862.41
417.837	880.49
418.214	856.53
418.591	844.78
418.967	840.71
419.344	898.11
419.721	903.54
420.098	889.98
420.475	930.2
420.852	902.18
421.228	936.76
421.605	923.65
421.982	942.63
422.358	984.89
422.735	946.92
423.111	953.03
423.488	969.3
423.864	1000.93
424.241	1003.87
424.617	997.32
424.994	1016.07
425.37	1044.1
425.746	1013.59
426.123	1039.13
426.499	1049.07
426.875	1040.71
427.251	1066.47
427.627	1089.52
428.003	1101.27
428.379	1116.19
428.756	1114.38
429.132	1127.48
429.507	1164.32
429.883	1172.46
430.259	1192.34
430.635	1194.6
431.011	1200.93
431.387	1205.22
431.763	1266.46
432.138	1244.32
432.514	1282.28
432.89	1279.34
433.265	1308.95
433.641	1306.46
434.016	1350.76
434.392	1345.78
434.767	1348.5
435.143	1380.59
435.518	1396.63
435.894	1397.53
436.269	1437.53
436.644	1427.59
437.02	1460.13
437.395	1485.89
437.77	1447.25
438.145	1485.22
438.52	1510.53
438.895	1506.68
439.271	1498.55
439.646	1565.67
440.021	1563.63
440.395	1571.31
440.77	1569.28
441.145	1589.62
441.52	1641.37
441.895	1614.03
442.27	1642.73
442.645	1633.91
443.019	1649.96
443.394	1619.67
443.769	1694.48
444.143	1677.3
444.518	1687.92
444.892	1727.02
445.267	1706.23
445.641	1748.49
446.016	1721.59
446.39	1771.76
446.764	1768.15
447.139	1774.93
447.513	1798.43
447.887	1775.15
448.262	1794.13
448.636	1816.28
449.01	1847.01
449.384	1849.05
449.758	1881.36
450.132	1896.73
450.506	1900.57
450.88	1915.94
451.254	1924.07
451.628	1961.81
452.002	1977.63
452.376	1982.83
452.75	1989.83
453.123	2003.39
453.497	2052.66
453.871	2086.56
454.244	2091.98
454.618	2100.11
454.992	2131.07
455.365	2126.33
455.739	2233.44
456.112	2202.94
456.486	2251.75
456.859	2253.1
457.232	2324.29
457.606	2292.43
457.979	2362.25
458.352	2391.18
458.725	2429.15
459.099	2439.31
459.472	2497.17
459.845	2494.45
460.218	2512.08
460.591	2566.54
460.964	2543.04
461.337	2613.1
461.71	2619.2
462.083	2712.53
462.456	2677.27
462.829	2736.48
463.201	2747.1
463.574	2757.72
463.947	2806.54
464.32	2887.89
464.692	2917.95
465.065	2962.24
465.438	2953.2
465.81	2996.81
466.183	3020.09
466.555	3113.87
466.928	3112.74
467.3	3153.42
467.672	3159.75
468.045	3278.16
468.417	3248.56
468.789	3273.19
469.161	3353.64
469.534	3339.18
469.906	3434.09
470.278	3479.96
470.65	3547.31
471.022	3595.44
471.394	3648.32
471.766	3713.18
472.138	3772.39
472.51	3825.94
472.882	3833.63
473.253	3930.35
473.625	3938.94
473.997	4038.37
474.369	4076.11
474.74	4146.39
475.112	4186.61
475.484	4260.06
475.855	4310.45
476.227	4425.93
476.598	4480.84
476.97	4546.15
477.341	4639.71
477.713	4708.63
478.084	4733.27
478.455	4855.52
478.827	4861.4
479.198	5042.41
479.569	5044.9
479.94	5202.86
480.311	5221.61
480.682	5294.61
481.053	5446.24
481.424	5542.51
481.795	5625.45
482.166	5662.51
482.537	5755.39
482.908	5857.76
483.279	5925.1
483.65	5981.59
484.021	6136.17
484.391	6178.43
484.762	6245.77
485.133	6347.01
485.503	6422.26
485.874	6573.67
486.244	6659.54
486.615	6722.59
486.985	6803.72
487.356	7002.13
487.726	7042.81
488.097	7177.27
488.467	7205.29
488.837	7349.47
489.207	7454.78
489.578	7524.6
489.948	7593.76
490.318	7764.82
490.688	7771.83
491.058	7871.26
491.428	8027.64
491.798	8090.69
492.168	8198.94
492.538	8280.52
492.908	8384.47
493.278	8475.77
493.648	8497.46
494.017	8605.48
494.387	8630.34
494.757	8698.13
495.126	8846.6
495.496	8872.82
495.866	8979.26
496.235	9059.25
496.605	9108.52
496.974	9260.38
497.344	9320.26
497.713	9324.11
498.082	9421.73
498.452	9523.65
498.821	9614.94
499.19	9618.11
499.559	9689.75
499.928	9807.26
500.298	9799.8
500.667	9902.17
501.036	9934.48
501.405	10086.57
501.774	10128.83
502.143	10214.7
502.512	10261.26
502.88	10322.27
503.249	10359.11
503.618	10464.87
503.987	10511.64
504.356	10591.42
504.724	10612.66
505.093	10676.16
505.462	10791.19
505.83	10867.79
506.199	10951.41
506.567	11082.48
506.936	11063.27
507.304	11193.43
507.672	11268.46
508.041	11376.93
508.409	11450.38
508.777	11455.8
509.145	11559.98
509.514	11618.28
509.882	11679.3
510.25	11751.39
510.618	11810.37
510.986	11972.4
511.354	12092.39
511.722	12170.13
512.09	12218.27
512.458	12176.69
512.826	12328.09
513.193	12445.15
513.561	12538.26
513.929	12654.64
514.297	12694.64
514.664	12814.18
515.032	12879.27
515.4	12996.78
515.767	13074.97
516.135	13101.41
516.502	13175.3
516.869	13409.42
517.237	13379.37
517.604	13322.64
517.972	13589.3
518.339	13599.25
518.706	13760.37
519.073	13747.49
519.44	13968.05
519.808	14080.36
520.175	14096.18
520.542	14301.15
520.909	14326.01
521.276	14466.79
521.643	14568.94
522.009	14664.08
522.376	14679.67
522.743	14847.12
523.11	15051.64
523.477	15215.02
523.843	15256.38
524.21	15476.71
524.577	15595.8
524.943	15616.14
525.31	15732.75
525.676	15887.77
526.043	15936.59
526.409	15949.47
526.776	16206.64
527.142	16296.8
527.508	16376.8
527.874	16455.44
528.241	16545.16
528.607	16662.9
528.973	16918.93
529.339	16841.42
529.705	17115.99
530.071	17207.06
530.437	17314.18
530.803	17370.45
531.169	17334.74
531.535	17421.07
531.901	17448.19
532.267	17665.13
532.632	17754.62
532.998	17811.79
533.364	18013.14
533.73	17975.4
534.095	18190.54
534.461	18169.07
534.826	18344.88
535.192	18483.86
535.557	18640.02
535.923	18585.78
536.288	18626.91
536.653	18708.94
537.019	18724.54
537.384	18857.41
537.749	19000.23
538.114	18953.68
538.479	19011.31
538.845	19121.14
539.21	19104.64
539.575	19294.01
539.94	19359.77
540.305	19437.96
540.67	19454.23
541.034	19520.9
541.399	19614.68
541.764	19703.49
542.129	19786.88
542.494	19832.98
542.858	19877.5
543.223	19912.53
543.587	20035.91
543.952	19995.24
544.316	20160.88
544.681	20163.14
545.045	20262.35
545.41	20508.67
545.774	20398.16
546.138	20410.59
546.503	20564.49
546.867	20606.07
547.231	20830.92
547.595	20818.04
547.959	20775.78
548.324	20893.07
548.688	21012.84
549.052	20928.32
549.416	21020.29
549.779	21103.23
550.143	21112.27
550.507	21372.83
550.871	21441.53
551.235	21433.84
551.599	21588.87
551.962	21624.8
552.326	21799.26
552.689	21829.54
553.053	21841.06
553.417	22034.28
553.78	22210.77
554.143	21946.82
554.507	22199.25
554.87	22320.15
555.234	22533.02
555.597	22486.47
555.96	22473.14
556.323	22727.14
556.686	22660.48
557.05	22810.3
557.413	22849.63
557.776	22924.43
558.139	23116.06
558.502	23077.64
558.865	23249.16
559.228	23458.87
559.59	23381.81
559.953	23472.43
560.316	23843.95
560.679	23741.81
561.041	23861.58
561.404	24010.05
561.767	24164.39
562.129	24093.21
562.492	24272.19
562.854	24295.69
563.217	24402.8
563.579	24519.64
563.941	24777.26
564.304	24769.57
564.666	24868.78
565.028	24959.63
565.39	25078.04
565.753	25213.63
566.115	25352.61
566.477	25423.12
566.839	25540.18
567.201	25534.75
567.563	25738.81
567.925	25774.97
568.287	25860.39
568.648	26003.89
569.01	26135.19
569.372	26259.71
569.734	26191.23
570.095	26455.86
570.457	26466.48
570.819	26514.61
571.18	26564.56
571.542	26807.94
571.903	26662.86
572.265	26835.06
572.626	27085.9
572.987	26952.57
573.349	27129.74
573.71	27245.22
574.071	27297.87
574.432	27401.37
574.794	27473.68
575.155	27575.6
575.516	27523.4
575.877	27736.73
576.238	27596.17
576.599	27791.87
576.96	27760.46
577.32	27823.96
577.681	27867.8
578.042	27954.58
578.403	28047.23
578.763	28024.63
579.124	28038.64
579.485	28143.95
579.845	28077.74
580.206	28279.99
580.566	28141.01
580.927	28291.52
581.287	28425.3
581.648	28328.8
582.008	28387.78
582.368	28276.15
582.728	28395.24
583.089	28258.75
583.449	28388.69
583.809	28434.79
584.169	28459.42
584.529	28415.35
584.889	28727.89
585.249	28424.39
585.609	28332.64
585.969	28600.89
586.329	28473.21
586.688	28581.68
587.048	28438.86
587.408	28393.21
587.768	28621.68
588.127	28556.37
588.487	28406.54
588.846	28601.56
589.206	28468.46
589.565	28473.43
589.925	28619.19
590.284	28504.84
590.643	28613.32
591.003	28601.34
591.362	28709.58
591.721	28675.91
592.08	28658.51
592.44	28724.95
592.799	28733.31
593.158	28796.59
593.517	28741.22
593.876	28752.52
594.235	28700.54
594.593	28702.8
594.952	28872.07
595.311	28705.52
595.67	28684.05
596.029	28956.81
596.387	29051.5
596.746	28996.36
597.104	28833.2
597.463	28914.78
597.822	29040.87
598.18	28808.34
598.538	28962.46
598.897	29073.19
599.255	28741.67
599.613	29152.74
599.972	29082.23
600.33	29168.78
600.688	28915.68
601.046	29218.72
601.404	29182.34
601.762	29215.56
602.12	29219.18
602.478	29387.08
602.836	29354.76
603.194	29182.79
603.552	29375.1
603.91	29173.07
604.268	29361.09
604.625	29316.57
604.983	29435.67
605.341	29299.63
605.698	29385.5
606.056	29406.06
606.413	29405.84
606.771	29555.44
607.128	29574.42
607.485	29442.22
607.843	29595.89
608.2	29685.38
608.557	29701.87
608.914	29687.64
609.272	29841.76
609.629	29904.81
609.986	29919.5
610.343	29809.22
610.7	29968.31
611.057	29992.94
611.414	30017.35
611.771	30041.98
612.127	30150.22
612.484	30132.6
612.841	30134.63
613.198	29968.76
613.554	30179.6
613.911	30373.04
614.267	30233.61
614.624	30315.42
614.98	30290.33
615.337	30450.33
615.693	30401.07
616.05	30416.43
616.406	30509.99
616.762	30469.54
617.118	30406.26
617.475	30391.35
617.831	30517.9
618.187	30538.69
618.543	30669.08
618.899	30723.32
619.255	30604
619.611	30695.52
619.967	30767.84
620.323	30751.11
620.678	30681.96
621.034	30560.61
621.39	30658.46
621.746	30540.27
622.101	30903.88
622.457	30727.84
622.812	30785.01
623.168	30815.07
623.523	30724.22
623.879	30926.93
624.234	30653.94
624.589	30867.95
624.945	30920.83
625.3	30859.36
625.655	30941.84
626.01	30834.73
626.365	30771.68
626.72	30783.43
627.075	30759.02
627.43	30708.85
627.785	30747.72
628.14	30843.09
628.495	30791.34
628.85	30646.03
629.205	30657.1
629.559	30843.54
629.914	30734.62
630.269	30726.03
630.623	30717.44
630.978	30568.29
631.332	30686.48
631.687	30752.47
632.041	30549.76
632.396	30746.14
632.75	30504.11
633.104	30663.66
633.459	30351.8
633.813	30462.08
634.167	30404
634.521	30341.41
634.875	30246.94
635.229	30314.97
635.583	30178.47
635.937	30197.91
636.291	30190
636.645	30128.76
636.999	30042.2
637.352	30239.26
637.706	30017.57
638.06	30096.89
638.413	30141.86
638.767	29948.87
639.121	29982.09
639.474	29861.42
639.828	29880.17
640.181	29854.86
640.534	29780.52
640.888	29673.17
641.241	29524.7
641.594	29548.43
641.947	29808.54
642.301	29623.91
642.654	29651.03
643.007	29608.09
643.36	29552.27
643.713	29433.41
644.066	29648.99
644.419	29467.08
644.771	29145.5
645.124	29012.85
645.477	29119.06
645.83	28789.58
646.182	28610.38
646.535	28467.78
646.888	28560.89
647.24	28312.98
647.593	28503.94
647.945	28326.09
648.298	28219.2
648.65	28149.15
649.002	28143.95
649.355	28244.74
649.707	28282.25
650.059	28399.76
650.411	28710.04
650.763	28640.66
651.115	29071.38
651.467	28898.73
651.819	28939.86
652.171	28808.79
652.523	28709.58
652.875	28688.57
653.227	28509.82
653.578	28851.73
653.93	28653.77
654.282	28566.31
654.633	28447.44
654.985	28597.95
655.337	28564.5
655.688	28568.34
656.039	28631.17
656.391	28317.73
656.742	28418.52
657.094	28462.58
657.445	28658.29
657.796	28500.32
658.147	28336.94
658.498	28329.48
658.849	28444.73
659.2	28327.9
659.551	28250.39
659.902	28429.37
660.253	28320.67
660.604	28376.94
660.955	28204.51
661.306	28401.12
661.656	28216.94
662.007	28294.68
662.358	28191.41
662.708	28204.96
663.059	28141.92
663.409	28020.56
663.76	28202.7
664.11	28131.97
664.461	28077.96
664.811	28085.42
665.161	28112.76
665.511	28026.21
665.862	28059.21
666.212	28131.75
666.562	28119.32
666.912	28144.18
667.262	28026.21
667.612	28111.63
667.962	28033.9
668.312	27998.19
668.662	28165.64
669.011	28003.61
669.361	28057.4
669.711	27816.73
670.06	27956.16
670.41	27827.12
670.76	27840.45
671.109	27999.55
671.459	27881.13
671.808	27844.52
672.157	28015.37
672.507	27766.11
672.856	27653.11
673.205	27575.38
673.554	27698.54
673.904	27701.25
674.253	27782.15
674.602	27670.97
674.951	27320.47
675.3	27154.37
675.649	27491.99
675.998	27475.72
676.346	27504.42
676.695	27588.71
677.044	27197.76
677.393	27443.63
677.741	27493.34
678.09	27446.57
678.438	27264.42
678.787	27323.86
679.135	27286.12
679.484	27089.29
679.832	27355.5
680.181	27148.27
680.529	27303.75
680.877	27157.76
681.225	27196.63
681.573	27342.16
681.922	26912.34
682.27	27075.73
682.618	26891.1
682.966	26963.19
683.314	26974.49
683.661	26792.12
684.009	26725.68
684.357	26705.57
684.705	26658.11
685.053	26696.76
685.4	26600.26
685.748	26387.61
686.095	26436.88
686.443	26436.65
686.79	26347.61
687.138	26396.65
687.485	26310.1
687.832	26211.57
688.18	26292.25
688.527	26006.6
688.874	26175.87
689.221	26033.95
689.568	25939.49
689.915	25914.86
690.262	25898.36
690.609	25882.77
690.956	25833.73
691.303	25754.18
691.65	25653.17
691.997	25523.68
692.344	25418.6
692.69	25460.86
693.037	25388.54
693.383	25289.34
693.73	25357.81
694.077	25154.42
694.423	25181.32
694.769	25064.93
695.116	24993.52
695.462	25007.08
695.808	24953.75
696.155	25014.09
696.501	24842.57
696.847	24784.94
697.193	24602.8
697.539	24657.94
697.885	24522.12
698.231	24360.55
698.577	24380.43
698.923	24322.35
699.269	24316.48
699.614	24273.09
699.96	24225.86
700.306	24196.48
700.651	23933.66
700.997	23999.65
701.342	23845.98
701.688	23763.73
702.033	23780.45
702.379	23656.61
702.724	23650.28
703.069	23752.2
703.415	23370.06
703.76	23465.65
704.105	23444.64
704.45	23393.79
704.795	23278.77
705.14	23180.92
705.485	23208.94
705.83	23044.2
706.175	23186.11
706.52	23080.81
706.865	22883.07
707.209	22855.05
707.554	22793.58
707.899	22871.77
708.243	22867.48
708.588	22646.69
708.932	22631.33
709.277	22613.93
709.621	22647.82
709.966	22469.3
710.31	22481.95
710.654	22205.12
710.998	22378.45
711.342	22289.19
711.687	22265.69
712.031	22143.2
712.375	22097.55
712.719	22094.84
713.063	22069.76
713.407	22092.36
713.75	22077.22
714.094	21989.08
714.438	21890.55
714.782	21938.46
715.125	21739.6
715.469	21788.64
715.812	21665.02
716.156	21499.83
716.499	21525.14
716.843	21606.49
717.186	21557.91
717.53	21572.82
717.873	21594.74
718.216	21506.84
718.559	21293.73
718.902	21325.15
719.246	21247.18
719.589	21103.23
719.932	21200.63
720.275	21242.66
720.617	21107.75
720.96	21120.41
721.303	21088.09
721.646	21128.09
721.989	20879.96
722.331	21002.67
722.674	20945.27
723.016	20941.43
723.359	20817.36
723.701	20841.99
724.044	20628.44
724.386	20632.73
724.729	20663.02
725.071	20644.49
725.413	20609.46
725.755	20610.81
726.097	20556.35
726.439	20421.21
726.782	20431.16
727.124	20489.01
727.465	20329.47
727.807	20453.53
728.149	20314.32
728.491	20262.57
728.833	20243.37
729.175	20215.8
729.516	20194.55
729.858	20148
730.199	20193.42
730.541	20184.61
730.882	20069.81
731.224	20074.1
731.565	19959.31
731.906	19908.69
732.248	19959.08
732.589	19929.02
732.93	19907.78
733.271	19869.82
733.612	19848.35
733.953	19920.44
734.294	19743.72
734.635	19663.49
734.976	19790.04
735.317	19736.49
735.658	19725.64
735.999	19699.65
736.339	19554.57
736.68	19575.81
737.021	19563.38
737.361	19503.5
737.702	19536.27
738.042	19467.34
738.383	19408.59
738.723	19476.83
739.063	19261.02
739.404	19436.38
739.744	19279.55
740.084	19355.25
740.424	19325.88
740.764	19153
741.104	19384.41
741.444	19090.4
741.784	19068.26
742.124	19094.92
742.464	19104.64
742.804	19122.94
743.143	18961.82
743.483	19057.86
743.823	18839.79
744.162	18903.51
744.502	18936.06
744.841	18828.26
745.181	18935.6
745.52	18865.55
745.86	18840.47
746.199	18768.83
746.538	18708.27
746.877	18808.6
747.216	18726.34
747.556	18720.02
747.895	18652.67
748.234	18572.9
748.573	18468.27
748.911	18539.46
749.25	18356.18
749.589	18372
749.928	18486.8
750.267	18401.15
750.605	18320.48
750.944	18303.76
751.283	18084.1
751.621	18162.06
751.96	18104.89
752.298	18146.47
752.636	18145.79
752.975	17929.3
753.313	17965.01
753.651	17960.94
753.989	17917.55
754.327	17870.77
754.666	17670.33
