Data from breadboard_black_back_FLMS001491_00036.txt Node
Date: Wed Feb 08 10:50:18 GMT 2017
User: dcchb
Spectrometer: FLMS00149
Trigger mode: 0
Integration Time (sec): 2.000000E-2
Scans to average: 10
Electric dark correction enabled: true
Nonlinearity correction enabled: false
Boxcar width: 0
XAxis mode: Wavelengths
Number of Pixels in Spectrum: 2048
>>>>>Begin Spectral Data<<<<<
341.393	-21.24
341.776	-21.24
342.16	-21.24
342.543	-51.3
342.927	-74.12
343.31	-55.37
343.693	-64.41
344.077	-64.86
344.46	-38.42
344.843	-48.36
345.226	-39.1
345.61	-33.45
345.993	-9.72
346.376	-20.79
346.759	12.88
347.142	32.54
347.525	30.28
347.908	54.24
348.291	59.89
348.674	76.16
349.057	108.47
349.44	128.81
349.823	147.34
350.206	153.67
350.588	187.57
350.971	198.86
351.354	202.71
351.737	243.61
352.119	244.74
352.502	283.83
352.884	274.8
353.267	278.41
353.65	296.26
354.032	308.47
354.414	310.05
354.797	314.57
355.179	326.32
355.562	336.26
355.944	355.47
356.326	342.14
356.709	336.71
357.091	328.58
357.473	338.3
357.855	335.81
358.238	339.88
358.62	354.11
359.002	349.14
359.384	326.09
359.766	342.14
360.148	358.18
360.53	345.3
360.912	356.6
361.294	371.29
361.676	339.88
362.057	334.45
362.439	357.05
362.821	308.47
363.203	327.68
363.584	333.55
363.966	336.04
364.348	353.89
364.729	344.62
365.111	324.29
365.493	351.63
365.874	326.32
366.256	328.35
366.637	354.11
367.019	341.01
367.4	341.23
367.781	334.91
368.163	336.71
368.544	314.79
368.925	341.23
369.306	327.9
369.688	331.97
370.069	320.22
370.45	337.84
370.831	347.11
371.212	351.63
371.593	356.83
371.974	342.36
372.355	333.32
372.736	349.14
373.117	334
373.498	366.32
373.879	333.32
374.26	350.73
374.641	326.55
375.021	357.5
375.402	364.74
375.783	348.47
376.163	389.14
376.544	380.55
376.925	375.13
377.305	370.39
377.686	372.42
378.066	371.74
378.447	370.16
378.827	367.67
379.208	379.65
379.588	376.04
379.968	397.05
380.349	395.02
380.729	397.28
381.109	412.42
381.489	408.12
381.87	400.67
382.25	389.37
382.63	408.35
383.01	397.5
383.39	420.33
383.77	397.05
384.15	401.8
384.53	421.91
384.91	427.33
385.29	440.89
385.67	422.59
386.049	431.85
386.429	453.77
386.809	431.63
387.189	418.52
387.568	443.38
387.948	437.73
388.328	453.1
388.707	439.08
389.087	444.06
389.466	452.19
389.846	473.89
390.225	451.97
390.605	467.11
390.984	485.41
391.363	476.6
391.743	467.33
392.122	478.41
392.501	505.3
392.881	506.2
393.26	476.6
393.639	500.78
394.018	505.3
394.397	503.26
394.776	515.24
395.155	514.56
395.534	506.65
395.913	510.5
396.292	512.08
396.671	528.35
397.05	531.51
397.429	554.79
397.808	548.91
398.186	549.82
398.565	564.96
398.944	571.96
399.323	562.25
399.701	561.34
400.08	561.79
400.458	587.56
400.837	587.56
401.215	566.99
401.594	576.93
401.972	565.18
402.351	559.76
402.729	602.7
403.107	610.38
403.486	609.7
403.864	602.47
404.242	629.14
404.62	608.8
404.999	637.95
405.377	635.01
405.755	649.93
406.133	644.05
406.511	649.93
406.889	667.55
407.267	666.88
407.645	676.59
408.023	681.34
408.401	686.54
408.779	710.72
409.156	709.36
409.534	725.86
409.912	750.71
410.29	736.25
410.667	749.13
411.045	748.23
411.422	763.14
411.8	754.33
412.178	804.05
412.555	773.31
412.933	788.91
413.31	795.46
413.687	795.23
414.065	806.98
414.442	813.54
414.819	823.71
415.197	845.85
415.574	839.75
415.951	846.31
416.328	870.94
416.705	893.54
417.082	890.82
417.46	909.58
417.837	914.55
418.214	897.6
418.591	895.34
418.967	905.29
419.344	925.17
419.721	927.43
420.098	935.57
420.475	952.74
420.852	946.87
421.228	992.52
421.605	954.78
421.982	981.22
422.358	1004.04
422.735	974.21
423.111	1006.3
423.488	1022.57
423.864	1035.23
424.241	1064.15
424.617	1062.57
424.994	1071.38
425.37	1086.53
425.746	1092.4
426.123	1073.87
426.499	1064.15
426.875	1137.6
427.251	1127.2
427.627	1146.86
428.003	1169.91
428.379	1171.72
428.756	1183.02
429.132	1217.82
429.507	1227.31
429.883	1233.41
430.259	1241.78
430.635	1289.91
431.011	1261.66
431.387	1299.85
431.763	1301.43
432.138	1300.98
432.514	1346.18
432.89	1368.1
433.265	1380.53
433.641	1411.04
434.016	1433.86
434.392	1413.3
434.767	1447.65
435.143	1419.4
435.518	1468.21
435.894	1494.42
436.269	1511.37
436.644	1515.89
437.02	1530.13
437.395	1551.37
437.77	1570.35
438.145	1575.55
438.52	1605.61
438.895	1603.12
439.271	1607.64
439.646	1648.32
440.021	1652.84
440.395	1696.45
440.77	1651.03
441.145	1670.01
441.52	1686.51
441.895	1688.09
442.27	1743.68
442.645	1722.44
443.019	1756.11
443.394	1777.81
443.769	1797.01
444.143	1760.41
444.518	1823.23
444.892	1787.52
445.267	1783.68
445.641	1836.79
446.016	1848.54
446.39	1858.48
446.764	1854.19
447.139	1841.31
447.513	1904.36
447.887	1901.42
448.262	1878.14
448.636	1942.1
449.01	1970.34
449.384	1966.28
449.758	2015.09
450.132	2033.17
450.506	2020.06
450.88	2003.11
451.254	2026.61
451.628	2047.4
452.002	2097.35
452.376	2105.71
452.75	2156.33
453.123	2152.94
453.497	2200.17
453.871	2196.33
454.244	2208.98
454.618	2211.47
454.992	2278.81
455.365	2279.49
455.739	2336.66
456.112	2354.29
456.486	2383.21
456.859	2413.95
457.232	2451.46
457.606	2467.96
457.979	2486.71
458.352	2561.51
458.725	2566.94
459.099	2595.64
459.472	2658.91
459.845	2632.7
460.218	2713.15
460.591	2717.44
460.964	2749.98
461.337	2748.18
461.71	2825.91
462.083	2859.59
462.456	2846.25
462.829	2903.65
463.201	2939.58
463.574	2961.05
463.947	2966.93
464.32	3088.05
464.692	3062.52
465.065	3100.71
465.438	3150.43
465.81	3206.24
466.183	3245.34
466.555	3305.68
466.928	3332.57
467.3	3319.01
467.672	3345
468.045	3449.4
468.417	3488.04
468.789	3495.05
469.161	3559.23
469.534	3617.08
469.906	3679.68
470.278	3700.24
470.65	3738.43
471.022	3815.27
471.394	3892.1
471.766	3903.85
472.138	3943.63
472.51	4016.62
472.882	4077.18
473.253	4152.43
473.625	4186.78
473.997	4275.37
474.369	4374.35
474.74	4396.27
475.112	4444.63
475.484	4557.39
475.855	4612.53
476.227	4688.69
476.598	4753.55
476.97	4833.09
477.341	4888.69
477.713	5005.97
478.084	5007.78
478.455	5168
478.827	5193.54
479.198	5317.6
479.569	5341.33
479.94	5513.75
480.311	5563.47
480.682	5682.11
481.053	5817.25
481.424	5858.15
481.795	5947.87
482.166	6015.66
482.537	6120.74
482.908	6271.47
483.279	6322.55
483.65	6400.51
484.021	6580.62
484.391	6632.82
484.762	6678.92
485.133	6745.36
485.503	6871.23
485.874	7029.87
486.244	7049.31
486.615	7147.61
486.985	7256.98
487.356	7400.94
487.726	7470.54
488.097	7628.27
488.467	7619.91
488.837	7843.18
489.207	7916.18
489.578	7998.21
489.948	8119.33
490.318	8193.91
490.688	8269.39
491.058	8338.09
491.428	8507.12
491.798	8580.79
492.168	8819.88
492.538	8744.18
492.908	8894
493.278	8997.73
493.648	9014.45
494.017	9148.69
494.387	9279.76
494.757	9327.66
495.126	9385.06
495.496	9444.05
495.866	9583.02
496.235	9656.24
496.605	9711.38
496.974	9821.66
497.344	9878.84
497.713	9999.51
498.082	10053.75
498.452	10145.27
498.821	10213.74
499.19	10164.93
499.559	10271.59
499.928	10465.49
500.298	10508.42
500.667	10626.16
501.036	10539.16
501.405	10724.24
501.774	10753.84
502.143	10840.84
502.512	10948.19
502.88	11031.8
503.249	11100.5
503.618	11121.97
503.987	11152.48
504.356	11229.76
504.724	11323.09
505.093	11415.52
505.462	11497.55
505.83	11539.58
506.199	11676.08
506.567	11781.39
506.936	11775.74
507.304	11930.31
507.672	11989.29
508.041	12031.55
508.409	12169.85
508.777	12290.75
509.145	12421.14
509.514	12357.64
509.882	12460.69
510.25	12590.86
510.618	12632.89
510.986	12731.19
511.354	12839.44
511.722	12883.28
512.09	12979.32
512.458	13019.54
512.826	13170.05
513.193	13273.1
513.561	13305.41
513.929	13484.17
514.297	13616.82
514.664	13679.41
515.032	13756.02
515.4	13828.79
515.767	13920.31
516.135	13998.5
516.502	13977.71
516.869	14270.13
517.237	14328.44
517.604	14322.79
517.972	14447.3
518.339	14571.82
518.706	14610.46
519.073	14764.81
519.44	14840.51
519.808	15030.34
520.175	15011.81
520.542	15170.22
520.909	15253.38
521.276	15345.36
521.643	15519.14
522.009	15585.8
522.376	15793.48
522.743	15903.76
523.11	16075.06
523.477	16114.15
523.843	16270.98
524.21	16453.35
524.577	16470.53
524.943	16552.11
525.31	16741.93
525.676	16911.19
526.043	17048.37
526.409	17115.48
526.776	17304.4
527.142	17368.58
527.508	17504.17
527.874	17605.64
528.241	17724.28
528.607	17816.93
528.973	18001.33
529.339	18008.79
529.705	18136.25
530.071	18388.67
530.437	18319.52
530.803	18563.35
531.169	18653.97
531.535	18565.39
531.901	18832.95
532.267	18849.45
532.632	18916.11
532.998	19047.86
533.364	19152.49
533.73	19169.89
534.095	19388.64
534.461	19401.98
534.826	19487.62
535.192	19655.98
535.557	19755.19
535.923	19694.4
536.288	19834.28
536.653	19893.49
537.019	20061.85
537.384	20020.72
537.749	20127.83
538.114	20193.14
538.479	20293.25
538.845	20350.88
539.21	20355.4
539.575	20572.34
539.94	20601.04
540.305	20754.26
540.67	20692.56
541.034	20808.49
541.399	20962.61
541.764	20932.33
542.129	21145.88
542.494	21054.59
542.858	21269.72
543.223	21229.72
543.587	21405.99
543.952	21354.92
544.316	21529.83
544.681	21491.19
545.045	21562.14
545.41	21782.93
545.774	21806.43
546.138	21896.37
546.503	21888.01
546.867	21824.06
547.231	21995.58
547.595	22094.79
547.959	22254.33
548.324	22218.62
548.688	22401.44
549.052	22512.18
549.416	22483.25
549.779	22512.85
550.143	22490.71
550.507	22701.32
550.871	22834.65
551.235	22760.53
551.599	23060.64
551.962	23113.97
552.326	23079.39
552.689	23317.35
553.053	23238.26
553.417	23331.59
553.78	23536.1
554.143	23456.56
554.507	23720.96
554.87	23720.28
555.234	23907.17
555.597	23882.76
555.96	23888.41
556.323	24158.01
556.686	24156.2
557.05	24354.16
557.413	24360.04
557.776	24514.16
558.139	24653.82
558.502	24629.41
558.865	24696.98
559.228	24973.13
559.59	25040.02
559.953	25067.59
560.316	25339.9
560.679	25284.98
561.041	25492.89
561.404	25656.5
561.767	25618.99
562.129	25744.18
562.492	26009.26
562.854	26051.29
563.217	26074.57
563.579	26115.7
563.941	26246.32
564.304	26364.73
564.666	26581.22
565.028	26630.26
565.39	26693.76
565.753	27013.75
566.115	26901.67
566.477	27185.5
566.839	27290.13
567.201	27423.01
567.563	27476.79
567.925	27543.46
568.287	27582.55
568.648	27664.13
569.01	27804.24
569.372	27971.24
569.734	27846.73
570.095	28201.52
570.457	28218.02
570.819	28246.49
571.18	28255.75
571.542	28519.02
571.903	28519.02
572.265	28685.12
572.626	28693.71
572.987	28756.31
573.349	28803.54
573.71	28887.15
574.071	29058.22
574.432	29055.28
574.794	29395.84
575.155	29270.19
575.516	29302.28
575.877	29493.91
576.238	29448.49
576.599	29629.05
576.96	29584.98
577.32	29528.94
577.681	29641.93
578.042	29805.54
578.403	29813.23
578.763	29814.81
579.124	29928.48
579.485	29993.56
579.845	30005.31
580.206	29978.65
580.566	29991.53
580.927	30027.01
581.287	30186.1
581.648	30051.41
582.008	30242.59
582.368	30212.31
582.728	30297.06
583.089	30267
583.449	30305.19
583.809	30170.28
584.169	30311.97
584.529	30292.76
584.889	30441.69
585.249	30173.9
585.609	30342.25
585.969	30316.72
586.329	30291.41
586.688	30446.21
587.048	30460.44
587.408	30400.78
587.768	30278.07
588.127	30431.97
588.487	30313.33
588.846	30391.74
589.206	30269.71
589.565	30402.36
589.925	30563.49
590.284	30480.33
590.643	30469.26
591.003	30480.33
591.362	30581.34
591.721	30567.78
592.08	30577.73
592.44	30584.05
592.799	30638.29
593.158	30543.83
593.517	30579.53
593.876	30750.83
594.235	30516.49
594.593	30619.99
594.952	30786.31
595.311	30662.92
595.67	30717.61
596.029	30801.68
596.387	30922.12
596.746	30972.74
597.104	30851.39
597.463	30805.29
597.822	30935.01
598.18	30746.99
598.538	30779.53
598.897	30977.49
599.255	30798.29
599.613	31065.62
599.972	30863.82
600.33	31087.77
600.688	30955.34
601.046	30988.34
601.404	31209.35
601.762	31044.83
602.12	31217.71
602.478	31133.19
602.836	31225.39
603.194	31109.46
603.552	31275.79
603.91	31179.97
604.268	31318.5
604.625	31276.47
604.983	31390.14
605.341	31202.8
605.698	31365.95
606.056	31471.04
606.413	31432.17
606.771	31496.35
607.128	31644.82
607.485	31473.3
607.843	31394.88
608.2	31652.95
608.557	31780.18
608.914	31660.64
609.272	31789.67
609.629	31941.08
609.986	31938.6
610.343	31857.24
610.7	32020.85
611.057	31909.22
611.414	31853.17
611.771	31933.62
612.127	32068.31
612.484	32054.3
612.841	32134.07
613.198	32094.3
613.554	32163.45
613.911	32180.62
614.267	32182.66
614.624	32337.23
614.98	32239.6
615.337	32543.55
615.693	32387.4
616.05	32446.38
616.406	32532.7
616.762	32402.99
617.118	32341.3
617.475	32411.13
617.831	32469.88
618.187	32597.11
618.543	32574.96
618.899	32806.14
619.255	32671.91
619.611	32621.29
619.967	32779.93
620.323	32845.92
620.678	32601.18
621.034	32635.07
621.39	32584.45
621.746	32538.58
622.101	32921.62
622.457	32618.35
622.812	32654.96
623.168	32750.78
623.523	32739.25
623.879	32898.57
624.234	32605.02
624.589	32756.2
624.945	32843.88
625.3	32765.92
625.655	32739.25
626.01	32838.23
626.365	32736.77
626.72	32760.95
627.075	32746.26
627.43	32760.72
627.785	32769.53
628.14	32747.84
628.495	32797.33
628.85	32622.87
629.205	32641.85
629.559	32753.49
629.914	32579.71
630.269	32669.65
630.623	32562.76
630.978	32610.44
631.332	32545.58
631.687	32640.72
632.041	32460.16
632.396	32591.23
632.75	32357.34
633.104	32516.43
633.459	32310.56
633.813	32294.74
634.167	32226.5
634.521	32210.45
634.875	32339.04
635.229	32250.23
635.583	32106.5
635.937	32225.59
636.291	32107.86
636.645	32153.73
636.999	31972.49
637.352	32011.14
637.706	31875.32
638.06	32014.53
638.413	31993.96
638.767	31845.72
639.121	31877.58
639.474	31827.41
639.828	31864.47
640.181	31855.21
640.534	31777.92
640.888	31625.84
641.241	31599.85
641.594	31589.23
641.947	31727.98
642.301	31552.62
642.654	31516.23
643.007	31536.8
643.36	31513.52
643.713	31381.55
644.066	31560.07
644.419	31309.91
644.771	31112.18
645.124	30840.55
645.477	30742.47
645.83	30563.04
646.182	30411.18
646.535	30230.62
646.888	30361.46
647.24	30197.62
647.593	30339.54
647.945	30189.94
648.298	30016.84
648.65	30067.68
649.002	29962.83
649.355	30209.83
649.707	30140
650.059	30324.17
650.411	30542.93
650.763	30550.38
651.115	30763.48
651.467	30715.8
651.819	30728.68
652.171	30702.02
652.523	30501.12
652.875	30630.38
653.227	30562.81
653.578	30670.15
653.93	30499.31
654.282	30371.18
654.633	30322.59
654.985	30423.15
655.337	30577.95
655.688	30357.62
656.039	30488.92
656.391	30228.81
656.742	30239.2
657.094	30252.09
657.445	30432.87
657.796	30241.01
658.147	30154.91
658.498	30274.68
658.849	30129.6
659.2	30206.21
659.551	30159.66
659.902	30245.76
660.253	30135.93
660.604	30179.55
660.955	30064.07
661.306	30123.28
661.656	30095.25
662.007	30206.89
662.358	30034.69
662.708	29951.3
663.059	30039.89
663.409	29831.98
663.76	29991.53
664.11	29952.21
664.461	29926.22
664.811	29977.29
665.161	29910.63
665.511	29820.91
665.862	29897.29
666.212	30011.64
666.562	29945.43
666.912	29888.03
667.262	29764.64
667.612	29796.5
667.962	29927.35
668.312	29743.17
668.662	29908.59
669.011	29776.17
669.361	29628.15
669.711	29750.86
670.06	29713.34
670.41	29677.86
670.76	29591.99
671.109	29736.17
671.459	29722.38
671.808	29609.84
672.157	29619.56
672.507	29609.62
672.856	29389.28
673.205	29606.23
673.554	29592.22
673.904	29406.23
674.253	29557.19
674.602	29610.52
674.951	29083.08
675.3	28894.61
675.649	29459.79
675.998	29358.32
676.346	29366.69
676.695	29413.92
677.044	29083.98
677.393	29177.31
677.741	29273.13
678.09	29142.06
678.438	29196.52
678.787	29215.95
679.135	29135.51
679.484	28970.09
679.832	28971.67
680.181	28876.53
680.529	29058.44
680.877	28891.9
681.225	28978.22
681.573	29079.46
681.922	28828.62
682.27	28743.65
682.618	28848.73
682.966	28732.58
683.314	28823.2
683.661	28620.04
684.009	28510.89
684.357	28488.74
684.705	28428.86
685.053	28360.16
685.4	28352.25
685.748	28176.89
686.095	28212.59
686.443	28121.29
686.79	28187.28
687.138	28106.61
687.485	28103.67
687.832	28018.47
688.18	27997.91
688.527	27945.48
688.874	27808.76
689.221	27749.78
689.568	27686.73
689.915	27668.2
690.262	27658.93
690.609	27497.13
690.956	27557.92
691.303	27434.98
691.65	27301.88
691.997	27213.52
692.344	27120.87
692.69	27118.83
693.037	27252.39
693.383	26948.44
693.73	26985.05
694.077	26906.19
694.423	26876.36
694.769	26658.73
695.116	26690.6
695.462	26638.4
695.808	26501
696.155	26602.92
696.501	26366.54
696.847	26411.73
697.193	26242.93
697.539	26259.42
697.885	26039.77
698.231	26050.84
698.577	26046.55
698.923	26161.12
699.269	25764.52
699.614	25604.07
699.96	25677.29
700.306	25653.34
700.651	25399.33
700.997	25509.84
701.342	25468.03
701.688	25451.31
702.033	25371.54
702.379	25280.01
702.724	25295.38
703.069	25275.27
703.415	24988.04
703.76	24921.15
704.105	25021.71
704.45	24792.12
704.795	24790.31
705.14	24728.16
705.485	24621.95
705.83	24425.8
706.175	24669.86
706.52	24433.26
706.865	24396.19
707.209	24367.49
707.554	24341.51
707.899	24370.21
708.243	24209.31
708.588	24149.42
708.932	23970.22
709.277	24079.59
709.621	24157.33
709.966	23837.34
710.31	23925.92
710.654	23726.61
710.998	23784.46
711.342	23879.82
711.687	23689.55
712.031	23652.26
712.375	23570
712.719	23574.97
713.063	23493.62
713.407	23491.81
713.75	23371.36
714.094	23388.76
714.438	23240.52
714.782	23296.79
715.125	23166.17
715.469	23104.93
715.812	23054.08
716.156	22942.45
716.499	22974.54
716.843	23056.34
717.186	22923.24
717.53	22967.31
717.873	22963.69
718.216	23018.38
718.559	22890.92
718.902	22619.74
719.246	22626.52
719.589	22593.3
719.932	22562.12
720.275	22589.24
720.617	22472.4
720.96	22514.89
721.303	22504.27
721.646	22422.24
721.989	22218.4
722.331	22360.32
722.674	22309.02
723.016	22193.99
723.359	22218.85
723.701	22230.15
724.044	22177.5
724.386	21975.69
724.729	22093.88
725.071	21985.64
725.413	21991.06
725.755	21968.69
726.097	21765.53
726.439	21775.47
726.782	21812.99
727.124	21876.94
727.465	21711.52
727.807	21617.96
728.149	21644.18
728.491	21415.03
728.833	21667.45
729.175	21458.64
729.516	21624.97
729.858	21484.18
730.199	21517.63
730.541	21394.47
730.882	21357.86
731.224	21405.54
731.565	21208.48
731.906	21304.52
732.248	21251.42
732.589	21149.27
732.93	21221.81
733.271	21150.86
733.612	21157.18
733.953	21174.36
734.294	21032.67
734.635	20996.96
734.976	20930.07
735.317	20950.86
735.658	20946.57
735.999	20894.59
736.339	20834.25
736.68	20985.21
737.021	20737.08
737.361	20699.12
737.702	20709.96
738.042	20699.79
738.383	20599.68
738.723	20744.54
739.063	20623.19
739.404	20663.64
739.744	20516.3
740.084	20437.2
740.424	20575.05
740.764	20476.75
741.104	20605.56
741.444	20375.28
741.784	20318.11
742.124	20403.53
742.464	20257.55
742.804	20232.91
743.143	20258
743.483	20323.99
743.823	20107.27
744.162	20140.04
744.502	20143.65
744.841	20082.86
745.181	20219.36
745.52	19982.3
745.86	20013.26
746.199	19984.11
746.538	19979.59
746.877	20004.9
747.216	19976.65
747.556	19764
747.895	19819.37
748.234	19735.98
748.573	19710.67
748.911	19717.22
749.25	19659.82
749.589	19607.39
749.928	19619.37
750.267	19549.32
750.605	19559.94
750.944	19519.71
751.283	19383.22
751.621	19438.36
751.96	19413.95
752.298	19310
752.636	19254.18
752.975	19231.81
753.313	19117.01
753.651	19147.07
753.989	18948.88
