Data from breadboard_black_back_FLMS001491_00040.txt Node
Date: Wed Feb 08 10:50:19 GMT 2017
User: dcchb
Spectrometer: FLMS00149
Trigger mode: 0
Integration Time (sec): 2.000000E-2
Scans to average: 10
Electric dark correction enabled: true
Nonlinearity correction enabled: false
Boxcar width: 0
XAxis mode: Wavelengths
Number of Pixels in Spectrum: 2048
>>>>>Begin Spectral Data<<<<<
341.393	2.19
341.776	2.19
342.16	2.19
342.543	-71.71
342.927	-65.38
343.31	-73.74
343.693	-80.29
344.077	-95.66
344.46	-58.6
344.843	-56.57
345.226	-38.71
345.61	-22.89
345.993	-24.93
346.376	8.74
346.759	9.42
347.142	40.83
347.525	51.45
347.908	64.11
348.291	67.72
348.674	86.93
349.057	122.19
349.44	112.92
349.823	149.3
350.206	175.74
350.588	213.94
350.971	217.78
351.354	229.98
351.737	243.09
352.119	267.27
352.502	269.53
352.884	278.34
353.267	287.83
353.65	303.42
354.032	306.59
354.414	298
354.797	313.37
355.179	334.38
355.562	338
355.944	335.29
356.326	334.61
356.709	343.88
357.091	340.26
357.473	360.15
357.855	355.4
358.238	368.06
358.62	353.37
359.002	337.1
359.384	355.17
359.766	342.29
360.148	350.2
360.53	354.72
360.912	342.07
361.294	361.73
361.676	334.84
362.057	351.78
362.439	374.61
362.821	351.56
363.203	356.76
363.584	342.07
363.966	348.85
364.348	355.63
364.729	359.24
365.111	350.43
365.493	341.84
365.874	343.88
366.256	353.82
366.637	356.98
367.019	325.57
367.4	344.33
367.781	342.52
368.163	341.16
368.544	341.84
368.925	345.01
369.306	354.27
369.688	342.52
370.069	339.13
370.45	355.17
370.831	344.33
371.212	352.24
371.593	338.68
371.974	316.08
372.355	365.8
372.736	356.08
373.117	364.44
373.498	359.69
373.879	343.42
374.26	350.43
374.641	353.37
375.021	346.13
375.402	372.8
375.783	355.4
376.163	373.93
376.544	375.96
376.925	374.61
377.305	355.63
377.686	373.48
378.066	381.39
378.447	366.7
378.827	386.59
379.208	367.15
379.588	380.71
379.968	388.62
380.349	408.51
380.729	392.01
381.109	415.29
381.489	384.33
381.87	392.24
382.25	402.86
382.63	413.25
383.01	408.73
383.39	384.78
383.77	419.35
384.15	406.7
384.53	438.34
384.91	415.06
385.29	436.08
385.67	451.89
386.049	444.21
386.429	431.33
386.809	444.66
387.189	440.82
387.568	430.2
387.948	427.71
388.328	461.39
388.707	449.64
389.087	474.72
389.466	477.88
389.846	463.65
390.225	453.25
390.605	475.4
390.984	458
391.363	483.08
391.743	446.7
392.122	487.15
392.501	511.55
392.881	495.28
393.26	508.39
393.639	518.11
394.018	530.76
394.397	511.55
394.776	533.7
395.155	523.53
395.534	508.39
395.913	523.76
396.292	517.43
396.671	543.19
397.05	560.14
397.429	538.9
397.808	547.26
398.186	573.25
398.565	552.68
398.944	526.47
399.323	564.89
399.701	575.51
400.08	587.48
400.458	568.05
400.837	605.34
401.215	597.43
401.594	579.58
401.972	613.25
402.351	605.56
402.729	606.24
403.107	622.29
403.486	607.6
403.864	609.4
404.242	632
404.62	617.77
404.999	630.2
405.377	661.61
405.755	648.5
406.133	658.22
406.511	651.44
406.889	676.07
407.267	670.87
407.645	693.7
408.023	676.52
408.401	706.58
408.779	707.48
409.156	718.33
409.534	724.66
409.912	733.92
410.29	733.92
410.667	776.63
411.045	738.67
411.422	762.17
411.8	757.42
412.178	789.29
412.555	780.47
412.933	804.43
413.31	835.84
413.687	852.79
414.065	812.79
414.442	832.22
414.819	863.18
415.197	838.55
415.574	860.25
415.951	864.54
416.328	860.7
416.705	863.41
417.082	889.85
417.46	896.63
417.837	888.27
418.214	889.85
418.591	931.43
418.967	904.99
419.344	942.73
419.721	942.73
420.098	953.58
420.475	980.02
420.852	985.21
421.228	986.8
421.605	1001.71
421.982	991.32
422.358	1008.26
422.735	1019.34
423.111	1012.56
423.488	1041.94
423.864	1052.78
424.241	1045.1
424.617	1070.86
424.994	1069.96
425.37	1071.77
425.746	1096.4
426.123	1102.95
426.499	1119.22
426.875	1129.62
427.251	1138.66
427.627	1167.13
428.003	1179.33
428.379	1184.08
428.756	1197.19
429.132	1211.87
429.507	1208.94
429.883	1196.51
430.259	1278.99
430.635	1275.83
431.011	1259.33
431.387	1301.36
431.763	1316.05
432.138	1329.84
432.514	1340.69
432.89	1338.88
433.265	1389.95
433.641	1408.93
434.016	1403.28
434.392	1430.17
434.767	1447.35
435.143	1442.15
435.518	1471.3
435.894	1489.83
436.269	1486.67
436.644	1548.36
437.02	1542.94
437.395	1544.97
437.77	1558.08
438.145	1564.18
438.52	1601.24
438.895	1603.28
439.271	1612.32
439.646	1642.37
440.021	1651.64
440.395	1687.34
440.77	1675.14
441.145	1660.9
441.52	1738.41
441.895	1724.86
442.27	1733.67
442.645	1740.22
443.019	1768.7
443.394	1780.45
443.769	1784.06
444.143	1775.93
444.518	1810.96
444.892	1848.92
445.267	1838.98
445.641	1853.67
446.016	1845.76
446.39	1902.03
446.764	1885.98
447.139	1895.7
447.513	1884.63
447.887	1887.11
448.262	1899.31
448.636	1935.02
449.01	1965.98
449.384	2022.02
449.758	1975.7
450.132	2006.43
450.506	2025.41
450.88	2044.4
451.254	2038.97
451.628	2082.13
452.002	2091.4
452.376	2114
452.75	2128.69
453.123	2155.8
453.497	2185.63
453.871	2192.41
454.244	2249.14
454.618	2262.47
454.992	2273.32
455.365	2299.53
455.739	2351.51
456.112	2344.73
456.486	2394.22
456.859	2397.61
457.232	2448.23
457.606	2480.32
457.979	2492.29
458.352	2531.39
458.725	2571.61
459.099	2605.28
459.472	2601.67
459.845	2674.66
460.218	2698.39
460.591	2719.63
460.964	2732.74
461.337	2799.86
461.71	2837.37
462.083	2857.03
462.456	2893.41
462.829	2891.38
463.201	2934.77
463.574	2937.25
463.947	3023.35
464.32	3064.93
464.692	3091.37
465.065	3130.92
465.438	3166.63
465.81	3227.87
466.183	3248.66
466.555	3332.95
466.928	3334.3
467.3	3298.6
467.672	3396.45
468.045	3483.91
468.417	3507.41
468.789	3486.17
469.161	3563.68
469.534	3654.07
469.906	3635.09
470.278	3725.71
470.65	3758.7
471.022	3819.04
471.394	3911.92
471.766	3868.08
472.138	3979.71
472.51	4060.61
472.882	4133.38
473.253	4173.15
473.625	4180.38
473.997	4273.94
474.369	4307.16
474.74	4374.73
475.112	4468.06
475.484	4520.94
475.855	4628.96
476.227	4609.75
476.598	4780.14
476.97	4808.84
477.341	4903.3
477.713	5034.37
478.084	5061.04
478.455	5207.93
478.827	5188.49
479.198	5393.01
479.569	5342.84
479.94	5516.85
480.311	5535.6
480.682	5703.96
481.053	5801.13
481.424	5929.04
481.795	5974.69
482.166	6067.79
482.537	6112.31
482.908	6229.14
483.279	6319.76
483.65	6442.92
484.021	6568.34
484.391	6637.04
484.762	6739.19
485.133	6763.37
485.503	6821.9
485.874	6991.38
486.244	7094.21
486.615	7178.27
486.985	7302.56
487.356	7397.25
487.726	7523.8
488.097	7605.61
488.467	7701.42
488.837	7830.01
489.207	7956.1
489.578	8050.34
489.948	8124.24
490.318	8163.56
490.688	8305.7
491.058	8374.17
491.428	8522.64
491.798	8613.04
492.168	8745.46
492.538	8800.38
492.908	8853.03
493.278	9044.21
493.648	9051.67
494.017	9226.58
494.387	9240.14
494.757	9333.02
495.126	9388.61
495.496	9420.7
495.866	9531.88
496.235	9655.27
496.605	9787.92
496.974	9851.42
497.344	9906.56
497.713	9908.6
498.082	10058.2
498.452	10218.19
498.821	10222.71
499.19	10250.28
499.559	10335.93
499.928	10445.08
500.298	10567.79
500.667	10629.71
501.036	10610.95
501.405	10700.89
501.774	10797.16
502.143	10848.91
502.512	10912.18
502.88	10985.4
503.249	11074.44
503.618	11106.98
503.987	11250.48
504.356	11231.05
504.724	11356.01
505.093	11369.8
505.462	11443.02
505.83	11494.99
506.199	11676.46
506.567	11789.45
506.936	11823.12
507.304	11974.98
507.672	12017.69
508.041	12141.31
508.409	12167.75
508.777	12323
509.145	12323.45
509.514	12404.12
509.882	12518.47
510.25	12540.62
510.618	12639.6
510.986	12713.72
511.354	12825.58
511.722	12947.61
512.09	13114.16
512.458	13007.5
512.826	13179.47
513.193	13253.59
513.561	13264.44
513.929	13487.48
514.297	13588.72
514.664	13704.43
515.032	13712.34
515.4	13910.07
515.767	13907.59
516.135	14034.14
516.502	14023.97
516.869	14168.6
517.237	14345.54
517.604	14358.2
517.972	14465.54
518.339	14495.82
518.706	14609.04
519.073	14732.88
519.44	14817.62
519.808	15017.84
520.175	14995.92
520.542	15264.61
520.909	15446.98
521.276	15381.67
521.643	15490.6
522.009	15598.62
522.376	15641.1
522.743	15849
523.11	16101.2
523.477	16140.75
523.843	16305.49
524.21	16434.07
524.577	16561.08
524.943	16804.01
525.31	16777.57
525.676	16953.61
526.043	17000.84
526.409	17121.74
526.776	17408.96
527.142	17397.89
527.508	17532.8
527.874	17577.77
528.241	17743.42
528.607	17801.27
528.973	18009.85
529.339	17994.03
529.705	18200.35
530.071	18405.32
530.437	18407.81
530.803	18515.37
531.169	18631.53
531.535	18633.56
531.901	18818.64
532.267	18898.42
532.632	18908.13
532.998	19064.51
533.364	19134.57
533.73	19212.53
534.095	19360.78
534.461	19386.99
534.826	19570.94
535.192	19697.49
535.557	19740.43
535.923	19803.7
536.288	19896.36
536.653	19949.46
537.019	19929.57
537.384	20040.98
537.749	20171.38
538.114	20193.97
538.479	20185.16
538.845	20366.63
539.21	20461.31
539.575	20493.85
539.94	20579.95
540.305	20745.6
540.67	20680.52
541.034	20782.89
541.399	21005.03
541.764	20968.42
542.129	21013.16
542.494	21099.49
542.858	21178.81
543.223	21284.12
543.587	21365.92
543.952	21306.71
544.316	21534.5
544.681	21392.36
545.045	21675.74
545.41	21719.36
545.774	21854.04
546.138	21783.09
546.503	21807.94
546.867	21912.8
547.231	22063.08
547.595	22090.42
547.959	22188.05
548.324	22264.43
548.688	22334.48
549.052	22369.28
549.416	22504.87
549.779	22507.13
550.143	22658.32
550.507	22650.86
550.871	22840.46
551.235	22688.6
551.599	22979.66
551.962	22972.66
552.326	23131.3
552.689	23308.7
553.053	23163.16
553.417	23308.92
553.78	23681.11
554.143	23497.62
554.507	23698.06
554.87	23802.47
555.234	23929.7
555.597	23914.55
555.96	23924.5
556.323	24096.47
556.686	24082.23
557.05	24299.18
557.413	24385.05
557.776	24457.82
558.139	24698.94
558.502	24658.94
558.865	24820.07
559.228	24986.17
559.59	25039.27
559.953	24939.84
560.316	25330.34
560.679	25290.79
561.041	25427.51
561.404	25451.24
561.767	25815.97
562.129	25601.74
562.492	25948.4
562.854	26028.62
563.217	26000.83
563.579	26166.25
563.941	26243.99
564.304	26421.16
564.666	26642.62
565.028	26663.86
565.39	26786.12
565.753	26921.48
566.115	27006.22
566.477	27057.97
566.839	27121.93
567.201	27382.26
567.563	27398.08
567.925	27562.37
568.287	27497.96
568.648	27715.36
569.01	27810.95
569.372	27992.41
569.734	27979.08
570.095	28231.96
570.457	28209.58
570.819	28297.94
571.18	28246.64
571.542	28462.68
571.903	28591.27
572.265	28641.66
572.626	28756.46
572.987	28738.83
573.349	28890.02
573.71	28878.49
574.071	29012.05
574.432	29068.54
574.794	29205.04
575.155	29339.04
575.516	29285.49
575.877	29420.62
576.238	29523.9
576.599	29500.4
576.96	29641.86
577.32	29637.79
577.681	29622.65
578.042	29785.36
578.403	29788.52
578.763	29607.74
579.124	29817
579.485	29981.29
579.845	30156.2
580.206	30028.29
580.566	30117.33
580.927	30171.34
581.287	30139.25
581.648	30068.07
582.008	30261.28
582.368	30145.8
582.728	30360.26
583.089	30209.3
583.449	30266.48
583.809	30125.01
584.169	30252.47
584.529	30288.4
584.889	30461.05
585.249	30271
585.609	30325.01
585.969	30447.04
586.329	30272.13
586.688	30415.17
587.048	30377.66
587.408	30341.28
587.768	30390.54
588.127	30303.31
588.487	30249.3
588.846	30542.4
589.206	30277.1
589.565	30413.37
589.925	30499.24
590.284	30334.05
590.643	30530.2
591.003	30487.94
591.362	30624.89
591.721	30492.69
592.08	30545.11
592.44	30623.76
592.799	30614.72
593.158	30466.25
593.517	30512.8
593.876	30641.61
594.235	30651.33
594.593	30635.96
594.952	30780.14
595.311	30564.32
595.67	30692
596.029	30894.94
596.387	30875.95
596.746	30889.29
597.104	30711.66
597.463	30786.24
597.822	30903.98
598.18	30798.89
598.538	30850.19
598.897	31048.83
599.255	30883.64
599.613	31104.42
599.972	30864.65
600.33	31017.87
600.688	30960.7
601.046	30942.39
601.404	31175.61
601.762	30960.47
602.12	31240.24
602.478	31146.68
602.836	31190.97
603.194	31077.08
603.552	31117.08
603.91	31061.94
604.268	31445.43
604.625	31199.56
604.983	31357.75
605.341	31283.63
605.698	31430.97
606.056	31575.82
606.413	31364.98
606.771	31597.29
607.128	31561.59
607.485	31411.98
607.843	31518.2
608.2	31627.35
608.557	31769.72
608.914	31567.23
609.272	31833.44
609.629	31828.25
609.986	31933.78
610.343	31828.92
610.7	31987.11
611.057	31960.44
611.414	31821.92
611.771	31957.51
612.127	32015.13
612.484	32056.49
612.841	32132.42
613.198	32014.68
613.554	31943.27
613.911	32254
614.267	32298.06
614.624	32150.27
614.98	32350.72
615.337	32395.24
615.693	32475.69
616.05	32307.78
616.406	32503.93
616.762	32399.98
617.118	32442.69
617.475	32383.71
617.831	32546.64
618.187	32598.62
618.543	32655.79
618.899	32714.32
619.255	32733.98
619.611	32635.46
619.967	32748.22
620.323	32777.15
620.678	32612.63
621.034	32703.93
621.39	32556.36
621.746	32536.25
622.101	32970.59
622.457	32702.57
622.812	32687.66
623.168	32879.74
623.523	32802.91
623.879	32982.34
624.234	32682.46
624.589	32717.26
624.945	32798.16
625.3	32852.62
625.655	32805.85
626.01	32871.16
626.365	32769.92
626.72	32773.53
627.075	32780.54
627.43	32700.31
627.785	32708.9
628.14	32716.81
628.495	32709.58
628.85	32782.12
629.205	32612.41
629.559	32850.82
629.914	32596.36
630.269	32570.82
630.623	32569.24
630.978	32587.77
631.332	32687.66
631.687	32755
632.041	32476.82
632.396	32444.73
632.75	32435.69
633.104	32539.64
633.459	32294.9
633.813	32399.08
634.167	32387.55
634.521	32333.09
634.875	32316.82
635.229	32210.83
635.583	32094.23
635.937	32078.41
636.291	32132.87
636.645	32113.21
636.999	32033.21
637.352	32122.93
637.706	31903.05
638.06	32250.61
638.413	31972.2
638.767	31945.53
639.121	31887.45
639.474	31769.72
639.828	31831.41
640.181	31766.78
640.534	31746.89
640.888	31601.58
641.241	31425.09
641.594	31640.45
641.947	31595.03
642.301	31442.27
642.654	31656.27
643.007	31560.46
643.36	31542.6
643.713	31423.28
644.066	31486.11
644.419	31293.34
644.771	31186.23
645.124	30858.55
645.477	30858.1
645.83	30578.79
646.182	30405.91
646.535	30341.5
646.888	30404.55
647.24	30199.59
647.593	30432.58
647.945	30260.15
648.298	30108.52
648.65	30107.61
649.002	29911.69
649.355	30079.59
649.707	30080.95
650.059	30309.87
650.411	30560.71
650.763	30518.45
651.115	30854.94
651.467	30878.67
651.819	30685.22
652.171	30767.03
652.523	30578.56
652.875	30676.64
653.227	30539.01
653.578	30674.15
653.93	30594.38
654.282	30395.74
654.633	30359.36
654.985	30417.21
655.337	30400.94
655.688	30405.01
656.039	30493.59
656.391	30128.63
656.742	30374.95
657.094	30289.98
657.445	30449.07
657.796	30218.12
658.147	30212.02
658.498	30278.68
658.849	30218.12
659.2	30156.88
659.551	30108.74
659.902	30259.02
660.253	30238.91
660.604	30184.67
660.955	30057.44
661.306	30055.64
661.656	30135.41
662.007	30149.42
662.358	30062.42
662.708	29968.63
663.059	29899.71
663.409	29739.03
663.76	30059.93
664.11	29971.12
664.461	30010.89
664.811	29923.66
665.161	30023.77
665.511	29777.45
665.862	29962.08
666.212	29951.01
666.562	29945.13
666.912	29956.88
667.262	29899.03
667.612	29850.44
667.962	29903.32
668.312	29896.32
668.662	29940.16
669.011	29798.02
669.361	29833.95
669.711	29822.42
670.06	29741.75
670.41	29632.37
670.76	29544.01
671.109	29780.84
671.459	29607.51
671.808	29620.17
672.157	29582.43
672.507	29410.68
672.856	29413.85
673.205	29403
673.554	29559.6
673.904	29615.65
674.253	29664.91
674.602	29484.35
674.951	29231.48
675.3	28977.25
675.649	29366.39
675.998	29315.54
676.346	29300.85
676.695	29378.82
677.044	29152.38
677.393	29256.11
677.741	29261.53
678.09	29137.92
678.438	29090.92
678.787	29149.9
679.135	29117.13
679.484	28959.62
679.832	28985.16
680.181	28988.55
680.529	29036.45
680.877	28793.52
681.225	28905.84
681.573	29054.98
681.922	28850.7
682.27	28773.41
682.618	28702.23
682.966	28620.65
683.314	28599.63
683.661	28740.64
684.009	28565.28
684.357	28539.29
684.705	28442.8
685.053	28536.81
685.4	28430.37
685.748	28215.91
686.095	28157.83
686.443	28042.81
686.79	28077.61
687.138	28064.73
687.485	28102.24
687.832	28003.71
688.18	28018.85
688.527	27987.22
688.874	27864.73
689.221	27638.75
689.568	27713.1
689.915	27679.88
690.262	27672.42
690.609	27521.24
690.956	27347.91
691.303	27452.99
691.65	27350.62
691.997	27344.3
692.344	27102.72
692.69	27172.32
693.037	27187.69
693.383	26848.71
693.73	27065.88
694.077	26927.13
694.423	26663.86
694.769	26734.82
695.116	26622.96
695.462	26539.34
695.808	26496.41
696.155	26674.48
696.501	26504.09
696.847	26385
697.193	26120.37
697.539	26316.75
697.885	26110.43
698.231	25982.07
698.577	25959.47
698.923	26040.83
699.269	25899.36
699.614	25674.96
699.96	25679.03
700.306	25733.49
700.651	25587.96
700.997	25469.32
701.342	25422.09
701.688	25427.51
702.033	25281.3
702.379	25299.15
702.724	25171.92
703.069	25298.25
703.415	24965.6
703.76	24979.39
704.105	24922.89
704.45	24945.71
704.795	24808.54
705.14	24761.31
705.485	24636.12
705.83	24590.24
706.175	24597.7
706.52	24503.01
706.865	24350.25
707.209	24502.79
707.554	24235.68
707.899	24346.63
708.243	24251.5
708.588	24217.37
708.932	24040.65
709.277	24091.73
709.621	24119.75
709.966	23877.49
710.31	24015.57
710.654	23672.08
710.998	23738.74
711.342	23755.46
711.687	23693.32
712.031	23585.98
712.375	23542.14
712.719	23498.97
713.063	23566.99
713.407	23586.88
713.75	23445.41
714.094	23454.23
714.438	23382.14
714.782	23407
715.125	23166.33
715.469	23291.29
715.812	23047.23
716.156	23005.88
716.499	22985.31
716.843	22983.73
717.186	22928.37
717.53	23033.67
717.873	22896.5
718.216	22958.87
718.559	22808.6
718.902	22598.66
719.246	22762.04
719.589	22586.68
719.932	22533.35
720.275	22513.01
720.617	22499
720.96	22481.82
721.303	22553.01
721.646	22492.45
721.989	22355.73
722.331	22291.09
722.674	22261.26
723.016	22235.95
723.359	22184.88
723.701	22200.7
724.044	22082.74
724.386	21968.62
724.729	22077.99
725.071	21928.62
725.413	22006.81
725.755	21906.25
726.097	21892.91
726.439	21802.07
726.782	21721.84
727.124	21884.78
727.465	21742.18
727.807	21656.08
728.149	21566.14
728.491	21570.66
728.833	21579.02
729.175	21593.49
729.516	21560.72
729.858	21511.23
730.199	21507.16
730.541	21388.52
730.882	21383.55
731.224	21440.04
731.565	21216.32
731.906	21249.99
732.248	21329.09
732.589	21268.75
732.93	21104.46
733.271	21136.77
733.612	21169.32
733.953	21115.98
734.294	21035.99
734.635	20988.53
734.976	20996.89
735.317	20988.76
735.658	20867.4
735.999	20967.97
736.339	20810.68
736.68	20910.11
737.021	20723.23
737.361	20763.9
737.702	20791.47
738.042	20675.77
738.383	20647.07
738.723	20704.47
739.063	20637.35
739.404	20593.74
739.744	20509.22
740.084	20453.85
740.424	20515.32
740.764	20459.96
741.104	20429
741.444	20344.25
741.784	20322.33
742.124	20400.07
742.464	20196.46
742.804	20281.43
743.143	20198.04
743.483	20214.31
743.823	20057.48
744.162	20083.92
744.502	20128.67
744.841	20134.99
745.181	20090.25
745.52	20074.2
745.86	20075.79
746.199	20026.07
746.538	19999.18
746.877	19941.78
747.216	19950.82
747.556	19816.58
747.895	19858.84
748.234	19771.84
748.573	19701.33
748.911	19717.83
749.25	19731.84
749.589	19542.69
749.928	19616.36
750.267	19576.36
750.605	19566.19
750.944	19439.87
751.283	19513.99
751.621	19392.87
751.96	19325.52
752.298	19364.84
752.636	19355.58
752.975	19145.19
753.313	19179.31
753.651	19114.23
753.989	18996.72
754.327	19091.4
754.666	18969.83
