Data from breadboard_black_back_FLMS001491_00069.txt Node
Date: Wed Feb 08 10:50:44 GMT 2017
User: dcchb
Spectrometer: FLMS00149
Trigger mode: 0
Integration Time (sec): 2.000000E-2
Scans to average: 10
Electric dark correction enabled: true
Nonlinearity correction enabled: false
Boxcar width: 0
XAxis mode: Wavelengths
Number of Pixels in Spectrum: 2048
>>>>>Begin Spectral Data<<<<<
341.393	-13.08
341.776	-13.08
342.16	-13.08
342.543	-52.4
342.927	-76.35
343.31	-74.77
343.693	-65.51
344.077	-53.76
344.46	-56.92
344.843	-37.26
345.226	-32.06
345.61	-27.99
345.993	-27.77
346.376	-13.3
346.759	-2.91
347.142	13.14
347.525	46.13
347.908	67.37
348.291	85.68
348.674	81.38
349.057	98.56
349.44	115.96
349.823	155.73
350.206	168.61
350.588	200.93
350.971	210.42
351.354	215.84
351.737	237.76
352.119	233.02
352.502	253.81
352.884	269.85
353.267	259.91
353.65	277.31
354.032	277.31
354.414	309.4
354.797	292.45
355.179	313.69
355.562	328.16
355.944	329.06
356.326	329.06
356.709	326.8
357.091	350.53
357.473	321.15
357.855	341.94
358.238	330.42
358.62	328.83
359.002	335.16
359.384	331.54
359.766	351.21
360.148	338.55
360.53	338.78
360.912	331.54
361.294	336.06
361.676	353.47
362.057	346.91
362.439	356.63
362.821	357.98
363.203	343.07
363.584	325.44
363.966	326.35
364.348	341.94
364.729	352.34
365.111	350.98
365.493	332.67
365.874	349.85
366.256	324.99
366.637	344.88
367.019	309.4
367.4	310.75
367.781	337.65
368.163	314.14
368.544	343.07
368.925	324.77
369.306	329.06
369.688	322.28
370.069	340.81
370.45	295.84
370.831	328.16
371.212	346.46
371.593	336.29
371.974	340.58
372.355	334.26
372.736	342.62
373.117	348.04
373.498	319.57
373.879	354.37
374.26	341.71
374.641	329.51
375.021	324.77
375.402	327.7
375.783	364.31
376.163	336.52
376.544	360.24
376.925	362.5
377.305	349.85
377.686	355.95
378.066	361.37
378.447	373.35
378.827	372.45
379.208	358.66
379.588	391.88
379.968	380.13
380.349	378.78
380.729	374.03
381.109	387.14
381.489	391.43
381.87	390.53
382.25	370.41
382.63	380.36
383.01	404.31
383.39	390.53
383.77	410.64
384.15	410.19
384.53	404.76
384.91	390.3
385.29	385.33
385.67	400.92
386.049	400.47
386.429	406.8
386.809	418.77
387.189	419
387.568	427.81
387.948	427.81
388.328	443.18
388.707	451.09
389.087	434.82
389.466	437.98
389.846	470.3
390.225	468.26
390.605	478.43
390.984	480.92
391.363	465.1
391.743	459.68
392.122	459.45
392.501	457.64
392.881	456.97
393.26	491.09
393.639	478.43
394.018	499.9
394.397	486.34
394.776	472.78
395.155	493.57
395.534	495.61
395.913	493.12
396.292	497.87
396.671	510.75
397.05	512.11
397.429	513.91
397.808	512.56
398.186	516.62
398.565	522.73
398.944	520.69
399.323	536.51
399.701	522.27
400.08	545.1
400.458	537.42
400.837	559.11
401.215	551.65
401.594	563.4
401.972	566.57
402.351	580.13
402.729	592.56
403.107	582.61
403.486	571.54
403.864	577.19
404.242	601.37
404.62	615.15
404.999	611.99
405.377	585.55
405.755	597.53
406.133	616.74
406.511	650.63
406.889	628.26
407.267	635.72
407.645	641.59
408.023	651.99
408.401	652.89
408.779	656.51
409.156	682.5
409.534	701.48
409.912	702.38
410.29	685.66
410.667	712.55
411.045	714.59
411.422	709.61
411.8	712.1
412.178	732.89
412.555	738.54
412.933	726.34
413.31	742.83
413.687	741.93
414.065	779.89
414.442	776.51
414.819	793.91
415.197	813.79
415.574	808.37
415.951	809.27
416.328	820.8
416.705	814.24
417.082	813.79
417.46	842.04
417.837	850.18
418.214	844.75
418.591	855.37
418.967	898.54
419.344	873
419.721	886.56
420.098	887.46
420.475	913.45
420.852	894.24
421.228	911.64
421.605	924.52
421.982	953.68
422.358	922.04
422.735	957.74
423.111	985.54
423.488	995.48
423.864	993
424.241	1004.07
424.617	978.99
424.994	1018.53
425.37	1027.57
425.746	1006.78
426.123	1015.59
426.499	1029.15
426.875	1058.98
427.251	1080
427.627	1085.2
428.003	1087.68
428.379	1101.02
428.756	1116.38
429.132	1125.65
429.507	1137.17
429.883	1164.74
430.259	1157.06
430.635	1178.53
431.011	1199.54
431.387	1227.11
431.763	1254.68
432.138	1231.86
432.514	1282.03
432.89	1264.18
433.265	1290.84
433.641	1309.6
434.016	1317.96
434.392	1333.78
434.767	1358.18
435.143	1352.76
435.518	1383.49
435.894	1391.86
436.269	1421.91
436.644	1439.54
437.02	1428.01
437.395	1443.38
437.77	1465.53
438.145	1474.11
438.52	1512.76
438.895	1543.49
439.271	1512.53
439.646	1561.8
440.021	1553.43
440.395	1587.78
440.77	1593.66
441.145	1601.12
441.52	1642.02
441.895	1599.31
442.27	1629.59
442.645	1644.96
443.019	1649.7
443.394	1656.71
443.769	1638.18
444.143	1686.76
444.518	1695.58
444.892	1693.32
445.267	1710.04
445.641	1734.67
446.016	1731.51
446.39	1743.49
446.764	1779.87
447.139	1752.75
447.513	1792.3
447.887	1794.78
448.262	1812.64
448.636	1799.75
449.01	1831.84
449.384	1838.17
449.758	1839.3
450.132	1870.26
450.506	1906.19
450.88	1924.95
451.254	1920.88
451.628	1914.78
452.002	1953.65
452.376	2019.18
452.75	2005.63
453.123	2004.27
453.497	2057.38
453.871	2075
454.244	2086.3
454.618	2100.09
454.992	2171.95
455.365	2160.2
455.739	2195.9
456.112	2257.37
456.486	2253.53
456.859	2240.87
457.232	2288.1
457.606	2320.42
457.979	2362.45
458.352	2374.43
458.725	2423.02
459.099	2426.18
459.472	2484.71
459.845	2496.01
460.218	2512.96
460.591	2539.17
460.964	2591.82
461.337	2636.57
461.71	2674.31
462.083	2692.39
462.456	2683.8
462.829	2672.05
463.201	2766.96
463.574	2746.62
463.947	2799.73
464.32	2851.25
464.692	2910.23
465.065	2903.91
465.438	2941.19
465.81	2975.54
466.183	3021.64
466.555	3091.7
466.928	3095.31
467.3	3147.29
467.672	3145.03
468.045	3237.91
468.417	3286.5
468.789	3321.07
469.161	3319.04
469.534	3387.51
469.906	3413.5
470.278	3468.41
470.65	3538.47
471.022	3598.8
471.394	3641.74
471.766	3675.19
472.138	3714.73
472.51	3841.28
472.882	3902.07
473.253	3872.47
473.625	3989.75
473.997	3968.74
474.369	4049.64
474.74	4114.5
475.112	4186.36
475.484	4250.99
475.855	4303.87
476.227	4307.71
476.598	4490.53
476.97	4536.41
477.341	4641.71
477.713	4638.55
478.084	4730.75
478.455	4853.69
478.827	4918.09
479.198	5045.09
479.569	5004.64
479.94	5151.53
480.311	5231.08
480.682	5332.77
481.053	5486.66
481.424	5561.24
481.795	5569.15
482.166	5724.17
482.537	5729.37
482.908	5840.55
483.279	5934.34
483.65	6055.91
484.021	6154.67
484.391	6233.99
484.762	6298.39
485.133	6319.41
485.503	6462.91
485.874	6572.51
486.244	6683.92
486.615	6800.53
486.985	6830.58
487.356	6999.62
487.726	7013.86
488.097	7163.23
488.467	7168.65
488.837	7370.46
489.207	7434.41
489.578	7508.08
489.948	7604.12
490.318	7711.92
490.688	7724.8
491.058	7867.39
491.428	8003.21
491.798	8003.89
492.168	8188.06
492.538	8221.96
492.908	8365.46
493.278	8441.39
493.648	8511.89
494.017	8587.37
494.387	8628.95
494.757	8748.95
495.126	8813.13
495.496	8914.6
495.866	8909.85
496.235	9123.18
496.605	9081.6
496.974	9167.47
497.344	9308.03
497.713	9339.67
498.082	9382.61
498.452	9522.72
498.821	9606.1
499.19	9603.39
499.559	9686.55
499.928	9776.49
500.298	9853.78
500.667	9924.51
501.036	9913.21
501.405	10072.53
501.774	10044.96
502.143	10196.14
502.512	10171.29
502.88	10361.79
503.249	10363.15
503.618	10401.34
503.987	10522.92
504.356	10572.18
504.724	10585.06
505.093	10714.1
505.462	10704.15
505.83	10836.58
506.199	10939.18
506.567	11066.63
506.936	11006.29
507.304	11185.72
507.672	11259.39
508.041	11267.75
508.409	11367.19
508.777	11514.75
509.145	11465.49
509.514	11553.4
509.882	11646.28
510.25	11822.32
510.618	11860.51
510.986	11885.14
511.354	12010.11
511.722	12177.56
512.09	12208.07
512.458	12157.45
512.826	12396.54
513.193	12468.63
513.561	12507.5
513.929	12600.37
514.297	12688.28
514.664	12766.47
515.032	12921.27
515.4	12914.04
515.767	13013.02
516.135	13113.81
516.502	13154.03
516.869	13424.08
517.237	13430.64
517.604	13348.15
517.972	13599.9
518.339	13626.34
518.706	13633.57
519.073	13765.09
519.44	13932.32
519.808	14050.73
520.175	14099.09
520.542	14267.45
520.909	14312.42
521.276	14434.45
521.643	14624.28
522.009	14606.88
522.376	14858.17
522.743	14821.56
523.11	15030.37
523.477	15200.08
523.843	15226.75
524.21	15400.53
524.577	15495.44
524.943	15646.17
525.31	15715.1
525.676	15795.77
526.043	15930.23
526.409	16127.74
526.776	16200.28
527.142	16243.22
527.508	16370.9
527.874	16547.16
528.241	16554.4
528.607	16661.74
528.973	16859.47
529.339	16873.48
529.705	17091.56
530.071	17149.86
530.437	17251.1
530.803	17454.94
531.169	17503.07
531.535	17485.22
531.901	17623.07
532.267	17615.16
532.632	17709.39
532.998	17785.1
533.364	17937.41
533.73	17975.6
534.095	18213.33
534.461	18234.35
534.826	18345.99
535.192	18456.04
535.557	18597.28
535.923	18492.2
536.288	18626.88
536.653	18742.59
537.019	18708.91
537.384	18900.55
537.749	18863.49
538.114	18984.39
538.479	19043.6
538.845	19184.83
539.21	19197.26
539.575	19317.26
539.94	19268
540.305	19430.25
540.67	19433.87
541.034	19507.31
541.399	19691.04
541.764	19721.32
542.129	19674.09
542.494	19826.17
542.858	19838.6
543.223	19801.32
543.587	20097.8
543.952	20067.3
544.316	20227.97
544.681	20111.59
545.045	20242.21
545.41	20484.91
545.774	20380.96
546.138	20457.34
546.503	20643.55
546.867	20671.8
547.231	20733.27
547.595	20763.32
547.959	20779.82
548.324	20892.59
548.688	20949.31
549.052	21058.46
549.416	21070.43
549.779	21191.11
550.143	21244.89
550.507	21422.06
550.871	21434.49
551.235	21471.1
551.599	21620.48
551.962	21689.18
552.326	21733.47
552.689	21772.56
553.053	21905.21
553.417	21912.67
553.78	22214.36
554.143	22074.25
554.507	22244.19
554.87	22267.47
555.234	22522.83
555.597	22351.3
555.96	22520.79
556.323	22698.19
556.686	22664.29
557.05	22790.39
557.413	22925.08
557.776	22943.83
558.139	23118.97
558.502	23123.71
558.865	23082.36
559.228	23445.74
559.59	23475.34
559.953	23577.26
560.316	23744.49
560.679	23788.78
561.041	23915.56
561.404	23987.19
561.767	24098.83
562.129	24068.32
562.492	24395.77
562.854	24281.88
563.217	24435.09
563.579	24514.41
563.941	24650.23
564.304	24754.86
564.666	24907.4
565.028	24892.03
565.39	25061.74
565.753	25174.06
566.115	25320.72
566.477	25392.35
566.839	25551.45
567.201	25665.57
567.563	25577.89
567.925	25884.32
568.287	25898.78
568.648	25915.73
569.01	26193.24
569.372	26271.2
569.734	26172.67
570.095	26430.29
570.457	26471.87
570.819	26517.52
571.18	26619.44
571.542	26722.04
571.903	26682.49
572.265	26681.81
572.626	26896.5
572.987	27111.41
573.349	27184.62
573.71	27196.83
574.071	27267.11
574.432	27257.16
574.794	27599.53
575.155	27616.7
575.516	27451.51
575.877	27693.76
576.238	27708
576.599	27772.86
576.96	27687.89
577.32	27745.51
577.681	27885.85
578.042	27969.91
578.403	27891.95
578.763	27976.02
579.124	28012.4
579.485	28137.14
579.845	28142.34
580.206	28069.57
580.566	28116.13
580.927	28329.9
581.287	28418.26
581.648	28251.49
582.008	28392.5
582.368	28349.11
582.728	28413.97
583.089	28315.67
583.449	28493.06
583.809	28398.83
584.169	28434.76
584.529	28525.61
584.889	28635.89
585.249	28388.66
585.609	28548.66
585.969	28624.13
586.329	28490.35
586.688	28557.02
587.048	28379.62
587.408	28477.02
587.768	28554.08
588.127	28488.32
588.487	28469.34
588.846	28634.08
589.206	28352.73
589.565	28579.16
589.925	28566.06
590.284	28617.35
590.643	28693.51
591.003	28699.16
591.362	28766.73
591.721	28721.08
592.08	28588.66
592.44	28776.9
592.799	28819.16
593.158	28700.52
593.517	28694.19
593.876	28756.56
594.235	28673.85
594.593	28576
594.952	28733.51
595.311	28706.62
595.67	28877.46
596.029	28975.09
596.387	28962.66
596.746	29120.39
597.104	29015.99
597.463	28764.24
597.822	28999.04
598.18	28879.27
598.538	28955.88
598.897	29123.78
599.255	28909.1
599.613	29273.61
599.972	29060.96
600.33	29131.01
600.688	28972.15
601.046	29122.43
601.404	29265.02
601.762	29164.01
602.12	29370.78
602.478	29269.77
602.836	29367.62
603.194	29269.77
603.552	29223.89
603.91	29200.16
604.268	29466.82
604.625	29223.67
604.983	29450.55
605.341	29304.79
605.698	29362.87
606.056	29490.33
606.413	29486.48
606.771	29599.02
607.128	29677.67
607.485	29453.04
607.843	29582.75
608.2	29697.1
608.557	29853.93
608.914	29650.55
609.272	29837.44
609.629	29642.64
609.986	30045.79
610.343	29738.91
610.7	30142.96
611.057	29959.01
611.414	29973.48
611.771	30051.22
612.127	30036.07
612.484	30092.34
612.841	30198.78
613.198	30086.92
613.554	30078.11
613.911	30220.02
614.267	30308.16
614.624	30256.86
614.98	30323.75
615.337	30381.83
615.693	30332.11
616.05	30324.88
616.406	30533.69
616.762	30441.04
617.118	30419.12
617.475	30502.28
617.831	30593.12
618.187	30596.51
618.543	30587.92
618.899	30766
619.255	30653.91
619.611	30683.29
619.967	30720.12
620.323	30830.63
620.678	30653.69
621.034	30567.81
621.39	30590.41
621.746	30610.07
622.101	30986.78
622.457	30730.07
622.812	30777.07
623.168	30724.42
623.523	30793.34
623.879	30946.56
624.234	30681.93
624.589	30793.57
624.945	30956.5
625.3	30779.33
625.655	30796.05
626.01	30763.06
626.365	30730.52
626.72	30885.09
627.075	30714.93
627.43	30850.97
627.785	30697.53
628.14	30759.22
628.495	30881.02
628.85	30730.29
629.205	30613.46
629.559	30737.75
629.914	30667.92
630.269	30784.08
630.623	30693.46
630.978	30566.46
631.332	30709.5
631.687	30635.38
632.041	30617.75
632.396	30616.62
632.75	30511.09
633.104	30626.57
633.459	30534.37
633.813	30398.55
634.167	30447.36
634.521	30384.54
634.875	30471.54
635.229	30350.42
635.583	30156.3
635.937	30251.21
636.291	30147.03
636.645	30137.99
636.999	30022.29
637.352	30065.45
637.706	30024.78
638.06	30070.2
638.413	30020.71
638.767	29874.95
639.121	30012.12
639.474	29794.95
639.828	29768.29
640.181	29773.71
640.534	29746.36
640.888	29614.62
641.241	29541.17
641.594	29664.11
641.947	29667.04
642.301	29750.21
642.654	29609.65
643.007	29692.81
643.36	29528.97
643.713	29439.25
644.066	29653.71
644.419	29348.41
644.771	29324.45
645.124	28943
645.477	29018.47
645.83	28752.04
646.182	28656.22
646.535	28517.24
646.888	28426.4
647.24	28347.76
647.593	28470.47
647.945	28398.83
648.298	28218.95
648.65	28174.43
649.002	28192.28
649.355	28253.07
649.707	28266.18
650.059	28472.05
650.411	28775.77
650.763	28812.15
651.115	29043.78
651.467	28840.17
651.819	28896.9
652.171	28791.14
652.523	28739.39
652.875	28712.04
653.227	28545.94
653.578	28749.55
653.93	28654.64
654.282	28605.15
654.633	28517.7
654.985	28574.64
655.337	28619.39
655.688	28579.39
656.039	28639.05
656.391	28402.22
656.742	28456
657.094	28442.22
657.445	28521.09
657.796	28510.69
658.147	28425.5
658.498	28440.64
658.849	28299.62
659.2	28351.37
659.551	28288.55
659.902	28522.89
660.253	28265.73
660.604	28238.61
660.955	28236.57
661.306	28273.64
661.656	28121.55
662.007	28321.32
662.358	28145.5
662.708	28180.76
663.059	28248.33
663.409	27987.54
663.76	28157.93
664.11	28223.47
664.461	28191.6
664.811	28152.51
665.161	28184.82
665.511	28015.79
665.862	28099.4
666.212	28150.02
666.562	28040.19
666.912	28192.96
667.262	28125.39
667.612	28046.52
667.962	28138.5
668.312	28018.73
668.662	28162
669.011	27999.74
669.361	27931.72
669.711	27869.13
670.06	27903.48
670.41	27813.76
670.76	27900.31
671.109	27808.11
671.459	27865.06
671.808	27728.34
672.157	27822.12
672.507	27611.28
672.856	27701.9
673.205	27713.88
673.554	27809.47
673.904	27604.95
674.253	27696.7
674.602	27652.86
674.951	27318.18
675.3	27090.16
675.649	27546.87
675.998	27454.45
676.346	27550.49
676.695	27617.61
677.044	27414
677.393	27527.21
677.741	27486.99
678.09	27375.81
678.438	27210.39
678.787	27421.91
679.135	27336.26
679.484	27139.65
679.832	27335.58
680.181	27147.79
680.529	27212.87
680.877	27207.9
681.225	27059.2
681.573	27182.59
681.922	26939.66
682.27	26996.83
682.618	26985.53
682.966	26907.12
683.314	26945.31
683.661	26952.54
684.009	26644.3
684.357	26745.99
684.705	26686.33
685.053	26710.29
685.4	26682.04
685.748	26485.66
686.095	26424.87
686.443	26443.4
686.79	26272.33
687.138	26369.5
687.485	26395.94
687.832	26256.29
688.18	26278.43
688.527	26067.14
688.874	26065.56
689.221	26101.26
689.568	25913.92
689.915	25935.39
690.262	25970.19
690.609	25871.21
690.956	25751.44
691.303	25743.76
691.65	25588.96
691.997	25594.16
692.344	25450.43
692.69	25387.61
693.037	25532.01
693.383	25172.47
693.73	25304.22
694.077	25180.61
694.423	25141.29
694.769	25063.78
695.116	24968.64
695.462	24845.93
695.808	24901.52
696.155	24887.51
696.501	24764.8
696.847	24741.3
697.193	24649.1
697.539	24607.97
697.885	24444.36
698.231	24490.68
698.577	24461.08
698.923	24333.63
699.269	24288.66
699.614	24125.27
699.96	24103.58
700.306	24080.3
700.651	24007.08
700.997	23922.79
701.342	23965.95
701.688	23859.74
702.033	23802.57
702.379	23746.52
702.724	23684.15
703.069	23626.53
703.415	23405.29
703.76	23447.1
704.105	23449.81
704.45	23318.29
704.795	23218.4
705.14	23167.1
705.485	23144.05
705.83	23041.23
706.175	23195.12
706.52	22940.22
706.865	22920.33
707.209	22865.19
707.554	22828.13
707.899	22847.56
708.243	22842.82
708.588	22650.51
708.932	22585.42
709.277	22454.35
709.621	22612.09
709.966	22389.04
710.31	22445.99
710.654	22186.11
710.998	22297.97
711.342	22197.41
711.687	22224.75
712.031	22126.45
712.375	22083.74
712.719	22154.02
713.063	21978.66
713.407	22035.38
713.75	21944.08
714.094	21960.81
714.438	21792.9
714.782	21861.83
715.125	21718.1
715.469	21801.71
715.812	21641.04
716.156	21606.92
716.499	21612.34
716.843	21674.03
717.186	21482.18
717.53	21607.14
717.873	21504.55
718.216	21556.98
718.559	21355.4
718.902	21243.09
719.246	21244.67
719.589	21159.7
719.932	21117.21
720.275	21138
720.617	21242.63
720.96	21105.69
721.303	21045.8
721.646	21043.54
721.989	20877.67
722.331	20965.58
722.674	20939.82
723.016	20954.51
723.359	20863.66
723.701	20787.05
724.044	20641.07
724.386	20596.77
724.729	20723.33
725.071	20599.26
725.413	20601.75
725.755	20613.72
726.097	20530.34
726.439	20360.62
726.782	20470.22
727.124	20459.83
727.465	20344.35
727.807	20355.88
728.149	20241.76
728.491	20263
728.833	20225.71
729.175	20224.13
729.516	20242.21
729.858	20211.93
730.199	20206.5
730.541	20298.03
730.882	19979.62
731.224	20157.46
731.565	19983.68
731.906	19928.54
732.248	19980.29
732.589	19862.1
732.93	19926.96
733.271	19957.92
733.612	19937.13
733.953	19871.14
734.294	19755.89
734.635	19676.12
734.976	19737.59
735.317	19621.43
735.658	19566.52
735.999	19682.9
736.339	19569.46
736.68	19679.74
737.021	19602.9
737.361	19414.21
737.702	19584.37
738.042	19511.38
738.383	19426.18
738.723	19490.59
739.063	19251.5
739.404	19411.27
739.744	19289.69
740.084	19220.54
740.424	19326.07
740.764	19229.81
741.104	19276.58
741.444	19148.45
741.784	19101.67
742.124	19072.52
742.464	19032.3
742.804	19084.27
743.143	19021.9
743.483	19009.02
743.823	18923.6
744.162	18869.59
744.502	18922.24
744.841	18790.95
745.181	18918.63
745.52	18809.93
745.86	18741.68
746.199	18787.78
746.538	18807.9
746.877	18826.43
747.216	18731.74
747.556	18637.28
747.895	18725.41
748.234	18540.11
748.573	18508.24
748.911	18502.82
749.25	18462.37
749.589	18357.96
749.928	18402.03
750.267	18382.37
750.605	18306.21
750.944	18288.81
751.283	18134.24
751.621	18311.64
751.96	18113.68
752.298	18113.9
752.636	18114.81
752.975	18004.98
753.313	17946.45
753.651	18004.98
753.989	17901.93
754.327	17892.44
754.666	17759.34
755.004	17829.62
