Data from breadboard_white_FLMS001491_00063.txt Node
Date: Wed Feb 08 10:48:05 GMT 2017
User: dcchb
Spectrometer: FLMS00149
Trigger mode: 0
Integration Time (sec): 2.000000E-2
Scans to average: 10
Electric dark correction enabled: true
Nonlinearity correction enabled: false
Boxcar width: 0
XAxis mode: Wavelengths
Number of Pixels in Spectrum: 2048
>>>>>Begin Spectral Data<<<<<
341.393	-17.06
341.776	-17.06
342.16	-17.06
342.543	-38.08
342.927	-52.99
343.31	-58.87
343.693	-60.9
344.077	-69.49
344.46	-68.59
344.843	-43.73
345.226	-52.09
345.61	-30.62
345.993	-19.1
346.376	-0.34
346.759	5.08
347.142	36.5
347.525	41.92
347.908	50.96
348.291	77.85
348.674	88.25
349.057	103.16
349.44	117.85
349.823	143.16
350.206	167.79
350.588	219.32
350.971	223.61
351.354	260.45
351.737	244.17
352.119	257.96
352.502	285.53
352.884	278.75
353.267	307.9
353.65	321.23
354.032	319.65
354.414	327.11
354.797	318.07
355.179	333.21
355.562	325.08
355.944	352.42
356.326	347
356.709	350.61
357.091	351.52
357.473	355.58
357.855	369.59
358.238	366.43
358.62	337.73
359.002	373.66
359.384	349.93
359.766	351.29
360.148	350.84
360.53	362.59
360.912	346.54
361.294	359.65
361.676	360.1
362.057	350.39
362.439	349.71
362.821	347
363.203	358.52
363.584	334.12
363.966	351.52
364.348	351.29
364.729	343.38
365.111	355.58
365.493	341.8
365.874	350.84
366.256	333.66
366.637	323.27
367.019	344.74
367.4	344.51
367.781	345.19
368.163	349.03
368.544	345.64
368.925	350.84
369.306	372.31
369.688	343.83
370.069	349.26
370.45	354.23
370.831	338.18
371.212	344.06
371.593	349.48
371.974	352.87
372.355	357.17
372.736	357.62
373.117	354.68
373.498	360.33
373.879	355.36
374.26	373.66
374.641	355.13
375.021	362.59
375.402	364.62
375.783	357.17
376.163	381.8
376.544	351.06
376.925	368.69
377.305	362.36
377.686	367.33
378.066	371.18
378.447	373.21
378.827	374.79
379.208	384.96
379.588	389.03
379.968	384.51
380.349	398.52
380.729	376.15
381.109	375.7
381.489	389.71
381.87	366.21
382.25	367.56
382.63	374.79
383.01	402.59
383.39	403.27
383.77	399.65
384.15	409.82
384.53	392.19
384.91	391.06
385.29	424.28
385.67	413.21
386.049	443.04
386.429	417.96
386.809	426.77
387.189	450.04
387.568	431.06
387.948	455.24
388.328	446.88
388.707	471.96
389.087	455.47
389.466	447.33
389.846	467.22
390.225	482.36
390.605	479.2
390.984	475.13
391.363	465.41
391.743	505.41
392.122	492.76
392.501	469.71
392.881	480.33
393.26	491.85
393.639	509.48
394.018	517.39
394.397	540.21
394.776	526.2
395.155	531.62
395.534	516.48
395.913	538.4
396.292	537.05
396.671	546.54
397.05	583.37
397.429	553.54
397.808	564.17
398.186	579.31
398.565	604.16
398.944	580.21
399.323	599.19
399.701	609.14
400.08	606.2
400.458	616.14
400.837	615.01
401.215	628.12
401.594	655.91
401.972	649.14
402.351	641.45
402.729	670.38
403.107	693.88
403.486	711.28
403.864	700.43
404.242	684.39
404.62	716.93
404.999	740.21
405.377	771.84
405.755	772.3
406.133	795.57
406.511	786.53
406.889	783.37
407.267	801.67
407.645	813.65
408.023	872.86
408.401	848.23
408.779	854.1
409.156	908.11
409.534	919.18
409.912	915.34
410.29	920.09
410.667	941.33
411.045	979.97
411.422	986.3
411.8	984.72
412.178	1015
412.555	1060.88
412.933	1044.38
413.31	1092.51
413.687	1082.34
414.065	1108.11
414.442	1112.17
414.819	1140.2
415.197	1147.43
415.574	1179.07
415.951	1187.43
416.328	1212.28
416.705	1225.39
417.082	1222.91
417.46	1229.46
417.837	1256.13
418.214	1285.73
418.591	1309.68
418.967	1303.13
419.344	1315.33
419.721	1353.07
420.098	1346.07
420.475	1370.7
420.852	1366.4
421.228	1418.38
421.605	1424.03
421.982	1433.52
422.358	1454.09
422.735	1487.31
423.111	1492.5
423.488	1492.5
423.864	1537.7
424.241	1535.67
424.617	1567.3
424.994	1603.46
425.37	1623.35
425.746	1611.82
426.123	1644.36
426.499	1643.01
426.875	1666.74
427.251	1704.02
427.627	1730.91
428.003	1746.06
428.379	1798.03
428.756	1785.6
429.132	1809.1
429.507	1839.61
429.883	1881.19
430.259	1936.11
430.635	1880.74
431.011	1935.43
431.387	1974.07
431.763	2012.72
432.138	1997.57
432.514	2071.24
432.89	2053.62
433.265	2131.81
433.641	2158.25
434.016	2148.08
434.392	2203.22
434.767	2217.23
435.143	2233.5
435.518	2279.38
435.894	2266.49
436.269	2320.28
436.644	2390.11
437.02	2399.15
437.395	2401.18
437.77	2424
438.145	2433.27
438.52	2491.35
438.895	2521.63
439.271	2504.45
439.646	2554.17
440.021	2599.37
440.395	2595.98
440.77	2604.34
441.145	2666.03
441.52	2730.44
441.895	2694.96
442.27	2742.19
442.645	2732.24
443.019	2781.73
443.394	2794.16
443.769	2805.69
444.143	2779.25
444.518	2868.74
444.892	2809.53
445.267	2867.16
445.641	2904.9
446.016	2897.66
446.39	2919.13
446.764	2962.97
447.139	2961.39
447.513	2973.37
447.887	2985.35
448.262	3069.41
448.636	3051.11
449.01	3107.38
449.384	3108.96
449.758	3164.55
450.132	3188.05
450.506	3199.8
450.88	3225.79
451.254	3258.33
451.628	3324.32
452.002	3307.37
452.376	3337.65
452.75	3404.77
453.123	3392.79
453.497	3473.24
453.871	3495.16
454.244	3546.23
454.618	3585.1
454.992	3635.05
455.365	3652.9
455.739	3747.36
456.112	3759.79
456.486	3831.88
456.859	3841.37
457.232	3931.76
457.606	3880.91
457.979	3962.49
458.352	4018.76
458.725	4146.9
459.099	4115.49
459.472	4203.17
459.845	4238.87
460.218	4313.45
460.591	4318.87
460.964	4315.48
461.337	4451.97
461.71	4499.43
462.083	4542.37
462.456	4599.99
462.829	4587.79
463.201	4702.14
463.574	4724.06
463.947	4777.84
464.32	4865.07
464.692	4931.96
465.065	4955.91
465.438	5039.3
465.81	5092.18
466.183	5156.59
466.555	5287.88
466.928	5302.8
467.3	5307.77
467.672	5404.72
468.045	5500.31
468.417	5535.33
468.789	5640.19
469.161	5651.72
469.534	5743.92
469.906	5853.29
470.278	5937.58
470.65	6062.1
471.022	6137.58
471.394	6256.9
471.766	6331.47
472.138	6383.45
472.51	6444.46
472.882	6568.98
473.253	6669.32
473.625	6800.61
473.997	6913.6
474.369	6942.3
474.74	7046.26
475.112	7185.91
475.484	7260.26
475.855	7436.08
476.227	7447.15
476.598	7683.75
476.97	7728.27
477.341	7886.01
477.713	8072.9
478.084	8117.19
478.455	8351.31
478.827	8399.44
479.198	8716.27
479.569	8649.15
479.94	8895.25
480.311	8959.88
480.682	9231.06
481.053	9320.77
481.424	9596.47
481.795	9623.36
482.166	9733.42
482.537	9899.97
482.908	10088.66
483.279	10196.68
483.65	10370.24
484.021	10643.22
484.391	10761.41
484.762	10821.07
485.133	10934.29
485.503	11017.68
485.874	11269.87
486.244	11441.85
486.615	11615.4
486.985	11855.39
487.356	12044.77
487.726	12148.04
488.097	12380.35
488.467	12338.32
488.837	12686.11
489.207	12823.5
489.578	12947.34
489.948	13069.15
490.318	13353.43
490.688	13355.92
491.058	13618.96
491.428	13813.99
491.798	13884.27
492.168	14230.7
492.538	14223.69
492.908	14371.03
493.278	14519.51
493.648	14652.84
494.017	14839.04
494.387	14965.6
494.757	15117.23
495.126	15273.61
495.496	15264.8
495.866	15484.68
496.235	15557.9
496.605	15731.9
496.974	15848.51
497.344	15999.47
497.713	16218.67
498.082	16290.08
498.452	16513.35
498.821	16658.21
499.19	16613.69
499.559	16798.32
499.928	16871.53
500.298	17024.52
500.667	17168.7
501.036	17286.89
501.405	17384.51
501.774	17519.43
502.143	17540.22
502.512	17752.41
502.88	17901.79
503.249	17873.32
503.618	18097.26
503.987	18176.36
504.356	18268.56
504.724	18329.8
505.093	18438.05
505.462	18512.62
505.83	18650.47
506.199	18920.75
506.567	19116.45
506.936	19061.08
507.304	19323.45
507.672	19328.64
508.041	19478.92
508.409	19756.43
508.777	19950.1
509.145	20011.34
509.514	19996.2
509.882	20179.47
510.25	20291.78
510.618	20457.88
510.986	20556.86
511.354	20746.23
511.722	20900.35
512.09	21247.69
512.458	21208.37
512.826	21332.66
513.193	21527.68
513.561	21546.21
513.929	21737.17
514.297	21874.79
514.664	22073.2
515.032	22173.32
515.4	22364.72
515.767	22444.04
516.135	22680.42
516.502	22577.15
516.869	22988.44
517.237	23041.77
517.604	23141.43
517.972	23352.95
518.339	23617.8
518.706	23686.95
519.073	23867.96
519.44	23922.87
519.808	24178.91
520.175	24235.18
520.542	24514.95
520.909	24693.93
521.276	24810.08
521.643	25026.12
522.009	25240.13
522.376	25296.17
522.743	25536.16
523.11	25736.84
523.477	26057.28
523.843	26339.08
524.21	26465.86
524.577	26723.03
524.943	26732.29
525.31	26967.77
525.676	27278.72
526.043	27416.12
526.409	27519.16
526.776	27988.08
527.142	27966.61
527.508	28128.64
527.874	28370.67
528.241	28370.67
528.607	28630.77
528.973	28837.09
529.339	28920.93
529.705	29270.3
530.071	29435.05
530.437	29588.71
530.803	29621.26
531.169	29957.29
531.535	29854.24
531.901	30120.68
532.267	30323.84
532.632	30425.53
532.998	30687.67
533.364	30750.26
533.73	30977.6
534.095	31122.46
534.461	31303.24
534.826	31416.46
535.192	31435.67
535.557	31734.65
535.923	31660.52
536.288	31724.48
536.653	32011.93
537.019	31894.42
537.384	32281.52
537.749	32357.23
538.114	32518.13
538.479	32534.62
538.845	32753.38
539.21	32732.13
539.575	32872.69
539.94	32946.14
540.305	33212.8
540.67	33115.63
541.034	33319.69
541.399	33413.25
541.764	33567.82
542.129	33682.39
542.494	33759.45
542.858	34040.8
543.223	34084.19
543.587	34222.72
543.952	34321.92
544.316	34385.2
544.681	34394.46
545.045	34742.93
545.41	34651.18
545.774	34990.83
546.138	34906.77
546.503	35031.51
546.867	34973.43
547.231	35363.02
547.595	35422.01
547.959	35556.47
548.324	35658.61
548.688	35788.78
549.052	35781.09
549.416	35872.39
549.779	35972.27
550.143	36172.04
550.507	36306.05
550.871	36363.22
551.235	36452.49
551.599	36743.55
551.962	36791.01
552.326	36852.48
552.689	37081.62
553.053	37048.4
553.417	37127.05
553.78	37569.52
554.143	37496.75
554.507	37753.02
554.87	37809.97
555.234	38126.34
555.597	38078.21
555.96	38272.55
556.323	38340.35
556.686	38566.56
557.05	38772.88
557.413	38778.3
557.776	38895.81
558.139	39249.7
558.502	39346.65
558.865	39442.24
559.228	39509.81
559.59	39761.78
559.953	39813.08
560.316	40206.97
560.679	40266.17
561.041	40577.8
561.404	40700.29
561.767	40955.19
562.129	40750.68
562.492	41205.36
562.854	41207.17
563.217	41215.3
563.579	41462.3
563.941	41738
564.304	41871.78
564.666	42086.92
565.028	42179.34
565.39	42240.36
565.753	42591.31
566.115	42700.01
566.477	42991.3
566.839	42893
567.201	43291.86
567.563	43190.16
567.925	43532.75
568.287	43663.82
568.648	43672.64
569.01	43931.16
569.372	44098.61
569.734	44092.29
570.095	44383.8
570.457	44584.03
570.819	44607.53
571.18	44545.83
571.542	44785.15
571.903	44951.93
572.265	45106.5
572.626	45234.18
572.987	45186.95
573.349	45363.21
573.71	45635.52
574.071	45546.03
574.432	45867.61
574.794	46056.53
575.155	46096.3
575.516	45940.6
575.877	46108.51
576.238	46101.5
576.599	46289.74
576.96	46376.97
577.32	46267.82
577.681	46621.94
578.042	46521.6
578.403	46675.04
578.763	46758.21
579.124	46766.11
579.485	46892.89
579.845	46973.79
580.206	46931.08
580.566	46923.85
580.927	46988.71
581.287	47164.07
581.648	47017.63
582.008	47237.06
582.368	47012.66
582.728	47151.19
583.089	47134.47
583.449	47201.36
583.809	47156.84
584.169	47331.07
584.529	47185.54
584.889	47492.2
585.249	47219.21
585.609	47203.39
585.969	47305.08
586.329	47230.06
586.688	47195.93
587.048	47340.79
587.408	47267.12
587.768	47288.36
588.127	47325.87
588.487	47190.96
588.846	47477.73
589.206	47224.86
589.565	47244.29
589.925	47507.79
590.284	47373.78
590.643	47470.73
591.003	47449.26
591.362	47557.96
591.721	47542.59
592.08	47494.46
592.44	47501.24
592.799	47560.44
593.158	47518.19
593.517	47380.34
593.876	47495.81
594.235	47448.36
594.593	47599.99
594.952	47654
595.311	47473.67
595.67	47567
596.029	47834.34
596.387	47745.52
596.746	47856.03
597.104	47727.45
597.463	47644.06
597.822	47832.75
598.18	47604.06
598.538	47746.65
598.897	47846.76
599.255	47670.5
599.613	48090.6
599.972	47879.53
600.33	47963.37
600.688	47858.97
601.046	47896.03
601.404	48219.18
601.762	48050.37
602.12	48305.51
602.478	48210.37
602.836	48183.25
603.194	48063.93
603.552	48146.19
603.91	47999.75
604.268	48333.98
604.625	48149.58
604.983	48289.69
605.341	48178.51
605.698	48315.45
606.056	48450.36
606.413	48420.99
606.771	48439.52
607.128	48511.38
607.485	48528.55
607.843	48381.44
608.2	48541.66
608.557	48692.84
608.914	48615.56
609.272	48777.59
609.629	48871.37
609.986	48914.53
610.343	48745.72
610.7	49074.98
611.057	48999.28
611.414	48908.21
611.771	49099.84
612.127	49144.36
612.484	49083.34
612.841	49250.57
613.198	49095.32
613.554	49150.91
613.911	49472.03
614.267	49342.32
614.624	49345.93
614.98	49305.03
615.337	49568.98
615.693	49416.44
616.05	49452.37
616.406	49618.02
616.762	49452.82
617.118	49564.46
617.475	49394.97
617.831	49604.01
618.187	49694.85
618.543	49647.85
618.899	49915.41
619.255	49842.19
619.611	49766.04
619.967	49828.41
620.323	49966.93
620.678	49772.59
621.034	49647.4
621.39	49722.87
621.746	49646.72
622.101	50089.87
622.457	49745.02
622.812	49751.35
623.168	49973.26
623.523	49943.66
623.879	49938.23
624.234	49764.45
624.589	49946.6
624.945	50004.22
625.3	50005.8
625.655	49870.67
626.01	49957.9
626.365	49973.26
626.72	49704.57
627.075	49798.13
627.43	49808.75
627.785	49739.6
628.14	49776.88
628.495	49854.4
628.85	49708.41
629.205	49721.29
629.559	49809.2
629.914	49644.91
630.269	49756.09
630.623	49581.86
630.978	49479.04
631.332	49727.85
631.687	49696.21
632.041	49428.87
632.396	49553.84
632.75	49473.16
633.104	49339.38
633.459	49348.42
633.813	49246.5
634.167	49289.66
634.521	49270.46
634.875	49245.15
635.229	49229.55
635.583	49076.56
635.937	49094.42
636.291	49055.55
636.645	48967.41
636.999	48910.01
637.352	48916.34
637.706	48734.42
638.06	48815.1
638.413	48772.16
638.767	48674.09
639.121	48797.25
639.474	48548.44
639.828	48566.97
640.181	48577.82
640.534	48570.81
640.888	48516.8
641.241	48338.5
641.594	48268.45
641.947	48579.17
642.301	48336.24
642.654	48268.22
643.007	48253.76
643.36	48175.57
643.713	48116.59
644.066	48334.66
644.419	48098.51
644.771	47858.29
645.124	47534.68
645.477	47478.41
645.83	47263.95
646.182	46943.96
646.535	46807.24
646.888	46898.99
647.24	46684.99
647.593	46929.05
647.945	46776.96
648.298	46607.48
648.65	46419.68
649.002	46320.03
649.355	46586.01
649.707	46400.7
650.059	46610.41
650.411	47089.72
650.763	47219.21
651.115	47540.33
651.467	47475.7
651.819	47371.52
652.171	47111.42
652.523	47077.97
652.875	47139.21
653.227	46993.23
653.578	47223.28
653.93	47160
654.282	46864.42
654.633	46773.8
654.985	46838.2
655.337	46845.66
655.688	46879.33
656.039	46830.75
656.391	46727.02
656.742	46636.63
657.094	46740.8
657.445	46748.26
657.796	46755.27
658.147	46527.93
658.498	46495.61
658.849	46649.06
659.2	46556.18
659.551	46285.45
659.902	46633.92
660.253	46494.26
660.604	46543.07
660.955	46324.09
661.306	46533.8
661.656	46298.1
662.007	46350.98
662.358	46320.03
662.708	46386.24
663.059	46304.66
663.409	46161.39
663.76	46399.57
664.11	46286.58
664.461	46293.13
664.811	46267.37
665.161	46281.83
665.511	46167.71
665.862	46212.68
666.212	46284.09
666.562	46153.93
666.912	46187.15
667.262	46034.61
667.612	46074.16
667.962	46022.41
668.312	45969.07
668.662	46089.52
669.011	45929.53
669.361	45868.74
669.711	46078.22
670.06	45942.86
670.41	45817.67
670.76	45915.97
671.109	45983.08
671.459	45829.19
671.808	45865.57
672.157	45834.61
672.507	45561.63
672.856	45613.6
673.205	45464.91
673.554	45731.79
673.904	45583.1
674.253	45713.94
674.602	45622.64
674.951	45074.63
675.3	44876.45
675.649	45379.03
675.998	45417.22
676.346	45390.11
676.695	45484.34
677.044	45194.86
677.393	45326.83
677.741	45245.7
678.09	45292.93
678.438	45142.88
678.787	45127.97
679.135	45313.5
679.484	44858.37
679.832	44951.02
680.181	44760.52
680.529	44880.06
680.877	44814.75
681.225	44706.06
681.573	44926.16
681.922	44687.3
682.27	44512.61
682.618	44528.21
682.966	44379.06
683.314	44432.39
683.661	44360.53
684.009	44139.29
684.357	44168.44
684.705	44031.05
685.053	44172.51
685.4	44043.25
685.748	43772.07
686.095	43804.16
686.443	43634.9
686.79	43567.56
687.138	43641.68
687.485	43662.02
687.832	43432.87
688.18	43491.85
688.527	43290.5
688.874	43127.34
689.221	43127.57
689.568	43018.64
689.915	42846.9
690.262	42883.73
690.609	42772.32
690.956	42712.89
691.303	42643.96
691.65	42375.27
691.997	42446
692.344	42128.72
692.69	42040.82
693.037	42244.88
693.383	41932.12
693.73	42096.63
694.077	41765.57
694.423	41712.24
694.769	41743.42
695.116	41599.02
695.462	41546.59
695.808	41288.74
696.155	41443.54
696.501	40993.39
696.847	41107.28
697.193	40682.66
697.539	40996.78
697.885	40672.72
698.231	40654.86
698.577	40637.46
698.923	40545.71
699.269	40409.22
699.614	40176.46
699.96	40093.52
700.306	40013.52
700.651	39854.43
700.997	39822.79
701.342	39722.23
701.688	39624.61
702.033	39412.18
702.379	39410.38
702.724	39268.46
703.069	39254.45
703.415	38830.28
703.76	38933.78
704.105	38888.58
704.45	38755.93
704.795	38617.18
705.14	38464.41
705.485	38628.48
705.83	38296.28
706.175	38342.16
706.52	38231.88
706.865	38220.8
707.209	38155.95
707.554	38058.1
707.899	38074.37
708.243	37833.47
708.588	37809.74
708.932	37485.91
709.277	37565.45
709.621	37499.47
709.966	37275.97
710.31	37251.11
710.654	36921.63
710.998	36980.61
711.342	36964.79
711.687	36931.35
712.031	36677.79
712.375	36489.32
712.719	36798.47
713.063	36631.92
713.407	36681.18
713.75	36425.14
714.094	36362.77
714.438	36311.47
714.782	36354.41
715.125	36184.7
715.469	36207.07
715.812	36015.66
716.156	35838.49
716.499	35814.31
716.843	35949.9
717.186	35554.66
717.53	35761.66
717.873	35748.1
718.216	35673.07
718.559	35444.38
718.902	35350.82
719.246	35384.27
719.589	35191.96
719.932	35082.58
720.275	35066.76
720.617	35006.88
720.96	35011.85
721.303	34969.59
721.646	34949.48
721.989	34642.37
722.331	34842.36
722.674	34727.79
723.016	34694.34
723.359	34589.71
723.701	34637.39
724.044	34277.18
724.386	34187.01
724.729	34424.07
725.071	34226.33
725.413	34162.15
725.755	34217.97
726.097	33968.94
726.439	33768.26
726.782	33841.03
727.124	34013.46
727.465	33687.14
727.807	33680.81
728.149	33662.28
728.491	33488.72
728.833	33559.46
729.175	33537.76
729.516	33432.23
729.858	33408.27
730.199	33473.81
730.541	33285.57
730.882	33229.07
731.224	33235.85
731.565	33054.16
731.906	33083.08
732.248	33121.95
732.589	32866.37
732.93	32870.66
733.271	32938
733.612	32818.01
733.953	32785.92
734.294	32595.41
734.635	32595.64
734.976	32841.96
735.317	32549.09
735.658	32425.93
735.999	32472.93
736.339	32419.37
736.68	32440.62
737.021	32257.34
737.361	32102.55
737.702	32211.02
738.042	32076.78
738.383	32084.47
738.723	32065.94
739.063	31855.55
739.404	31998.37
739.744	31870.01
740.084	31788.88
740.424	31752.05
740.764	31714.53
741.104	31839.73
741.444	31600.41
741.784	31575.33
742.124	31593.86
742.464	31558.61
742.804	31475.22
743.143	31463.01
743.483	31408.33
743.823	31185.73
744.162	31221.66
744.502	31316.8
744.841	30983.25
745.181	31314.09
745.52	31003.82
745.86	30929.92
746.199	30870.26
746.538	30883.14
746.877	30964.95
747.216	30864.61
747.556	30663.04
747.895	30776.7
748.234	30652.87
748.573	30387.79
748.911	30432.53
749.25	30529.93
749.589	30319.77
749.928	30443.38
750.267	30412.65
750.605	30297.4
750.944	30028.02
751.283	30041.13
751.621	30104.18
751.96	29962.04
752.298	29879.55
752.636	29989.61
752.975	29725.66
753.313	29640.46
