Data from breadboard_black_back_FLMS001491_00002.txt Node
Date: Wed Feb 08 10:49:51 GMT 2017
User: dcchb
Spectrometer: FLMS00149
Trigger mode: 0
Integration Time (sec): 2.000000E-2
Scans to average: 10
Electric dark correction enabled: true
Nonlinearity correction enabled: false
Boxcar width: 0
XAxis mode: Wavelengths
Number of Pixels in Spectrum: 2048
>>>>>Begin Spectral Data<<<<<
341.393	8.57
341.776	8.57
342.16	8.57
342.543	-75.72
342.927	-67.81
343.31	-75.72
343.693	-84.53
344.077	-75.49
344.46	-61.71
344.843	-62.16
345.226	-54.02
345.61	-21.48
345.993	-12.44
346.376	-1.14
346.759	29.82
347.142	26.65
347.525	49.7
347.908	61.91
348.291	86.54
348.674	88.57
349.057	105.52
349.44	126.76
349.823	133.54
350.206	174.9
350.588	201.79
350.971	217.16
351.354	222.13
351.737	227.55
352.119	258.28
352.502	252.18
352.884	258.06
353.267	275.91
353.65	299.41
354.032	291.05
354.414	302.35
354.797	291.05
355.179	313.42
355.562	322.92
355.944	320.66
356.326	320.43
356.709	316.14
357.091	335.34
357.473	343.25
357.855	344.84
358.238	340.09
358.62	338.73
359.002	339.86
359.384	339.86
359.766	328.34
360.148	342.58
360.53	330.37
360.912	321.11
361.294	343.25
361.676	350.71
362.057	343.25
362.439	350.71
362.821	345.97
363.203	343.25
363.584	359.52
363.966	350.49
364.348	359.07
364.729	336.93
365.111	344.84
365.493	331.05
365.874	329.69
366.256	337.38
366.637	343.25
367.019	328.11
367.4	337.15
367.781	333.76
368.163	315.01
368.544	332.63
368.925	340.32
369.306	341.67
369.688	343.71
370.069	326.3
370.45	327.66
370.831	341.45
371.212	349.13
371.593	346.64
371.974	327.89
372.355	351.16
372.736	363.37
373.117	361.11
373.498	342.8
373.879	366.08
374.26	348
374.641	335.12
375.021	350.26
375.402	360.88
375.783	356.36
376.163	376.93
376.544	382.35
376.925	361.11
377.305	375.8
377.686	404.04
378.066	361.33
378.447	364.27
378.827	376.47
379.208	362.01
379.588	385.29
379.968	395
380.349	394.55
380.729	399.3
381.109	386.87
381.489	402.01
381.87	400.2
382.25	403.59
382.63	400.88
383.01	405.85
383.39	423.03
383.77	400.65
384.15	393.65
384.53	399.52
384.91	416.47
385.29	405.17
385.67	443.14
386.049	433.87
386.429	423.7
386.809	454.44
387.189	436.58
387.568	422.8
387.948	436.81
388.328	436.13
388.707	445.17
389.087	475.45
389.466	459.18
389.846	450.37
390.225	455.57
390.605	472.29
390.984	470.26
391.363	477.04
391.743	471.39
392.122	478.84
392.501	481.78
392.881	502.12
393.26	499.41
393.639	499.63
394.018	527.2
394.397	529.92
394.776	527.88
395.155	522.01
395.534	539.18
395.913	517.49
396.292	522.91
396.671	566.3
397.05	555.68
397.429	552.97
397.808	547.77
398.186	553.87
398.565	550.03
398.944	564.04
399.323	564.04
399.701	571.04
400.08	575.34
400.458	557.71
400.837	556.13
401.215	560.88
401.594	576.47
401.972	578.73
402.351	584.6
402.729	599.97
403.107	620.76
403.486	609.91
403.864	608.11
404.242	625.51
404.62	643.58
404.999	641.32
405.377	649.69
405.755	641.1
406.133	665.73
406.511	648.56
406.889	672.28
407.267	676.13
407.645	665.96
408.023	695.79
408.401	723.13
408.779	692.4
409.156	717.71
409.534	719.97
409.912	722.45
410.29	722.23
410.667	748.21
411.045	756.58
411.422	774.2
411.8	756.58
412.178	769.68
412.555	772.62
412.933	802.9
413.31	842.22
413.687	812.39
414.065	805.16
414.442	851.94
414.819	842.68
415.197	820.3
415.574	877.7
415.951	867.99
416.328	869.12
416.705	879.06
417.082	886.97
417.46	883.8
417.837	904.37
418.214	899.62
418.591	926.97
418.967	914.99
419.344	927.19
419.721	924.26
420.098	959.73
420.475	978.94
420.852	964.71
421.228	947.53
421.605	958.83
421.982	993.86
422.358	1015.1
422.735	1018.94
423.111	1018.72
423.488	1021.2
423.864	1050.35
424.241	1037.7
424.617	1079.28
424.994	1067.98
425.37	1076.57
425.746	1101.2
426.123	1085.61
426.499	1104.14
426.875	1131.93
427.251	1147.3
427.627	1189.11
428.003	1182.33
428.379	1174.19
428.756	1185.72
429.132	1206.51
429.507	1217.58
429.883	1257.58
430.259	1255.32
430.635	1256.68
431.011	1278.6
431.387	1321.08
431.763	1353.4
432.138	1348.88
432.514	1355.43
432.89	1336.67
433.265	1399.27
433.641	1402.43
434.016	1400.4
434.392	1448.54
434.767	1489.21
435.143	1458.03
435.518	1472.72
435.894	1500.51
436.269	1506.16
436.644	1513.84
437.02	1535.54
437.395	1567.63
437.77	1582.32
438.145	1600.85
438.52	1623.45
438.895	1625.03
439.271	1647.17
439.646	1659.83
440.021	1674.97
440.395	1660.28
440.77	1668.19
441.145	1693.95
441.52	1734.86
441.895	1737.79
442.27	1750.9
442.645	1746.83
443.019	1766.27
443.394	1777.34
443.769	1783.67
444.143	1799.71
444.518	1786.38
444.892	1806.49
445.267	1856.89
445.641	1835.42
446.016	1874.06
446.39	1870.9
446.764	1904.34
447.139	1910.22
447.513	1910.67
447.887	1938.69
448.262	1910.22
448.636	1960.61
449.01	1954.51
449.384	2003.55
449.758	2010.78
450.132	2015.3
450.506	2041.51
450.88	2060.72
451.254	2042.42
451.628	2072.93
452.002	2093.26
452.376	2124.22
452.75	2181.62
453.123	2167.84
453.497	2211.23
453.871	2242.86
454.244	2276.76
454.618	2297.33
454.992	2295.74
455.365	2323.54
455.739	2350.66
456.112	2402.63
456.486	2468.17
456.859	2466.14
457.232	2484.44
457.606	2481.05
457.979	2494.38
458.352	2525.8
458.725	2596.53
459.099	2613.93
459.472	2676.98
459.845	2716.52
460.218	2721.72
460.591	2733.93
460.964	2741.38
461.337	2800.36
461.71	2867.48
462.083	2902.28
462.456	2868.16
462.829	2923.52
463.201	2985.22
463.574	2978.21
463.947	3024.99
464.32	3126.91
464.692	3129.85
465.065	3153.12
465.438	3170.52
465.81	3237.64
466.183	3257.98
466.555	3389.5
466.928	3351.08
467.3	3374.59
467.672	3389.5
468.045	3498.42
468.417	3513.79
468.789	3540.68
469.161	3592.66
469.534	3660
469.906	3673.34
470.278	3760.79
470.65	3802.82
471.022	3858.42
471.394	3921.01
471.766	3995.14
472.138	3990.16
472.51	4092.31
472.882	4137.5
473.253	4200.33
473.625	4266.31
473.997	4368.01
474.369	4337.95
474.74	4449.81
475.112	4517.38
475.484	4590.15
475.855	4709.01
476.227	4716.7
476.598	4832.4
476.97	4876.92
477.341	4960.99
477.713	5053.64
478.084	5076.24
478.455	5202.56
478.827	5235.1
479.198	5461.76
479.569	5445.94
479.94	5597.8
480.311	5639.84
480.682	5729.55
481.053	5897.68
481.424	5984.91
481.795	6014.74
482.166	6151.24
482.537	6220.61
482.908	6375.41
483.279	6382.42
483.65	6490.21
484.021	6633.26
484.391	6695.4
484.762	6792.58
485.133	6847.49
485.503	6899.47
485.874	7124.54
486.244	7144.2
486.615	7270.08
486.985	7404.76
487.356	7484.08
487.726	7558.88
488.097	7742.83
488.467	7756.17
488.837	7881.13
489.207	8066.89
489.578	8161.35
489.948	8198.19
490.318	8320.67
490.688	8381.01
491.058	8454.9
491.428	8640.44
491.798	8663.49
492.168	8916.59
492.538	8898.51
492.908	9025.29
493.278	9131.95
493.648	9128.56
494.017	9256.92
494.387	9357.71
494.757	9453.3
495.126	9542.33
495.496	9565.84
495.866	9691.48
496.235	9722.22
496.605	9825.72
496.974	9898.48
497.344	9973.51
497.713	10038.37
498.082	10195.65
498.452	10249.89
498.821	10288.98
499.19	10403.33
499.559	10492.14
499.928	10480.61
500.298	10630.44
500.667	10693.04
501.036	10712.7
501.405	10871.79
501.774	10882.86
502.143	11015.52
502.512	11088.73
502.88	11199.47
503.249	11175.51
503.618	11219.8
503.987	11270.2
504.356	11399.91
504.724	11476.75
505.093	11511.55
505.462	11611.43
505.83	11668.15
506.199	11833.12
506.567	11897.3
506.936	11879.67
507.304	12105.66
507.672	12075.15
508.041	12151.08
508.409	12284.18
508.777	12413.44
509.145	12511.52
509.514	12500.9
509.882	12634.23
510.25	12607.11
510.618	12815.92
510.986	12836.48
511.354	13013.43
511.722	12999.87
512.09	13184.5
512.458	13270.37
512.826	13355.34
513.193	13433.3
513.561	13515.11
513.929	13580.42
514.297	13755.78
514.664	13878.72
515.032	13884.82
515.4	13998.26
515.767	14036.9
516.135	14161.65
516.502	14174.98
516.869	14403.45
517.237	14506.95
517.604	14547.17
517.972	14714.4
518.339	14617.23
518.706	14764.8
519.073	14841.4
519.44	14971.34
519.808	15129.53
520.175	15149.87
520.542	15396.42
520.909	15533.36
521.276	15505.34
521.643	15702.85
522.009	15856.29
522.376	15888.61
522.743	15942.39
523.11	16198.66
523.477	16375.37
523.843	16404.98
524.21	16647.91
524.577	16783.73
524.943	16785.08
525.31	16936.49
525.676	17144.17
526.043	17241.57
526.409	17324.73
526.776	17534.21
527.142	17535.8
527.508	17580.77
527.874	17792.51
528.241	17936.46
528.607	17983.02
528.973	18233.4
529.339	18160.64
529.705	18376.9
530.071	18449.9
530.437	18646.28
530.803	18724.47
531.169	18755.42
531.535	18923.78
531.901	18905.93
532.267	19072.48
532.632	19103.89
532.998	19297.11
533.364	19307.73
533.73	19421.62
534.095	19573.26
534.461	19591.34
534.826	19764.89
535.192	19788.39
535.557	19884.43
535.923	19977.09
536.288	20111.77
536.653	20182.51
537.019	20106.8
537.384	20371.43
537.749	20313.8
538.114	20392.67
538.479	20514.47
538.845	20667.47
539.21	20657.07
539.575	20740.68
539.94	20744.07
540.305	20896.39
540.67	20872.88
541.034	21035.59
541.399	21139.99
541.764	21145.64
542.129	21212.08
542.494	21331.18
542.858	21413.89
543.223	21536.14
543.587	21514.67
543.952	21611.4
544.316	21643.94
544.681	21678.74
545.045	21908.56
545.41	21968.45
545.774	21988.79
546.138	22107.2
546.503	22156.92
546.867	22114.88
547.231	22403.46
547.595	22364.82
547.959	22464.25
548.324	22382.9
548.688	22530.24
549.052	22679.62
549.416	22676.45
549.779	22658.6
550.143	22795.54
550.507	22994.64
550.871	22935.2
551.235	23066.95
551.599	23219.26
551.962	23466.94
552.326	23440.95
552.689	23414.06
553.053	23508.29
553.417	23581.29
553.78	23832.58
554.143	23708.52
554.507	23871.45
554.87	23857.89
555.234	24180.82
555.597	24099.69
555.96	24261.49
556.323	24373.81
556.686	24422.85
557.05	24553.24
557.413	24648.15
557.776	24637.53
558.139	24960.91
558.502	24907.81
558.865	24953.91
559.228	25062.6
559.59	25323.61
559.953	25477.06
560.316	25524.51
560.679	25519.77
561.041	25763.6
561.404	25805.64
561.767	26053.99
562.129	25952.75
562.492	26206.75
562.854	26269.13
563.217	26268.67
563.579	26457.14
563.941	26663.69
564.304	26692.62
564.666	26830.47
565.028	26861.88
565.39	26997.24
565.753	27105.71
566.115	27284.24
566.477	27337.35
566.839	27386.84
567.201	27615.08
567.563	27601.97
567.925	27943.88
568.287	27902.53
568.648	27900.72
569.01	28151.56
569.372	28218.45
569.734	28180.49
570.095	28420.71
570.457	28464.1
570.819	28542.51
571.18	28634.26
571.542	28624.77
571.903	28814.14
572.265	28998.09
572.626	28919.45
572.987	29078.32
573.349	29204.19
573.71	29273.34
574.071	29271.31
574.432	29441.25
574.794	29609.15
575.155	29583.84
575.516	29484.63
575.877	29681.69
576.238	29676.49
576.599	29941.35
576.96	29892.76
577.32	29803.04
577.681	30057.05
578.042	30024.28
578.403	30072.19
578.763	30134.33
579.124	30100.66
579.485	30276.93
579.845	30374.78
580.206	30363.93
580.566	30330.04
580.927	30330.26
581.287	30400.99
581.648	30293.43
582.008	30535.68
582.368	30336.59
582.728	30581.78
583.089	30499.3
583.449	30459.75
583.809	30625.85
584.169	30577.71
584.529	30531.39
584.889	30888.67
585.249	30641.89
585.609	30464.27
585.969	30686.18
586.329	30568
586.688	30630.14
587.048	30619.29
587.408	30509.47
587.768	30564.61
588.127	30592.4
588.487	30467.21
588.846	30874.88
589.206	30762.11
589.565	30758.95
589.925	30762.34
590.284	30746.07
590.643	30786.07
591.003	30850.47
591.362	30897.48
591.721	30853.64
592.08	30832.4
592.44	30855.45
592.799	30874.88
593.158	30848.89
593.517	30806.18
593.876	30913.07
594.235	30778.16
594.593	30946.52
594.952	30960.98
595.311	30950.36
595.67	30977.7
596.029	31217.02
596.387	31127.08
596.746	31354.42
597.104	31010.47
597.463	31039.4
597.822	31122.78
598.18	31077.36
598.538	31135.89
598.897	31294.98
599.255	31065.84
599.613	31417.24
599.972	31183.8
600.33	31312.61
600.688	31135.89
601.046	31366.62
601.404	31468.99
601.762	31357.58
602.12	31472.83
602.478	31504.92
602.836	31510.12
603.194	31336.11
603.552	31571.13
603.91	31446.16
604.268	31482.1
604.625	31560.06
604.983	31593.28
605.341	31520.96
605.698	31653.62
606.056	31682.32
606.413	31580.4
606.771	31763.22
607.128	31926.15
607.485	31741.3
607.843	31804.35
608.2	31991.46
608.557	31974.96
608.914	32029.2
609.272	32071.01
609.629	32133.6
609.986	32173.15
610.343	32096.09
610.7	32318.01
611.057	32076.2
611.414	32199.14
611.771	32196.43
612.127	32367.5
612.484	32222.64
612.841	32277.78
613.198	32265.8
613.554	32373.82
613.911	32569.07
614.267	32622.18
614.624	32512.8
614.98	32526.81
615.337	32663.99
615.693	32642.74
616.05	32508.74
616.406	32677.54
616.762	32652.91
617.118	32563.65
617.475	32717.77
617.831	32782.17
618.187	32818.78
618.543	32836.18
618.899	33047.48
619.255	33048.16
619.611	32869.63
619.967	33033.02
620.323	33105.56
620.678	32893.58
621.034	33035.5
621.39	32951.21
621.746	32844.55
622.101	33292.9
622.457	32965.22
622.812	33068.72
623.168	33117.53
623.523	33028.04
623.879	33143.52
624.234	32975.39
624.589	33099.91
624.945	33132
625.3	33138.55
625.655	33099.68
626.01	33188.49
626.365	33088.38
626.72	33165.22
627.075	33105.78
627.43	33004.77
627.785	32979.46
628.14	33018.33
628.495	33145.78
628.85	32983.75
629.205	32940.81
629.559	33060.13
629.914	32968.38
630.269	32923.41
630.623	32852.91
630.978	32866.47
631.332	32906.69
631.687	32955.73
632.041	32812.91
632.396	32938.78
632.75	32738.33
633.104	32754.83
633.459	32558.45
633.813	32600.26
634.167	32602.52
634.521	32564.1
634.875	32526.59
635.229	32490.43
635.583	32451.11
635.937	32423.31
636.291	32274.39
636.645	32419.7
636.999	32252.47
637.352	32304.45
637.706	32214.28
638.06	32379.02
638.413	32143.1
638.767	32179.7
639.121	32162.3
639.474	31983.1
639.828	32083.89
640.181	32036.21
640.534	31977.9
640.888	31924.8
641.241	31865.59
641.594	31817.68
641.947	31884.35
642.301	31787.4
642.654	31789.43
643.007	31917.79
643.36	31758.25
643.713	31613.39
644.066	31850.9
644.419	31568.65
644.771	31447.29
645.124	31121.65
645.477	31115.78
645.83	30909.91
646.182	30607.09
646.535	30682.34
646.888	30565.74
647.24	30475.12
647.593	30580.88
647.945	30459.75
648.298	30470.82
648.65	30286.2
649.002	30233.99
649.355	30445.06
649.707	30384.05
650.059	30542.46
650.411	30849.12
650.763	30843.02
651.115	31187.19
651.467	31052.5
651.819	30984.93
652.171	30942.68
652.523	30826.07
652.875	30770.02
653.227	30737.71
653.578	30815.45
653.93	30895.22
654.282	30720.53
654.633	30565.28
654.985	30526.19
655.337	30697.26
655.688	30592.85
656.039	30611.84
656.391	30476.02
656.742	30511.05
657.094	30659.97
657.445	30688.22
657.796	30592.85
658.147	30434.89
658.498	30393.54
658.849	30515.12
659.2	30442.58
659.551	30388.79
659.902	30540.2
660.253	30466.08
660.604	30479.86
660.955	30247.55
661.306	30449.13
661.656	30333.2
662.007	30342.24
662.358	30338.4
662.708	30288.23
663.059	30256.14
663.409	30156.93
663.76	30269.25
664.11	30249.81
664.461	30230.6
664.811	30192.41
665.161	30201
665.511	30066.09
665.862	30027.22
666.212	30166.88
666.562	30250.94
666.912	30118.06
667.262	30156.26
667.612	29972.31
667.962	30117.16
668.312	30021.57
668.662	30221.34
669.011	30083.94
669.361	29975.47
669.711	29984.51
670.06	30007.33
670.41	29927.56
670.76	29895.02
671.109	30007.11
671.459	29900.22
671.808	29975.24
672.157	29951.29
672.507	29732.99
672.856	29756.49
673.205	29739.32
673.554	29879.2
673.904	29688.92
674.253	29909.71
674.602	29749.71
674.951	29396.5
675.3	29290.74
675.649	29558.08
675.998	29539.1
676.346	29573.9
676.695	29648.7
677.044	29442.38
677.393	29478.53
677.741	29585.87
678.09	29498.42
678.438	29398.99
678.787	29413.68
679.135	29549.72
679.484	29277.63
679.832	29455.71
680.181	29187.92
680.529	29284.19
680.877	29217.75
681.225	29184.53
681.573	29252.78
681.922	29035.15
682.27	29073.35
682.618	29041.03
682.966	28946.8
683.314	29053.69
683.661	28930.07
684.009	28754.26
684.357	28651.21
684.705	28619.8
685.053	28685.33
685.4	28701.6
685.748	28528.95
686.095	28443.98
686.443	28363.08
686.79	28284.21
687.138	28326.7
687.485	28416.87
687.832	28238.57
688.18	28270.2
688.527	28172.13
688.874	28121.05
689.221	28073.15
689.568	27934.62
689.915	27956.76
690.262	27922.64
690.609	27964.22
690.956	27818.24
691.303	27806.03
691.65	27545.93
691.997	27618.92
692.344	27383.45
692.69	27420.96
693.037	27481.52
693.383	27099.84
693.73	27201.08
694.077	27060.97
694.423	27156.11
694.769	26943.23
695.116	26961.54
695.462	26930.8
695.808	26816.91
696.155	26817.13
696.501	26616.69
696.847	26699.85
697.193	26338.95
697.539	26599.29
697.885	26301.67
698.231	26247.21
698.577	26264.83
698.923	26251.5
699.269	26080.43
699.614	26014.22
699.96	25918.85
700.306	25886.99
700.651	25821.23
700.997	25755.01
701.342	25806.09
701.688	25706.65
702.033	25564.74
702.379	25514.57
702.724	25419.43
703.069	25509.6
703.415	25257.85
703.76	25270.06
704.105	25219.21
704.45	25196.61
704.795	25013.11
705.14	25045.43
705.485	25048.82
705.83	24888.82
706.175	24757.75
706.52	24791.2
706.865	24734.25
707.209	24663.52
707.554	24603.18
707.899	24704.87
708.243	24498.32
708.588	24504.88
708.932	24301.72
709.277	24273.92
709.621	24329.29
709.966	24086.58
710.31	24119.8
710.654	23957.77
710.998	24034.61
711.342	24032.12
711.687	23947.6
712.031	23834.16
712.375	23756.42
712.719	23821.05
713.063	23801.39
713.407	23705.58
713.75	23623.09
714.094	23589.87
714.438	23517.11
714.782	23562.98
715.125	23394.62
715.469	23361.18
715.812	23288.64
716.156	23228.53
716.499	23252.71
716.843	23237.11
717.186	23081.64
717.53	23172.26
717.873	23142.88
718.216	23088.19
718.559	23041.64
718.902	22922.77
719.246	22909.44
719.589	22749.44
719.932	22888.88
720.275	22662.44
720.617	22767.07
720.96	22699.73
721.303	22730.69
721.646	22663.34
721.989	22497.47
722.331	22584.25
722.674	22434.2
723.016	22487.53
723.359	22373.63
723.701	22395.56
724.044	22294.09
724.386	22266.07
724.729	22403.92
725.071	22207.76
725.413	22208.89
725.755	22164.6
726.097	22113.75
726.439	22052.74
726.782	21924.61
727.124	22143.36
727.465	22014.32
727.807	21944.04
728.149	21929.8
728.491	21856.36
728.833	21850.71
729.175	21692.75
729.516	21665.63
729.858	21786.08
730.199	21814.55
730.541	21730.94
730.882	21692.97
731.224	21715.35
731.565	21456.14
731.906	21608.01
732.248	21453.66
732.589	21452.53
732.93	21408.01
733.271	21381.34
733.612	21371.63
733.953	21332.98
734.294	21332.76
734.635	21247.11
734.976	21248.69
735.317	21148.81
735.658	21156.27
735.999	21095.25
736.339	21079.88
736.68	21095.25
737.021	21054.35
737.361	20898.87
737.702	21003.05
738.042	20979.1
738.383	20920.57
738.723	20946.1
739.063	20876.27
739.404	20860.91
739.744	20773.68
740.084	20687.8
740.424	20705.66
740.764	20702.72
741.104	20700.01
741.444	20685.09
741.784	20629.73
742.124	20608.48
742.464	20538.43
742.804	20456.4
743.143	20492.55
743.483	20533.01
743.823	20416.4
744.162	20355.16
744.502	20391.54
744.841	20326.46
745.181	20342.95
745.52	20267.7
745.86	20138.21
746.199	20129.63
746.538	20174.6
746.877	20203.75
747.216	20120.81
747.556	19965.56
747.895	20060.25
748.234	19978.22
748.573	19941.61
748.911	19895.73
749.25	19897.99
749.589	19807.15
749.928	19836.07
750.267	19883.53
750.605	19734.38
750.944	19726.47
751.283	19622.75
751.621	19662.75
751.96	19537.55
752.298	19561.05
752.636	19529.42
752.975	19415.52
753.313	19428.4
753.651	19420.49
753.989	19239.25
754.327	19189.09
754.666	19085.36
