Data from breadboard_white_FLMS001491_00064.txt Node
Date: Wed Feb 08 10:48:05 GMT 2017
User: dcchb
Spectrometer: FLMS00149
Trigger mode: 0
Integration Time (sec): 2.000000E-2
Scans to average: 10
Electric dark correction enabled: true
Nonlinearity correction enabled: false
Boxcar width: 0
XAxis mode: Wavelengths
Number of Pixels in Spectrum: 2048
>>>>>Begin Spectral Data<<<<<
341.393	-4.8
341.776	-4.8
342.16	-4.8
342.543	-36.21
342.927	-77.57
343.31	-71.92
343.693	-56.33
344.077	-59.94
344.46	-67.17
344.843	-63.78
345.226	-49.77
345.61	-25.14
345.993	-15.65
346.376	3.56
346.759	11.92
347.142	21.86
347.525	38.13
347.908	46.72
348.291	77
348.674	89.66
349.057	120.84
349.44	134.63
349.823	152.26
350.206	155.87
350.588	192.71
350.971	224.57
351.354	261.18
351.737	269.77
352.119	266.15
352.502	266.38
352.884	284.68
353.267	299.6
353.65	306.83
354.032	307.96
354.414	324.91
354.797	331.01
355.179	349.09
355.562	345.92
355.944	333.95
356.326	347.73
356.709	366.71
357.091	361.29
357.473	364
357.855	359.71
358.238	366.04
358.62	358.35
359.002	363.78
359.384	362.19
359.766	362.19
360.148	365.58
360.53	370.33
360.912	359.26
361.294	372.14
361.676	374.85
362.057	356.09
362.439	351.12
362.821	346.83
363.203	354.28
363.584	344.12
363.966	364.68
364.348	338.01
364.729	350.44
365.111	331.91
365.493	336.21
365.874	343.66
366.256	347.05
366.637	354.74
367.019	339.37
367.4	339.6
367.781	339.82
368.163	329.88
368.544	334.62
368.925	322.42
369.306	346.15
369.688	344.34
370.069	368.07
370.45	348.18
370.831	350.22
371.212	342.31
371.593	349.54
371.974	359.26
372.355	355.19
372.736	357.67
373.117	356.32
373.498	353.83
373.879	358.58
374.26	368.07
374.641	351.57
375.021	371.23
375.402	353.38
375.783	362.87
376.163	375.75
376.544	355.41
376.925	392.02
377.305	380.95
377.686	397.9
378.066	360.16
378.447	370.33
378.827	386.83
379.208	392.02
379.588	393.83
379.968	386.15
380.349	386.15
380.729	400.84
381.109	391.57
381.489	386.83
381.87	398.35
382.25	411.46
382.63	388.86
383.01	395.64
383.39	429.54
383.77	427.5
384.15	404.68
384.53	421.85
384.91	422.53
385.29	415.3
385.67	421.63
386.049	433.6
386.429	431.12
386.809	423.89
387.189	435.64
387.568	441.51
387.948	459.37
388.328	443.77
388.707	448.07
389.087	440.16
389.466	474.28
389.846	467.28
390.225	460.04
390.605	438.12
390.984	478.57
391.363	475.19
391.743	496.43
392.122	492.59
392.501	506.37
392.881	523.55
393.26	508.63
393.639	504.79
394.018	503.43
394.397	537.33
394.776	540.72
395.155	521.74
395.534	532.36
395.913	562.41
396.292	561.74
396.671	566.03
397.05	571.68
397.429	561.74
397.808	572.58
398.186	578.91
398.565	570.1
398.944	572.81
399.323	628.85
399.701	620.94
400.08	607.16
400.458	618.46
400.837	642.41
401.215	627.5
401.594	633.6
401.972	670.21
402.351	674.73
402.729	685.58
403.107	701.85
403.486	689.19
403.864	707.04
404.242	698
404.62	740.71
404.999	748.85
405.377	736.65
405.755	754.05
406.133	769.64
406.511	785.23
406.889	788.62
407.267	798.57
407.645	827.94
408.023	852.35
408.401	867.04
408.779	845.8
409.156	873.59
409.534	870.66
409.912	921.95
410.29	912.46
410.667	948.62
411.045	980.93
411.422	974.61
411.8	1000.82
412.178	990.65
412.555	1056.19
412.933	1035.17
413.31	1067.94
413.687	1103.64
414.065	1088.28
414.442	1120.59
414.819	1148.84
415.197	1133.02
415.574	1185.22
415.951	1198.1
416.328	1224.54
416.705	1203.98
417.082	1237.88
417.46	1244.43
417.837	1258.89
418.214	1316.07
418.591	1313.58
418.967	1297.08
419.344	1305.67
419.721	1357.65
420.098	1378.89
420.475	1375.73
420.852	1390.64
421.228	1428.83
421.605	1433.8
421.982	1436.52
422.358	1471.09
422.735	1477.87
423.111	1482.62
423.488	1543.63
423.864	1526.91
424.241	1545.44
424.617	1601.26
424.994	1604.42
425.37	1606
425.746	1617.75
426.123	1646.45
426.499	1653.46
426.875	1678.32
427.251	1682.61
427.627	1764.19
428.003	1763.06
428.379	1793.12
428.756	1766.45
429.132	1814.81
429.507	1841.25
429.883	1861.14
430.259	1902.72
430.635	1924.86
431.011	1937.07
431.387	1941.81
431.763	2025.65
432.138	2011.64
432.514	2065.65
432.89	2061.36
433.265	2122.37
433.641	2170.06
434.016	2199.21
434.392	2209.83
434.767	2224.29
435.143	2265.42
435.518	2297.06
435.894	2315.59
436.269	2315.36
436.644	2361.92
437.02	2396.49
437.395	2374.12
437.77	2436.94
438.145	2450.05
438.52	2477.17
438.895	2525.75
439.271	2524.4
439.646	2577.95
440.021	2619.76
440.395	2622.47
440.77	2598.97
441.145	2617.95
441.52	2665.86
441.895	2688.46
442.27	2690.27
442.645	2690.04
443.019	2763.49
443.394	2773.66
443.769	2800.1
444.143	2805.07
444.518	2870.38
444.892	2838.29
445.267	2854.78
445.641	2900.43
446.016	2927.55
446.39	2941.34
446.764	2963.71
447.139	2980.66
447.513	2998.73
447.887	3045.97
448.262	3060.88
448.636	3039.64
449.01	3110.82
449.384	3132.29
449.758	3156.24
450.132	3206.86
450.506	3212.74
450.88	3248.67
451.254	3229.46
451.628	3288.44
452.002	3340.42
452.376	3376.8
452.75	3372.74
453.123	3410.48
453.497	3506.52
453.871	3536.12
454.244	3582.22
454.618	3609.34
454.992	3626.74
455.365	3609.34
455.739	3700.41
456.112	3792.16
456.486	3781.09
456.859	3861.99
457.232	3910.8
457.606	3896.56
457.979	3971.14
458.352	4042.78
458.725	4098.59
459.099	4075.77
459.472	4243.67
459.845	4205.93
460.218	4308.3
460.591	4350.79
460.964	4333.84
461.337	4464.23
461.71	4480.96
462.083	4617.68
462.456	4594.85
462.829	4589.65
463.201	4675.07
463.574	4701.97
463.947	4788.07
464.32	4913.49
464.692	4928.4
465.065	5010.43
465.438	5038.46
465.81	5123.88
466.183	5154.61
466.555	5300.82
466.928	5313.48
467.3	5322.74
467.672	5411.33
468.045	5528.39
468.417	5536.07
468.789	5607.71
469.161	5676.86
469.534	5740.13
469.906	5915.49
470.278	5979.22
470.65	5995.04
471.022	6158.88
471.394	6252.66
471.766	6315.03
472.138	6393.22
472.51	6473.9
472.882	6633.67
473.253	6643.16
473.625	6764.06
473.997	6893.32
474.369	6938.29
474.74	6994.11
475.112	7194.33
475.484	7293.09
475.855	7460.54
476.227	7533.76
476.598	7725.62
476.97	7747.54
477.341	7929.23
477.713	8040.41
478.084	8087.64
478.455	8355.2
478.827	8395.43
479.198	8633.39
479.569	8612.82
479.94	8923.32
480.311	9001.29
480.682	9194.73
481.053	9395.18
481.424	9487.83
481.795	9542.52
482.166	9814.37
482.537	9904.54
482.908	10170.75
483.279	10218.21
483.65	10394.47
484.021	10650.74
484.391	10718.53
484.762	10871.3
485.133	10964.4
485.503	11094.57
485.874	11303.6
486.244	11438.29
486.615	11636.25
486.985	11793.08
487.356	11994.2
487.726	12206.4
488.097	12360.07
488.467	12404.82
488.837	12704.69
489.207	12801.19
489.578	13112.37
489.948	13144
490.318	13296.77
490.688	13400.04
491.058	13558.23
491.428	13778.56
491.798	13918
492.168	14136.29
492.538	14250.19
492.908	14435.95
493.278	14677.75
493.648	14600.46
494.017	14846.11
494.387	14935.14
494.757	15052.66
495.126	15396.37
495.496	15340.33
495.866	15449.48
496.235	15646.99
496.605	15893.76
496.974	15950.71
497.344	16028.22
497.713	16156.35
498.082	16383.47
498.452	16501.2
498.821	16560.86
499.19	16646.29
499.559	16790.69
499.928	16952.04
500.298	16996.78
500.667	17237
501.036	17304.57
501.405	17378.7
501.774	17437.9
502.143	17603.1
502.512	17649.65
502.88	17937.1
503.249	17961.51
503.618	18100.26
503.987	18172.8
504.356	18245.34
504.724	18390.42
505.093	18519
505.462	18594.71
505.83	18721.49
506.199	18936.85
506.567	19160.12
506.936	19185.2
507.304	19271.75
507.672	19462.93
508.041	19633.33
508.409	19723.72
508.777	19909.93
509.145	20030.83
509.514	20133.43
509.882	20257.04
510.25	20266.98
510.618	20610.02
510.986	20635.33
511.354	20859.73
511.722	20918.04
512.09	21004.59
512.458	21175.21
512.826	21447.29
513.193	21481.64
513.561	21568.42
513.929	21757.11
514.297	21934.28
514.664	22073.71
515.032	22157.78
515.4	22400.94
515.767	22584.43
516.135	22677.31
516.502	22659.46
516.869	23071.2
517.237	23140.13
517.604	23110.75
517.972	23371.31
518.339	23619.66
518.706	23691.52
519.073	23763.16
519.44	24047.67
519.808	24194.11
520.175	24336.7
520.542	24631.39
520.909	24747.99
521.276	24789.35
521.643	24987.54
522.009	25270.69
522.376	25392.27
522.743	25576.9
523.11	25892.6
523.477	26176.43
523.843	26263.43
524.21	26633.37
524.577	26735.29
524.943	26931.89
525.31	26986.13
525.676	27366.46
526.043	27471.09
526.409	27617.07
526.776	27828.14
527.142	28052.31
527.508	28141.35
527.874	28329.37
528.241	28627.21
528.607	28739.07
528.973	28860.65
529.339	28970.93
529.705	29308.33
530.071	29534.53
530.437	29629.22
530.803	29834.41
531.169	29955.99
531.535	29992.6
531.901	30179.71
532.267	30318.92
532.632	30555.98
532.998	30711.68
533.364	30960.94
533.73	30975.4
534.095	31140.14
534.461	31284.77
534.826	31523.18
535.192	31556.4
535.557	31694.7
535.923	31838.43
536.288	31956.39
536.653	31982.83
537.019	32096.73
537.384	32180.34
537.749	32408.58
538.114	32544.4
538.479	32528.35
538.845	32816.03
539.21	32701.91
539.575	32932.64
539.94	33035.23
540.305	33269.8
540.67	33133.54
541.034	33419.86
541.399	33520.87
541.764	33650.81
542.129	33752.05
542.494	33817.81
542.858	34127.18
543.223	34076.11
543.587	34242.43
543.952	34283.79
544.316	34477.46
544.681	34454.18
545.045	34673.83
545.41	34788.63
545.774	34947.95
546.138	34981.17
546.503	35158.12
546.867	35105.91
547.231	35353.14
547.595	35458.45
547.959	35547.71
548.324	35698.44
548.688	35725.56
549.052	35899.79
549.416	35995.83
549.779	36043.29
550.143	36214.36
550.507	36370.74
550.871	36443.51
551.235	36410.06
551.599	36740.67
551.962	36912.87
552.326	37046.43
552.689	37231.51
553.053	37078.52
553.417	37185.41
553.78	37690.25
554.143	37512.4
554.507	37870.59
554.87	37912.62
555.234	38197.58
555.597	38073.07
555.96	38337.47
556.323	38470.57
556.686	38515.31
557.05	38828.98
557.413	38799.6
557.776	38925.25
558.139	39201.4
558.502	39336.76
558.865	39531.56
559.228	39687.26
559.59	39770.65
559.953	39856.07
560.316	40320.92
560.679	40305.1
561.041	40590.06
561.404	40698.99
561.767	40930.17
562.129	40774.69
562.492	41222.14
562.854	41199.54
563.217	41396.14
563.579	41369.03
563.941	41782.12
564.304	41883.81
564.666	42147.54
565.028	42209
565.39	42342.56
565.753	42665.71
566.115	42756.56
566.477	42834.07
566.839	43056.89
567.201	43263.21
567.563	43271.8
567.925	43721.51
568.287	43681.28
568.648	43706.36
569.01	43966.02
569.372	44126.24
569.734	44061.84
570.095	44439.9
570.457	44572.78
570.819	44644.87
571.18	44677.86
571.542	45131.19
571.903	44916.5
572.265	45138.87
572.626	45337.06
572.987	45300.45
573.349	45267.23
573.71	45717.16
574.071	45769.14
574.432	45784.95
574.794	46169.58
575.155	46026.08
575.516	45924.16
575.877	46030.37
576.238	46274.21
576.599	46414.54
576.96	46384.03
577.32	46429.91
577.681	46605.72
578.042	46819.05
578.403	46695.44
578.763	46783.12
579.124	46866.96
579.485	46992.61
579.845	47044.36
580.206	47004.58
580.566	47032.83
580.927	47026.96
581.287	47218.36
581.648	47028.54
582.008	47188.08
582.368	47173.84
582.728	47189.44
583.089	47189.66
583.449	47305.14
583.809	47238.25
584.169	47321.86
584.529	47174.07
584.889	47481.63
585.249	47340.17
585.609	47216.1
585.969	47394.86
586.329	47360.51
586.688	47378.58
587.048	47316.89
587.408	47318.93
587.768	47416.78
588.127	47396.21
588.487	47311.92
588.846	47592.82
589.206	47325.93
589.565	47396.21
589.925	47520.05
590.284	47393.95
590.643	47379.71
591.003	47424.69
591.362	47644.79
591.721	47618.35
592.08	47510.11
592.44	47678.01
592.799	47589.2
593.158	47568.86
593.517	47609.77
593.876	47624.23
594.235	47471.46
594.593	47542.2
594.952	47711.23
595.311	47603.89
595.67	47597.79
596.029	47787.61
596.387	47809.76
596.746	47783.55
597.104	47702.19
597.463	47694.06
597.822	47886.82
598.18	47803.43
598.538	47828.29
598.897	47972.69
599.255	47770.21
599.613	48289.07
599.972	47933.82
600.33	48005.01
600.688	47878.01
601.046	48018.34
601.404	48202.74
601.762	48172.69
602.12	48267.15
602.478	48439.8
602.836	48258.11
603.194	48068.96
603.552	48226.7
603.91	48101.5
604.268	48352.12
604.625	48239.81
604.983	48455.84
605.341	48226.7
605.698	48457.88
606.056	48510.98
606.413	48405.22
606.771	48566.12
607.128	48591.21
607.485	48457.88
607.843	48562.51
608.2	48729.06
608.557	48804.08
608.914	48712.56
609.272	48862.39
609.629	48947.58
609.986	48994.36
610.343	48847.02
610.7	49130.63
611.057	49012.44
611.414	48920.69
611.771	49027.81
612.127	49127.69
612.484	49092.66
612.841	49322.71
613.198	49255.6
613.554	49270.96
613.911	49481.81
614.267	49416.72
614.624	49394.8
614.98	49430.96
615.337	49664.17
615.693	49440.68
616.05	49470.51
616.406	49640.45
616.762	49477.74
617.118	49550.51
617.475	49609.94
617.831	49627.11
618.187	49717.28
618.543	49695.59
618.899	49871.85
619.255	49856.03
619.611	49802.48
619.967	49935.58
620.323	49940.33
620.678	49703.5
621.034	49795.92
621.39	49805.64
621.746	49720.9
622.101	50096.25
622.457	49829.82
622.812	49930.38
623.168	49966.54
623.523	49920.44
623.879	50091.28
624.234	49811.06
624.589	49916.6
624.945	50012.41
625.3	50070.94
625.655	50064.62
626.01	49971.28
626.365	49991.4
626.72	49962.47
627.075	49825.3
627.43	49872.98
627.785	49811.29
628.14	49839.09
628.495	49966.31
628.85	49818.07
629.205	49717.73
629.559	49836.83
629.914	49702.59
630.269	49828.24
630.623	49640.22
630.978	49570.39
631.332	49823.72
631.687	49771.52
632.041	49573.1
632.396	49686.77
632.75	49456.72
633.104	49536.95
633.459	49381.24
633.813	49320.91
634.167	49380.11
634.521	49372.88
634.875	49322.71
635.229	49370.17
635.583	49258.31
635.937	49188.71
636.291	49056.73
636.645	48980.12
636.999	48888.15
637.352	49002.04
637.706	48732.22
638.06	49038.65
638.413	48839.11
638.767	48780.13
639.121	48821.94
639.474	48682.96
639.828	48636.18
640.181	48679.57
640.534	48686.57
640.888	48518.22
641.241	48322.51
641.594	48532.9
641.947	48543.98
642.301	48410.87
642.654	48313.02
643.007	48404.32
643.36	48368.84
643.713	48181.73
644.066	48310.09
644.419	48202.07
644.771	47923.88
645.124	47579.94
645.477	47573.38
645.83	47157.35
646.182	47033.28
646.535	46917.81
646.888	46908.54
647.24	46641.43
647.593	46981.76
647.945	46877.13
648.298	46607.31
648.65	46492.05
649.002	46473.98
649.355	46598.72
649.707	46563.92
650.059	46771.14
650.411	47152.6
650.763	47184.92
651.115	47552.82
651.467	47486.15
651.819	47389.43
652.171	47331.35
652.523	47189.21
652.875	47320.73
653.227	47105.37
653.578	47185.37
653.93	47141.75
654.282	46890.91
654.633	46866.06
654.985	46907.41
655.337	46920.29
655.688	46813.63
656.039	47023.34
656.391	46662.67
656.742	46845.94
657.094	46672.84
657.445	46744.7
657.796	46797.36
658.147	46684.82
658.498	46750.58
658.849	46620.19
659.2	46509.68
659.551	46553.75
659.902	46653.86
660.253	46666.97
660.604	46612.28
660.955	46323.02
661.306	46513.97
661.656	46385.39
662.007	46356.69
662.358	46383.81
662.708	46368.89
663.059	46416.58
663.409	46245.73
663.76	46532.51
664.11	46387.2
664.461	46265.85
664.811	46357.14
665.161	46366.63
665.511	46162.35
665.862	46238.73
666.212	46264.72
666.562	46259.74
666.912	46160.54
667.262	46116.25
667.612	46095
667.962	46075.79
668.312	46023.14
668.662	46209.12
669.011	46098.62
669.361	46053.65
669.711	46113.08
670.06	46035.57
670.41	45916.48
670.76	45888
671.109	45947.21
671.459	45866.99
671.808	45834.9
672.157	45958.06
672.507	45815.91
672.856	45618.18
673.205	45754.9
673.554	45796.48
673.904	45598.29
674.253	45738.4
674.602	45693.88
674.951	45146.78
675.3	44799.67
675.649	45458.64
675.998	45427.22
676.346	45487.11
676.695	45658.86
677.044	45241.24
677.393	45465.87
677.741	45465.87
678.09	45324.85
678.438	45196.27
678.787	45263.84
679.135	45285.53
679.484	45042.37
679.832	45040.79
680.181	44848.71
680.529	44928.93
680.877	44921.7
681.225	44824.75
681.573	45121.24
681.922	44691.2
682.27	44549.96
682.618	44727.58
682.966	44424.76
683.314	44605.78
683.661	44460.24
684.009	44244.43
684.357	44309.06
684.705	44133.47
685.053	44180.7
685.4	44068.62
685.748	43888.28
686.095	43883.99
686.443	43578.23
686.79	43630.21
687.138	43711.79
687.485	43634.95
687.832	43568.97
688.18	43423.66
688.527	43441.06
688.874	43255.98
689.221	43187.96
689.568	43180.96
689.915	43058.92
690.262	42899.83
690.609	42764.47
690.956	42662.78
691.303	42706.17
691.65	42503.91
691.997	42437.7
692.344	42287.42
692.69	42133.3
693.037	42338.04
693.383	41970.37
693.73	42149.34
694.077	41909.12
694.423	41676.81
694.769	41684.95
695.116	41703.25
695.462	41646.31
695.808	41346.65
696.155	41584.16
696.501	41070.5
696.847	41122.48
697.193	40829.15
697.539	41072.99
697.885	40855.37
698.231	40628.48
698.577	40643.85
698.923	40668.7
699.269	40367.24
699.614	40211.99
699.96	40115.5
700.306	40043.86
700.651	40005.22
700.997	39842.96
701.342	39865.11
701.688	39625.79
702.033	39433.48
702.379	39588.51
702.724	39259.02
703.069	39423.09
703.415	38953.95
703.76	38864.46
704.105	38887.28
704.45	38977.22
704.795	38666.05
705.14	38459.95
705.485	38567.74
705.83	38340.4
706.175	38581.08
706.52	38334.98
706.865	38200.3
707.209	38283.23
707.554	38154.65
707.899	38130.92
708.243	37925.27
708.588	37902
708.932	37564.15
709.277	37641.44
709.621	37585.62
709.966	37335.68
710.31	37232.41
710.654	37070.38
710.998	37121
711.342	37048.23
711.687	36855.92
712.031	36817.96
712.375	36637.85
712.719	36810.73
713.063	36704.29
713.407	36876.71
713.75	36547.01
714.094	36499.1
714.438	36297.97
714.782	36412.32
715.125	36136.17
715.469	36219.1
715.812	36207.58
716.156	35875.84
716.499	35863.18
716.843	36027.24
717.186	35722.17
717.53	36008.04
717.873	35833.8
718.216	35817.53
718.559	35589.74
718.902	35285.34
719.246	35455.28
719.589	35180.94
719.932	35112.01
720.275	35179.36
720.617	35132.58
720.96	35116.31
721.303	35125.8
721.646	35011.68
721.989	34653.5
722.331	34947.95
722.674	34632.48
723.016	34809.88
723.359	34615.3
723.701	34543.44
724.044	34476.78
724.386	34267.29
724.729	34452.14
725.071	34272.04
725.413	34178.71
725.755	34190.91
726.097	34042.44
726.439	33952.5
726.782	33949.33
727.124	34116.56
727.465	33864.36
727.807	33851.71
728.149	33746.17
728.491	33684.03
728.833	33617.14
729.175	33427.31
729.516	33421.21
729.858	33453.08
730.199	33569
730.541	33417.14
730.882	33406.3
731.224	33366.52
731.565	33136.93
731.906	33250.37
732.248	33155.91
732.589	32941.22
732.93	32882.47
733.271	32957.95
733.612	32876.59
733.953	33042.24
734.294	32672.53
734.635	32742.36
734.976	32702.13
735.317	32571.06
735.658	32534.68
735.999	32620.78
736.339	32452.2
736.68	32589.37
737.021	32296.95
737.361	32270.51
737.702	32357.96
738.042	32228.93
738.383	32213.33
738.723	32100.57
739.063	32004.75
739.404	32156.16
739.744	32039.1
740.084	31950.97
740.424	31945.54
740.764	31789.16
741.104	31826.23
741.444	31609.96
741.784	31680.47
742.124	31722.73
742.464	31610.41
742.804	31667.36
743.143	31518.66
743.483	31460.13
743.823	31169.07
744.162	31371.1
744.502	31283.19
744.841	31252.68
745.181	31323.64
745.52	31196.41
745.86	31051.78
746.199	31021.95
746.538	30960.71
746.877	30952.35
747.216	30915.51
747.556	30866.7
747.895	30788.51
748.234	30695.86
748.573	30566.6
748.911	30562.3
749.25	30548.74
749.589	30409.31
749.928	30503.77
750.267	30400.73
750.605	30385.59
750.944	30156.44
751.283	30073.28
751.621	30172.26
751.96	29955.77
752.298	29921.19
752.636	29990.79
752.975	29857.01
753.313	29769.1
