Data from breadboard_black_back_FLMS001491_00075.txt Node
Date: Wed Feb 08 10:50:53 GMT 2017
User: dcchb
Spectrometer: FLMS00149
Trigger mode: 0
Integration Time (sec): 2.000000E-2
Scans to average: 10
Electric dark correction enabled: true
Nonlinearity correction enabled: false
Boxcar width: 0
XAxis mode: Wavelengths
Number of Pixels in Spectrum: 2048
>>>>>Begin Spectral Data<<<<<
341.393	-7.57
341.776	-7.57
342.16	-7.57
342.543	-43.05
342.927	-70.85
343.31	-88.7
343.693	-57.29
344.077	-68.13
344.46	-50.73
344.843	-54.8
345.226	-31.3
345.61	-36.95
345.993	-28.36
346.376	-4.18
346.759	28.59
347.142	31.07
347.525	40.56
347.908	50.06
348.291	67
348.674	90.28
349.057	112.88
349.44	128.7
349.823	131.86
350.206	130.96
350.588	203.27
350.971	220.9
351.354	224.74
351.737	229.26
352.119	251.18
352.502	273.1
352.884	260.45
353.267	296.38
353.65	309.48
354.032	295.47
354.414	290.05
354.797	328.24
355.179	318.3
355.562	308.58
355.944	333.21
356.326	338.41
356.709	332.53
357.091	333.66
357.473	350.39
357.855	350.16
358.238	370.72
358.62	344.06
359.002	330.5
359.384	358.07
359.766	350.16
360.148	352.87
360.53	341.8
360.912	359.88
361.294	353.55
361.676	321.01
362.057	361.01
362.439	343.38
362.821	337.73
363.203	321.69
363.584	339.77
363.966	327.34
364.348	345.87
364.729	315.81
365.111	334.12
365.493	353.55
365.874	336.15
366.256	338.64
366.637	329.6
367.019	340.44
367.4	354.68
367.781	326.88
368.163	353.32
368.544	347.45
368.925	335.02
369.306	328.92
369.688	358.75
370.069	358.52
370.45	356.94
370.831	356.49
371.212	342.7
371.593	327.34
371.974	345.87
372.355	345.41
372.736	349.26
373.117	345.41
373.498	345.87
373.879	357.17
374.26	329.6
374.641	353.1
375.021	359.88
375.402	329.82
375.783	375.92
376.163	373.44
376.544	371.4
376.925	381.57
377.305	372.98
377.686	372.53
378.066	354.91
378.447	368.46
378.827	386.54
379.208	380.22
379.588	363.95
379.968	394.45
380.349	381.35
380.729	408.24
381.109	413.44
381.489	380.67
381.87	384.28
382.25	375.92
382.63	396.94
383.01	398.75
383.39	416.37
383.77	400.78
384.15	397.16
384.53	420.44
384.91	417.73
385.29	432.42
385.67	434.9
386.049	434.23
386.429	428.58
386.809	433.1
387.189	407.79
387.568	437.62
387.948	434.9
388.328	444.62
388.707	425.19
389.087	445.75
389.466	462.47
389.846	443.72
390.225	447.56
390.605	469.25
390.984	481.46
391.363	487.33
391.743	455.92
392.122	465.86
392.501	502.47
392.881	489.59
393.26	478.07
393.639	481.91
394.018	496.82
394.397	504.28
394.776	516.48
395.155	520.78
395.534	512.42
395.913	542.92
396.292	513.09
396.671	528.69
397.05	535.47
397.429	536.14
397.808	560.32
398.186	531.17
398.565	543.38
398.944	543.83
399.323	575.24
399.701	556.48
400.08	543.6
400.458	564.39
400.837	571.17
401.215	574.34
401.594	572.3
401.972	562.13
402.351	578.63
402.729	599.87
403.107	620.44
403.486	608.91
403.864	617.95
404.242	617.72
404.62	623.83
404.999	642.81
405.377	612.3
405.755	637.38
406.133	659.08
406.511	633.09
406.889	657.72
407.267	676.93
407.645	664.73
408.023	679.42
408.401	654.79
408.779	677.61
409.156	725.29
409.534	707.89
409.912	703.6
410.29	729.13
410.667	739.75
411.045	760.77
411.422	747.21
411.8	770.26
412.178	748.57
412.555	796.48
412.933	799.64
413.31	799.64
413.687	822.69
414.065	801
414.442	818.62
414.819	814.55
415.197	823.14
415.574	838.28
415.951	852.97
416.328	842.58
416.705	847.55
417.082	855.46
417.46	871.28
417.837	896.59
418.214	891.16
418.591	928.68
418.967	919.64
419.344	902.01
419.721	937.94
420.098	907.43
420.475	926.64
420.852	952.4
421.228	968.22
421.605	978.62
421.982	974.55
422.358	986.3
422.735	1003.93
423.111	994.89
423.488	1026.53
423.864	998.28
424.241	1031.95
424.617	1053.64
424.994	1018.62
425.37	1062.91
425.746	1070.14
426.123	1083.25
426.499	1092.51
426.875	1110.14
427.251	1143.13
427.627	1165.73
428.003	1160.08
428.379	1142.23
428.756	1184.94
429.132	1228.1
429.507	1209.8
429.883	1187.43
430.259	1240.76
430.635	1243.92
431.011	1243.47
431.387	1291.83
431.763	1278.27
432.138	1297.48
432.514	1308.1
432.89	1352.85
433.265	1369.12
433.641	1396.46
434.016	1369.79
434.392	1412.96
434.767	1432.17
435.143	1451.6
435.518	1479.62
435.894	1473.07
436.269	1482.79
436.644	1496.12
437.02	1484.59
437.395	1491.83
437.77	1556.46
438.145	1570.47
438.52	1585.16
438.895	1591.26
439.271	1619.51
439.646	1619.51
440.021	1632.61
440.395	1648.66
440.77	1620.86
441.145	1675.55
441.52	1660.86
441.895	1673.97
442.27	1709.22
442.645	1704.47
443.019	1738.82
443.394	1768.2
443.769	1772.5
444.143	1734.53
444.518	1823.34
444.892	1752.61
445.267	1813.17
445.641	1847.3
446.016	1807.3
446.39	1822.89
446.764	1859.27
447.139	1842.32
447.513	1864.7
447.887	1859.5
448.262	1882.78
448.636	1900.85
449.01	1906.05
449.384	1954.41
449.758	1987.41
450.132	2005.26
450.506	2006.16
450.88	2034.18
451.254	2038.25
451.628	2065.37
452.002	2059.95
452.376	2107.85
452.75	2114.41
453.123	2112.6
453.497	2151.92
453.871	2198.47
454.244	2249.55
454.618	2246.61
454.992	2253.39
455.365	2275.99
455.739	2335.64
456.112	2362.76
456.486	2341.52
456.859	2366.15
457.232	2438.01
457.606	2429.2
457.979	2468.97
458.352	2548.07
458.725	2546.26
459.099	2565.24
459.472	2632.36
459.845	2637.33
460.218	2668.97
460.591	2708.74
460.964	2721.62
461.337	2769.08
461.71	2814.73
462.083	2841.17
462.456	2864.67
462.829	2861.28
463.201	2931.34
463.574	2936.31
463.947	2984.44
464.32	3065.8
464.692	3102.86
465.065	3093.14
465.438	3140.14
465.81	3173.36
466.183	3201.61
466.555	3249.52
466.928	3293.13
467.3	3304.43
467.672	3372.91
468.045	3490.42
468.417	3469.17
468.789	3499.23
469.161	3535.61
469.534	3592.11
469.906	3662.62
470.278	3692.9
470.65	3756.62
471.022	3794.36
471.394	3898.54
471.766	3874.59
472.138	3941.48
472.51	4035.94
472.882	4089.27
473.253	4191.87
473.625	4215.82
473.997	4285.2
474.369	4332.65
474.74	4336.27
475.112	4440.22
475.484	4494.68
475.855	4598.86
476.227	4645.64
476.598	4779.42
476.97	4813.77
477.341	4964.5
477.713	4970.38
478.084	5061.45
478.455	5148.45
478.827	5195
479.198	5326.3
479.569	5318.39
479.94	5516.35
480.311	5572.17
480.682	5641.55
481.053	5803.8
481.424	5904.59
481.795	5994.08
482.166	6070.24
482.537	6117.24
482.908	6302.09
483.279	6294.18
483.65	6378.02
484.021	6538.25
484.391	6626.15
484.762	6680.16
485.133	6718.81
485.503	6835.87
485.874	6968.74
486.244	7038.57
486.615	7220.71
486.985	7252.35
487.356	7382.97
487.726	7464.32
488.097	7590.87
488.467	7615.73
488.837	7772.11
489.207	7938.44
489.578	8013.24
489.948	8069.51
490.318	8172.78
490.688	8264.98
491.058	8402.83
491.428	8497.29
491.798	8613.22
492.168	8741.8
492.538	8827.23
492.908	8891.4
493.278	9054.11
493.648	8994.68
494.017	9171.62
494.387	9214.56
494.757	9339.3
495.126	9439.19
495.496	9391.05
495.866	9499.07
496.235	9635.57
496.605	9723.7
496.974	9794.21
497.344	9894.09
497.713	9982.9
498.082	9972.28
498.452	10145.16
498.821	10205.49
499.19	10297.92
499.559	10370.01
499.928	10366.17
500.298	10495.66
500.667	10633.05
501.036	10589.89
501.405	10741.53
501.774	10718.25
502.143	10863.56
502.512	10932.71
502.88	11039.6
503.249	10999.15
503.618	11120.95
503.987	11221.74
504.356	11221.29
504.724	11315.07
505.093	11384.67
505.462	11475.52
505.83	11497.44
506.199	11616.98
506.567	11784.44
506.936	11775.4
507.304	11948.5
507.672	11955.28
508.041	12053.81
508.409	12131.55
508.777	12310.3
509.145	12366.79
509.514	12398.43
509.882	12442.95
510.25	12558.2
510.618	12681.81
510.986	12730.17
511.354	12854.01
511.722	12906.21
512.09	13071.41
512.458	13128.58
512.826	13286.32
513.193	13341.01
513.561	13325.64
513.929	13460.78
514.297	13522.92
514.664	13694.44
515.032	13651.28
515.4	13842.69
515.767	13925.17
516.135	14003.81
516.502	13954.1
516.869	14230.47
517.237	14241.32
517.604	14237.7
517.972	14497.58
518.339	14547.75
518.706	14654.19
519.073	14676.11
519.44	14797.69
519.808	15017.8
520.175	15012.6
520.542	15229.32
520.909	15329.88
521.276	15398.8
521.643	15480.84
522.009	15671.57
522.376	15754.5
522.743	15893.48
523.11	15990.88
523.477	16158.11
523.843	16260.25
524.21	16519
524.577	16549.96
524.943	16659.79
525.31	16829.73
525.676	16907.01
526.043	16993.56
526.409	17048.7
526.776	17323.27
527.142	17324.86
527.508	17468.58
527.874	17631.06
528.241	17760.78
528.607	17802.58
528.973	18014.33
529.339	17981.79
529.705	18256.13
530.071	18382
530.437	18388.78
530.803	18513.98
531.169	18692.28
531.535	18710.58
531.901	18802.56
532.267	18959.84
532.632	18945.15
532.998	19019.73
533.364	19129.78
533.73	19222.66
534.095	19428.98
534.461	19397.8
534.826	19554.4
535.192	19588.3
535.557	19749.2
535.923	19840.95
536.288	19890.89
536.653	20013.6
537.019	19991.45
537.384	20002.75
537.749	20236.64
538.114	20254.27
538.479	20263.31
538.845	20457.65
539.21	20425.56
539.575	20535.62
539.94	20645.22
540.305	20674.82
540.67	20788.72
541.034	20823.75
541.399	20967.7
541.764	21005.66
542.129	21081.37
542.494	21129.95
542.858	21215.83
543.223	21235.94
543.587	21376.95
543.952	21406.56
544.316	21541.02
544.681	21488.36
545.045	21639.77
545.41	21820.78
545.774	21682.48
546.138	21783.72
546.503	21902.59
546.867	21896.03
547.231	22113.43
547.595	22263.71
547.959	22281.11
548.324	22269.13
548.688	22344.38
549.052	22415.79
549.416	22513.87
549.779	22676.58
550.143	22643.59
550.507	22854.2
550.871	22805.84
551.235	22812.17
551.599	23089
551.962	23107.3
552.326	23227.07
552.689	23288.77
553.053	23220.29
553.417	23453.51
553.78	23535.54
554.143	23550.45
554.507	23702.99
554.87	23762.43
555.234	24009.2
555.597	23936.21
555.96	23941.63
556.323	24090.55
556.686	24121.74
557.05	24366.93
557.413	24507.72
557.776	24504.78
558.139	24722.17
558.502	24692.35
558.865	24796.75
559.228	24916.52
559.59	25042.84
559.953	25216.17
560.316	25335.49
560.679	25383.4
561.041	25538.88
561.404	25691.64
561.767	25793.79
562.129	25698.65
562.492	26056.83
562.854	26036.04
563.217	26110.16
563.579	26242.13
563.941	26395.13
564.304	26508.79
564.666	26670.37
565.028	26686.87
565.39	26679.64
565.753	27016.58
566.115	27072.4
566.477	27182
566.839	27214.31
567.201	27476.9
567.563	27470.8
567.925	27716.45
568.287	27522.1
568.648	27717.12
569.01	27863.34
569.372	27982.65
569.734	28018.36
570.095	28178.58
570.457	28191.91
570.819	28320.27
571.18	28280.73
571.542	28465.81
571.903	28565.01
572.265	28633.48
572.626	28742.18
572.987	28854.72
573.349	28893.36
573.71	29051.55
574.071	29020.82
574.432	29199.12
574.794	29342.84
575.155	29350.3
575.516	29308.27
575.877	29372.9
576.238	29433.46
576.599	29563.63
576.96	29706.9
577.32	29647.7
577.681	29766.34
578.042	29787.13
578.403	29788.26
578.763	29806.33
579.124	29856.05
579.485	30040
579.845	30171.3
580.206	30060.57
580.566	30025.31
580.927	30150.73
581.287	30270.5
581.648	30131.98
582.008	30323.61
582.368	30263.05
582.728	30323.16
583.089	30233.89
583.449	30352.99
583.809	30272.09
584.169	30427.79
584.529	30280.45
584.889	30581
585.249	30413.32
585.609	30380.11
585.969	30514.34
586.329	30473.44
586.688	30423.49
587.048	30466.43
587.408	30543.49
587.768	30383.27
588.127	30421.23
588.487	30390.5
588.846	30487.67
589.206	30385.08
589.565	30424.17
589.925	30486.32
590.284	30531.97
590.643	30621.23
591.003	30588.01
591.362	30651.06
591.721	30599.99
592.08	30533.1
592.44	30763.82
592.799	30685.63
593.158	30689.02
593.517	30653.09
593.876	30725.41
594.235	30594.11
594.593	30755.91
594.952	30867.1
595.311	30706.65
595.67	30817.83
596.029	30938.06
596.387	30930.15
596.746	31030.71
597.104	30901.9
597.463	30892.18
597.822	30951.16
598.18	30841.79
598.538	30971.95
598.897	31023.03
599.255	30822.13
599.613	31159.97
599.972	31068
600.33	31045.4
600.688	31142.57
601.046	31168.56
601.404	31211.5
601.762	31191.16
602.12	31294.21
602.478	31361.32
602.836	31433.64
603.194	31152.74
603.552	31327.65
603.91	31309.57
604.268	31376.24
604.625	31415.78
604.983	31459.62
605.341	31395.45
605.698	31540.53
606.056	31487.65
606.413	31411.04
606.771	31559.96
607.128	31695.78
607.485	31540.53
607.843	31721.99
608.2	31841.08
608.557	31945.26
608.914	31757.24
609.272	31872.04
609.629	31757.7
609.986	31991.14
610.343	31915.88
610.7	32073.62
611.057	31978.48
611.414	32050.12
611.771	31969.22
612.127	32061.87
612.484	32165.14
612.841	32205.37
613.198	32197.91
613.554	32130.34
613.911	32357.23
614.267	32359.71
614.624	32365.82
614.98	32420.73
615.337	32568.52
615.693	32405.81
616.05	32555.42
616.406	32555.42
616.762	32478.36
617.118	32499.82
617.475	32474.29
617.831	32641.29
618.187	32675.86
618.543	32777.1
618.899	32946.59
619.255	32786.6
619.611	32810.1
619.967	32855.97
620.323	32956.76
620.678	32898.91
621.034	32628.41
621.39	32669.99
621.746	32617.56
622.101	33064.55
622.457	32826.82
622.812	32851.45
623.168	33073.14
623.523	32912.02
623.879	33061.39
624.234	32842.64
624.589	32973.48
624.945	32934.84
625.3	33015.06
625.655	33049.87
626.01	32959.47
626.365	32938
626.72	32932.81
627.075	33058.68
627.43	32872.92
627.785	32871.79
628.14	32869.53
628.495	32837.44
628.85	32915.63
629.205	32752.02
629.559	33040.37
629.914	32760.83
630.269	32871.57
630.623	32792.25
630.978	32622.08
631.332	32786.82
631.687	32795.86
632.041	32683.1
632.396	32765.35
632.75	32553.38
633.104	32717.67
633.459	32541.63
633.813	32521.97
634.167	32540.5
634.521	32463.89
634.875	32629.54
635.229	32323.33
635.583	32397
635.937	32233.62
636.291	32225.03
636.645	32132.15
636.999	32185.03
637.352	32167.4
637.706	32071.81
638.06	32368.3
638.413	32220.73
638.767	32153.84
639.121	32131.92
639.474	31938.26
639.828	31921.99
640.181	31976.45
640.534	31845.83
640.888	31758.6
641.241	31620.98
641.594	31807.86
641.947	31932.38
642.301	31745.72
642.654	31694.65
643.007	31792.5
643.36	31672.05
643.713	31502.56
644.066	31693.06
644.419	31506.18
644.771	31326.07
645.124	31085.62
645.477	31055.79
645.83	30880.43
646.182	30669.14
646.535	30469.59
646.888	30602.7
647.24	30386.66
647.593	30488.35
647.945	30383.49
648.298	30221.47
648.65	30096.72
649.002	30093.11
649.355	30272.31
649.707	30254.46
650.059	30455.36
650.411	30858.74
650.763	30811.73
651.115	31078.17
651.467	30968.79
651.819	30888.79
652.171	30771.28
652.523	30689.7
652.875	30786.2
653.227	30634.11
653.578	30804.27
653.93	30667.56
654.282	30538.97
654.633	30589.82
654.985	30526.77
655.337	30603.38
655.688	30654.67
656.039	30680.21
656.391	30371.52
656.742	30490.38
657.094	30490.38
657.445	30571.96
657.796	30441.57
658.147	30417.17
658.498	30380.78
658.849	30438.63
659.2	30408.13
659.551	30316.38
659.902	30331.52
660.253	30405.42
660.604	30418.3
660.955	30257.17
661.306	30404.96
661.656	30272.99
662.007	30222.37
662.358	30254.01
662.708	30336.26
663.059	30255.36
663.409	29934.47
663.76	30142.37
664.11	30303.95
664.461	30200.67
664.811	30144.86
665.161	30074.58
665.511	30062.6
665.862	30116.84
666.212	29990.28
666.562	30187.57
666.912	30049.49
667.262	30017.63
667.612	29978.99
667.962	30034.58
668.312	29940.34
668.662	30114.35
669.011	30053.11
669.361	29968.82
669.711	29915.71
670.06	29933.79
670.41	29903.06
670.76	29893.11
671.109	29959.1
671.459	30003.39
671.808	29671.88
672.157	29907.58
672.507	29715.26
672.856	29657.86
673.205	29817.41
673.554	29878.65
673.904	29647.92
674.253	29800.23
674.602	29617.41
674.951	29433.24
675.3	29077.99
675.649	29560.01
675.998	29567.7
676.346	29576.51
676.695	29726.34
677.044	29350.75
677.393	29489.73
677.741	29514.37
678.09	29339.23
678.438	29361.6
678.787	29494.03
679.135	29442.5
679.484	29202.73
679.832	29315.05
680.181	29110.53
680.529	29329.96
680.877	29129.97
681.225	29044.1
681.573	29138.33
681.922	29052
682.27	28952.57
682.618	28939.01
682.966	28914.15
683.314	28991.89
683.661	28920.26
684.009	28750.54
684.357	28834.16
684.705	28664.67
685.053	28718.91
685.4	28494.28
685.748	28494.51
686.095	28408.18
686.443	28284.57
686.79	28319.59
687.138	28297.45
687.485	28355.53
687.832	28095.87
688.18	28307.39
688.527	28039.83
688.874	28084.35
689.221	28024.23
689.568	27941.75
689.915	27871.24
690.262	27885.48
690.609	27783.79
690.956	27709.21
691.303	27688.65
691.65	27490.92
691.997	27562.33
692.344	27348.77
692.69	27090.02
693.037	27273.07
693.383	27118.72
693.73	27131.38
694.077	26963.92
694.423	27032.17
694.769	26979.29
695.116	26884.38
695.462	26822.01
695.808	26756.47
696.155	26746.75
696.501	26579.53
696.847	26582.24
697.193	26382.7
697.539	26542.92
697.885	26304.51
698.231	26184.96
698.577	26188.58
698.923	26265.41
699.269	26127.34
699.614	25916.27
699.96	25822.71
700.306	25906.32
700.651	25828.13
700.997	25650.06
701.342	25747.46
701.688	25593.11
702.033	25477.64
702.379	25460.46
702.724	25450.74
703.069	25530.29
703.415	25113.12
703.76	25111.54
704.105	25191.54
704.45	25062.28
704.795	24983.18
705.14	24895.73
705.485	24926.24
705.83	24782.96
706.175	24820.7
706.52	24741.38
706.865	24543.87
707.209	24646.92
707.554	24512.24
707.899	24536.42
708.243	24452.35
708.588	24346.14
708.932	24247.84
709.277	24278.8
709.621	24251.9
709.966	24113.83
710.31	24094.85
710.654	23926.04
710.998	23942.76
711.342	24063.44
711.687	23926.49
712.031	23811.24
712.375	23584.13
712.719	23729.88
713.063	23644.69
713.407	23803.78
713.75	23612.15
714.094	23626.61
714.438	23487.41
714.782	23489.89
715.125	23453.06
715.469	23355.21
715.812	23270.24
716.156	23206.96
716.499	23243.12
716.843	23284.02
717.186	23068.66
717.53	23207.86
717.873	23214.42
718.216	23129
718.559	23050.13
718.902	22793.86
719.246	22884.03
719.589	22879.06
719.932	22668.22
720.275	22713.19
720.617	22748.22
720.96	22704.15
721.303	22704.37
721.646	22569.92
721.989	22432.07
722.331	22529.46
722.674	22424.38
723.016	22441.78
723.359	22303.71
723.701	22409.69
724.044	22262.58
724.386	22194.56
724.729	22322.24
725.071	22238.62
725.413	22292.86
725.755	22197.27
726.097	22091.28
726.439	22037.73
726.782	22009.93
727.124	22081.57
727.465	21944.39
727.807	21826.88
728.149	21756.6
728.491	21828.01
728.833	21914.34
729.175	21807.22
729.516	21747.79
729.858	21702.14
730.199	21840.89
730.541	21758.41
730.882	21608.81
731.224	21662.14
731.565	21488.59
731.906	21527.91
732.248	21553.22
732.589	21411.08
732.93	21391.41
733.271	21529.26
733.612	21363.62
733.953	21491.75
734.294	21327.24
734.635	21268.48
734.976	21297.41
735.317	21136.28
735.658	21124.98
735.999	21143.74
736.339	21050.18
736.68	21098.32
737.021	20999.11
737.361	20915.5
737.702	20962.95
738.042	20913.69
738.383	20880.69
738.723	20861.71
739.063	20798.21
739.404	20910.75
739.744	20791.43
740.084	20703.07
740.424	20717.31
740.764	20698.78
741.104	20709.17
741.444	20592.11
741.784	20541.04
742.124	20571.1
742.464	20564.09
742.804	20436.86
743.143	20463.08
743.483	20379.24
743.823	20396.19
744.162	20383.76
744.502	20358
744.841	20333.14
745.181	20347.37
745.52	20322.29
745.86	20346.7
746.199	20235.51
746.538	20144.89
746.877	20213.59
747.216	20106.03
747.556	20115.52
747.895	20077.78
748.234	19964.79
748.573	19959.14
748.911	19904.22
749.25	19932.7
749.589	19767.05
749.928	19863.09
750.267	19798.69
750.605	19769.54
750.944	19676.43
751.283	19652.03
751.621	19646.83
751.96	19537.23
752.298	19472.82
752.636	19589.43
752.975	19450
753.313	19301.75
753.651	19422.65
753.989	19240.51
754.327	19287.97
754.666	19186.73
755.004	19188.76
