Data from breadboard_white_FLMS001491_00026.txt Node
Date: Wed Feb 08 10:47:29 GMT 2017
User: dcchb
Spectrometer: FLMS00149
Trigger mode: 0
Integration Time (sec): 2.000000E-2
Scans to average: 10
Electric dark correction enabled: true
Nonlinearity correction enabled: false
Boxcar width: 0
XAxis mode: Wavelengths
Number of Pixels in Spectrum: 2048
>>>>>Begin Spectral Data<<<<<
341.393	-12.22
341.776	-12.22
342.16	-12.22
342.543	-46.79
342.927	-59.45
343.31	-68.71
343.693	-77.75
344.077	-64.19
344.46	-43.63
344.843	-55.61
345.226	-49.05
345.61	-16.28
345.993	-14.03
346.376	-14.93
346.759	13.54
347.142	29.82
347.525	35.24
347.908	39.98
348.291	80.44
348.674	101.23
349.057	103.94
349.44	131.96
349.823	154.33
350.206	179.19
350.588	205.86
350.971	235.69
351.354	254.22
351.737	276.14
352.119	279.53
352.502	293.54
352.884	315.68
353.267	303.71
353.65	301.22
354.032	322.92
354.414	335.34
354.797	332.41
355.179	358.85
355.562	342.12
355.944	363.37
356.326	353.2
356.709	366.08
357.091	360.65
357.473	367.66
357.855	373.31
358.238	368.56
358.62	383.93
359.002	380.31
359.384	380.99
359.766	391.39
360.148	394.33
360.53	350.26
360.912	368.79
361.294	358.62
361.676	353.2
362.057	373.76
362.439	357.04
362.821	383.25
363.203	374.21
363.584	372.18
363.966	370.6
364.348	380.77
364.729	356.36
365.111	382.35
365.493	367.89
365.874	375.12
366.256	368.79
366.637	378.51
367.019	356.13
367.4	369.47
367.781	367.66
368.163	360.43
368.544	363.82
368.925	370.6
369.306	367.89
369.688	376.02
370.069	359.52
370.45	371.05
370.831	352.29
371.212	365.4
371.593	386.42
371.974	376.7
372.355	379.18
372.736	365.4
373.117	390.94
373.498	379.64
373.879	369.47
374.26	377.6
374.641	370.6
375.021	360.43
375.402	364.27
375.783	392.52
376.163	414.44
376.544	412.4
376.925	388.9
377.305	395.23
377.686	390.26
378.066	409.01
378.447	405.17
378.827	415.79
379.208	406.53
379.588	405.85
379.968	428
380.349	416.25
380.729	421.44
381.109	422.8
381.489	432.74
381.87	428.9
382.25	427.09
382.63	418.73
383.01	451.95
383.39	443.36
383.77	453.08
384.15	458.05
384.53	469.8
384.91	482.01
385.29	438.84
385.67	468.45
386.049	478.62
386.429	486.53
386.809	455.12
387.189	471.61
387.568	491.5
387.948	474.78
388.328	493.98
388.707	491.05
389.087	519.52
389.466	505.06
389.846	523.59
390.225	526.75
390.605	519.07
390.984	542.34
391.363	537.37
391.743	514.32
392.122	565.85
392.501	553.87
392.881	576.47
393.26	556.81
393.639	593.64
394.018	604.72
394.397	592.74
394.776	604.49
395.155	618.5
395.534	615.34
395.913	663.02
396.292	626.18
396.671	665.05
397.05	655.34
397.429	668.89
397.808	665.51
398.186	673.41
398.565	696.01
398.944	697.37
399.323	715.67
399.701	737.37
400.08	730.14
400.458	756.12
400.837	747.31
401.215	756.8
401.594	769.68
401.972	797.25
402.351	790.7
402.729	803.81
403.107	823.02
403.486	811.94
403.864	847.87
404.242	860.3
404.62	877.25
404.999	916.12
405.377	911.6
405.755	912.73
406.133	931.03
406.511	966.74
406.889	984.82
407.267	987.3
407.645	1017.59
408.023	1026.63
408.401	1070.92
408.779	1058.72
409.156	1094.65
409.534	1081.99
409.912	1139.39
410.29	1159.05
410.667	1180.97
411.045	1185.72
411.422	1216.23
411.8	1238.82
412.178	1307.3
412.555	1280.18
412.933	1323.11
413.31	1376.22
413.687	1384.13
414.065	1405.82
414.442	1398.82
414.819	1451.7
415.197	1469.1
415.574	1516.56
415.951	1494.41
416.328	1516.56
416.705	1529.89
417.082	1574.63
417.46	1594.75
417.837	1608.76
418.214	1633.16
418.591	1657.57
418.967	1680.85
419.344	1688.3
419.721	1709.55
420.098	1743.22
420.475	1733.27
420.852	1806.72
421.228	1818.02
421.605	1851.01
421.982	1889.2
422.358	1907.28
422.735	1935.75
423.111	1921.97
423.488	1961.06
423.864	1959.93
424.241	1997.45
424.617	2022.08
424.994	2043.55
425.37	2061.17
425.746	2088.07
426.123	2138.46
426.499	2147.95
426.875	2170.32
427.251	2212.58
427.627	2279.25
428.003	2307.72
428.379	2311.79
428.756	2333.26
429.132	2389.08
429.507	2439.92
429.883	2467.94
430.259	2497.77
430.635	2499.13
431.011	2531.22
431.387	2617.54
431.763	2634.94
432.138	2652.8
432.514	2701.84
432.89	2717.65
433.265	2798.56
433.641	2805.79
434.016	2851.44
434.392	2913.36
434.767	2960.81
435.143	2962.17
435.518	3014.14
435.894	3051.88
436.269	3070.19
436.644	3149.51
437.02	3187.47
437.395	3183.63
437.77	3219.11
438.145	3290.75
438.52	3304.53
438.895	3361.71
439.271	3385.21
439.646	3434.47
440.021	3446.9
440.395	3528.93
440.77	3449.16
441.145	3497.3
441.52	3560.8
441.895	3570.51
442.27	3648.7
442.645	3620.68
443.019	3689.83
443.394	3697.97
443.769	3730.96
444.143	3722.6
444.518	3786.55
444.892	3814.35
445.267	3848.92
445.641	3896.38
446.016	3901.35
446.39	3919.66
446.764	3940.9
447.139	3991.52
447.513	4024.74
447.887	3995.59
448.262	4037.62
448.636	4067.68
449.01	4090.95
449.384	4213.89
449.758	4212.08
450.132	4284.39
450.506	4280.1
450.88	4337.27
451.254	4351.96
451.628	4412.98
452.002	4455.91
452.376	4472.41
452.75	4513.77
453.123	4573.2
453.497	4625.63
453.871	4707.21
454.244	4787.43
454.618	4832.18
454.992	4880.08
455.365	4942.91
455.739	5001.66
456.112	5077.37
456.486	5119.85
456.859	5199.85
457.232	5252.73
457.606	5281.2
457.979	5344.7
458.352	5464.7
458.725	5539.95
459.099	5561.42
459.472	5708.54
459.845	5744.47
460.218	5760.96
460.591	5838.25
460.964	5870.57
461.337	6056.1
461.71	6142.2
462.083	6255.19
462.456	6205.92
462.829	6233.49
463.201	6428.07
463.574	6454.05
463.947	6537.67
464.32	6712.8
464.692	6657.66
465.065	6812.69
465.438	6927.71
465.81	6984.66
466.183	7060.37
466.555	7261.26
466.928	7285.9
467.3	7189.63
467.672	7393.01
468.045	7581.03
468.417	7614.47
468.789	7684.76
469.161	7776.05
469.534	7936.95
469.906	8142.37
470.278	8165.19
470.65	8347.11
471.022	8376.71
471.394	8597.95
471.766	8714.33
472.138	8763.6
472.51	8971.95
472.882	9153.87
473.253	9229.8
473.625	9392.06
473.997	9613.07
474.369	9576.23
474.74	9721.31
475.112	9949.33
475.484	10170.57
475.855	10268.42
476.227	10424.57
476.598	10746.82
476.97	10794.5
477.341	11039.92
477.713	11198.11
478.084	11227.49
478.455	11571.66
478.827	11688.04
479.198	12027.47
479.569	12021.59
479.94	12445.08
480.311	12499.54
480.682	12770.95
481.053	13090.94
481.424	13306.53
481.795	13390.59
482.166	13678.72
482.537	13827.19
482.908	14173.85
483.279	14332.72
483.65	14481.41
484.021	14819.71
484.391	14890.67
484.762	15106.48
485.133	15313.03
485.503	15533.81
485.874	15881.38
486.244	15935.84
486.615	16353.68
486.985	16572.21
487.356	16805.87
487.726	16899.65
488.097	17354.56
488.467	17398.17
488.837	17775.34
489.207	18052.39
489.578	18302.56
489.948	18359.28
490.318	18677.69
490.688	18695.54
491.058	19151.57
491.428	19251.46
491.798	19516.53
492.168	19922.63
492.538	19912.46
492.908	20190.64
493.278	20451.2
493.648	20554.47
494.017	20872.88
494.387	20815.71
494.757	21178.19
495.126	21491.17
495.496	21554.22
495.866	21591.73
496.235	21905.85
496.605	22185.39
496.974	22294.31
497.344	22472.16
497.713	22518.26
498.082	22813.4
498.452	23035.09
498.821	23247.06
499.19	23300.62
499.559	23454.96
499.928	23774.05
500.298	23824.44
500.667	24149.63
501.036	24081.84
501.405	24473.69
501.774	24406.8
502.143	24680.24
502.512	24767.02
502.88	25046.56
503.249	24891.53
503.618	25381.47
503.987	25390.05
504.356	25658.29
504.724	25832.75
505.093	25949.36
505.462	26094.22
505.83	26284.27
506.199	26525.62
506.567	26912.05
506.936	26865.49
507.304	27093.51
507.672	27319.95
508.041	27338.93
508.409	27597
508.777	27829.76
509.145	28102.75
509.514	28104.33
509.882	28368.05
510.25	28440.82
510.618	28664.09
510.986	28775.5
511.354	28950.41
511.722	29345.43
512.09	29543.16
512.458	29713.33
512.826	29905.87
513.193	30121.91
513.561	30144.96
513.929	30471.05
514.297	30718.73
514.664	31063.35
515.032	30940.64
515.4	31268.09
515.767	31631.92
516.135	31739.04
516.502	31630.34
516.869	32086.83
517.237	32411.34
517.604	32380.83
517.972	32586.25
518.339	33006.58
518.706	33086.8
519.073	33311.43
519.44	33518.88
519.808	33925.65
520.175	33884.07
520.542	34442.92
520.909	34465.52
521.276	34599.53
521.643	34992.96
522.009	35305.05
522.376	35485.38
522.743	35658.26
523.11	36170.79
523.477	36411.46
523.843	36600.15
524.21	37143.64
524.577	37250.76
524.943	37416.63
525.31	37664.31
525.676	37962.15
526.043	38285.53
526.409	38382.25
526.776	38976.59
527.142	38894.56
527.508	39255.22
527.874	39411.83
528.241	39676.23
528.607	39839.16
528.973	40207.52
529.339	40290.9
529.705	40652.02
530.071	40959.13
530.437	41129.3
530.803	41494.94
531.169	41710.3
531.535	41604.77
531.901	41814.93
532.267	42048.37
532.632	42312.55
532.998	42538.75
533.364	42762.25
533.73	42793.89
534.095	43213.09
534.461	43187.32
534.826	43557.94
535.192	43585.51
535.557	43861.21
535.923	43922.45
536.288	44163.12
536.653	44220.29
537.019	44325.37
537.384	44430.91
537.749	44747.51
538.114	44935.75
538.479	44853.5
538.845	45094.39
539.21	45256.2
539.575	45380.49
539.94	45574.83
540.305	45859.57
540.67	45613.25
541.034	45972.79
541.399	46284.64
541.764	46311.99
542.129	46328.71
542.494	46446.45
542.858	46758.3
543.223	46677.63
543.587	47033.33
543.952	46977.06
544.316	47154.9
544.681	47274.45
545.045	47429.02
545.41	47579.53
545.774	47607.1
546.138	47783.81
546.503	47793.98
546.867	47854.77
547.231	48218.38
547.595	48247.76
547.959	48435.77
548.324	48563.68
548.688	48588.09
549.052	48722.09
549.416	48866.27
549.779	48901.3
550.143	49023.56
550.507	49351.91
550.871	49379.25
551.235	49491.11
551.599	49656.76
551.962	49810.65
552.326	49876.19
552.689	50063.53
553.053	49939.92
553.417	50014.72
553.78	50586.23
554.143	50376.06
554.507	50588.26
554.87	50630.52
555.234	51088.13
555.597	50771.53
555.96	51190.73
556.323	51261.01
556.686	51311.63
557.05	51547.33
557.413	51713.65
557.776	51639.76
558.139	52054.66
558.502	52072.06
558.865	52076.13
559.228	52353.64
559.59	52453.07
559.953	52516.35
560.316	52823.46
560.679	52819.39
561.041	53025.48
561.404	53110.68
561.767	53322.65
562.129	53286.72
562.492	53570.55
562.854	53553.38
563.217	53635.41
563.579	53790.89
563.941	53948.17
564.304	54069.3
564.666	54198.79
565.028	54329.86
565.39	54382.06
565.753	54617.76
566.115	54664.99
566.477	54737.53
566.839	54898.2
567.201	55086.22
567.563	55113.56
567.925	55207.57
568.287	55185.65
568.648	55298.64
569.01	55475.82
569.372	55695.47
569.734	55653.89
570.095	55839.42
570.457	55944.5
570.819	56014.11
571.18	56029.47
571.542	56196.25
571.903	56130.71
572.265	56284.61
572.626	56431.72
572.987	56369.35
573.349	56459.97
573.71	56571.61
574.071	56638.72
574.432	56696.12
574.794	56945.16
575.155	56864.03
575.516	56800.75
575.877	56939.73
576.238	56978.83
576.599	57098.37
576.96	57098.37
577.32	57127.52
577.681	57303.79
578.042	57252.04
578.403	57239.16
578.763	57363.45
579.124	57345.14
579.485	57465.59
579.845	57580.84
580.206	57503.78
580.566	57373.84
580.927	57536.55
581.287	57606.61
581.648	57502.88
582.008	57620.62
582.368	57542.65
582.728	57686.83
583.089	57633.5
583.449	57642.54
583.809	57629.66
584.169	57624.69
584.529	57603.22
584.889	57812.7
585.249	57638.24
585.609	57677.34
585.969	57723.21
586.329	57711.01
586.688	57795.08
587.048	57713.27
587.408	57661.75
587.768	57711.46
588.127	57697.9
588.487	57631.92
588.846	57796.43
589.206	57656.1
589.565	57673.72
589.925	57835.75
590.284	57735.64
590.643	57704.68
591.003	57857.22
591.362	57837.11
591.721	57873.49
592.08	57841.4
592.44	57922.98
592.799	57837.11
593.158	57855.64
593.517	57829.88
593.876	57859.71
594.235	57825.36
594.593	57856.32
594.952	57901.74
595.311	57865.13
595.67	57913.04
596.029	58033.26
596.387	58001.62
596.746	58035.97
597.104	57926.37
597.463	57914.17
597.822	58019.7
598.18	57884.57
598.538	57906.49
598.897	58013.15
599.255	57899.71
599.613	58191.68
599.972	58115.97
600.33	58194.61
600.688	58092.7
601.046	58174.95
601.404	58285.01
601.762	58206.37
602.12	58330.66
602.478	58313.25
602.836	58275.97
603.194	58188.29
603.552	58250.88
603.91	58200.04
604.268	58343.76
604.625	58260.6
604.983	58379.24
605.341	58200.72
605.698	58414.27
606.056	58433.93
606.413	58385.34
606.771	58482.29
607.128	58549.63
607.485	58466.25
607.843	58416.3
608.2	58553.25
608.557	58639.8
608.914	58586.24
609.272	58713.92
609.629	58672.57
609.986	58817.2
610.343	58690.65
610.7	58939.91
611.057	58826.01
611.414	58787.59
611.771	58777.2
612.127	58894.71
612.484	58875.95
612.841	58954.59
613.198	58896.74
613.554	58898.78
613.911	59062.39
614.267	59056.29
614.624	58980.81
614.98	59033.01
615.337	59171.31
615.693	59175.83
616.05	59098.09
616.406	59292.89
616.762	59147.81
617.118	59110.97
617.475	59164.31
617.831	59204.76
618.187	59256.96
618.543	59324.3
618.899	59374.92
619.255	59357.75
619.611	59305.55
619.967	59338.99
620.323	59452.21
620.678	59331.08
621.034	59291.31
621.39	59281.82
621.746	59281.82
622.101	59531.53
622.457	59323.85
622.812	59413.11
623.168	59412.89
623.523	59415.15
623.879	59519.32
624.234	59345.77
624.589	59409.95
624.945	59450.4
625.3	59435.49
625.655	59390.51
626.01	59477.29
626.365	59454.69
626.72	59354.13
627.075	59361.59
627.43	59383.96
627.785	59338.76
628.14	59372.44
628.495	59327.92
628.85	59290.86
629.205	59275.72
629.559	59428.48
629.914	59255.6
630.269	59197.07
630.623	59238.43
630.978	59163.4
631.332	59277.98
631.687	59273.91
632.041	59166.57
632.396	59230.74
632.75	59104.65
633.104	59103.29
633.459	58977.87
633.813	58997.98
634.167	59077.98
634.521	58966.8
634.875	58997.76
635.229	58936.06
635.583	58842.28
635.937	58837.76
636.291	58830.08
636.645	58812.9
636.999	58767.25
637.352	58859.23
637.706	58704.43
638.06	58705.33
638.413	58692.45
638.767	58644.77
639.121	58653.81
639.474	58456.53
639.828	58497.43
640.181	58530.65
640.534	58511.22
640.888	58481.16
641.241	58362.97
641.594	58399.35
641.947	58446.81
642.301	58337.21
642.654	58341.28
643.007	58355.97
643.36	58262.18
643.713	58261.05
644.066	58332.24
644.419	58146.25
644.771	57998.46
645.124	57805.7
645.477	57706.49
645.83	57557.79
646.182	57452.94
646.535	57333.62
646.888	57446.61
647.24	57295.2
647.593	57441.64
647.945	57238.03
648.298	57174.08
648.65	57145.15
649.002	57051.14
649.355	57158.48
649.707	57091.37
650.059	57246.84
650.411	57542.65
650.763	57599.83
651.115	57825.36
651.467	57668.3
651.819	57667.85
652.171	57630.33
652.523	57561.86
652.875	57509.43
653.227	57464.69
653.578	57606.61
653.93	57531.81
654.282	57398.25
654.633	57370.68
654.985	57344.47
655.337	57375.65
655.688	57340.63
656.039	57401.87
656.391	57205.26
656.742	57318.48
657.094	57252.04
657.445	57393.28
657.796	57240.06
658.147	57194.87
658.498	57137.01
658.849	57297.91
659.2	57214.3
659.551	57124.59
659.902	57286.39
660.253	57154.87
660.604	57158.93
660.955	56999.39
661.306	57102.67
661.656	57099.28
662.007	57059.28
662.358	57053.85
662.708	57032.84
663.059	56996
663.409	56868.77
663.76	57071.48
664.11	56972.95
664.461	57034.42
664.811	57044.14
665.161	56992.39
665.511	56897.25
665.862	56956.91
666.212	56979.73
666.562	56974.76
666.912	56924.59
667.262	56923.91
667.612	56889.56
667.962	56890.02
668.312	56872.16
668.662	56991.03
669.011	56849.34
669.361	56782.67
669.711	56818.6
670.06	56738.38
670.41	56731.15
670.76	56695.9
671.109	56794.2
671.459	56708.33
671.808	56669.68
672.157	56729.57
672.507	56499.52
672.856	56576.13
673.205	56519.86
673.554	56642.56
673.904	56512.85
674.253	56586.75
674.602	56580.42
674.951	56169.58
675.3	56083.26
675.649	56439.41
675.998	56410.93
676.346	56377.03
676.695	56491.61
677.044	56204.16
677.393	56370.26
677.741	56385.62
678.09	56186.08
678.438	56203.93
678.787	56250.48
679.135	56297.49
679.484	56099.3
679.832	56172.07
680.181	56001.68
680.529	56122.8
680.877	55936.14
681.225	55925.52
681.573	56198.28
681.922	55909.02
682.27	55766.88
682.618	55826.99
682.966	55761.68
683.314	55871.06
683.661	55723.72
684.009	55589.03
684.357	55509.71
684.705	55491.18
685.053	55473.33
685.4	55458.19
685.748	55304.29
686.095	55268.59
686.443	55152.89
686.79	55102.94
687.138	55248.48
687.485	55184.75
687.832	55091.64
688.18	55100.01
688.527	54968.94
688.874	54955.6
689.221	54840.58
689.568	54765.1
689.915	54808.04
690.262	54723.29
690.609	54676.06
690.956	54473.36
691.303	54526.69
691.65	54394.49
691.997	54383.87
692.344	54215.28
692.69	54154.04
693.037	54092.57
693.383	53943.65
693.73	54111.56
694.077	53803.09
694.423	53773.71
694.769	53720.38
695.116	53663.89
695.462	53592.7
695.808	53432.03
696.155	53493.95
696.501	53302.09
696.847	53153.84
697.193	53063.45
697.539	53129.21
697.885	52905.04
698.231	52776.9
698.577	52811.48
698.923	52814.87
699.269	52615.1
699.614	52512.05
699.96	52441.09
700.306	52446.97
700.651	52300.76
700.997	52148.22
701.342	52145.51
701.688	52046.3
702.033	51791.62
702.379	51916.59
702.724	51894.67
703.069	51888.11
703.415	51495.58
703.76	51479.31
704.105	51477.05
704.45	51411.74
704.795	51244.51
705.14	51002.71
705.485	51076.83
705.83	51014.24
706.175	50874.13
706.52	50792.1
706.865	50663.96
707.209	50669.16
707.554	50517.08
707.899	50651.76
708.243	50407.93
708.588	50400.92
708.932	50183.07
709.277	50178.1
709.621	50093.13
709.966	49865.57
710.31	49909.86
710.654	49616.53
710.998	49743.54
711.342	49624.9
711.687	49574.05
712.031	49427.61
712.375	49268.97
712.719	49306.03
713.063	49243.89
713.407	49361.63
713.75	49231.91
714.094	49114.63
714.438	48922.09
714.782	49000.96
715.125	48814.75
715.469	48915.31
715.812	48607.52
716.156	48424.48
716.499	48395.55
716.843	48432.38
717.186	48198.94
717.53	48493.4
717.873	48421.99
718.216	48252.05
718.559	48083.69
718.902	47702.91
719.246	47981.1
719.589	47744.72
719.932	47504.05
720.275	47549.92
720.617	47512.63
720.96	47586.98
721.303	47452.3
721.646	47497.49
721.989	47361.68
722.331	47346.99
722.674	47228.35
723.016	47152.64
723.359	46987.45
723.701	47114.45
724.044	46749.94
724.386	46765.08
724.729	46791.07
725.071	46610.96
725.413	46536.16
725.755	46617.29
726.097	46379.11
726.439	46153.35
726.782	46168.49
727.124	46435.38
727.465	46172.78
727.807	46056.63
728.149	46037.87
728.491	45849.85
728.833	45909.29
729.175	45797.88
729.516	45595.85
729.858	45547.71
730.199	45698.45
730.541	45574.61
730.882	45414.61
731.224	45613.7
731.565	45221.85
731.906	45247.16
732.248	45335.07
732.589	45015.53
732.93	45013.72
733.271	45014.17
733.612	45029.76
733.953	45017.11
734.294	44848.52
734.635	44712.71
734.976	44806.49
735.317	44534.18
735.658	44576.21
735.999	44499.38
736.339	44515.88
736.68	44549.32
737.021	44144.81
737.361	44039.51
737.702	44350.01
738.042	44086.51
738.383	43990.47
738.723	44107.53
739.063	43901.88
739.404	43974.2
739.744	43836.35
740.084	43699.4
740.424	43637.03
740.764	43595.22
741.104	43714.32
741.444	43503.7
741.784	43339.64
742.124	43459.86
742.464	43240.43
742.804	43251.96
743.143	43110.26
743.483	43223.03
743.823	42927.9
744.162	42832.08
744.502	43049.02
744.841	42703.04
745.181	42882.02
745.52	42685.42
745.86	42812.65
746.199	42492.65
746.538	42565.87
746.877	42618.53
747.216	42585.98
747.556	42294.02
747.895	42265.54
748.234	42206.56
748.573	42068.94
748.911	41902.61
749.25	41910.97
749.589	41737.19
749.928	41766.35
750.267	41672.56
750.605	41482.96
750.944	41447.71
751.283	41466.47
751.621	41383.08
751.96	41167.72
752.298	41203.2
