Data from breadboard_white_FLMS001491_00032.txt Node
Date: Wed Feb 08 10:47:37 GMT 2017
User: dcchb
Spectrometer: FLMS00149
Trigger mode: 0
Integration Time (sec): 2.000000E-2
Scans to average: 10
Electric dark correction enabled: true
Nonlinearity correction enabled: false
Boxcar width: 0
XAxis mode: Wavelengths
Number of Pixels in Spectrum: 2048
>>>>>Begin Spectral Data<<<<<
341.393	-27.37
341.776	-27.37
342.16	-27.37
342.543	-79.35
342.927	-75.05
343.31	-62.85
343.693	-71.21
344.077	-47.71
344.46	-52.23
344.843	-54.72
345.226	-49.07
345.61	-27.6
345.993	-19.69
346.376	-10.2
346.759	15.11
347.142	25.28
347.525	32.97
347.908	67.54
348.291	67.31
348.674	94.88
349.057	92.17
349.44	111.61
349.823	115.22
350.206	170.14
350.588	204.94
350.971	225.05
351.354	213.53
351.737	226.18
352.119	253.07
352.502	255.56
352.884	278.16
353.267	281.77
353.65	302.79
354.032	307.99
354.414	314.77
354.797	305.05
355.179	312.05
355.562	315.22
355.944	313.86
356.326	324.48
356.709	338.95
357.091	357.02
357.473	357.25
357.855	331.71
358.238	351.15
358.62	350.92
359.002	346.86
359.384	344.82
359.766	347.99
360.148	353.41
360.53	342.56
360.912	347.53
361.294	351.15
361.676	353.18
362.057	329.68
362.439	333.97
362.821	339.85
363.203	355.67
363.584	330.81
363.966	333.07
364.348	342.34
364.729	326.06
365.111	338.72
365.493	354.99
365.874	348.66
366.256	321.32
366.637	311.83
367.019	333.97
367.4	318.38
367.781	324.93
368.163	320.19
368.544	345.5
368.925	314.99
369.306	333.07
369.688	305.5
370.069	334.2
370.45	342.34
370.831	343.92
371.212	327.87
371.593	322.45
371.974	324.48
372.355	318.61
372.736	339.17
373.117	347.76
373.498	347.31
373.879	339.85
374.26	320.87
374.641	318.38
375.021	349.57
375.402	322.45
375.783	354.54
376.163	376.91
376.544	353.63
376.925	337.59
377.305	349.34
377.686	362.67
378.066	341.88
378.447	348.21
378.827	368.1
379.208	359.28
379.588	382.33
379.968	353.86
380.349	364.71
380.729	343.24
381.109	373.75
381.489	369
381.87	373.07
382.25	375.33
382.63	386.18
383.01	390.92
383.39	364.03
383.77	369.91
384.15	381.43
384.53	375.33
384.91	392.28
385.29	397.93
385.67	409.9
386.049	408.1
386.429	382.56
386.809	403.8
387.189	403.58
387.568	416.46
387.948	426.85
388.328	413.29
388.707	428.44
389.087	406.51
389.466	433.41
389.846	420.07
390.225	427.53
390.605	460.75
390.984	451.94
391.363	462.56
391.743	433.86
392.122	459.62
392.501	463.69
392.881	477.25
393.26	489.22
393.639	457.59
394.018	467.08
394.397	473.18
394.776	496.23
395.155	513.63
395.534	499.85
395.913	515.66
396.292	505.72
396.671	541.65
397.05	524.03
397.429	527.42
397.808	526.74
398.186	549.34
398.565	564.25
398.944	568.32
399.323	561.09
399.701	574.65
400.08	566.51
400.458	587.53
400.837	599.05
401.215	577.58
401.594	585.49
401.972	616.23
402.351	625.72
402.729	631.59
403.107	636.57
403.486	645.83
403.864	650.35
404.242	672.5
404.62	690.8
404.999	680.86
405.377	705.72
405.755	722.66
406.133	712.27
406.511	719.5
406.889	743.68
407.267	743.46
407.645	766.05
408.023	782.32
408.401	807.63
408.779	815.54
409.156	825.26
409.534	839.95
409.912	843.11
410.29	870.91
410.667	881.98
411.045	907.97
411.422	906.16
411.8	917.69
412.178	965.6
412.555	980.51
412.933	968.76
413.31	1004.47
413.687	1035.65
414.065	1051.92
414.442	1049.21
414.819	1069.1
415.197	1056.44
415.574	1101.86
415.951	1094.63
416.328	1152.26
416.705	1152.03
417.082	1159.94
417.46	1187.29
417.837	1204.23
418.214	1211.69
418.591	1221.63
418.967	1230.67
419.344	1244.91
419.721	1270.45
420.098	1265.48
420.475	1333.95
420.852	1308.64
421.228	1345.02
421.605	1345.02
421.982	1346.38
422.358	1363.55
422.735	1423.21
423.111	1388.41
423.488	1449.43
423.864	1446.49
424.241	1451.91
424.617	1487.84
424.994	1464.34
425.37	1483.1
425.746	1491.23
426.123	1547.73
426.499	1549.54
426.875	1566.48
427.251	1608.29
427.627	1643.54
428.003	1653.71
428.379	1671.79
428.756	1696.2
429.132	1717.21
429.507	1735.97
429.883	1723.99
430.259	1787.27
430.635	1795.63
431.011	1848.51
431.387	1844.44
431.763	1905.01
432.138	1909.3
432.514	1943.65
432.89	1914.95
433.265	1983.42
433.641	2028.84
434.016	2025.91
434.392	2076.08
434.767	2119.69
435.143	2097.32
435.518	2145
435.894	2159.91
436.269	2161.72
436.644	2219.35
437.02	2240.59
437.395	2215.28
437.77	2265.67
438.145	2321.04
438.52	2338.44
438.895	2357.88
439.271	2392
439.646	2410.08
440.021	2434.26
440.395	2413.24
440.77	2441.26
441.145	2468.61
441.52	2529.17
441.895	2565.55
442.27	2524.43
442.645	2568.94
443.019	2565.78
443.394	2603.29
443.769	2652.33
444.143	2643.07
444.518	2668.15
444.892	2639.22
445.267	2689.84
445.641	2702.5
446.016	2747.24
446.39	2719.9
446.764	2772.55
447.139	2748.37
447.513	2798.54
447.887	2838.54
448.262	2843.74
448.636	2880.8
449.01	2938.2
449.384	2945.88
449.758	2944.3
450.132	3003.73
450.506	3014.36
450.88	3003.28
451.254	3036.95
451.628	3097.07
452.002	3095.71
452.376	3147.46
452.75	3188.81
453.123	3182.71
453.497	3269.26
453.871	3241.02
454.244	3348.13
454.618	3330.73
454.992	3398.3
455.365	3422.93
455.739	3490.95
456.112	3499.54
456.486	3554.68
456.859	3624.74
457.232	3666.99
457.606	3631.06
457.979	3680.55
458.352	3807.33
458.725	3861.34
459.099	3863.6
459.472	3920.09
459.845	3944.73
460.218	3982.92
460.591	4005.97
460.964	4041
461.337	4190.82
461.71	4217.04
462.083	4236.47
462.456	4270.59
462.829	4254.78
463.201	4407.54
463.574	4450.7
463.947	4506.29
464.32	4562.11
464.692	4588.55
465.065	4662
465.438	4658.61
465.81	4752.39
466.183	4819.05
466.555	4922.1
466.928	4948.32
467.3	4953.51
467.672	5009.33
468.045	5159.84
468.417	5198.03
468.789	5239.61
469.161	5266.27
469.534	5404.12
469.906	5508.53
470.278	5499.26
470.65	5582.88
471.022	5737
471.394	5770.89
471.766	5859.93
472.138	5933.6
472.51	6078
472.882	6108.74
473.253	6204.33
473.625	6282.07
473.997	6496.3
474.369	6473.25
474.74	6561.61
475.112	6676.18
475.484	6800.02
475.855	6953.46
476.227	6958.88
476.598	7288.82
476.97	7195.49
477.341	7414.24
477.713	7511.64
478.084	7543.73
478.455	7752.31
478.827	7786.21
479.198	8086.76
479.569	8115.01
479.94	8304.84
480.311	8415.57
480.682	8578.5
481.053	8690.59
481.424	8917.7
481.795	8955.89
482.166	9127.19
482.537	9210.13
482.908	9397.92
483.279	9530.12
483.65	9722.2
484.021	9822.54
484.391	10068.18
484.762	10078.58
485.133	10238.12
485.503	10355.18
485.874	10557.89
486.244	10700.48
486.615	10857.99
486.985	10975.73
487.356	11190.41
487.726	11244.2
488.097	11522.61
488.467	11601.25
488.837	11768.48
489.207	11937.96
489.578	12128.01
489.948	12199.88
490.318	12404.62
490.688	12457.95
491.058	12641.9
491.428	12709.47
491.798	12951.5
492.168	13223.8
492.538	13203.47
492.908	13407.3
493.278	13547.86
493.648	13605.04
494.017	13782.43
494.387	13962.54
494.757	14014.74
495.126	14193.72
495.496	14348.52
495.866	14337.45
496.235	14572.7
496.605	14650.89
496.974	14836.64
497.344	14805.01
497.713	15017.66
498.082	15135.17
498.452	15224.66
498.821	15435.05
499.19	15440.02
499.559	15648.6
499.928	15753.68
500.298	15768.37
500.667	15986.9
501.036	15960
501.405	16110.28
501.774	16183.73
502.143	16398.64
502.512	16476.6
502.88	16642.92
503.249	16522.02
503.618	16747.1
503.987	16932.86
504.356	17014.44
504.724	17073.42
505.093	17186.19
505.462	17279.07
505.83	17399.97
506.199	17472.73
506.567	17788.66
506.936	17809.45
507.304	17878.6
507.672	18021.64
508.041	18164.47
508.409	18285.82
508.777	18368.98
509.145	18579.6
509.514	18609.88
509.882	18698.46
510.25	18802.87
510.618	19088.96
510.986	19089.64
511.354	19277.66
511.722	19544.54
512.09	19599.23
512.458	19606.46
512.826	19780.24
513.193	19892.56
513.561	19901.6
513.929	20226.56
514.297	20297.29
514.664	20547.45
515.032	20642.14
515.4	20789.03
515.767	20849.82
516.135	21083.94
516.502	20939.99
516.869	21272.86
517.237	21391.27
517.604	21354.44
517.972	21647.76
518.339	21907.64
518.706	22001.65
519.073	22086.4
519.44	22214.75
519.808	22487.52
520.175	22535.2
520.542	22706.04
520.909	22926.15
521.276	22947.62
521.643	23240.04
522.009	23425.57
522.376	23601.39
522.743	23674.38
523.11	23993.24
523.477	24193.69
523.843	24330.18
524.21	24612.43
524.577	24748.25
524.943	24910.5
525.31	25096.26
525.676	25271.17
526.043	25402.02
526.409	25541.67
526.776	25875.45
527.142	25946.18
527.508	26082.22
527.874	26260.98
528.241	26425.49
528.607	26549.78
528.973	26730.79
529.339	26814.41
529.705	27108.64
530.071	27231.35
530.437	27436.76
530.803	27531.9
531.169	27628.17
531.535	27758.11
531.901	27827.94
532.267	27960.37
532.632	28277.19
532.998	28351.77
533.364	28384.99
533.73	28500.01
534.095	28753.79
534.461	28933.22
534.826	28995.37
535.192	29100.68
535.557	29369.14
535.923	29277.39
536.288	29539.31
536.653	29558.74
537.019	29582.24
537.384	29689.81
537.749	29865.18
538.114	29994.89
538.479	30095.45
538.845	30279.18
539.21	30207.99
539.575	30356.24
539.94	30595.78
540.305	30608.88
540.67	30650.24
541.034	30923
541.399	30925.49
541.764	30950.57
542.129	31263.1
542.494	31067.63
542.858	31277.34
543.223	31395.98
543.587	31520.27
543.952	31580.16
544.316	31654.05
544.681	31755.29
545.045	31843.43
545.41	32085.91
545.774	32063.31
546.138	32197.54
546.503	32274.15
546.867	32359.35
547.231	32611.77
547.595	32685.67
547.959	32825.1
548.324	32835.72
548.688	32917.3
549.052	33124.52
549.416	33155.48
549.779	33230.06
550.143	33282.49
550.507	33556.38
550.871	33639.31
551.235	33676.83
551.599	33892.19
551.962	34004.95
552.326	34065.06
552.689	34275.68
553.053	34161.56
553.417	34279.52
553.78	34795.22
554.143	34643.81
554.507	34915.89
554.87	34900.75
555.234	35155.43
555.597	34976.45
555.96	35231.36
556.323	35414.86
556.686	35438.81
557.05	35775.98
557.413	35887.16
557.776	35798.35
558.139	36237.89
558.502	36269.3
558.865	36396.53
559.228	36729.18
559.59	36756.52
559.953	36815.27
560.316	37132.55
560.679	37199.22
561.041	37438.31
561.404	37556.27
561.767	37682.37
562.129	37611.64
562.492	38157.61
562.854	38083.26
563.217	38121
563.579	38254.33
563.941	38623.36
564.304	38686.86
564.666	39024.03
565.028	38986.52
565.39	39102.22
565.753	39250.24
566.115	39407.75
566.477	39691.36
566.839	39801.64
567.201	39934.29
567.563	40083.44
567.925	40379.25
568.287	40308.29
568.648	40245.47
569.01	40680.71
569.372	40877.77
569.734	40862.17
570.095	41122.73
570.457	41351.43
570.819	41133.81
571.18	41273.01
571.542	41539.22
571.903	41572.66
572.265	41724.98
572.626	41859.66
572.987	41802.49
573.349	41970.85
573.71	42137.39
574.071	42152.54
574.432	42367.9
574.794	42596.37
575.155	42623.48
575.516	42436.6
575.877	42684.05
576.238	42662.13
576.599	42943.7
576.96	43005.39
577.32	42934.89
577.681	43180.53
578.042	43195.22
578.403	43215.56
578.763	43184.82
579.124	43295.33
579.485	43465.72
579.845	43595.66
580.206	43339.4
580.566	43425.27
580.927	43437.25
581.287	43635.89
581.648	43535.32
582.008	43671.37
582.368	43629.33
582.728	43834.98
583.089	43610.58
583.449	43682.44
583.809	43748.88
584.169	43838.14
584.529	43713.17
584.889	44021.87
585.249	43762.21
585.609	43673.4
585.969	43910.68
586.329	43774.19
586.688	43909.55
587.048	43859.84
587.408	43834.98
587.768	43787.29
588.127	43864.36
588.487	43740.97
588.846	44184.8
589.206	43748.43
589.565	43843.11
589.925	43995.65
590.284	43862.55
590.643	43985.71
591.003	44046.95
591.362	44090.34
591.721	43966.05
592.08	44036.55
592.44	44055.76
592.799	44112.26
593.158	44015.09
593.517	43918.82
593.876	44176.89
594.235	44091.69
594.593	44042.43
594.952	44162.2
595.311	43962.43
595.67	44091.69
596.029	44334.17
596.387	44398.35
596.746	44223.67
597.104	44121.98
597.463	44360.39
597.822	44351.57
598.18	44150
598.538	44119.26
598.897	44464.57
599.255	44106.38
599.613	44753.82
599.972	44457.56
600.33	44477.67
600.688	44318.13
601.046	44543.21
601.404	44683.09
601.762	44474.73
602.12	44713.15
602.478	44725.35
602.836	44655.29
603.194	44564.68
603.552	44719.25
603.91	44605.58
604.268	44801.28
604.625	44747.27
604.983	44842.41
605.341	44661.4
605.698	44742.75
606.056	44995.4
606.413	44891.67
606.771	45102.97
607.128	45160.14
607.485	44822.75
607.843	44862.29
608.2	45147.03
608.557	45267.93
608.914	45055.28
609.272	45411.89
609.629	45326.01
609.986	45519.23
610.343	45359.91
610.7	45678.09
611.057	45518.1
611.414	45580.47
611.771	45570.3
612.127	45698.88
612.484	45604.65
612.841	45751.54
613.198	45560.13
613.554	45679.67
613.911	45965.09
614.267	45761.25
614.624	45820.24
614.98	45992.66
615.337	46035.15
615.693	46053.68
616.05	45988.82
616.406	46279.43
616.762	46154.24
617.118	46026.33
617.475	46064.52
617.831	46242.6
618.187	46365.76
618.543	46320.11
618.899	46543.61
619.255	46343.61
619.611	46295.03
619.967	46390.16
620.323	46485.3
620.678	46358.07
621.034	46290.28
621.39	46349.49
621.746	46288.7
622.101	46634.23
622.457	46339.54
622.812	46426.32
623.168	46440.33
623.523	46409.82
623.879	46662.47
624.234	46365.53
624.589	46521.46
624.945	46498.64
625.3	46436.94
625.655	46508.81
626.01	46492.76
626.365	46400.33
626.72	46377.96
627.075	46420.45
627.43	46368.24
627.785	46365.08
628.14	46305.87
628.495	46449.15
628.85	46462.48
629.205	46253.9
629.559	46488.01
629.914	46323.27
630.269	46300.22
630.623	46082.6
630.978	46114.47
631.332	46132.77
631.687	46242.6
632.041	46056.84
632.396	46154.69
632.75	46001.7
633.104	46062.94
633.459	45757.86
633.813	45719
634.167	45767.36
634.521	45773.91
634.875	45836.51
635.229	45665.66
635.583	45567.36
635.937	45569.17
636.291	45575.72
636.645	45559.68
636.999	45370.98
637.352	45414.82
637.706	45221.83
638.06	45380.7
638.413	45323.07
638.767	45103.42
639.121	45257.76
639.474	45002.18
639.828	44987.94
640.181	45002.86
640.534	45013.03
640.888	44814.84
641.241	44769.42
641.594	44822.07
641.947	44941.16
642.301	44822.52
642.654	44736.87
643.007	44713.82
643.36	44621.17
643.713	44413.95
644.066	44781.62
644.419	44397
644.771	44134.63
645.124	43879.95
645.477	43644.7
645.83	43417.81
646.182	43246.74
646.535	43066.41
646.888	43157.71
647.24	42912.29
647.593	43095.11
647.945	43134.66
648.298	42804.72
648.65	42658.74
649.002	42780.54
649.355	42863.7
649.707	42769.24
650.059	42809.47
650.411	43317.48
650.763	43432.95
651.115	43822.77
651.467	43581.42
651.819	43563.57
652.171	43443.8
652.523	43427.08
652.875	43254.88
653.227	43262.79
653.578	43493.07
653.93	43308.21
654.282	43169.68
654.633	43154.32
654.985	43172.17
655.337	43133.98
655.688	43103.92
656.039	43227.31
656.391	42857.83
656.742	42989.8
657.094	42963.59
657.445	43179.18
657.796	43052.4
658.147	42964.72
658.498	42837.04
658.849	42905.51
659.2	42901.44
659.551	42693.99
659.902	42893.99
660.253	42732.63
660.604	42816.47
660.955	42459.19
661.306	42722.01
661.656	42659.64
662.007	42590.94
662.358	42675.23
662.708	42623.03
663.059	42665.52
663.409	42213.33
663.76	42631.62
664.11	42570.6
664.461	42549.59
664.811	42693.31
665.161	42505.07
665.511	42427.1
665.862	42408.12
666.212	42491.51
666.562	42630.26
666.912	42399.76
667.262	42228.24
667.612	42293.77
667.962	42261.23
668.312	42185.53
668.662	42562.47
669.011	42298.29
669.361	42272.31
669.711	42198.41
670.06	42102.14
670.41	42035.48
670.76	42029.15
671.109	42151.18
671.459	42123.16
671.808	42010.62
672.157	42096.94
672.507	41787.57
672.856	41938.76
673.205	41924.29
673.554	42015.59
673.904	41733.11
674.253	41975.59
674.602	41797.52
674.951	41300.35
675.3	40998.89
675.649	41608.6
675.998	41580.57
676.346	41689.05
676.695	41639.1
677.044	41336.74
677.393	41558.43
677.741	41527.02
678.09	41367.92
678.438	41368.15
678.787	41340.58
679.135	41436.62
679.484	41296.51
679.832	41261.26
680.181	41028.27
680.529	41183.52
680.877	40918.22
681.225	41033.24
681.573	41107.59
681.922	40842.97
682.27	40779.69
682.618	40718.22
682.966	40732.91
683.314	40783.53
683.661	40594.61
684.009	40450.89
684.357	40435.29
684.705	40247.73
685.053	40271.91
685.4	40400.72
685.748	40004.34
686.095	39918.47
686.443	39901.07
686.79	39951.46
687.138	39900.62
687.485	39877.57
687.832	39526.84
688.18	39629.66
688.527	39466.05
688.874	39544.69
689.221	39292.5
689.568	39172.5
689.915	39082.79
690.262	39238.49
690.609	39163.91
690.956	39055.89
691.303	38862
691.65	38706.75
691.997	38788.33
692.344	38601.22
692.69	38429.24
693.037	38353.54
693.383	38024.06
693.73	38367.78
694.077	38143.83
694.423	38143.6
694.769	37965.3
695.116	37863.83
695.462	37811.18
695.808	37760.56
696.155	37843.27
696.501	37365.09
696.847	37448.03
697.193	37137.3
697.539	37209.39
697.885	36843.52
698.231	36918.32
698.577	36938.44
698.923	36821.6
699.269	36562.85
699.614	36408.51
699.96	36456.87
700.306	36516.07
700.651	36321.73
700.997	36200.6
701.342	36227.27
701.688	36073.6
702.033	35858.24
702.379	35913.38
702.724	35795.41
703.069	35925.58
703.415	35293.96
703.76	35421.19
704.105	35453.95
704.45	35277.91
704.795	35106.85
705.14	35010.8
705.485	34980.52
705.83	34716.12
706.175	34892.84
706.52	34766.74
706.865	34757.7
707.209	34632.96
707.554	34527.43
707.899	34558.84
708.243	34300.54
708.588	34286.98
708.932	34047.44
709.277	34051.51
709.621	34067.55
709.966	33881.34
710.31	33903.04
710.654	33552.08
710.998	33643.61
711.342	33632.99
711.687	33546.43
712.031	33313.22
712.375	33262.15
712.719	33279.77
713.063	33152.55
713.407	33229.61
713.75	33025.09
714.094	33018.31
714.438	32959.11
714.782	32940.57
715.125	32747.81
715.469	32945.55
715.812	32604.54
716.156	32584.43
716.499	32455.84
716.843	32543.3
717.186	32253.36
717.53	32451.32
717.873	32393.47
718.216	32213.59
718.559	32233.7
718.902	31885.46
719.246	32013.82
719.589	31877.55
719.932	31851.11
720.275	31864.9
720.617	31784.67
720.96	31712.13
721.303	31701.51
721.646	31810.21
721.989	31624.68
722.331	31728.4
722.674	31471.01
723.016	31417
723.359	31339.94
723.701	31378.81
724.044	31142.88
724.386	30908.31
724.729	31211.58
725.071	31090.23
725.413	31007.29
725.755	31062.21
726.097	30815.66
726.439	30788.31
726.782	30683.01
727.124	30749.9
727.465	30589
727.807	30596
728.149	30514.2
728.491	30360.08
728.833	30555.33
729.175	30377.7
729.516	30319.85
729.858	30274.2
730.199	30253.41
730.541	30110.14
730.882	30079.41
731.224	30066.07
731.565	29931.16
731.906	29996.02
732.248	30056.58
732.589	29833.54
732.93	29775.01
733.271	29775.69
733.612	29751.28
733.953	29777.95
734.294	29658.4
734.635	29479.2
734.976	29632.64
735.317	29471.97
735.658	29625.18
735.999	29502.7
736.339	29285.08
736.68	29386.32
737.021	29323.95
737.361	29055.03
737.702	29300.44
738.042	29114.69
738.383	29134.57
738.723	29170.5
739.063	28927.57
739.404	28978.87
739.744	28924.41
740.084	28754.92
740.424	28797.86
740.764	28676.96
741.104	28820.91
741.444	28652.1
741.784	28524.19
742.124	28656.85
742.464	28479.45
742.804	28498.88
743.143	28340.02
743.483	28355.16
743.823	28093.92
744.162	28266.57
744.502	28140.47
744.841	28090.08
745.181	28180.47
745.52	27975.73
745.86	28095.05
746.199	27951.55
746.538	27947.71
746.877	27928.95
747.216	27906.81
747.556	27869.52
747.895	27588.62
748.234	27675.4
748.573	27561.28
748.911	27515.86
749.25	27550.43
749.589	27526.03
749.928	27395.86
750.267	27414.84
750.605	27209.2
750.944	27354.73
751.283	27215.98
751.621	27076.55
751.96	26967.4
752.298	26969.43
752.636	26959.04
752.975	26890.34
753.313	26867.06
753.651	26885.37
