Data from breadboard_black_back_FLMS001491_00097.txt Node
Date: Wed Feb 08 10:51:12 GMT 2017
User: dcchb
Spectrometer: FLMS00149
Trigger mode: 0
Integration Time (sec): 2.000000E-2
Scans to average: 10
Electric dark correction enabled: true
Nonlinearity correction enabled: false
Boxcar width: 0
XAxis mode: Wavelengths
Number of Pixels in Spectrum: 2048
>>>>>Begin Spectral Data<<<<<
341.393	-4.75
341.776	-4.75
342.16	-4.75
342.543	-73.22
342.927	-57.4
343.31	-75.25
343.693	-75.48
344.077	-54.24
344.46	-49.72
344.843	-48.36
345.226	-39.32
345.61	-29.6
345.993	-9.72
346.376	-9.94
346.759	11.98
347.142	11.98
347.525	36.84
347.908	31.86
348.291	80.9
348.674	104.18
349.057	113.9
349.44	106.66
349.823	142.82
350.206	167.68
350.588	191.63
350.971	215.36
351.354	218.3
351.737	243.38
352.119	272.54
352.502	269.82
352.884	284.06
353.267	299.2
353.65	298.75
354.032	296.72
354.414	317.51
354.797	311.4
355.179	329.93
355.562	321.8
355.944	324.74
356.326	337.17
356.709	323.38
357.091	347.56
357.473	344.62
357.855	337.17
358.238	339.2
358.62	332.65
359.002	332.19
359.384	360.44
359.766	360.67
360.148	346.88
360.53	336.49
360.912	334.91
361.294	345.75
361.676	345.3
362.057	334.45
362.439	351.18
362.821	333.32
363.203	326.32
363.584	325.64
363.966	350.05
364.348	323.83
364.729	341.23
365.111	340.56
365.493	340.1
365.874	332.42
366.256	335.58
366.637	335.58
367.019	307.56
367.4	341.23
367.781	318.18
368.163	324.06
368.544	344.17
368.925	322.7
369.306	319.09
369.688	302.14
370.069	331.06
370.45	322.7
370.831	366.09
371.212	335.13
371.593	348.01
371.974	337.84
372.355	330.39
372.736	336.04
373.117	350.95
373.498	337.17
373.879	343.04
374.26	352.31
374.641	326.32
375.021	341.69
375.402	362.02
375.783	368.58
376.163	360.89
376.544	374
376.925	342.82
377.305	341.23
377.686	358.86
378.066	357.5
378.447	374.91
378.827	348.47
379.208	369.48
379.588	388.24
379.968	366.54
380.349	394.34
380.729	364.06
381.109	393.89
381.489	380.55
381.87	389.14
382.25	380.33
382.63	379.2
383.01	362.48
383.39	396.83
383.77	377.62
384.15	405.19
384.53	389.82
384.91	398.41
385.29	418.52
385.67	429.59
386.049	414.68
386.429	421.01
386.809	403.83
387.189	414.9
387.568	412.42
387.948	431.85
388.328	406.32
388.707	421.23
389.087	421.46
389.466	429.59
389.846	428.69
390.225	455.36
390.605	440.67
390.984	444.73
391.363	431.18
391.743	453.55
392.122	433.66
392.501	470.72
392.881	442.25
393.26	452.42
393.639	467.11
394.018	457.84
394.397	479.99
394.776	477.05
395.155	481.34
395.534	489.25
395.913	504.39
396.292	479.08
396.671	515.69
397.05	503.26
397.429	509.82
397.808	514.11
398.186	500.1
398.565	506.65
398.944	536.71
399.323	524.96
399.701	534.9
400.08	520.44
400.458	551.62
400.837	543.49
401.215	541.45
401.594	521.79
401.972	545.97
402.351	550.72
402.729	530.61
403.107	571.28
403.486	583.04
403.864	571.51
404.242	560.21
404.62	584.84
404.999	600.89
405.377	596.37
405.755	589.36
406.133	607.67
406.511	608.8
406.889	625.52
407.267	592.53
407.645	616.03
408.023	621.68
408.401	647.67
408.779	620.55
409.156	632.75
409.534	651.96
409.912	650.38
410.29	663.71
410.667	663.71
411.045	681.34
411.422	674.33
411.8	690.83
412.178	714.78
412.555	717.95
412.933	702.35
413.31	719.08
413.687	709.13
414.065	716.37
414.442	747.55
414.819	758.62
415.197	743.03
415.574	773.09
415.951	788.68
416.328	769.47
416.705	799.08
417.082	785.06
417.46	814.22
417.837	797.49
418.214	821.22
418.591	825.52
418.967	824.39
419.344	840.88
419.721	834.1
420.098	851.5
420.475	845.18
420.852	872.97
421.228	866.19
421.605	867.1
421.982	871.62
422.358	868.68
422.735	889.92
423.111	887.43
423.488	925.63
423.864	935.34
424.241	943.48
424.617	938.96
424.994	965.62
425.37	983.02
425.746	977.6
426.123	981.9
426.499	1006.08
426.875	995.23
427.251	1010.82
427.627	1039.29
428.003	1044.04
428.379	1042.23
428.756	1056.02
429.132	1062.12
429.507	1067.32
429.883	1114.32
430.259	1129.91
430.635	1106.64
431.011	1110.25
431.387	1121.78
431.763	1165.62
432.138	1170.36
432.514	1187.31
432.89	1201.55
433.265	1210.36
433.641	1240.42
434.016	1231.83
434.392	1263.24
434.767	1267.31
435.143	1273.19
435.518	1302.56
435.894	1313.19
436.269	1332.39
436.644	1345.28
437.02	1348.67
437.395	1361.77
437.77	1375.11
438.145	1394.77
438.52	1406.52
438.895	1428.21
439.271	1400.19
439.646	1452.17
440.021	1456.46
440.395	1452.62
440.77	1475.67
441.145	1470.92
441.52	1523.35
441.895	1529.68
442.27	1531.71
442.645	1527.64
443.019	1559.96
443.394	1543.24
443.769	1575.55
444.143	1552.28
444.518	1587.75
444.892	1569.45
445.267	1597.47
445.641	1586.4
446.016	1620.3
446.39	1624.82
446.764	1652.39
447.139	1655.78
447.513	1692.61
447.887	1679.5
448.262	1675.66
448.636	1696.68
449.01	1751.37
449.384	1735.55
449.758	1731.25
450.132	1780.52
450.506	1781.87
450.88	1802.66
451.254	1791.59
451.628	1815.77
452.002	1845.38
452.376	1848.99
452.75	1912.49
453.123	1871.36
453.497	1910.91
453.871	1955.2
454.244	1951.81
454.618	1980.29
454.992	1993.17
455.365	2011.92
455.739	2075.43
456.112	2075.88
456.486	2136.89
456.859	2123.79
457.232	2181.19
457.606	2175.99
457.979	2189.55
458.352	2245.14
458.725	2228.87
459.099	2302.31
459.472	2300.28
459.845	2311.8
460.218	2356.77
460.591	2380.95
460.964	2423.44
461.337	2450.33
461.71	2478.13
462.083	2519.48
462.456	2530.1
462.829	2542.53
463.201	2566.71
463.574	2630.44
463.947	2658.24
464.32	2653.49
464.692	2677.22
465.065	2762.87
465.438	2773.71
465.81	2827.27
466.183	2861.62
466.555	2886.03
466.928	2905.69
467.3	2945.23
467.672	2960.37
468.045	3045.57
468.417	3048.73
468.789	3069.98
469.161	3130.31
469.534	3166.92
469.906	3230.2
470.278	3232.68
470.65	3277.88
471.022	3319.46
471.394	3393.58
471.766	3472
472.138	3522.17
472.51	3558.78
472.882	3604.2
473.253	3637.64
473.625	3689.39
473.997	3765.78
474.369	3759.68
474.74	3816.17
475.112	3914.7
475.484	3954.7
475.855	3989.27
476.227	4057.52
476.598	4173.45
476.97	4225.65
477.341	4247.35
477.713	4325.08
478.084	4381.13
478.455	4519.88
478.827	4555.13
479.198	4683.04
479.569	4679.2
479.94	4852.98
480.311	4832.19
480.682	4957.84
481.053	5061.79
481.424	5131.39
481.795	5210.26
482.166	5276.47
482.537	5377.49
482.908	5502.45
483.279	5540.42
483.65	5589.23
484.021	5727.76
484.391	5801.88
484.762	5836.68
485.133	5943.35
485.503	5993.97
485.874	6156.45
486.244	6189.67
486.615	6273.28
486.985	6403.45
487.356	6370
487.726	6528.42
488.097	6616.32
488.467	6680.05
488.837	6907.16
489.207	6952.13
489.578	7007.27
489.948	7081.17
490.318	7201.62
490.688	7245.69
491.058	7352.35
491.428	7437.54
491.798	7569.74
492.168	7713.02
492.538	7758.21
492.908	7732
493.278	7908.49
493.648	7942.39
494.017	7981.94
494.387	8068.94
494.757	8200.46
495.126	8279.78
495.496	8225.77
495.866	8379.67
496.235	8470.29
496.605	8503.28
496.974	8661.02
497.344	8690.39
497.713	8670.96
498.082	8803.84
498.452	8962.93
498.821	8891.74
499.19	8977.39
499.559	9033.43
499.928	9168.12
500.298	9224.16
500.667	9271.39
501.036	9285.18
501.405	9402.01
501.774	9350.94
502.143	9558.17
502.512	9559.97
502.88	9655.34
503.249	9697.37
503.618	9664.83
503.987	9777.6
504.356	9894.2
504.724	9969
505.093	10027.08
505.462	10081.09
505.83	10183.24
506.199	10268.66
506.567	10392.5
506.936	10419.39
507.304	10486.96
507.672	10548.42
508.041	10613.28
508.409	10641.98
508.777	10767.4
509.145	10887.85
509.514	10824.35
509.882	10989.09
510.25	11017.11
510.618	11152.48
510.986	11154.28
511.354	11388.18
511.722	11425.69
512.09	11518.12
512.458	11499.58
512.826	11641.28
513.193	11622.29
513.561	11733.7
513.929	11860.48
514.297	12001.72
514.664	12034.94
515.032	12102.51
515.4	12231.09
515.767	12316.51
516.135	12407.81
516.502	12292.56
516.869	12563.96
517.237	12576.17
517.604	12713.11
517.972	12784.52
518.339	12878.31
518.706	12963.73
519.073	13056.15
519.44	13090.73
519.808	13210.27
520.175	13277.84
520.542	13379.76
520.909	13463.15
521.276	13534.33
521.643	13741.56
522.009	13721.22
522.376	13961.89
522.743	13979.52
523.11	14103.36
523.477	14229.46
523.843	14293.41
524.21	14535.89
524.577	14585.38
524.943	14703.12
525.31	14713.06
525.676	14886.61
526.043	15055.88
526.409	15104.91
526.776	15349.88
527.142	15316.21
527.508	15379.48
527.874	15568.63
528.241	15628.29
528.607	15785.57
528.973	15911.67
529.339	15965.91
529.705	16037.32
530.071	16149.18
530.437	16155.06
530.803	16374.48
531.169	16493.8
531.535	16519.79
531.901	16480.24
532.267	16708.26
532.632	16868.03
532.998	16824.64
533.364	16995.71
533.73	16960.23
534.095	17131.07
534.461	17198.19
534.826	17323.84
535.192	17374.01
535.557	17513.44
535.923	17593.21
536.288	17574.45
536.653	17640.44
537.019	17640.67
537.384	17786.2
537.749	17929.92
538.114	17948.68
538.479	18068.9
538.845	18167.21
539.21	18133.99
539.575	18158.62
539.94	18301.89
540.305	18418.72
540.67	18332.85
541.034	18534.65
541.399	18548.66
541.764	18505.73
542.129	18706.85
542.494	18766.51
542.858	18780.75
543.223	18815.55
543.587	18919.5
543.952	18957.24
544.316	19056.9
544.681	19060.29
545.045	19248.31
545.41	19323.11
545.774	19348.87
546.138	19394.97
546.503	19527.85
546.867	19492.37
547.231	19668.18
547.595	19742.98
547.959	19789.31
548.324	19848.97
548.688	19836.54
549.052	19945.69
549.416	19995.18
549.779	19982.98
550.143	20158.57
550.507	20262.97
550.871	20280.37
551.235	20284.44
551.599	20407.82
551.962	20538.89
552.326	20622.73
552.689	20818.66
553.053	20761.49
553.417	20764.2
553.78	21088.94
554.143	20992.22
554.507	21180.01
554.87	21196.5
555.234	21415.26
555.597	21279.44
555.96	21384.75
556.323	21369.83
556.686	21561.01
557.05	21675.36
557.413	21803.49
557.776	21818.18
558.139	21928.91
558.502	21977.95
558.865	22095.24
559.228	22268.12
559.59	22373.42
559.953	22428.79
560.316	22640.53
560.679	22705.39
561.041	22778.38
561.404	22871.26
561.767	22956.68
562.129	22941.54
562.492	23301.53
562.854	23160.07
563.217	23321.42
563.579	23394.64
563.941	23547.18
564.304	23660.62
564.666	23823.1
565.028	23728.64
565.39	23817.9
565.753	24073.49
566.115	24151.68
566.477	24245.24
566.839	24289.53
567.201	24542.86
567.563	24522.29
567.925	24633.48
568.287	24599.58
568.648	24758.9
569.01	24946.91
569.372	25023.3
569.734	25075.5
570.095	25237.3
570.457	25276.62
570.819	25354.36
571.18	25282.73
571.542	25531.53
571.903	25641.13
572.265	25610.85
572.626	25655.37
572.987	25830.96
573.349	25985.31
573.71	25924.74
574.071	26133.1
574.432	26178.52
574.794	26328.8
575.155	26335.35
575.516	26324.73
575.877	26465.74
576.238	26491.73
576.599	26618.74
576.96	26600.66
577.32	26508.46
577.681	26597.94
578.042	26819.41
578.403	26818.96
578.763	26841.33
579.124	26868.67
579.485	26890.59
579.845	27013.75
580.206	27011.27
580.566	26994.09
580.927	27040.19
581.287	27069.34
581.648	27030.7
582.008	27251.03
582.368	27105.05
582.728	27192.05
583.089	27169.68
583.449	27322.45
583.809	27379.62
584.169	27368.77
584.529	27339.62
584.889	27362.67
585.249	27254.42
585.609	27149.57
585.969	27446.51
586.329	27334.42
586.688	27451.26
587.048	27292.84
587.408	27292.16
587.768	27486.51
588.127	27323.35
588.487	27329.45
588.846	27506.4
589.206	27356.79
589.565	27426.17
589.925	27615.32
590.284	27381.88
590.643	27577.13
591.003	27594.75
591.362	27616.45
591.721	27564.92
592.08	27643.79
592.44	27711.81
592.799	27652.38
593.158	27573.51
593.517	27669.55
593.876	27710.23
594.235	27663.45
594.593	27758.59
594.952	27689.22
595.311	27576.45
595.67	27695.54
596.029	27881.53
596.387	27835.43
596.746	27861.87
597.104	27799.04
597.463	27819.38
597.822	27917.46
598.18	27832.71
598.538	27791.81
598.897	27992.71
599.255	27780.96
599.613	28097.34
599.972	28013.5
600.33	28061.18
600.688	27921.75
601.046	28151.8
601.404	28236.77
601.762	28153.84
602.12	28276.77
602.478	28361.29
602.836	28262.08
603.194	28133.72
603.552	28168.52
603.91	28205.59
604.268	28324.23
604.625	28296.66
604.983	28401.29
605.341	28379.14
605.698	28464.34
606.056	28507.5
606.413	28480.16
606.771	28574.39
607.128	28638.57
607.485	28576.88
607.843	28599.93
608.2	28636.99
608.557	28806.25
608.914	28796.98
609.272	28794.5
609.629	28852.35
609.986	28977.54
610.343	28818.45
610.7	28934.15
611.057	28936.87
611.414	28913.82
611.771	28975.51
612.127	29184.54
612.484	29180.93
612.841	29201.04
613.198	29002.85
613.554	29039.69
613.911	29200.59
614.267	29206.69
614.624	29177.76
614.98	29345.67
615.337	29587.47
615.693	29326.91
616.05	29379.34
616.406	29524.42
616.762	29408.04
617.118	29428.6
617.475	29417.98
617.831	29467.93
618.187	29562.61
618.543	29490.75
618.899	29798.99
619.255	29597.41
619.611	29739.11
619.967	29621.37
620.323	29761.93
620.678	29634.48
621.034	29656.62
621.39	29635.15
621.746	29756.96
622.101	29986.56
622.457	29678.54
622.812	29815.26
623.168	29921.7
623.523	29967.12
623.879	30061.36
624.234	29762.16
624.589	29895.94
624.945	29790.4
625.3	29913.11
625.655	29870.18
626.01	29806.9
626.365	29920.57
626.72	29991.75
627.075	30028.14
627.43	29741.82
627.785	29875.82
628.14	29791.31
628.495	29882.38
628.85	29707.24
629.205	29710.63
629.559	29956.73
629.914	29754.25
630.269	29724.42
630.623	29661.14
630.978	29620.24
631.332	29758.99
631.687	29853.45
632.041	29725.32
632.396	29733.23
632.75	29510.41
633.104	29610.07
633.459	29555.83
633.813	29507.7
634.167	29475.16
634.521	29493.91
634.875	29521.26
635.229	29385.67
635.583	29312.45
635.937	29391.32
636.291	29328.95
636.645	29314.48
636.999	29231.55
637.352	29265.45
637.706	29225.45
638.06	29386.12
638.413	29133.25
638.767	29165.56
639.121	29227.93
639.474	29066.13
639.828	29136.64
640.181	29175.73
640.534	29043.3
640.888	28910.43
641.241	28858.22
641.594	28858
641.947	28863.65
642.301	28870.2
642.654	28751.33
643.007	28886.92
643.36	28754.72
643.713	28799.47
644.066	28926.02
644.419	28709.53
644.771	28568.51
645.124	28330.78
645.477	28169.2
645.83	27951.81
646.182	27877.01
646.535	27751.36
646.888	27754.75
647.24	27644.7
647.593	27702.32
647.945	27667.75
648.298	27405.61
648.65	27531.25
649.002	27394.31
649.355	27595.21
649.707	27427.75
650.059	27718.82
650.411	28057.12
650.763	27960.62
651.115	28198.81
651.467	28159.03
651.819	28171.24
652.171	28062.54
652.523	28088.3
652.875	27986.61
653.227	27825.03
653.578	28107.51
653.93	28029.09
654.282	27891.47
654.633	27768.31
654.985	27909.32
655.337	27790.23
655.688	27894.63
656.039	28015.53
656.391	27736.45
656.742	27731.25
657.094	27680.85
657.445	27859.61
657.796	27792.72
658.147	27714.07
658.498	27707.29
658.849	27801.75
659.2	27833.62
659.551	27602.89
659.902	27716.56
660.253	27677.69
660.604	27722.89
660.955	27539.39
661.306	27709.78
661.656	27662.55
662.007	27607.41
662.358	27570.12
662.708	27560.86
663.059	27659.39
663.409	27383.46
663.76	27620.52
664.11	27582.55
664.461	27520.41
664.811	27509.56
665.161	27582.78
665.511	27450.13
665.862	27485.15
666.212	27561.76
666.562	27583.91
666.912	27505.04
667.262	27432.05
667.612	27492.84
667.962	27469.11
668.312	27420.07
668.662	27568.09
669.011	27491.71
669.361	27351.82
669.711	27467.07
670.06	27213.75
670.41	27279.28
670.76	27425.72
671.109	27320.41
671.459	27330.81
671.808	27196.57
672.157	27367.42
672.507	27105.95
672.856	27315.67
673.205	27143.92
673.554	27298.27
673.904	27182.79
674.253	27371.48
674.602	27206.97
674.951	26814.21
675.3	26749.35
675.649	27078.38
675.998	26967.2
676.346	26989.8
676.695	27057.37
677.044	26802.46
677.393	26940.53
677.741	26952.51
678.09	26897.6
678.438	26888.11
678.787	26969.69
679.135	26913.19
679.484	26719.75
679.832	26938.5
680.181	26647.21
680.529	26778.73
680.877	26781.89
681.225	26648.56
681.573	26741.9
681.922	26574.44
682.27	26551.17
682.618	26599.3
682.966	26484.05
683.314	26479.98
683.661	26430.72
684.009	26298.07
684.357	26386.88
684.705	26170.84
685.053	26328.35
685.4	26303.49
685.748	26099.88
686.095	26051.29
686.443	26001.58
686.79	25940.79
687.138	26028.02
687.485	25878.19
687.832	25870.73
688.18	25891.07
688.527	25760
688.874	25702.38
689.221	25698.53
689.568	25599.33
689.915	25514.58
690.262	25477.97
690.609	25462.83
690.956	25402.04
691.303	25300.58
691.65	25157.08
691.997	25230.98
692.344	25066.01
692.69	25056.97
693.037	24991.21
693.383	24955.28
693.73	25036.63
694.077	24801.61
694.423	24821.49
694.769	24774.72
695.116	24637.09
695.462	24609.52
695.808	24539.02
696.155	24646.81
696.501	24390.09
696.847	24419.7
697.193	24172.7
697.539	24346.7
697.885	24031.91
698.231	23915.76
698.577	24065.36
698.923	24021.29
699.269	23904.23
699.614	23744.69
699.96	23807.74
700.306	23821.07
700.651	23597.8
700.997	23687.51
701.342	23446.16
701.688	23541.3
702.033	23466.95
702.379	23450
702.724	23373.4
703.069	23297.47
703.415	23084.82
703.76	23195.1
704.105	23134.53
704.45	23071.48
704.795	22972.96
705.14	22937.7
705.485	22962.11
705.83	22772.96
706.175	22845.28
706.52	22664.94
706.865	22575.45
707.209	22557.37
707.554	22599.41
707.899	22568.9
708.243	22436.47
708.588	22519.63
708.932	22222.01
709.277	22268.79
709.621	22332.07
709.966	22228.79
710.31	22144.28
710.654	22066.76
710.998	21992.19
711.342	22001
711.687	21975.69
712.031	21870.39
712.375	21766.43
712.719	21882.14
713.063	21901.8
713.407	21885.3
713.75	21699.54
714.094	21737.96
714.438	21599.88
714.782	21519.89
715.125	21485.54
715.469	21622.26
715.812	21450.51
716.156	21274.69
716.499	21399.89
716.843	21304.3
717.186	21092.33
717.53	21333.22
717.873	21267.01
718.216	21192.21
718.559	21102.95
718.902	21045.77
719.246	21040.58
719.589	20967.81
719.932	20904.31
720.275	20930.98
720.617	20890.52
720.96	20944.08
721.303	20872.22
721.646	20869.73
721.989	20742.73
722.331	20810.98
722.674	20697.53
723.016	20629.74
723.359	20624.32
723.701	20617.09
724.044	20505.68
724.386	20373.48
724.729	20513.58
725.071	20380.26
725.413	20420.48
725.755	20372.8
726.097	20281.27
726.439	20164.22
726.782	20205.8
727.124	20381.39
727.465	20216.87
727.807	20087.38
728.149	20144.56
728.491	20096.65
728.833	20040.15
729.175	19985.01
729.516	19984.33
729.858	19989.3
730.199	19975.07
730.541	19922.19
730.882	19851.68
731.224	19974.16
731.565	19725.81
731.906	19838.12
732.248	19779.82
732.589	19819.37
732.93	19715.64
733.271	19666.6
733.612	19786.15
733.953	19689.88
734.294	19626.38
734.635	19594.29
734.976	19655.75
735.317	19465.25
735.658	19525.81
735.999	19446.72
736.339	19418.92
736.68	19467.06
737.021	19339.38
737.361	19357.46
737.702	19311.13
738.042	19228.19
738.383	19243.11
738.723	19258.7
739.063	19171.7
739.404	19215.77
739.744	19091.48
740.084	19125.37
740.424	19091.48
740.764	19051.02
741.104	19128.76
741.444	18978.94
741.784	18980.74
742.124	19037.47
742.464	18948.43
742.804	18917.24
743.143	18908.66
743.483	18924.93
743.823	18797.92
744.162	18854.19
744.502	18834.53
744.841	18729
745.181	18823.01
745.52	18730.81
745.86	18677.93
746.199	18667.53
746.538	18655.78
746.877	18772.16
747.216	18672.96
747.556	18622.56
747.895	18594.77
748.234	18538.04
748.573	18517.25
748.911	18423.02
749.25	18406.52
749.589	18280.65
749.928	18344.15
750.267	18398.39
750.605	18243.14
750.944	18239.52
751.283	18099.86
751.621	18221.22
751.96	18076.36
752.298	18059.41
752.636	18059.19
752.975	17931.96
753.313	17885.63
753.651	17890.6
753.989	17816.93
754.327	17776.03
754.666	17718.4
