Data from breadboard_white_FLMS001491_00040.txt Node
Date: Wed Feb 08 10:47:39 GMT 2017
User: dcchb
Spectrometer: FLMS00149
Trigger mode: 0
Integration Time (sec): 2.000000E-2
Scans to average: 10
Electric dark correction enabled: true
Nonlinearity correction enabled: false
Boxcar width: 0
XAxis mode: Wavelengths
Number of Pixels in Spectrum: 2048
>>>>>Begin Spectral Data<<<<<
341.393	-20.58
341.776	-20.58
342.16	-20.58
342.543	-72.55
342.927	-54.48
343.31	-82.5
343.693	-70.52
344.077	-57.19
344.46	-64.87
344.843	-56.74
345.226	-36.17
345.61	-46.79
345.993	-22.39
346.376	0.89
346.759	28.01
347.142	27.56
347.525	66.42
347.908	51.06
348.291	69.36
348.674	79.76
349.057	114.11
349.44	112.3
349.823	162.47
350.206	149.13
350.588	205.86
350.971	210.15
351.354	235.01
351.737	230.26
352.119	229.81
352.502	276.14
352.884	264.84
353.267	279.53
353.65	316.14
354.032	305.51
354.414	309.58
354.797	317.72
355.179	314.33
355.562	326.98
355.944	333.08
356.326	338.06
356.709	341.9
357.091	360.88
357.473	338.73
357.855	354.78
358.238	360.65
358.62	362.24
359.002	357.49
359.384	354.1
359.766	350.26
360.148	341.67
360.53	384.38
360.912	337.15
361.294	358.17
361.676	356.13
362.057	350.49
362.439	334.44
362.821	332.86
363.203	355.91
363.584	345.51
363.966	330.15
364.348	316.36
364.729	333.76
365.111	330.82
365.493	336.02
365.874	316.14
366.256	340.09
366.637	343.71
367.019	330.37
367.4	314.1
367.781	332.86
368.163	330.15
368.544	335.8
368.925	330.82
369.306	342.58
369.688	328.79
370.069	329.24
370.45	329.24
370.831	340.09
371.212	332.41
371.593	331.28
371.974	326.08
372.355	357.04
372.736	338.28
373.117	318.17
373.498	338.28
373.879	360.88
374.26	347.1
374.641	339.64
375.021	342.58
375.402	359.98
375.783	359.07
376.163	344.84
376.544	355.91
376.925	360.65
377.305	344.61
377.686	345.97
378.066	335.12
378.447	364.5
378.827	356.81
379.208	361.56
379.588	349.36
379.968	363.59
380.349	358.39
380.729	355
381.109	369.02
381.489	374.44
381.87	373.54
382.25	381.9
382.63	380.99
383.01	388.68
383.39	384.38
383.77	387.09
384.15	380.99
384.53	378.73
384.91	396.81
385.29	415.57
385.67	407.88
386.049	397.26
386.429	381.22
386.809	423.03
387.189	427.55
387.568	416.47
387.948	403.82
388.328	404.95
388.707	443.36
389.087	419.18
389.466	423.48
389.846	424.16
390.225	451.5
390.605	431.84
390.984	463.93
391.363	425.51
391.743	437.71
392.122	441.78
392.501	464.61
392.881	480.65
393.26	486.07
393.639	487.43
394.018	465.74
394.397	492.18
394.776	498.5
395.155	493.76
395.534	491.72
395.913	501.67
396.292	507.32
396.671	507.09
397.05	530.37
397.429	535.11
397.808	545.51
398.186	532.63
398.565	526.75
398.944	549.8
399.323	561.33
399.701	559.75
400.08	585.73
400.458	568.11
400.837	592.29
401.215	616.92
401.594	602
401.972	604.49
402.351	603.36
402.729	646.07
403.107	658.27
403.486	651.27
403.864	656.69
404.242	641.32
404.62	673.87
404.999	681.55
405.377	703.02
405.755	703.92
406.133	714.09
406.511	728.1
406.889	733.75
407.267	758.61
407.645	779.85
408.023	771.49
408.401	797.03
408.779	805.84
409.156	846.52
409.534	833.41
409.912	860.08
410.29	888.55
410.667	909.34
411.045	922.67
411.422	901.66
411.8	948.66
412.178	951.6
412.555	989.11
412.933	992.95
413.31	1014.65
413.687	1027.98
414.065	1018.94
414.442	1031.37
414.819	1067.3
415.197	1087.87
415.574	1115.21
415.951	1120.63
416.328	1127.41
416.705	1143.01
417.082	1168.54
417.46	1185.49
417.837	1215.55
418.214	1197.24
418.591	1246.05
418.967	1256
419.344	1259.84
419.721	1250.12
420.098	1290.35
420.475	1308.88
420.852	1302.32
421.228	1334.64
421.605	1342.1
421.982	1358.59
422.358	1411.7
422.735	1400.18
423.111	1411.93
423.488	1418.48
423.864	1448.76
424.241	1452.6
424.617	1453.28
424.994	1495.31
425.37	1524.47
425.746	1518.82
426.123	1550.91
426.499	1515.2
426.875	1600.85
427.251	1595.2
427.627	1641.3
428.003	1661.41
428.379	1642.88
428.756	1681.52
429.132	1720.84
429.507	1752.26
429.883	1741.63
430.259	1794.06
430.635	1795.42
431.011	1830.22
431.387	1888.3
431.763	1904.12
432.138	1898.47
432.514	1927.17
432.89	1949.77
433.265	1991.35
433.641	2025.24
434.016	2031.57
434.392	2063.21
434.767	2136.2
435.143	2114.51
435.518	2144.11
435.894	2142.3
436.269	2197.89
436.644	2249.19
437.02	2254.84
437.395	2281.28
437.77	2297.78
438.145	2318.57
438.52	2347.04
438.895	2368.06
439.271	2355.63
439.646	2405.12
440.021	2461.16
440.395	2452.8
440.77	2449.19
441.145	2498.45
441.52	2528.51
441.895	2566.25
442.27	2586.13
442.645	2534.16
443.019	2576.87
443.394	2632.01
443.769	2611.44
444.143	2612.12
444.518	2670.42
444.892	2720.14
445.267	2709.07
445.641	2698.9
446.016	2750.42
446.39	2800.82
446.764	2796.07
447.139	2769.4
447.513	2845.56
447.887	2823.64
448.262	2855.5
448.636	2903.86
449.01	2890.53
449.384	2948.83
449.758	2946.58
450.132	2991.09
450.506	3029.06
450.88	3058.21
451.254	3026.57
451.628	3061.83
452.002	3182.73
452.376	3134.37
452.75	3178.66
453.123	3203.74
453.497	3227.25
453.871	3292.55
454.244	3331.88
454.618	3379.78
454.992	3422.27
455.365	3420.01
455.739	3531.64
456.112	3518.99
456.486	3511.08
456.859	3607.12
457.232	3668.59
457.606	3713.56
457.979	3704.52
458.352	3752.88
458.725	3838.3
459.099	3820
459.472	3935.48
459.845	3940.9
460.218	3976.6
460.591	4037.17
460.964	4114.91
461.337	4161.46
461.71	4253.66
462.083	4270.61
462.456	4303.38
462.829	4311.51
463.201	4387.22
463.574	4370.94
463.947	4523.71
464.32	4559.41
464.692	4648.68
465.065	4638.96
465.438	4695
465.81	4846.41
466.183	4843.02
466.555	4941.1
466.928	4981.55
467.3	4982.68
467.672	5063.81
468.045	5198.49
468.417	5228.1
468.789	5238.27
469.161	5291.6
469.534	5386.06
469.906	5522.55
470.278	5536.79
470.65	5598.93
471.022	5739.95
471.394	5807.29
471.766	5912.82
472.138	5934.97
472.51	6086.61
472.882	6202.08
473.253	6224.45
473.625	6325.7
473.997	6496.76
474.369	6514.84
474.74	6588.51
475.112	6683.65
475.484	6830.99
475.855	6949.18
476.227	7037.54
476.598	7244.09
476.97	7213.36
477.341	7449.73
477.713	7488.38
478.084	7549.62
478.455	7825.09
478.827	7825.77
479.198	8071.64
479.569	8101.24
479.94	8329.94
480.311	8369.26
480.682	8627.1
481.053	8791.62
481.424	8920.2
481.795	8963.82
482.166	9126.98
482.537	9264.15
482.908	9446.29
483.279	9549.79
483.65	9713.4
484.021	9870.91
484.391	10029.55
484.762	10208.08
485.133	10256.21
485.503	10325.59
485.874	10634.06
486.244	10677.22
486.615	10904.33
486.985	10970.77
487.356	11229.07
487.726	11341.61
488.097	11521.26
488.467	11520.81
488.837	11822.27
489.207	12038.31
489.578	12155.15
489.948	12282.15
490.318	12468.36
490.688	12542.03
491.058	12669.26
491.428	12959.87
491.798	12994.9
492.168	13217.04
492.538	13255.91
492.908	13413.19
493.278	13650.47
493.648	13556.24
494.017	13838.94
494.387	13971.37
494.757	14084.36
495.126	14245.04
495.496	14209.33
495.866	14444.13
496.235	14593.95
496.605	14653.39
496.974	14784.46
497.344	14904.45
497.713	15053.83
498.082	15220.15
498.452	15315.52
498.821	15366.81
499.19	15501.73
499.559	15660.82
499.928	15809.74
500.298	15839.57
500.667	15986.91
501.036	16054.93
501.405	16220.58
501.774	16193.23
502.143	16456.5
502.512	16426.67
502.88	16681.81
503.249	16731.52
503.618	16778.53
503.987	16870.5
504.356	17065.3
504.724	17174.9
505.093	17204.51
505.462	17334.67
505.83	17414.22
506.199	17613.08
506.567	17764.26
506.936	17766.98
507.304	18009.46
507.672	18083.13
508.041	18140.07
508.409	18309.33
508.777	18512.27
509.145	18613.06
509.514	18646.73
509.882	18819.6
510.25	18945.25
510.618	19113.61
510.986	19242.87
511.354	19332.58
511.722	19447.38
512.09	19621.84
512.458	19698.68
512.826	19808.73
513.193	19976.86
513.561	20049.18
513.929	20190.87
514.297	20408.94
514.664	20590.86
515.032	20659.56
515.4	20859.55
515.767	20977.74
516.135	21095.7
516.502	20969.15
516.869	21455.47
517.237	21476.26
517.604	21492.53
517.972	21825.4
518.339	21902.23
518.706	21943.82
519.073	22118.05
519.44	22232.17
519.808	22577.7
520.175	22549.68
520.542	22845.03
520.909	22929.33
521.276	23031.47
521.643	23308.98
522.009	23509.65
522.376	23587.61
522.743	23773.15
523.11	23961.84
523.477	24186.02
523.843	24360.93
524.21	24730.64
524.577	24766.57
524.943	24887.47
525.31	25057.86
525.676	25484.06
526.043	25477.06
526.409	25577.84
526.776	25889.25
527.142	26032.97
527.508	26171.95
527.874	26324.49
528.241	26451.72
528.607	26507.31
528.973	26879.28
529.339	26805.61
529.705	27077.47
530.071	27359.27
530.437	27506.38
530.803	27507.06
531.169	27820.05
531.535	27808.07
531.901	27897.78
532.267	28119.47
532.632	28212.35
532.998	28387.04
533.364	28560.14
533.73	28591.55
534.095	28866.35
534.461	28841.04
534.826	29056.62
535.192	29249.84
535.557	29397.4
535.923	29442.83
536.288	29526.22
536.653	29632.65
537.019	29627
537.384	29741.58
537.749	29971.4
538.114	30056.6
538.479	30217.72
538.845	30328.45
539.21	30350.15
539.575	30543.59
539.94	30691.83
540.305	30670.59
540.67	30708.56
541.034	30923.69
541.399	30966.4
541.764	31080.3
542.129	31324.13
542.494	31284.81
542.858	31393.96
543.223	31445.71
543.587	31756.89
543.952	31684.35
544.316	31806.83
544.681	31774.74
545.045	31951.91
545.41	32231.23
545.774	32324.33
546.138	32252.02
546.503	32331.57
546.867	32474.16
547.231	32608.62
547.595	32757.99
547.959	32950.08
548.324	32803.64
548.688	32943.75
549.052	33107.82
549.416	33284.31
549.779	33350.75
550.143	33376.74
550.507	33615.6
550.871	33667.35
551.235	33701.7
551.599	33977.17
551.962	34011.97
552.326	34143.72
552.689	34341
553.053	34275.24
553.417	34407.22
553.78	34701.45
554.143	34702.8
554.507	34891.72
554.87	35038.84
555.234	35346.85
555.597	35146.86
555.96	35318.83
556.323	35605.6
556.686	35437.7
557.05	35745.03
557.413	35920.62
557.776	35922.43
558.139	36292.82
558.502	36338.01
558.865	36397.9
559.228	36679.7
559.59	36818.9
559.953	36973.25
560.316	37311.55
560.679	37364.88
561.041	37668.37
561.404	37601.71
561.767	37805.77
562.129	37645.55
562.492	38143.62
562.854	38180
563.217	38192.88
563.579	38505.87
563.941	38659.08
564.304	38771.62
564.666	38988.57
565.028	39134.32
565.39	38965.29
565.753	39403.47
566.115	39559.62
566.477	39790.35
566.839	39763.46
567.201	39947.41
567.563	40162.09
567.925	40298.14
568.287	40426.04
568.648	40444.57
569.01	40761.85
569.372	40923.66
569.734	40795.07
570.095	41110.54
570.457	41160.49
570.819	41427.15
571.18	41325.45
571.542	41625.33
571.903	41674.82
572.265	41810.19
572.626	41973.12
572.987	42019.45
573.349	42189.39
573.71	42203.17
574.071	42472.54
574.432	42447.01
574.794	42667.56
575.155	42699.88
575.516	42691.52
575.877	42773.1
576.238	42971.51
576.599	42978.29
576.96	43072.3
577.32	43046.99
577.681	43178.29
578.042	43364.95
578.403	43305.06
578.763	43271.39
579.124	43411.05
579.485	43538.5
579.845	43650.82
580.206	43554.32
580.566	43578.73
580.927	43704.37
581.287	43867.76
581.648	43536.92
582.008	43933.07
582.368	43808.1
582.728	43904.14
583.089	43838.38
583.449	43729.46
583.809	43836.35
584.169	43958.6
584.529	43677.26
584.889	44276.79
585.249	43763.81
585.609	43741.89
585.969	44127.41
586.329	43858.27
586.688	43982.11
587.048	43924.25
587.408	43995.44
587.768	44002.22
588.127	44034.99
588.487	43856.01
588.846	44183.91
589.206	43923.58
589.565	43874.76
589.925	44071.6
590.284	44093.29
590.643	44016.23
591.003	44014.87
591.362	44104.59
591.721	44223.91
592.08	44088.32
592.44	44343.45
592.799	44189.78
593.158	44129.9
593.517	44113.18
593.876	44281.99
594.235	44155.21
594.593	44261.19
594.952	44168.09
595.311	44144.14
595.67	44161.76
596.029	44372.15
596.387	44352.94
596.746	44515.88
597.104	44225.04
597.463	44311.82
597.822	44354.75
598.18	44283.34
598.538	44180.07
598.897	44590.68
599.255	44230.69
599.613	44766.04
599.972	44495.31
600.33	44641.75
600.688	44456.9
601.046	44563.33
601.404	44888.98
601.762	44651.92
602.12	44808.75
602.478	44801.29
602.836	44788.86
603.194	44615.08
603.552	44670.9
603.91	44625.03
604.268	44827.73
604.625	44766.49
604.983	44976.66
605.341	44732.37
605.698	44928.75
606.056	45130.1
606.413	45031.34
606.771	45163.09
607.128	45132.58
607.485	45050.33
607.843	45080.38
608.2	45389.75
608.557	45517.43
608.914	45301.17
609.272	45469.52
609.629	45556.53
609.986	45576.19
610.343	45455.97
610.7	45813.92
611.057	45633.36
611.414	45728.73
611.771	45616.64
612.127	45750.42
612.484	45843.07
612.841	45762.4
613.198	45693.7
613.554	45770.99
613.911	46025.22
614.267	46025.22
614.624	45907.71
614.98	45963.75
615.337	46070.64
615.693	46088.27
616.05	46111.77
616.406	46338.88
616.762	46083.07
617.118	46265.66
617.475	46135.04
617.831	46313.12
618.187	46398.77
618.543	46387.24
618.899	46648.48
619.255	46554.92
619.611	46378.65
619.967	46537.97
620.323	46607.57
620.678	46544.52
621.034	46315.38
621.39	46352.89
621.746	46424.3
622.101	46808.92
622.457	46526.45
622.812	46608.48
623.168	46654.8
623.523	46579.78
623.879	46576.61
624.234	46413.45
624.589	46547.24
624.945	46557.63
625.3	46624.75
625.655	46580.91
626.01	46595.14
626.365	46618.87
626.72	46416.39
627.075	46534.58
627.43	46518.99
627.785	46379.56
628.14	46515.15
628.495	46439.44
628.85	46492.55
629.205	46343.85
629.559	46580.91
629.914	46196.29
630.269	46299.79
630.623	46275.61
630.978	46156.51
631.332	46319.67
631.687	46398.99
632.041	46126.23
632.396	46099.11
632.75	46073.8
633.104	46102.95
633.459	46036.06
633.813	45811.21
634.167	45851.89
634.521	45805.34
634.875	45935.05
635.229	45938.21
635.583	45699.35
635.937	45672.46
636.291	45615.96
636.645	45675.62
636.999	45490.32
637.352	45521.05
637.706	45251.45
638.06	45453.03
638.413	45380.71
638.767	45228.18
639.121	45257.55
639.474	45051.91
639.828	45005.36
640.181	45115.64
640.534	45125.35
640.888	44939.6
641.241	44825.7
641.594	44886.94
641.947	44982.53
642.301	44939.14
642.654	44950.22
643.007	44802.42
643.36	44724.91
643.713	44589.1
644.066	44772.14
644.419	44584.8
644.771	44290.35
645.124	43914.31
645.477	43908.66
645.83	43512.74
646.182	43398.84
646.535	43250.6
646.888	43399.3
647.24	43203.14
647.593	43230.04
647.945	43207.44
648.298	42973.55
648.65	42931.06
649.002	42834.34
649.355	43028.23
649.707	42972.87
650.059	42950.27
650.411	43534.21
650.763	43528.56
651.115	43856.01
651.467	43691.94
651.819	43721.32
652.171	43503.02
652.523	43408.56
652.875	43447.88
653.227	43318.17
653.578	43525.85
653.93	43306.64
654.282	43134.67
654.633	43152.75
654.985	43124.28
655.337	43190.49
655.688	43306.19
656.039	43424.38
656.391	42974.9
656.742	43081.11
657.094	43033.43
657.445	43202.69
657.796	43094.22
658.147	43019.19
658.498	43014.67
658.849	42929.03
659.2	42919.54
659.551	42840.22
659.902	42960.21
660.253	42772.19
660.604	43017.16
660.955	42699.43
661.306	42897.61
661.656	42700.11
662.007	42846.77
662.358	42711.41
662.708	42669.37
663.059	42744.4
663.409	42440.68
663.76	42778.07
664.11	42646.1
664.461	42718.86
664.811	42622.59
665.161	42668.69
665.511	42633.89
665.862	42498.98
666.212	42674.57
666.562	42666.66
666.912	42578.98
667.262	42434.12
667.612	42436.84
667.962	42477.51
668.312	42364.3
668.662	42422.83
669.011	42342.6
669.361	42369.72
669.711	42271.87
670.06	42208.59
670.41	42364.97
670.76	42219.67
671.109	42298.53
671.459	42240.91
671.808	42088.6
672.157	42182.61
672.507	41875.95
672.856	41992.55
673.205	41979.45
673.554	42002.72
673.904	41786.01
674.253	42019.9
674.602	41945.55
674.951	41394.6
675.3	41192.35
675.649	41696.74
675.998	41624.88
676.346	41607.03
676.695	42009.5
677.044	41480.48
677.393	41585.33
677.741	41664.2
678.09	41603.64
678.438	41457.65
678.787	41585.33
679.135	41499.23
679.484	41207.94
679.832	41392.57
680.181	41092.46
680.529	41155.74
680.877	41086.59
681.225	41128.62
681.573	41292.01
681.922	40964.56
682.27	40826.71
682.618	40930.89
682.966	40744.68
683.314	40930.66
683.661	40649.09
684.009	40575.42
684.357	40468.98
684.705	40452.03
685.053	40379.04
685.4	40435.98
685.748	40188.08
686.095	40141.08
686.443	40092.27
686.79	39984.92
687.138	39977.47
687.485	40138.37
687.832	39937.92
688.18	39883.91
688.527	39664.03
688.874	39539.29
689.221	39456.35
689.568	39304.72
689.915	39341.78
690.262	39384.26
690.609	39220.42
690.956	39156.47
691.303	39113.31
691.65	38770.72
691.997	39008
692.344	38576.6
692.69	38659.53
693.037	38524.62
693.383	38276.04
693.73	38496.37
694.077	38086.89
694.423	38176.38
694.769	38000.34
695.116	37930.29
695.462	38012.09
695.808	37771.65
696.155	37752.89
696.501	37444.43
696.847	37577.75
697.193	37269.06
697.539	37508.15
697.885	37165.79
698.231	37004.89
698.577	37081.5
698.923	36926.25
699.269	36833.82
699.614	36567.39
699.96	36571.45
700.306	36490.33
700.651	36336.43
700.997	36193.84
701.342	36135.98
701.688	36130.79
702.033	35906.61
702.379	35868.2
702.724	35903.45
703.069	35957.23
703.415	35526.28
703.76	35434.31
704.105	35466.62
704.45	35416
704.795	35227.76
705.14	35068.89
705.485	35241.77
705.83	34910.48
706.175	34970.37
706.52	34871.84
706.865	34826.87
707.209	34676.81
707.554	34644.5
707.899	34645.4
708.243	34409.48
708.588	34499.64
708.932	34131.07
709.277	34051.07
709.621	34212.65
709.966	33949.15
710.31	33936.27
710.654	33613.11
710.998	33893.56
711.342	33845.42
711.687	33603.85
712.031	33506
712.375	33389.39
712.719	33457.64
713.063	33342.16
713.407	33299
713.75	33222.16
714.094	33098.1
714.438	33034.6
714.782	32993.24
715.125	32933.36
715.469	32961.15
715.812	32749.18
716.156	32540.83
716.499	32612.01
716.843	32619.24
717.186	32458.34
717.53	32641.16
717.873	32438.45
718.216	32424.22
718.559	32353.49
718.902	32097.22
719.246	32175.19
719.589	31961.86
719.932	31894.29
720.275	31965.02
720.617	31885.48
720.96	31796.66
721.303	31870.79
721.646	31904.23
721.989	31560.29
722.331	31690.23
722.674	31509.89
723.016	31474.64
723.359	31503.34
723.701	31481.42
724.044	31313.74
724.386	31098.15
724.729	31313.29
725.071	31154.19
725.413	31014.76
725.755	31156
726.097	30992.39
726.439	30821.77
726.782	30789.68
727.124	30886.18
727.465	30690.25
727.807	30584.49
728.149	30637.82
728.491	30488.68
728.833	30549.01
729.175	30359.19
729.516	30447.55
729.858	30283.71
730.199	30439.19
730.541	30335.23
730.882	30229.02
731.224	30286.2
731.565	29991.51
731.906	30036.03
732.248	30044.39
732.589	29893.44
732.93	29719.2
733.271	29822.03
733.612	29885.75
733.953	29801.69
734.294	29640.11
734.635	29714.91
734.976	29715.81
735.317	29634.91
735.658	29419.1
735.999	29485.31
736.339	29395.6
736.68	29575.93
737.021	29348.82
737.361	29185.66
737.702	29433.34
738.042	29277.18
738.383	29150.41
738.723	29180.01
739.063	29063.4
739.404	28923.07
739.744	28898.21
740.084	28813.24
740.424	28987.7
740.764	28754.03
741.104	28897.76
741.444	28755.16
741.784	28714.03
742.124	28555.17
742.464	28443.08
742.804	28526.92
743.143	28450.54
743.483	28463.87
743.823	28215.97
744.162	28283.54
744.502	28173.71
744.841	28160.38
745.181	28343.42
745.52	27971.91
745.86	28168.74
746.199	28135.52
746.538	27987.05
746.877	28076.54
747.216	28023.43
747.556	27887.84
747.895	27894.85
748.234	27832.02
748.573	27664.34
748.911	27657.79
749.25	27598.13
749.589	27414.86
749.928	27485.59
750.267	27516.1
750.605	27349.1
750.944	27325.82
751.283	27189.78
751.621	27261.87
751.96	27112.95
752.298	26980.97
752.636	27180.51
752.975	26875.44
753.313	26865.49
753.651	27000.41
