Data from breadboard_white_FLMS001491_00006.txt Node
Date: Wed Feb 08 10:47:09 GMT 2017
User: dcchb
Spectrometer: FLMS00149
Trigger mode: 0
Integration Time (sec): 2.000000E-2
Scans to average: 10
Electric dark correction enabled: true
Nonlinearity correction enabled: false
Boxcar width: 0
XAxis mode: Wavelengths
Number of Pixels in Spectrum: 2048
>>>>>Begin Spectral Data<<<<<
341.393	-9.41
341.776	-9.41
342.16	-9.41
342.543	-77.65
342.927	-79.24
343.31	-56.64
343.693	-74.49
344.077	-67.71
344.46	-65.22
344.843	-47.37
345.226	-55.51
345.61	-42.85
345.993	-43.08
346.376	13.42
346.759	13.19
347.142	36.92
347.525	43.02
347.908	65.85
348.291	85.51
348.674	85.28
349.057	109.69
349.44	124.83
349.823	147.65
350.206	172.51
350.588	219.06
350.971	228.1
351.354	259.29
351.737	274.88
352.119	285.95
352.502	269.91
352.884	296.35
353.267	316.23
353.65	313.07
354.032	296.57
354.414	310.13
354.797	342.22
355.179	346.06
355.562	362.34
355.944	359.4
356.326	338.61
356.709	375.22
357.091	358.49
357.473	349.68
357.855	354.2
358.238	356.46
358.62	357.36
359.002	365.72
359.384	360.98
359.766	364.59
360.148	378.38
360.53	359.62
360.912	346.74
361.294	351.71
361.676	360.98
362.057	363.01
362.439	365.27
362.821	371.15
363.203	359.85
363.584	326.86
363.966	367.98
364.348	349.68
364.729	361.21
365.111	343.13
365.493	369.11
365.874	345.39
366.256	345.39
366.637	352.62
367.019	363.24
367.4	306.07
367.781	339.74
368.163	349.68
368.544	339.74
368.925	358.27
369.306	343.13
369.688	367.31
370.069	357.36
370.45	355.56
370.831	344.26
371.212	364.82
371.593	332.96
371.974	351.94
372.355	338.38
372.736	351.26
373.117	358.72
373.498	367.31
373.879	364.14
374.26	337.48
374.641	341.09
375.021	388.32
375.402	367.53
375.783	369.11
376.163	378.83
376.544	384.48
376.925	388.32
377.305	379.96
377.686	357.59
378.066	381.77
378.447	380.87
378.827	364.37
379.208	380.41
379.588	387.42
379.968	398.94
380.349	372.73
380.729	389.68
381.109	399.62
381.489	381.32
381.87	414.31
382.25	416.34
382.63	418.38
383.01	418.83
383.39	421.77
383.77	406.4
384.15	400.75
384.53	425.16
384.91	422.67
385.29	424.48
385.67	439.4
386.049	452.95
386.429	440.75
386.809	433.29
387.189	436.01
387.568	445.5
387.948	450.69
388.328	454.76
388.707	453.63
389.087	459.96
389.466	477.36
389.846	477.59
390.225	475.55
390.605	479.39
390.984	489.34
391.363	486.63
391.743	483.91
392.122	506.74
392.501	514.2
392.881	507.64
393.26	533.63
393.639	528.88
394.018	538.83
394.397	536.79
394.776	550.35
395.155	537.02
395.534	570.92
395.913	578.15
396.292	565.49
396.671	579.96
397.05	600.52
397.429	600.29
397.808	597.81
398.186	589.67
398.565	626.06
398.944	630.12
399.323	628.99
399.701	644.59
400.08	637.13
400.458	668.54
400.837	667.86
401.215	687.52
401.594	678.03
401.972	698.37
402.351	728.43
402.729	749.22
403.107	774.3
403.486	745.6
403.864	758.03
404.242	764.36
404.62	791.25
404.999	818.37
405.377	817.24
405.755	819.72
406.133	828.99
406.511	831.93
406.889	895.65
407.267	897.24
407.645	929.1
408.023	924.58
408.401	948.31
408.779	965.48
409.156	988.99
409.534	1009.78
409.912	1008.19
410.29	1064.46
410.667	1077.12
411.045	1111.92
411.422	1086.38
411.8	1125.25
412.178	1159.83
412.555	1167.29
412.933	1223.78
413.31	1241.63
413.687	1232.82
414.065	1256.32
414.442	1280.96
414.819	1325.25
415.197	1324.12
415.574	1365.7
415.951	1374.29
416.328	1404.12
416.705	1405.02
417.082	1394.85
417.46	1441.4
417.837	1445.24
418.214	1487.5
418.591	1475.98
418.967	1520.27
419.344	1564.34
419.721	1560.72
420.098	1575.18
420.475	1603.88
420.852	1591.23
421.228	1677.1
421.605	1668.52
421.982	1698.35
422.358	1713.26
422.735	1747.16
423.111	1731.11
423.488	1769.3
423.864	1788.96
424.241	1805.24
424.617	1835.29
424.994	1863.76
425.37	1887.49
425.746	1881.17
426.123	1891.33
426.499	1926.59
426.875	1977.89
427.251	2006.13
427.627	2043.19
428.003	2086.36
428.379	2075.51
428.756	2096.75
429.132	2156.86
429.507	2151.44
429.883	2199.12
430.259	2234.83
430.635	2272.79
431.011	2278.22
431.387	2362.06
431.763	2374.94
432.138	2401.83
432.514	2435.5
432.89	2440.92
433.265	2515.27
433.641	2557.53
434.016	2563.18
434.392	2634.37
434.767	2665.33
435.143	2633.91
435.518	2687.25
435.894	2710.75
436.269	2760.46
436.644	2821.71
437.02	2837.98
437.395	2817.86
437.77	2891.53
438.145	2919.78
438.52	2945.09
438.895	3008.82
439.271	2998.65
439.646	3081.13
440.021	3123.39
440.395	3122.26
440.77	3093.34
441.145	3123.84
441.52	3187.12
441.895	3150.06
442.27	3206.78
442.645	3241.13
443.019	3279.09
443.394	3296.72
443.769	3343.95
444.143	3306.66
444.518	3383.27
444.892	3343.27
445.267	3397.51
445.641	3428.02
446.016	3439.54
446.39	3461.46
446.764	3503.27
447.139	3483.83
447.513	3572.42
447.887	3573.55
448.262	3596.83
448.636	3591.85
449.01	3649.93
449.384	3709.14
449.758	3704.39
450.132	3806.09
450.506	3766.77
450.88	3838.18
451.254	3809.7
451.628	3903.03
452.002	3957.95
452.376	3967.66
452.75	4028.45
453.123	4029.81
453.497	4086.53
453.871	4137.15
454.244	4224.38
454.618	4259.41
454.992	4300.08
455.365	4304.83
455.739	4419.86
456.112	4443.81
456.486	4497.82
456.859	4562
457.232	4646.06
457.606	4597.48
457.979	4695.33
458.352	4785.04
458.725	4858.71
459.099	4886.51
459.472	4967.41
459.845	5030.91
460.218	5062.78
460.591	5104.58
460.964	5184.13
461.337	5281.53
461.71	5324.01
462.083	5462.99
462.456	5482.43
462.829	5467.06
463.201	5552.48
463.574	5579.37
463.947	5657.11
464.32	5832.93
464.692	5875.41
465.065	5898.69
465.438	5947.05
465.81	6035.63
466.183	6105.01
466.555	6209.64
466.928	6289.86
467.3	6327.38
467.672	6332.57
468.045	6542.06
468.417	6631.1
468.789	6652.11
469.161	6755.84
469.534	6896.85
469.906	7010.97
470.278	7019.79
470.65	7114.93
471.022	7305.66
471.394	7422.94
471.766	7480.57
472.138	7549.26
472.51	7727.79
472.882	7884.4
473.253	7938.41
473.625	8076.26
473.997	8179.3
474.369	8257.49
474.74	8322.35
475.112	8521.89
475.484	8717.82
475.855	8852.96
476.227	8875.11
476.598	9219.05
476.97	9258.37
477.341	9454.53
477.713	9578.82
478.084	9653.39
478.455	9983.33
478.827	10009.77
479.198	10259.02
479.569	10303.77
479.94	10518.45
480.311	10681.61
480.682	10969.74
481.053	11149.62
481.424	11309.39
481.795	11518.2
482.166	11660.8
482.537	11814.24
482.908	12093.33
483.279	12164.96
483.65	12418.74
484.021	12597.49
484.391	12754.55
484.762	12922.91
485.133	13047.65
485.503	13238.38
485.874	13467.98
486.244	13663.23
486.615	13865.71
486.985	14140.73
487.356	14268.41
487.726	14372.36
488.097	14773.03
488.467	14707.72
488.837	15081.27
489.207	15291.43
489.578	15459.79
489.948	15581.6
490.318	15777.07
490.688	15904.98
491.058	16102.26
491.428	16316.49
491.798	16492.31
492.168	16937.94
492.538	16963.71
492.908	17190.14
493.278	17371.15
493.648	17378.16
494.017	17601.66
494.387	17790.58
494.757	17867.86
495.126	18106.73
495.496	18226.72
495.866	18336.55
496.235	18576.09
496.605	18732.02
496.974	18845.69
497.344	19065.57
497.713	19159.13
498.082	19252.23
498.452	19474.37
498.821	19544.2
499.19	19711.43
499.559	19899.67
499.928	19975.6
500.298	20157.52
500.667	20344.63
501.036	20249.27
501.405	20527
501.774	20590.96
502.143	20740.33
502.512	20768.58
502.88	21080.66
503.249	21041.34
503.618	21312.29
503.987	21467.77
504.356	21524.49
504.724	21761.55
505.093	21735.56
505.462	21918.83
505.83	22126.28
506.199	22178.94
506.567	22493.5
506.936	22575.08
507.304	22752.71
507.672	22995.86
508.041	22888.07
508.409	23228.63
508.777	23331.9
509.145	23540.26
509.514	23539.35
509.882	23829.29
510.25	23792
510.618	24060.92
510.986	24117.42
511.354	24362.61
511.722	24601.7
512.09	24796.27
512.458	24753.11
512.826	24931.63
513.193	25251.85
513.561	25326.42
513.929	25425.63
514.297	25736.13
514.664	25870.14
515.032	26012.73
515.4	26258.38
515.767	26350.13
516.135	26487.52
516.502	26434.87
516.869	26903.33
517.237	26989.43
517.604	27056.1
517.972	27350.78
518.339	27568.85
518.706	27554.39
519.073	27767.04
519.44	27984.89
519.808	28313.92
520.175	28305.56
520.542	28682.95
520.909	28890.85
521.276	28960.91
521.643	29100.79
522.009	29410.16
522.376	29683.37
522.743	29784.84
523.11	30117.48
523.477	30409.68
523.843	30569.45
524.21	30872.04
524.577	31016.67
524.943	31336.44
525.31	31360.62
525.676	31711.34
526.043	31877.44
526.409	31972.35
526.776	32363.98
527.142	32458.21
527.508	32737.76
527.874	32957.86
528.241	32964.19
528.607	33172.55
528.973	33452.31
529.339	33508.13
529.705	33759.65
530.071	34209.13
530.437	34233.76
530.803	34400.08
531.169	34650.7
531.535	34772.73
531.901	34800.75
532.267	34988.54
532.632	35186.73
532.998	35346.27
533.364	35570.45
533.73	35638.24
534.095	36017.44
534.461	35952.13
534.826	36152.58
535.192	36272.8
535.557	36542.85
535.923	36654.71
536.288	36771.55
536.653	36841.83
537.019	36849.06
537.384	37083.86
537.749	37301.48
538.114	37301.25
538.479	37463.96
538.845	37602.03
539.21	37533.34
539.575	37781.69
539.94	37796.15
540.305	38311.85
540.67	38072.53
541.034	38284.5
541.399	38325.86
541.764	38619.86
542.129	38667.32
542.494	38659.86
542.858	38895.56
543.223	38983.24
543.587	39215.1
543.952	39190.24
544.316	39330.12
544.681	39382.55
545.045	39674.75
545.41	39713.62
545.774	39891.69
546.138	39861.64
546.503	39975.76
546.867	39991.12
547.231	40446.03
547.595	40348.63
547.959	40562.63
548.324	40648.06
548.688	40723.08
549.052	40931.89
549.416	40844.43
549.779	41048.27
550.143	41206.46
550.507	41516.06
550.871	41591.99
551.235	41587.47
551.599	41831.75
551.962	41954.91
552.326	41891.86
552.689	42179.77
553.053	42089.15
553.417	42283.27
553.78	42801.67
554.143	42692.75
554.507	42808.68
554.87	42976.81
555.234	43543.12
555.597	43221.77
555.96	43312.84
556.323	43611.82
556.686	43754.41
557.05	43983.34
557.413	44069.89
557.776	44117.34
558.139	44360.05
558.502	44582.19
558.865	44609.76
559.228	44855.63
559.59	45042.97
559.953	44962.29
560.316	45481.83
560.679	45450.42
561.041	45782.16
561.404	45880.23
561.767	46163.62
562.129	46041.36
562.492	46469.37
562.854	46349.15
563.217	46402.93
563.579	46627.79
563.941	47004.5
564.304	47099.19
564.666	47399.97
565.028	47385.96
565.39	47558.16
565.753	47825.49
566.115	47840.18
566.477	47999.73
566.839	48128.99
567.201	48419.6
567.563	48411.92
567.925	48719.03
568.287	48708.41
568.648	48769.88
569.01	48941.4
569.372	49034.28
569.734	49121.28
570.095	49414.83
570.457	49537.31
570.819	49554.04
571.18	49528.95
571.542	49914.25
571.903	49807.81
572.265	50013.23
572.626	50115.38
572.987	50154.47
573.349	50271.31
573.71	50304.75
574.071	50472.2
574.432	50498.42
574.794	50782.48
575.155	50638.08
575.516	50658.87
575.877	50818.18
576.238	50869.03
576.599	50920.1
576.96	51007.78
577.32	51034
577.681	51227.21
578.042	51280.54
578.403	51194.44
578.763	51275.57
579.124	51312.18
579.485	51532.97
579.845	51507.88
580.206	51336.14
580.566	51529.35
580.927	51481.44
581.287	51599.86
581.648	51495
582.008	51682.57
582.368	51627.2
582.728	51697.48
583.089	51593.98
583.449	51571.84
583.809	51583.14
584.169	51677.6
584.529	51650.93
584.889	51951.71
585.249	51802.79
585.609	51568.45
585.969	51833.3
586.329	51678.05
586.688	51788.78
587.048	51751.27
587.408	51577.71
587.768	51670.82
588.127	51653.64
588.487	51562.8
588.846	51819.74
589.206	51716.69
589.565	51736.8
589.925	51853.86
590.284	51770.93
590.643	51759.4
591.003	51727.76
591.362	51906.97
591.721	51819.06
592.08	51825.84
592.44	51912.62
592.799	51837.82
593.158	51793.3
593.517	51844.15
593.876	51927.08
594.235	51904.93
594.593	51786.75
594.952	51909.23
595.311	51770.7
595.67	51889.12
596.029	52001.2
596.387	52047.3
596.746	52061.54
597.104	51878.04
597.463	51872.39
597.822	51939.06
598.18	52008.43
598.538	51903.58
598.897	52062.22
599.255	51860.64
599.613	52366.39
599.972	52101.54
600.33	52078.26
600.688	52084.59
601.046	52094.31
601.404	52240.07
601.762	52195.77
602.12	52373.62
602.478	52251.14
602.836	52384.7
603.194	52305.83
603.552	52233.74
603.91	52184.02
604.268	52307.18
604.625	52282.55
604.983	52405.49
605.341	52224.02
605.698	52479.83
606.056	52428.08
606.413	52397.13
606.771	52537.91
607.128	52636.67
607.485	52450.46
607.843	52441.42
608.2	52596.22
608.557	52743.1
608.914	52595.09
609.272	52766.83
609.629	52839.15
609.986	52815.65
610.343	52751.24
610.7	52962.99
611.057	52812.03
611.414	52876.43
611.771	52914.17
612.127	53003.21
612.484	53024
612.841	53028.97
613.198	52955.75
613.554	53047.28
613.911	53145.13
614.267	53075.53
614.624	53064.9
614.98	53189.19
615.337	53354.39
615.693	53266.03
616.05	53200.49
616.406	53368.17
616.762	53249.98
617.118	53223.09
617.475	53214.96
617.831	53387.83
618.187	53357.78
618.543	53344.44
618.899	53478.68
619.255	53458.79
619.611	53406.36
619.967	53522.07
620.323	53542.18
620.678	53414.95
621.034	53405.01
621.39	53394.39
621.746	53291.56
622.101	53738.56
622.457	53406.82
622.812	53487.49
623.168	53569.98
623.523	53536.98
623.879	53560.48
624.234	53445.46
624.589	53470.32
624.945	53570.43
625.3	53566.36
625.655	53543.76
626.01	53518.45
626.365	53441.84
626.72	53475.06
627.075	53444.1
627.43	53522.97
627.785	53362.52
628.14	53482.52
628.495	53439.36
628.85	53384.22
629.205	53227.39
629.559	53470.54
629.914	53325.01
630.269	53326.59
630.623	53110.1
630.978	53162.3
631.332	53240.49
631.687	53269.19
632.041	53028.75
632.396	53150.33
632.75	53104.9
633.104	53094.28
633.459	52984.91
633.813	52919.6
634.167	52950.1
634.521	52958.92
634.875	52846.15
635.229	52873.72
635.583	52699.04
635.937	52695.42
636.291	52634.41
636.645	52642.54
636.999	52570
637.352	52620.4
637.706	52410.68
638.06	52577.69
638.413	52471.47
638.767	52319.84
639.121	52480.96
639.474	52274.64
639.828	52285.26
640.181	52280.74
640.534	52214.31
640.888	52184.7
641.241	52078.04
641.594	52078.94
641.947	52146.74
642.301	52035.33
642.654	52010.92
643.007	51994.42
643.36	51982.67
643.713	51832.39
644.066	52006.85
644.419	51789.23
644.771	51594.66
645.124	51159.64
645.477	51113.09
645.83	50967.11
646.182	50781.12
646.535	50648.92
646.888	50823.38
647.24	50628.36
647.593	50692.99
647.945	50714.91
648.298	50325.99
648.65	50448.48
649.002	50281.25
649.355	50531.19
649.707	50414.35
650.059	50518.98
650.411	50787
650.763	50871.74
651.115	51245.29
651.467	51110.83
651.819	51069.48
652.171	50937.73
652.523	50911.06
652.875	50910.38
653.227	50790.84
653.578	50908.12
653.93	50841.23
654.282	50685.08
654.633	50533.67
654.985	50551.75
655.337	50619.77
655.688	50695.93
656.039	50778.64
656.391	50525.99
656.742	50519.89
657.094	50567.57
657.445	50622.48
657.796	50576.61
658.147	50398.08
658.498	50333
658.849	50370.51
659.2	50421.36
659.551	50328.7
659.902	50425.88
660.253	50341.59
660.604	50416.16
660.955	50163.96
661.306	50270.4
661.656	50145.88
662.007	50256.16
662.358	50194.02
662.708	50187.24
663.059	50118.54
663.409	49900.92
663.76	50107.47
664.11	50096.85
664.461	50109.05
664.811	50194.25
665.161	49991.54
665.511	49905.67
665.862	49949.73
666.212	50046.23
666.562	50061.82
666.912	49888.49
667.262	49828.38
667.612	49811.66
667.962	49829.73
668.312	49827.48
668.662	49987.47
669.011	49789.06
669.361	49725.1
669.711	49785.67
670.06	49742.73
670.41	49719.46
670.76	49603.75
671.109	49745.22
671.459	49634.94
671.808	49515.39
672.157	49594.26
672.507	49321.95
672.856	49403.76
673.205	49425.45
673.554	49595.39
673.904	49381.61
674.253	49450.99
674.602	49425.68
674.951	48809.87
675.3	48572.37
675.649	49313.36
675.998	49224.78
676.346	49294.83
676.695	49210.77
677.044	48935.3
677.393	49191.56
677.741	49107.04
678.09	49010.32
678.438	48901.85
678.787	49007.16
679.135	49020.04
679.484	48596.32
679.832	48906.6
680.181	48533.5
680.529	48749.31
680.877	48445.82
681.225	48555.87
681.573	48647.17
681.922	48376.21
682.27	48265.03
682.618	48340.28
682.966	48222.77
683.314	48352.71
683.661	48121.98
684.009	47977.58
684.357	47862.1
684.705	47826.17
685.053	47854.19
685.4	47818.04
685.748	47598.61
686.095	47547.08
686.443	47376.24
686.79	47322.23
687.138	47511.83
687.485	47498.5
687.832	47280.2
688.18	47237.71
688.527	47070.49
688.874	46936.7
689.221	46924.27
689.568	46809.02
689.915	46752.75
690.262	46663.49
690.609	46489.71
690.956	46479.99
691.303	46354.35
691.65	46208.59
691.997	46201.81
692.344	45825.32
692.69	45836.39
693.037	45862.83
693.383	45520.7
693.73	45697.41
694.077	45285.67
694.423	45401.83
694.769	45183.3
695.116	45113.47
695.462	45079.35
695.808	44934.5
696.155	44940.15
696.501	44678.91
696.847	44654.73
697.193	44252.93
697.539	44542.87
697.885	44279.82
698.231	44192.37
698.577	44161.64
698.923	43983.79
699.269	43793.06
699.614	43635.1
699.96	43572.27
700.306	43591.25
700.651	43343.8
700.997	43317.14
701.342	43146.97
701.688	43141.78
702.033	43023.81
702.379	42927.77
702.724	42749.92
703.069	42835.12
703.415	42323.04
703.76	42474.9
704.105	42403.72
704.45	42225.19
704.795	42076.27
705.14	42009.6
705.485	41770.74
705.83	41720.8
706.175	41812.77
706.52	41536.85
706.865	41394.7
707.209	41453.68
707.554	41275.38
707.899	41409.17
708.243	41152
708.588	41034.03
708.932	40872.91
709.277	40832.68
709.621	40849.41
709.966	40469.3
710.31	40509.98
710.654	40175.75
710.998	40372.58
711.342	40271.12
711.687	40122.42
712.031	39982.31
712.375	39698.7
712.719	40002.42
713.063	39831.35
713.407	39806.95
713.75	39643.79
714.094	39576.45
714.438	39370.35
714.782	39401.53
715.125	39263.69
715.469	39330.8
715.812	38977.59
716.156	38967.87
716.499	38941.43
716.843	38896.24
717.186	38663.93
717.53	38906.41
717.873	38831.83
718.216	38626.41
718.559	38455.34
718.902	38318.63
719.246	38416.93
719.589	38316.37
719.932	38125.18
720.275	38091.74
720.617	38196.37
720.96	37997.28
721.303	37966.09
721.646	38013.77
721.989	37700.56
722.331	37795.48
722.674	37607.01
723.016	37740.56
723.359	37430.74
723.701	37423.73
724.044	37280.01
724.386	37059.68
724.729	37327.46
725.071	37194.59
725.413	37129.5
725.755	36962.05
726.097	36949.85
726.439	36666.24
726.782	36710.98
727.124	36875.05
727.465	36619.46
727.807	36545.56
728.149	36434.83
728.491	36412.91
728.833	36446.36
729.175	36236.19
729.516	36299.24
729.858	36141.51
730.199	36150.77
730.541	36103.54
730.882	36076.65
731.224	36132.47
731.565	35979.48
731.906	35845.7
732.248	35859.71
732.589	35668.07
732.93	35562.99
733.271	35599.15
733.612	35619.94
733.953	35540.17
734.294	35375.88
734.635	35227.63
734.976	35435.99
735.317	35192.15
735.658	35157.8
735.999	35045.72
736.339	35083
736.68	35199.61
737.021	35041.42
737.361	34807.76
737.702	35093.63
738.042	34765.5
738.383	34699.74
738.723	34867.42
739.063	34651.83
739.404	34707.65
739.744	34495
740.084	34459.52
740.424	34485.96
740.764	34307.43
741.104	34463.81
741.444	34163.25
741.784	34104.72
742.124	34033.31
742.464	33959.42
742.804	33895.69
743.143	33834.68
743.483	33785.41
743.823	33734.34
744.162	33647.11
744.502	33737.5
744.841	33622.48
745.181	33612.76
745.52	33356.5
745.86	33371.18
746.199	33397.62
746.538	33366.89
746.877	33385.42
747.216	33262.71
747.556	33034.24
747.895	33247.57
748.234	33006.45
748.573	32993.57
748.911	32869.5
749.25	32879.67
749.589	32683.52
749.928	32707.7
750.267	32770.3
750.605	32636.51
750.944	32556.29
751.283	32366.92
751.621	32514.71
751.96	32267.48
752.298	32238.33
752.636	32131.9
