Data from breadboard_white_FLMS001491_00024.txt Node
Date: Wed Feb 08 10:47:29 GMT 2017
User: dcchb
Spectrometer: FLMS00149
Trigger mode: 0
Integration Time (sec): 2.000000E-2
Scans to average: 10
Electric dark correction enabled: true
Nonlinearity correction enabled: false
Boxcar width: 0
XAxis mode: Wavelengths
Number of Pixels in Spectrum: 2048
>>>>>Begin Spectral Data<<<<<
341.393	1.57
341.776	1.57
342.16	1.57
342.543	-59.9
342.927	-67.58
343.31	-65.55
343.693	-68.71
344.077	-74.59
344.46	-50.63
344.843	-44.53
345.226	-41.37
345.61	-16.74
345.993	-21.93
346.376	-21.71
346.759	-4.08
347.142	28.69
347.525	44.28
347.908	68.68
348.291	62.81
348.674	96.25
349.057	109.14
349.44	143.26
349.823	141.68
350.206	164.73
350.588	233.65
350.971	243.6
351.354	244.27
351.737	246.31
352.119	281.79
352.502	281.33
352.884	321.79
353.267	288.11
353.65	299.86
354.032	322.69
354.414	321.79
354.797	322.46
355.179	351.62
355.562	354.33
355.944	362.01
356.326	362.01
356.709	373.08
357.091	362.46
357.473	378.06
357.855	349.36
358.238	376.25
358.62	372.86
359.002	381.9
359.384	379.86
359.766	369.69
360.148	368.79
360.53	376.25
360.912	357.94
361.294	390.94
361.676	363.82
362.057	366.08
362.439	388.68
362.821	346.87
363.203	367.43
363.584	366.53
363.966	343.48
364.348	382.12
364.729	354.33
365.111	357.26
365.493	370.15
365.874	353.2
366.256	368.11
366.637	370.37
367.019	359.52
367.4	343.48
367.781	357.49
368.163	372.86
368.544	363.82
368.925	358.39
369.306	394.1
369.688	357.94
370.069	361.78
370.45	369.24
370.831	364.27
371.212	379.41
371.593	377.38
371.974	382.8
372.355	343.25
372.736	384.83
373.117	381.44
373.498	385.74
373.879	406.53
374.26	392.52
374.641	376.02
375.021	383.93
375.402	362.91
375.783	394.78
376.163	424.61
376.544	409.24
376.925	413.08
377.305	397.72
377.686	409.92
378.066	401.33
378.447	408.79
378.827	413.99
379.208	405.4
379.588	395.91
379.968	402.24
380.349	431.16
380.729	420.77
381.109	426.42
381.489	423.93
381.87	433.87
382.25	421.22
382.63	434.55
383.01	430.93
383.39	447.43
383.77	455.79
384.15	445.4
384.53	443.82
384.91	454.89
385.29	461.67
385.67	448.11
386.049	464.83
386.429	478.62
386.809	489.69
387.189	475
387.568	488.56
387.948	504.61
388.328	484.94
388.707	503.48
389.087	512.06
389.466	526.75
389.846	503.48
390.225	517.49
390.605	511.84
390.984	551.61
391.363	541.21
391.743	560.88
392.122	551.38
392.501	546.41
392.881	575.34
393.26	587.09
393.639	599.29
394.018	617.14
394.397	606.52
394.776	611.27
395.155	613.3
395.534	593.64
395.913	626.41
396.292	635.45
396.671	646.75
397.05	643.13
397.429	662.34
397.808	674.54
398.186	682.45
398.565	682.45
398.944	676.58
399.323	701.66
399.701	680.42
400.08	738.72
400.458	728.33
400.837	734.2
401.215	734.43
401.594	756.12
401.972	768.78
402.351	823.24
402.729	809.91
403.107	824.14
403.486	839.06
403.864	844.94
404.242	867.99
404.62	882.22
404.999	905.95
405.377	897.59
405.755	936.68
406.133	971.49
406.511	984.82
406.889	968.32
407.267	988.66
407.645	1004.03
408.023	1032.95
408.401	1057.36
408.779	1081.99
409.156	1094.65
409.534	1107.08
409.912	1144.59
410.29	1151.82
410.667	1184.81
411.045	1213.97
411.422	1218.26
411.8	1253.74
412.178	1267.52
412.555	1291.7
412.933	1308.2
413.31	1347.75
413.687	1388.65
414.065	1416.67
414.442	1416.45
414.819	1432.72
415.197	1463.45
415.574	1516.33
415.951	1508.42
416.328	1531.25
416.705	1564.24
417.082	1574.41
417.46	1577.57
417.837	1587.74
418.214	1644.46
418.591	1674.74
418.967	1640.17
419.344	1720.39
419.721	1702.09
420.098	1753.84
420.475	1772.37
420.852	1795.42
421.228	1797.23
421.605	1839.26
421.982	1854.63
422.358	1919.03
422.735	1900.95
423.111	1897.11
423.488	1963.1
423.864	2005.36
424.241	1982.98
424.617	2038.35
424.994	2050.55
425.37	2060.04
425.746	2086.48
426.123	2129.2
426.499	2154.96
426.875	2155.86
427.251	2245.35
427.627	2249.42
428.003	2269.08
428.379	2320.15
428.756	2336.2
429.132	2392.92
429.507	2435.63
429.883	2451.9
430.259	2480.37
430.635	2547.04
431.011	2543.42
431.387	2581.61
431.763	2632.46
432.138	2641.72
432.514	2732.12
432.89	2730.54
433.265	2800.82
433.641	2831.32
434.016	2834.94
434.392	2876.29
434.767	2932.79
435.143	2976.4
435.518	2986.57
435.894	3041.71
436.269	3107.02
436.644	3145.89
437.02	3176.85
437.395	3149.73
437.77	3217.75
438.145	3321.93
438.52	3319.45
438.895	3352.44
439.271	3349.73
439.646	3442.16
440.021	3440.8
440.395	3458.65
440.77	3463.4
441.145	3508.14
441.52	3645.09
441.895	3590.17
442.27	3613
442.645	3617.97
443.019	3703.62
443.394	3704.75
443.769	3720.57
444.143	3761.24
444.518	3788.81
444.892	3765.54
445.267	3813.22
445.641	3881.24
446.016	3921.24
446.39	3982.25
446.764	3969.37
447.139	3969.6
447.513	4026.32
447.887	4038.07
448.262	4103.61
448.636	4092.08
449.01	4156.26
449.384	4159.88
449.758	4216.15
450.132	4298.4
450.506	4257.95
450.88	4294.11
451.254	4352.41
451.628	4393.54
452.002	4432.41
452.376	4474.67
452.75	4586.98
453.123	4604.38
453.497	4674.21
453.871	4721.44
454.244	4805.51
454.618	4847.77
454.992	4892.06
455.365	4920.08
455.739	5068.1
456.112	5080.08
456.486	5145.39
456.859	5192.39
457.232	5294.54
457.606	5287.3
457.979	5370.01
458.352	5472.61
458.725	5578.14
459.099	5616.79
459.472	5681.42
459.845	5772.49
460.218	5783.79
460.591	5802.55
460.964	5848.87
461.337	6098.58
461.71	6111.69
462.083	6210.22
462.456	6237.11
462.829	6293.15
463.201	6438.91
463.574	6405.02
463.947	6516.65
464.32	6625.8
464.692	6727.72
465.065	6774.95
465.438	6894.04
465.81	6964.77
466.183	7098.56
466.555	7215.16
466.928	7278.21
467.3	7378.32
467.672	7423.97
468.045	7614.7
468.417	7648.37
468.789	7673.91
469.161	7761.59
469.534	7883.39
469.906	8116.83
470.278	8177.62
470.65	8246.77
471.022	8465.07
471.394	8627.1
471.766	8719.08
472.138	8776.48
472.51	8988.45
472.882	9131.05
473.253	9219.4
473.625	9373.98
473.997	9549.34
474.369	9621.88
474.74	9763.12
475.112	9943.45
475.484	10115.43
475.855	10289.43
476.227	10396.77
476.598	10711.34
476.97	10769.87
477.341	10954.27
477.713	11145.46
478.084	11209.18
478.455	11537.08
478.827	11618.21
479.198	12041.93
479.569	12099.33
479.94	12355.37
480.311	12509.94
480.682	12769.59
481.053	13016.82
481.424	13333.87
481.795	13381.78
482.166	13624.71
482.537	13803.69
482.908	14098.15
483.279	14286.62
483.65	14546.5
484.021	14878.01
484.391	14988.52
484.762	15105.8
485.133	15307.61
485.503	15444.33
485.874	15887.25
486.244	15954.37
486.615	16345.54
486.985	16547.8
487.356	16850.39
487.726	16962.25
488.097	17324.73
488.467	17456.02
488.837	17830.48
489.207	17981.66
489.578	18135.55
489.948	18429.11
490.318	18677.01
490.688	18771.7
491.058	19009.2
491.428	19386.37
491.798	19498.91
492.168	19917.88
492.538	19894.6
492.908	20257.76
493.278	20448.04
493.648	20510.41
494.017	20793.56
494.387	21005.99
494.757	21122.14
495.126	21472.19
495.496	21500.66
495.866	21684.16
496.235	21828.56
496.605	22172.96
496.974	22393.07
497.344	22563.23
497.713	22585.83
498.082	22838.03
498.452	23060.4
498.821	23194.63
499.19	23223.1
499.559	23484.79
499.928	23736.31
500.298	23829.64
500.667	24056.53
501.036	24100.6
501.405	24410.64
501.774	24426.69
502.143	24593.92
502.512	24775.15
502.88	24956.39
503.249	25048.59
503.618	25277.74
503.987	25383.95
504.356	25622.14
504.724	25690.84
505.093	25923.6
505.462	26010.38
505.83	26136.02
506.199	26354.32
506.567	26679.96
506.936	26732.84
507.304	27090.35
507.672	27247.63
508.041	27242.43
508.409	27562.65
508.777	27771.01
509.145	28054.39
509.514	28150.88
509.882	28232.01
510.25	28493.47
510.618	28764.65
510.986	28903.63
511.354	29088.94
511.722	29284.64
512.09	29485.76
512.458	29553.11
512.826	29881.23
513.193	30121.68
513.561	30122.58
513.929	30437.6
514.297	30731.38
514.664	30998.72
515.032	31153.29
515.4	31404.58
515.767	31491.59
516.135	31873.72
516.502	31518.25
516.869	32212.02
517.237	32267.39
517.604	32300.38
517.972	32689.75
518.339	32890.65
518.706	33051.32
519.073	33274.59
519.44	33495.83
519.808	33838.42
520.175	33848.14
520.542	34476.82
520.909	34630.94
521.276	34672.52
521.643	35064.37
522.009	35158.38
522.376	35665.49
522.743	35793.17
523.11	36080.17
523.477	36519.48
523.843	36651
524.21	37077.43
524.577	37238.55
524.943	37437.65
525.31	37705.21
525.676	37952.21
526.043	38083.5
526.409	38436.04
526.776	38857.95
527.142	38992.41
527.508	39113.08
527.874	39573.86
528.241	39706.51
528.607	39904.25
528.973	40272.6
529.339	40262.88
529.705	40675.53
530.071	41042.07
530.437	41172.69
530.803	41397.54
531.169	41562.96
531.535	41630.3
531.901	41914.82
532.267	41998.66
532.632	42395.26
532.998	42367.91
533.364	42712.99
533.73	42858.52
534.095	43138.74
534.461	43211.05
534.826	43520.2
535.192	43636.8
535.557	43995.21
535.923	43871.83
536.288	44195.89
536.653	44216.45
537.019	44340.51
537.384	44475.2
537.749	44672.03
538.114	44898.01
538.479	44951.57
538.845	45224.33
539.21	45080.16
539.575	45363.99
539.94	45498.22
540.305	45788.16
540.67	45852.57
541.034	46002.17
541.399	46185.21
541.764	46385.21
542.129	46393.57
542.494	46493.23
542.858	46576.84
543.223	46621.58
543.587	47080.33
543.952	47015.25
544.316	47192.42
544.681	47250.95
545.045	47446.42
545.41	47565.29
545.774	47632.63
546.138	47872.85
546.503	47854.09
546.867	47911.95
547.231	48259.51
547.595	48281.88
547.959	48365.72
548.324	48491.14
548.688	48541.08
549.052	48742.21
549.416	48885.25
549.779	48774.97
550.143	48905.82
550.507	49336.32
550.871	49379.03
551.235	49422.64
551.599	49696.31
551.962	49792.12
552.326	49930.42
552.689	50173.81
553.053	49987.82
553.417	50117.54
553.78	50503.74
554.143	50455.38
554.507	50607.92
554.87	50761.59
555.234	51060.11
555.597	50933.11
555.96	51101.47
556.323	51173.1
556.686	51215.59
557.05	51501
557.413	51597.73
557.776	51722.69
558.139	51861.67
558.502	52032.06
558.865	52122.23
559.228	52361.32
559.59	52372.62
559.953	52524.71
560.316	52787.52
560.679	52863.45
561.041	53024.58
561.404	53044.47
561.767	53301.64
562.129	53232.26
562.492	53549.31
562.854	53590.22
563.217	53584.57
563.579	53751.11
563.941	53954.27
564.304	54154.95
564.666	54260.71
565.028	54239.01
565.39	54439.46
565.753	54510.19
566.115	54736.17
566.477	54742.05
566.839	54862.72
567.201	54990.86
567.563	55043.74
567.925	55276.05
568.287	55297.06
568.648	55331.86
569.01	55498.19
569.372	55598.75
569.734	55552.65
570.095	55761.01
570.457	55897.73
570.819	55949.48
571.18	55996.93
571.542	56113.09
571.903	56244.61
572.265	56250.71
572.626	56341.78
572.987	56431.5
573.349	56471.95
573.71	56538.16
574.071	56647.08
574.432	56707.87
574.794	56883.01
575.155	56828.1
575.516	56855.67
575.877	56969.11
576.238	56997.13
576.599	57049.11
576.96	57094.76
577.32	57170.23
577.681	57166.62
578.042	57275.99
578.403	57261.98
578.763	57293.85
579.124	57395.54
579.485	57445.48
579.845	57483.67
580.206	57430.57
580.566	57430.79
580.927	57489.77
581.287	57529.55
581.648	57455.42
582.008	57652.71
582.368	57570.9
582.728	57682.09
583.089	57555.76
583.449	57613.84
583.809	57600.51
584.169	57647.28
584.529	57606.61
584.889	57776.55
585.249	57635.98
585.609	57659.03
585.969	57787.84
586.329	57666.72
586.688	57749.65
587.048	57714.4
587.408	57625.59
587.768	57720.5
588.127	57708.52
588.487	57579.26
588.846	57816.54
589.206	57634.18
589.565	57669.2
589.925	57797.56
590.284	57723.89
590.643	57794.85
591.003	57795.3
591.362	57853.83
591.721	57784
592.08	57769.99
592.44	57857.9
592.799	57868.52
593.158	57823.1
593.517	57878.69
593.876	57884.57
594.235	57800.95
594.593	57868.52
594.952	57887.05
595.311	57834.85
595.67	57886.15
596.029	57982.19
596.387	58034.84
596.746	58054.73
597.104	57943.1
597.463	57932.93
597.822	58003.88
598.18	57915.98
598.538	57966.37
598.897	58086.14
599.255	57872.14
599.613	58201.85
599.972	58015.18
600.33	58133.6
600.688	58007.05
601.046	58153.71
601.404	58181.05
601.762	58163.65
602.12	58271.9
602.478	58261.28
602.836	58372.01
603.194	58225.35
603.552	58258.34
603.91	58227.38
604.268	58353.03
604.625	58262.41
604.983	58353.93
605.341	58283.43
605.698	58431.22
606.056	58462.18
606.413	58454.04
606.771	58508.28
607.128	58506.02
607.485	58435.06
607.843	58410.2
608.2	58584.43
608.557	58659.69
608.914	58574.49
609.272	58639.8
609.629	58692.45
609.986	58825.33
610.343	58636.41
610.7	58868.49
611.057	58809.29
611.414	58671.66
611.771	58779.46
612.127	58823.07
612.484	58826.01
612.841	58891.09
613.198	58838.21
613.554	58870.08
613.911	59017.87
614.267	58977.19
614.624	59006.12
614.98	59107.13
615.337	59163.18
615.693	59127.02
616.05	59073.01
616.406	59279.33
616.762	59120.01
617.118	59127.7
617.475	59133.12
617.831	59239.56
618.187	59243.85
618.543	59243.4
618.899	59374.47
619.255	59307.35
619.611	59228.71
619.967	59308.93
620.323	59362.72
620.678	59253.57
621.034	59296.28
621.39	59278.65
621.746	59241.14
622.101	59557.97
622.457	59308.26
622.812	59324.75
623.168	59449.95
623.523	59462.15
623.879	59464.41
624.234	59296.51
624.589	59399.33
624.945	59451.98
625.3	59429.16
625.655	59339.22
626.01	59414.92
626.365	59357.07
626.72	59394.81
627.075	59365.43
627.43	59354.58
627.785	59250.86
628.14	59308.03
628.495	59380.57
628.85	59290.63
629.205	59194.36
629.559	59359.56
629.914	59230.97
630.269	59251.99
630.623	59193.46
630.978	59127.02
631.332	59204.98
631.687	59236.39
632.041	59164.31
632.396	59187.58
632.75	59063.97
633.104	59129.96
633.459	59019.9
633.813	59042.95
634.167	58975.84
634.521	58972.45
634.875	58932.45
635.229	58932.45
635.583	58811.32
635.937	58871.21
636.291	58764.77
636.645	58819.23
636.999	58739.91
637.352	58802.28
637.706	58666.01
638.06	58767.03
638.413	58694.71
638.767	58604.55
639.121	58655.62
639.474	58438.22
639.828	58538.79
640.181	58531.55
640.534	58482.29
640.888	58468.05
641.241	58412.01
641.594	58312.35
641.947	58406.59
642.301	58299.47
642.654	58383.76
643.007	58324.33
643.36	58310.54
643.713	58172.24
644.066	58269.19
644.419	58154.16
644.771	58030.78
645.124	57784.68
645.477	57754.4
645.83	57610.67
646.182	57462.43
646.535	57299.27
646.888	57448.19
647.24	57261.53
647.593	57424.69
647.945	57254.75
648.298	57157.13
648.65	57088.43
649.002	56977.7
649.355	57156.45
649.707	57114.42
650.059	57170.91
650.411	57527.51
650.763	57528.87
651.115	57837.79
651.467	57704.23
651.819	57682.09
652.171	57638.7
652.523	57524.8
652.875	57514.86
653.227	57406.16
653.578	57551.24
653.93	57426.27
654.282	57383.34
654.633	57306.73
654.985	57382.66
655.337	57350.12
655.688	57323.68
656.039	57401.87
656.391	57240.51
656.742	57287.52
657.094	57251.59
657.445	57355.99
657.796	57275.54
658.147	57209.78
658.498	57184.02
658.849	57260.63
659.2	57161.87
659.551	57104.93
659.902	57186.5
660.253	57138.37
660.604	57138.37
660.955	56991.71
661.306	57115.09
661.656	57066.06
662.007	57078.49
662.358	57035.32
662.708	57017.47
663.059	57002.1
663.409	56765.72
663.76	57012.05
664.11	57021.09
664.461	57037.13
664.811	57053.63
665.161	57008.88
665.511	56967.3
665.862	56981.31
666.212	56984.93
666.562	56947.64
666.912	56843.24
667.262	56849.11
667.612	56892.05
667.962	56840.53
668.312	56781.32
668.662	56897.92
669.011	56818.6
669.361	56822.45
669.711	56798.94
670.06	56807.76
670.41	56745.84
670.76	56665.61
671.109	56748.55
671.459	56652.96
671.808	56620.42
672.157	56679.85
672.507	56485.73
672.856	56502.46
673.205	56549.69
673.554	56592.85
673.904	56459.52
674.253	56622
674.602	56591.27
674.951	56137.04
675.3	56017.04
675.649	56409.8
675.998	56382.68
676.346	56377.71
676.695	56477.82
677.044	56212.29
677.393	56336.58
677.741	56380.42
678.09	56295.68
678.438	56231.28
678.787	56270.14
679.135	56191.28
679.484	56045.52
679.832	56228.56
680.181	56032.86
680.529	56018.85
680.877	55930.72
681.225	55989.93
681.573	56036.93
681.922	55875.13
682.27	55914.22
682.618	55745.19
682.966	55695.47
683.314	55850.95
683.661	55742.02
684.009	55563.27
684.357	55498.87
684.705	55468.36
685.053	55490.5
685.4	55411.64
685.748	55266.56
686.095	55266.33
686.443	55180
686.79	55171.42
687.138	55242.38
687.485	55216.16
687.832	55006.68
688.18	55139.33
688.527	54928.26
688.874	54882.16
689.221	54859.56
689.568	54718.55
689.915	54712.45
690.262	54759.9
690.609	54619.34
690.956	54501.15
691.303	54444.2
691.65	54326.92
691.997	54325.79
692.344	54133.93
692.69	54120.6
693.037	54193.82
693.383	53901.62
693.73	53998.57
694.077	53784.11
694.423	53797.22
694.769	53699.36
695.116	53608.97
695.462	53624.56
695.808	53418.69
696.155	53509.99
696.501	53244.91
696.847	53236.1
697.193	53081.98
697.539	53084.92
697.885	52856.22
698.231	52813.74
698.577	52782.55
698.923	52751.37
699.269	52569
699.614	52490.81
699.96	52397.48
700.306	52430.92
700.651	52355.22
700.997	52231.38
701.342	52156.35
701.688	52044.49
702.033	51792.07
702.379	51840.43
702.724	51825.74
703.069	51792.07
703.415	51551.17
703.76	51457.62
704.105	51384.85
704.45	51420.55
704.795	51190.96
705.14	51046.33
705.485	50987.8
705.83	50924.97
706.175	50933.79
706.52	50868.25
706.865	50675.94
707.209	50690.86
707.554	50473.24
707.899	50666.45
708.243	50365.22
708.588	50381.26
708.932	50107.37
709.277	50172.45
709.621	50071.89
709.966	49793.03
710.31	49932.23
710.654	49605.91
710.998	49756.42
711.342	49720.03
711.687	49492.02
712.031	49412.92
712.375	49248.86
712.719	49321.17
713.063	49199.82
713.407	49359.82
713.75	49150.33
714.094	49141.97
714.438	48918.47
714.782	48959.38
715.125	48739.5
715.469	48828.08
715.812	48470.35
716.156	48479.84
716.499	48398.71
716.843	48488.88
717.186	48299.51
717.53	48354.19
717.873	48319.85
718.216	48082.79
718.559	48070.59
718.902	47831.27
719.246	47867.2
719.589	47729.35
719.932	47641.9
720.275	47700.88
720.617	47513.54
720.96	47457.95
721.303	47535.01
721.646	47500.21
721.989	47198.07
722.331	47335.46
722.674	47291.62
723.016	47139.99
723.359	47085.3
723.701	47004.63
724.044	46794.69
724.386	46698.87
724.729	46819.09
725.071	46606.9
725.413	46575.03
725.755	46534.58
726.097	46353.8
726.439	46098.66
726.782	46238.32
727.124	46364.87
727.465	46126.23
727.807	46077.42
728.149	45924.88
728.491	45918.33
728.833	45912
729.175	45697.99
729.516	45648.05
729.858	45473.82
730.199	45651.44
730.541	45532.12
730.882	45484.21
731.224	45450.09
731.565	45288.29
731.906	45150.89
732.248	45211.23
732.589	45156.09
732.93	45015.3
733.271	44938.24
733.612	44986.37
733.953	45079.03
734.294	44680.17
734.635	44709.54
734.976	44882.42
735.317	44562.88
735.658	44449.21
735.999	44419.16
736.339	44418.7
736.68	44346.84
737.021	44251.03
737.361	43949.79
737.702	44176.45
738.042	44050.13
738.383	43982.11
738.723	44013.97
739.063	43872.05
739.404	43808.78
739.744	43774.43
740.084	43629.35
740.424	43686.52
740.764	43499.86
741.104	43706.18
741.444	43498.05
741.784	43302.35
742.124	43444.04
742.464	43331.28
742.804	43195.91
743.143	43205.63
743.483	43083.15
743.823	42867.11
744.162	42751.63
744.502	42825.07
744.841	42649.94
745.181	42905.52
745.52	42647.23
745.86	42628.7
746.199	42505.31
746.538	42437.29
746.877	42560.45
747.216	42571.52
747.556	42317.97
747.895	42292.89
748.234	42009.95
748.573	41940.13
748.911	42000.24
749.25	41878.21
749.589	41688.83
749.928	41746.68
750.267	41668.27
750.605	41518.22
750.944	41448.84
751.283	41355.06
751.621	41419.24
751.96	41212.91
752.298	41056.76
