Data from breadboard_black_back_FLMS001491_00034.txt Node
Date: Wed Feb 08 10:50:18 GMT 2017
User: dcchb
Spectrometer: FLMS00149
Trigger mode: 0
Integration Time (sec): 2.000000E-2
Scans to average: 10
Electric dark correction enabled: true
Nonlinearity correction enabled: false
Boxcar width: 0
XAxis mode: Wavelengths
Number of Pixels in Spectrum: 2048
>>>>>Begin Spectral Data<<<<<
341.393	-5.82
341.776	-5.82
342.16	-5.82
342.543	-68.42
342.927	-74.29
343.31	-57.12
343.693	-63.9
344.077	-87.62
344.46	-48.3
344.843	-56.67
345.226	-36.55
345.61	-21.86
345.993	-27.97
346.376	-3.56
346.759	9.32
347.142	26.95
347.525	37.34
347.908	61.98
348.291	68.3
348.674	96.33
349.057	103.33
349.44	118.02
349.823	125.02
350.206	147.62
350.588	206.6
350.971	204.8
351.354	233.5
351.737	236.21
352.119	245.25
352.502	253.16
352.884	276.21
353.267	276.89
353.65	290.44
354.032	288.41
354.414	295.64
354.797	316.21
355.179	331.57
355.562	335.87
355.944	315.08
356.326	301.97
356.709	362.53
357.091	333.61
357.473	329.09
357.855	335.64
358.238	337.67
358.62	351.46
359.002	338.8
359.384	352.14
359.766	352.82
360.148	358.92
360.53	356.21
360.912	333.61
361.294	330.9
361.676	329.31
362.057	350.78
362.439	353.27
362.821	338.58
363.203	348.3
363.584	339.03
363.966	323.89
364.348	344
364.729	343.55
365.111	333.83
365.493	333.83
365.874	331.12
366.256	342.65
366.637	343.32
367.019	310.56
367.4	330.67
367.781	342.87
368.163	331.57
368.544	339.03
368.925	341.06
369.306	336.77
369.688	338.35
370.069	343.55
370.45	347.84
370.831	329.54
371.212	348.97
371.593	330.44
371.974	360.72
372.355	356.21
372.736	357.56
373.117	374.51
373.498	368.18
373.879	322.76
374.26	342.65
374.641	362.53
375.021	351.46
375.402	345.36
375.783	358.92
376.163	380.84
376.544	391.01
376.925	371.57
377.305	374.06
377.686	380.61
378.066	371.12
378.447	381.06
378.827	386.49
379.208	371.12
379.588	397.11
379.968	385.58
380.349	396.2
380.729	383.55
381.109	398.92
381.489	405.47
381.87	396.43
382.25	406.6
382.63	411.35
383.01	386.04
383.39	424.9
383.77	406.6
384.15	417.45
384.53	432.36
384.91	413.38
385.29	407.05
385.67	430.55
386.049	428.29
386.429	417.45
386.809	442.08
387.189	426.49
387.568	438.69
387.948	442.98
388.328	456.32
388.707	466.94
389.087	454.96
389.466	461.06
389.846	473.26
390.225	466.48
390.605	463.55
390.984	461.29
391.363	475.3
391.743	463.32
392.122	495.41
392.501	511.23
392.881	491.79
393.26	480.27
393.639	496.54
394.018	499.7
394.397	531.79
394.776	502.87
395.155	518.91
395.534	508.29
395.913	527.73
396.292	520.49
396.671	531.79
397.05	517.56
397.429	532.92
397.808	548.74
398.186	537.22
398.565	534.28
398.944	547.84
399.323	559.59
399.701	524.79
400.08	556.43
400.458	580.83
400.837	573.15
401.215	614.05
401.594	561.4
401.972	573.6
402.351	604.33
402.729	598.23
403.107	617.22
403.486	602.53
403.864	619.93
404.242	610.44
404.62	629.19
404.999	633.49
405.377	612.02
405.755	639.59
406.133	647.27
406.511	645.01
406.889	684.11
407.267	657.89
407.645	707.38
408.023	681.39
408.401	693.6
408.779	709.87
409.156	699.02
409.534	703.77
409.912	733.82
410.29	732.47
410.667	734.95
411.045	748.51
411.422	748.06
411.8	769.08
412.178	764.1
412.555	790.32
412.933	774.5
413.31	785.35
413.687	800.94
414.065	806.59
414.442	814.5
414.819	835.06
415.197	843.88
415.574	861.95
415.951	860.82
416.328	869.86
416.705	875.74
417.082	886.36
417.46	882.07
417.837	878.23
418.214	882.52
418.591	923.65
418.967	916.42
419.344	912.12
419.721	955.51
420.098	951.44
420.475	941.05
420.852	943.31
421.228	980.6
421.605	986.92
421.982	978.56
422.358	987.38
422.735	1010.65
423.111	1007.49
423.488	1029.63
423.864	1042.97
424.241	1058.33
424.617	1065.34
424.994	1052.68
425.37	1073.93
425.746	1048.84
426.123	1107.82
426.499	1102.85
426.875	1108.05
427.251	1138.11
427.627	1144.89
428.003	1156.64
428.379	1173.36
428.756	1162.29
429.132	1228.72
429.507	1216.3
429.883	1223.53
430.259	1234.15
430.635	1259.46
431.011	1282.73
431.387	1283.41
431.763	1320.7
432.138	1326.58
432.514	1328.38
432.89	1339.46
433.265	1356.86
433.641	1405.67
434.016	1381.26
434.392	1446.57
434.767	1431.21
435.143	1442.96
435.518	1480.02
435.894	1496.29
436.269	1498.32
436.644	1533.35
437.02	1497.42
437.395	1515.95
437.77	1581.71
438.145	1594.14
438.52	1617.42
438.895	1582.39
439.271	1615.61
439.646	1624.65
440.021	1626.23
440.395	1702.84
440.77	1675.49
441.145	1687.24
441.52	1723.18
441.895	1705.1
442.27	1732.89
442.645	1729.73
443.019	1756.85
443.394	1758.2
443.769	1759.78
444.143	1767.47
444.518	1782.61
444.892	1790.52
445.267	1826.45
445.641	1854.7
446.016	1833
446.39	1860.57
446.764	1882.04
447.139	1851.31
447.513	1895.15
447.887	1899.89
448.262	1945.99
448.636	1941.93
449.01	1964.3
449.384	1959.1
449.758	2030.06
450.132	1998.2
450.506	2010.63
450.88	2027.57
451.254	2045.65
451.628	2077.06
452.002	2092.2
452.376	2124.29
452.75	2128.59
453.123	2111.41
453.497	2183.5
453.871	2201.13
454.244	2235.25
454.618	2260.34
454.992	2261.24
455.365	2316.38
455.739	2334.46
456.112	2348.47
456.486	2369.26
456.859	2417.17
457.232	2453.33
457.606	2472.08
457.979	2491.52
458.352	2544.4
458.725	2553.44
459.099	2566.32
459.472	2607.67
459.845	2651.51
460.218	2654.22
460.591	2689.93
460.964	2719.76
461.337	2779.64
461.71	2825.07
462.083	2847.44
462.456	2908.68
462.829	2877.49
463.201	2926.31
463.574	2948.68
463.947	2992.75
464.32	3077.26
464.692	3072.29
465.065	3092.63
465.438	3159.97
465.81	3169.69
466.183	3251.5
466.555	3284.94
466.928	3289.24
467.3	3338.73
467.672	3394.09
468.045	3501.21
468.417	3487.87
468.789	3503.47
469.161	3570.81
469.534	3601.32
469.906	3678.83
470.278	3703.01
470.65	3710.24
471.022	3840.18
471.394	3893.74
471.766	3909.56
472.138	3958.14
472.51	4091.47
472.882	4146.39
473.253	4145.71
473.625	4186.84
473.997	4339.38
474.369	4310
474.74	4366.95
475.112	4490.33
475.484	4575.53
475.855	4644.91
476.227	4650.1
476.598	4800.61
476.97	4794.73
477.341	4862.53
477.713	4976.87
478.084	5012.58
478.455	5163.76
478.827	5198.79
479.198	5361.5
479.569	5385.45
479.94	5549.06
480.311	5529.18
480.682	5683.97
481.053	5785.89
481.424	5882.16
481.795	5980.24
482.166	6057.52
482.537	6141.36
482.908	6238.54
483.279	6328.25
483.65	6413.45
484.021	6551.52
484.391	6619.09
484.762	6691.63
485.133	6817.05
485.503	6860.22
485.874	7062.24
486.244	7050.94
486.615	7163.71
486.985	7286.87
487.356	7414.78
487.726	7422.23
488.097	7701.32
488.467	7658.84
488.837	7824.94
489.207	7927.31
489.578	8063.8
489.948	8177.92
490.318	8242.33
490.688	8310.35
491.058	8410.23
491.428	8494.07
491.798	8583.11
492.168	8758.7
492.538	8825.59
492.908	8879.37
493.278	9013.6
493.648	9017.67
494.017	9156.2
494.387	9278
494.757	9309.19
495.126	9415.63
495.496	9529.52
495.866	9500.15
496.235	9701.72
496.605	9742.85
496.974	9770.42
497.344	9951.66
497.713	9955.73
498.082	9989.62
498.452	10154.14
498.821	10239.79
499.19	10224.65
499.559	10351.2
499.928	10408.37
500.298	10494.47
500.667	10703.05
501.036	10610.4
501.405	10676.61
501.774	10794.12
502.143	10865.76
502.512	10831.18
502.88	11004.74
503.249	11015.13
503.618	11162.7
503.987	11153.66
504.356	11254.68
504.724	11316.6
505.093	11467.1
505.462	11501
505.83	11470.72
506.199	11608.56
506.567	11845.39
506.936	11757.94
507.304	11913.19
507.672	12015.33
508.041	12037.48
508.409	12184.37
508.777	12275.89
509.145	12357.47
509.514	12375.1
509.882	12510.01
510.25	12548.65
510.618	12694.64
510.986	12708.65
511.354	12805.14
511.722	12937.12
512.09	13055.98
512.458	13048.07
512.826	13141.41
513.193	13270.22
513.561	13344.56
513.929	13456.2
514.297	13541.62
514.664	13713.82
515.032	13767.38
515.4	13860.26
515.767	13993.13
516.135	14001.04
516.502	13971.44
516.869	14210.3
517.237	14258.89
517.604	14261.15
517.972	14484.42
518.339	14584.31
518.706	14570.75
519.073	14728.71
519.44	14871.08
519.808	14965.09
520.175	15055.93
520.542	15181.13
520.909	15264.06
521.276	15292.54
521.643	15574.11
522.009	15677.38
522.376	15800.77
522.743	15848.45
523.11	16079.18
523.477	16186.98
523.843	16243.92
524.21	16354.2
524.577	16561.2
524.943	16701.09
525.31	16774.76
525.676	16852.27
526.043	17038.25
526.409	17141.53
526.776	17312.82
527.142	17403.44
527.508	17543.1
527.874	17613.15
528.241	17763.88
528.607	17832.58
528.973	17924.56
529.339	17978.34
529.705	18221.95
530.071	18344.88
530.437	18372
530.803	18520.93
531.169	18690.41
531.535	18732.22
531.901	18760.47
532.267	18926.11
532.632	19037.07
532.998	19023.29
533.364	19181.02
533.73	19225.54
534.095	19356.61
534.461	19424.18
534.826	19590.28
535.192	19631.4
535.557	19804.28
535.923	19762.7
536.288	19836.82
536.653	19960.21
537.019	19857.39
537.384	20055.57
537.749	20182.58
538.114	20229.81
538.479	20280.43
538.845	20428.9
539.21	20323.59
539.575	20563.36
539.94	20604.03
540.305	20838.38
540.67	20702.79
541.034	20852.84
541.399	20925.83
541.764	20898.26
542.129	20971.26
542.494	21044.7
542.858	21182.1
543.223	21265.26
543.587	21274.3
543.952	21307.52
544.316	21532.15
544.681	21512.49
545.045	21655.98
545.41	21739.82
545.774	21685.59
546.138	21798.58
546.503	21876.54
546.867	21969.42
547.231	22101.62
547.595	22096.42
547.959	22196.54
548.324	22269.08
548.688	22299.58
549.052	22418.45
549.416	22380.48
549.779	22534.15
550.143	22540.71
550.507	22733.7
550.871	22881.49
551.235	22832.45
551.599	23072.22
551.962	23080.13
552.326	23111.31
552.689	23290.97
553.053	23304.08
553.417	23283.96
553.78	23540
554.143	23650.96
554.507	23634.69
554.87	23807.11
555.234	24016.15
555.597	23991.29
555.96	23985.41
556.323	24078.97
556.686	24090.72
557.05	24271.73
557.413	24375.01
557.776	24422.24
558.139	24574.78
558.502	24589.69
558.865	24681.44
559.228	24885.28
559.59	24978.61
559.953	25035.78
560.316	25296.79
560.679	25348.77
561.041	25484.13
561.404	25590.57
561.767	25693.62
562.129	25602.1
562.492	26017.68
562.854	26004.57
563.217	25995.98
563.579	26171.35
563.941	26273.26
564.304	26425.35
564.666	26563.2
565.028	26590.54
565.39	26696.53
565.753	26957.99
566.115	27043.87
566.477	27188.72
566.839	27299.23
567.201	27471.2
567.563	27345.78
567.925	27500.58
568.287	27621.48
568.648	27739.67
569.01	27815.6
569.372	27982.37
569.734	27930.85
570.095	28134.23
570.457	28194.8
570.819	28366.99
571.18	28356.37
571.542	28345.3
571.903	28560.21
572.265	28785.51
572.626	28632.3
572.987	28808.11
573.349	28951.39
573.71	29009.92
574.071	29053.98
574.432	29072.51
574.794	29303.47
575.155	29364.71
575.516	29278.38
575.877	29267.08
576.238	29445.61
576.599	29526.06
576.96	29582.78
577.32	29628.66
577.681	29692.16
578.042	29801.98
578.403	29878.37
578.763	29797.01
579.124	29802.21
579.485	29969.21
579.845	30111.36
580.206	30020.96
580.566	29989.55
580.927	30077.46
581.287	30211.92
581.648	30052.6
582.008	30098.93
582.368	30251.69
582.728	30349.09
583.089	30184.12
583.449	30190.9
583.809	30182.77
584.169	30397.68
584.529	30265.25
584.889	30529.42
585.249	30322.65
585.609	30332.37
585.969	30492.14
586.329	30323.78
586.688	30308.19
587.048	30344.12
587.408	30246.72
587.768	30472.93
588.127	30273.38
588.487	30373.72
588.846	30477.67
589.206	30291.24
589.565	30340.5
589.925	30491.46
590.284	30321.29
590.643	30463.21
591.003	30567.84
591.362	30552.02
591.721	30538.69
592.08	30625.69
592.44	30598.12
592.799	30741.62
593.158	30620.04
593.517	30615.75
593.876	30565.58
594.235	30678.12
594.593	30507.73
594.952	30763.99
595.311	30587.27
595.67	30565.13
596.029	30825.01
596.387	30943.2
596.746	30934.84
597.104	30820.49
597.463	30736.88
597.822	30983.65
598.18	30808.29
598.538	30759.93
598.897	30944.55
599.255	30777.55
599.613	31049.86
599.972	30927.83
600.33	31098.22
600.688	31041.73
601.046	30990.43
601.404	31147.49
601.762	31087.15
602.12	31219.12
602.478	31191.78
602.836	31250.53
603.194	31142.06
603.552	31054.38
603.91	31094.15
604.268	31189.74
604.625	31192.23
604.983	31301.15
605.341	31225.45
605.698	31355.39
606.056	31423.64
606.413	31537.98
606.771	31479.91
607.128	31586.34
607.485	31539.11
607.843	31541.6
608.2	31750.63
608.557	31739.11
608.914	31612.33
609.272	31857.98
609.629	31843.74
609.986	31945.66
610.343	31718.32
610.7	32162.83
611.057	32025.88
611.414	31794.25
611.771	31865.21
612.127	32040.34
612.484	31963.74
612.841	32078.54
613.198	32035.15
613.554	32030.17
613.911	32303.61
614.267	32247.8
614.624	32088.25
614.98	32311.75
615.337	32382.48
615.693	32426.77
616.05	32293.9
616.406	32503.16
616.762	32467.9
617.118	32390.62
617.475	32390.17
617.831	32617.5
618.187	32450.95
618.543	32559.88
618.899	32715.58
619.255	32669.71
619.611	32524.85
619.967	32730.27
620.323	32824.73
620.678	32614.57
621.034	32645.07
621.39	32515.13
621.746	32596.94
622.101	32883.71
622.457	32725.07
622.812	32765.07
623.168	32794
623.523	32836.48
623.879	32801.91
624.234	32700.44
624.589	32810.27
624.945	32873.99
625.3	32892.07
625.655	32672.42
626.01	32801.45
626.365	32774.34
626.72	32701.34
627.075	32711.29
627.43	32795.58
627.785	32772.08
628.14	32673.77
628.495	32781.57
628.85	32742.7
629.205	32646.66
629.559	32840.55
629.914	32582.93
630.269	32567.79
630.623	32675.13
630.978	32541.57
631.332	32657.73
631.687	32731.85
632.041	32668.35
632.396	32535.02
632.75	32423.16
633.104	32522.37
633.459	32416.15
633.813	32353.1
634.167	32475.13
634.521	32294.57
634.875	32278.53
635.229	32244.41
635.583	32161.02
635.937	32238.08
636.291	32051.42
636.645	32122.38
636.999	32086.67
637.352	32102.26
637.706	31974.81
638.06	32024.53
638.413	32039.21
638.767	31858.2
639.121	31986.79
639.474	31771.42
639.828	31789.05
640.181	31769.16
640.534	31661.82
640.888	31716.06
641.241	31398.78
641.594	31504.09
641.947	31683.29
642.301	31560.58
642.654	31596.29
643.007	31480.36
643.36	31453.69
643.713	31411.66
644.066	31375.28
644.419	31168.05
644.771	31235.62
645.124	30949.3
645.477	30811
645.83	30510.89
646.182	30449.88
646.535	30292.82
646.888	30508.18
647.24	30128.08
647.593	30308.19
647.945	30265.02
648.298	29942.77
648.65	30005.14
649.002	29934.18
649.355	30102.09
649.707	30118.13
650.059	30204.23
650.411	30561.29
650.763	30591.12
651.115	30893.71
651.467	30714.73
651.819	30733.71
652.171	30665.69
652.523	30574.17
652.875	30532.59
653.227	30579.37
653.578	30654.62
653.93	30349.77
654.282	30477
654.633	30296.89
654.985	30317.23
655.337	30408.52
655.688	30333.5
656.039	30490.78
656.391	30164.24
656.742	30326.72
657.094	30371.24
657.445	30445.13
657.796	30289.88
658.147	30307.73
658.498	30156.1
658.849	30199.94
659.2	30274.51
659.551	30162.88
659.902	30211.24
660.253	30202.88
660.604	30117.46
660.955	29964.69
661.306	30167.62
661.656	30096.89
662.007	30136.67
662.358	29989.32
662.708	30040.17
663.059	29982.54
663.409	29866.16
663.76	30014.86
664.11	30025.03
664.461	29964.69
664.811	30020.51
665.161	30029.55
665.511	29859.61
665.862	29924.24
666.212	29978.03
666.562	29967.86
666.912	29863.68
667.262	29729.67
667.612	29897.8
667.962	29876.33
668.312	29797.24
668.662	29949.55
669.011	29743.68
669.361	29681.99
669.711	29715.89
670.06	29728.99
670.41	29636.79
670.76	29652.38
671.109	29720.86
671.459	29650.12
671.808	29674.53
672.157	29651.48
672.507	29405.39
672.856	29531.26
673.205	29498.04
673.554	29640.63
673.904	29389.79
674.253	29576.68
674.602	29381.66
674.951	29060.99
675.3	28861.9
675.649	29232.96
675.998	29420.3
676.346	29280.19
676.695	29440.64
677.044	29149.8
677.393	29176.46
677.741	29225.5
678.09	29139.86
678.438	29080.87
678.787	29215.79
679.135	29103.02
679.484	28962.23
679.832	29080.42
680.181	28883.36
680.529	29068.9
680.877	28951.61
681.225	28900.09
681.573	28972.63
681.922	28918.39
682.27	28726.76
682.618	28868.45
682.966	28616.25
683.314	28653.54
683.661	28681.56
684.009	28568.8
684.357	28453.55
684.705	28373.55
685.053	28445.41
685.4	28338.07
685.748	28255.36
686.095	28234.34
686.443	28096.49
686.79	28103.27
687.138	28027.79
687.485	27972.65
687.832	28000.9
688.18	28010.85
688.527	27827.8
688.874	27792.55
689.221	27810.17
689.568	27738.08
689.915	27555.04
690.262	27622.38
690.609	27652.66
690.956	27463.52
691.303	27466.45
691.65	27378.55
691.997	27305.55
692.344	27091.77
692.69	27176.52
693.037	27216.52
693.383	26939.01
693.73	27015.62
694.077	26801.16
694.423	26765
694.769	26695.17
695.116	26645.01
695.462	26613.14
695.808	26511
696.155	26525.01
696.501	26509.42
696.847	26377.89
697.193	26161.63
697.539	26244.79
697.885	26088.86
698.231	25981.52
698.577	25980.84
698.923	25986.49
699.269	25859.26
699.614	25715.54
699.96	25677.8
700.306	25663.34
700.651	25573.85
700.997	25444.13
701.342	25459.5
701.688	25412.5
702.033	25243.46
702.379	25356.45
702.724	25297.02
703.069	25286.85
703.415	24968.44
703.76	24950.36
704.105	24877.59
704.45	24921.89
704.795	24785.17
705.14	24764.6
705.485	24718.05
705.83	24643.02
706.175	24647.77
706.52	24525.06
706.865	24461.33
707.209	24461.56
707.554	24251.85
707.899	24323.94
708.243	24273.32
708.588	24285.29
708.932	23972.08
709.277	24103.15
709.621	24028.58
709.966	23951.74
710.31	23949.26
710.654	23747
710.998	23796.49
711.342	23728.92
711.687	23758.98
712.031	23562.15
712.375	23539.32
712.719	23633.11
713.063	23526.44
713.407	23526.67
713.75	23396.5
714.094	23468.14
714.438	23229.05
714.782	23361.48
715.125	23192.67
715.469	23207.81
715.812	23050.75
716.156	23001.71
716.499	23010.52
716.843	22968.49
717.186	22895.5
717.53	22975.5
717.873	22984.76
718.216	22908.61
718.559	22686.92
718.902	22609.18
719.246	22681.95
719.589	22558.11
719.932	22534.15
720.275	22470.43
720.617	22460.71
720.96	22468.39
721.303	22526.02
721.646	22495.06
721.989	22361.05
722.331	22372.35
722.674	22339.81
723.016	22193.15
723.359	22233.6
723.701	22229.53
724.044	22032.02
724.386	22022.75
724.729	22002.42
725.071	22000.38
725.413	21984.79
725.755	21897.56
726.097	21942.53
726.439	21742.54
726.782	21752.25
727.124	21928.75
727.465	21735.76
727.807	21728.98
728.149	21466.61
728.491	21570.11
728.833	21616.44
729.175	21549.55
729.516	21530.79
729.858	21564.01
730.199	21528.53
730.541	21435.88
730.882	21319.04
731.224	21484.46
731.565	21236.11
731.906	21346.84
732.248	21232.04
732.589	21077.69
732.93	21179.84
733.271	21138.26
733.612	21059.16
733.953	21143.68
734.294	21071.59
734.635	21013.29
734.976	20980.07
735.317	20965.83
735.658	20907.98
735.999	20796.8
736.339	20781.66
736.68	20906.17
737.021	20794.31
737.361	20656.01
737.702	20801.32
738.042	20651.04
738.383	20640.19
738.723	20739.85
739.063	20569.23
739.404	20576.69
739.744	20629.57
740.084	20498.05
740.424	20504.38
740.764	20507.09
741.104	20577.82
741.444	20351.84
741.784	20294.66
742.124	20296.92
742.464	20348.22
742.804	20280.43
743.143	20289.47
743.483	20225.51
743.823	20101.67
744.162	20199.07
744.502	20177.15
744.841	20033.2
745.181	20103.71
745.52	20046.76
745.86	20016.93
746.199	20015.12
746.538	19908.46
746.877	20018.97
747.216	19966.76
747.556	19911.85
747.895	19844.73
748.234	19800.44
748.573	19724.74
748.911	19680.44
749.25	19714.11
749.589	19566.1
749.928	19610.61
750.267	19524.06
750.605	19461.24
750.944	19506.89
751.283	19340.11
751.621	19373.33
751.96	19366.1
752.298	19393.44
752.636	19289.72
752.975	19160.68
753.313	19078.65
753.651	19212.43
753.989	19042.49
754.327	19054.02
754.666	19046.56
