Data from breadboard_white_FLMS001491_00020.txt Node
Date: Wed Feb 08 10:47:21 GMT 2017
User: dcchb
Spectrometer: FLMS00149
Trigger mode: 0
Integration Time (sec): 2.000000E-2
Scans to average: 10
Electric dark correction enabled: true
Nonlinearity correction enabled: false
Boxcar width: 0
XAxis mode: Wavelengths
Number of Pixels in Spectrum: 2048
>>>>>Begin Spectral Data<<<<<
341.393	-4.04
341.776	-4.04
342.16	-4.04
342.543	-52.85
342.927	-61.21
343.31	-56.47
343.693	-66.86
344.077	-65.51
344.46	-50.37
344.843	-75.9
345.226	-49.69
345.61	-19.41
345.993	-20.54
346.376	0.71
346.759	14.94
347.142	14.04
347.525	26.24
347.908	55.62
348.291	73.7
348.674	108.05
349.057	111.44
349.44	135.39
349.823	150.31
350.206	149.18
350.588	216.07
350.971	229.85
351.354	260.36
351.737	257.42
352.119	299
352.502	294.26
352.884	285.67
353.267	323.86
353.65	320.7
354.032	324.09
354.414	343.97
354.797	334.48
355.179	331.54
355.562	367.48
355.944	361.6
356.326	361.37
356.709	380.36
357.091	357.31
357.473	364.76
357.855	366.57
358.238	380.13
358.62	358.44
359.002	357.98
359.384	364.54
359.766	366.35
360.148	351.21
360.53	365.44
360.912	366.35
361.294	362.96
361.676	361.83
362.057	370.64
362.439	367.25
362.821	358.44
363.203	365.22
363.584	378.78
363.966	342.84
364.348	360.92
364.729	371.77
365.111	369.74
365.493	353.92
365.874	332.22
366.256	376.06
366.637	369.28
367.019	341.04
367.4	340.13
367.781	360.7
368.163	357.98
368.544	359.11
368.925	358.66
369.306	370.41
369.688	374.93
370.069	363.63
370.45	361.6
370.831	362.96
371.212	366.12
371.593	370.41
371.974	376.06
372.355	330.87
372.736	360.24
373.117	367.93
373.498	373.8
373.879	347.14
374.26	386.91
374.641	381.26
375.021	357.76
375.402	369.28
375.783	380.13
376.163	394.82
376.544	389.17
376.925	383.07
377.305	396.4
377.686	385.1
378.066	416.97
378.447	427.36
378.827	435.27
379.208	414.03
379.588	402.73
379.968	420.81
380.349	411.99
380.729	414.71
381.109	427.14
381.489	416.51
381.87	415.16
382.25	418.32
382.63	410.19
383.01	426.23
383.39	412.67
383.77	432.79
384.15	434.37
384.53	432.79
384.91	447.25
385.29	440.69
385.67	452.9
386.049	467.59
386.429	478.43
386.809	458.77
387.189	503.74
387.568	483.63
387.948	468.26
388.328	491.54
388.707	484.54
389.087	494.93
389.466	504.2
389.846	514.59
390.225	510.52
390.605	531.09
390.984	510.52
391.363	536.51
391.743	534.7
392.122	550.75
392.501	552.1
392.881	572.22
393.26	544.87
393.639	563.86
394.018	591.2
394.397	594.14
394.776	581.26
395.155	588.71
395.534	614.48
395.913	596.62
396.292	628.49
396.671	625.32
397.05	665.1
397.429	622.16
397.808	664.64
398.186	673.91
398.565	686.56
398.944	710.97
399.323	681.82
399.701	717.3
400.08	726.11
400.458	703.06
400.837	748.03
401.215	749.16
401.594	750.52
401.972	769.95
402.351	750.52
402.729	796.62
403.107	774.7
403.486	803.17
403.864	835.49
404.242	826.9
404.62	845.88
404.999	887.46
405.377	872.77
405.755	885.65
406.133	905.99
406.511	919.78
406.889	953.22
407.267	971.3
407.645	978.99
408.023	997.74
408.401	996.61
408.779	1014.46
409.156	1037.52
409.534	1060.11
409.912	1112.99
410.29	1107.8
410.667	1105.76
411.045	1154.12
411.422	1187.34
411.8	1169.72
412.178	1212.88
412.555	1232.09
412.933	1256.04
413.31	1298.75
413.687	1290.39
414.065	1352.08
414.442	1347.11
414.819	1364.29
415.197	1383.49
415.574	1427.34
415.951	1485.41
416.328	1468.46
416.705	1500.33
417.082	1485.64
417.46	1534.23
417.837	1557.5
418.214	1557.28
418.591	1602.7
418.967	1625.97
419.344	1642.24
419.721	1657.16
420.098	1640.21
420.475	1694.67
420.852	1690.61
421.228	1753.43
421.605	1770.6
421.982	1753.43
422.358	1799.3
422.735	1816.7
423.111	1833.2
423.488	1893.31
423.864	1886.98
424.241	1916.59
424.617	1914.78
424.994	1958.85
425.37	1931.28
425.746	2007.66
426.123	2002.24
426.499	2014.44
426.875	2085.4
427.251	2113.42
427.627	2159.29
428.003	2163.59
428.379	2185.28
428.756	2214.89
429.132	2257.37
429.507	2305.5
429.883	2317.93
430.259	2358.61
430.635	2356.58
431.011	2417.37
431.387	2488.1
431.763	2481.09
432.138	2521.54
432.514	2593.86
432.89	2579.4
433.265	2627.53
433.641	2686.06
434.016	2713.18
434.392	2751.82
434.767	2778.94
435.143	2794.31
435.518	2844.02
435.894	2870.46
436.269	2937.13
436.644	2955.2
437.02	2994.07
437.395	3023.68
437.77	3099.38
438.145	3109.33
438.52	3117.91
438.895	3155.43
439.271	3178.02
439.646	3261.86
440.021	3275.87
440.395	3291.24
440.77	3269.77
441.145	3311.58
441.52	3353.61
441.895	3409.43
442.27	3401.29
442.645	3445.14
443.019	3481.07
443.394	3495.08
443.769	3564.91
444.143	3524.91
444.518	3595.19
444.892	3580.73
445.267	3634.28
445.641	3657.79
446.016	3700.04
446.39	3707.73
446.764	3745.01
447.139	3779.14
447.513	3830.21
447.887	3867.05
448.262	3820.04
448.636	3885.58
449.01	3917.67
449.384	3958.57
449.758	4015.52
450.132	4011
450.506	4067.72
450.88	4062.75
451.254	4082.63
451.628	4150.43
452.002	4232.01
452.376	4256.87
452.75	4303.19
453.123	4337.32
453.497	4420.03
453.871	4452.34
454.244	4492.34
454.618	4521.04
454.992	4626.57
455.365	4626.57
455.739	4730.53
456.112	4791.54
456.486	4844.19
456.859	4918.32
457.232	5002.61
457.606	4946.79
457.979	5052.55
458.352	5145.66
458.725	5217.52
459.099	5277.18
459.472	5314.24
459.845	5488.02
460.218	5464.74
460.591	5549.71
460.964	5527.34
461.337	5683.27
461.71	5792.64
462.083	5855.47
462.456	5876.71
462.829	5838.52
463.201	6010.72
463.574	6039.42
463.947	6144.5
464.32	6307.43
464.692	6311.27
465.065	6398.05
465.438	6477.37
465.81	6600.76
466.183	6638.72
466.555	6823.8
466.928	6799.62
467.3	6786.97
467.672	6951.94
468.045	7171.37
468.417	7176.56
468.789	7237.58
469.161	7271.48
469.534	7443.9
469.906	7605.7
470.278	7648.87
470.65	7786.26
471.022	7904
471.394	8077.1
471.766	8160.94
472.138	8208.85
472.51	8462.63
472.882	8544.89
473.253	8631.89
473.625	8754.37
473.997	8942.62
474.369	9001.37
474.74	9116.62
475.112	9271.42
475.484	9428.25
475.855	9595.26
476.227	9716.38
476.598	9987.79
476.97	10038.86
477.341	10286.76
477.713	10441.34
478.084	10595
478.455	10842.46
478.827	10928.1
479.198	11260.52
479.569	11284.7
479.94	11618.93
480.311	11696.44
480.682	11952.48
481.053	12213.04
481.424	12378.23
481.795	12454.39
482.166	12723.54
482.537	12908.16
482.908	13154.48
483.279	13356.06
483.65	13538.2
484.021	13815.48
484.391	13913.79
484.762	14090.28
485.133	14246.43
485.503	14469.48
485.874	14763.93
486.244	15016.58
486.615	15193.75
486.985	15320.53
487.356	15678.71
487.726	15900.18
488.097	16200.73
488.467	16201.18
488.837	16673.04
489.207	16802.75
489.578	17104.66
489.948	17100.14
490.318	17381.27
490.688	17521.83
491.058	17772.44
491.428	18048.37
491.798	18190.51
492.168	18570.39
492.538	18632.53
492.908	18799.08
493.278	19124.05
493.648	19181.44
494.017	19437.71
494.387	19540.98
494.757	19778.94
495.126	20055.55
495.496	20021.42
495.866	20158.82
496.235	20382.77
496.605	20712.03
496.974	20743.66
497.344	20924.9
497.713	21144.56
498.082	21209.19
498.452	21476.75
498.821	21618.22
499.19	21708.38
499.559	21937.3
499.928	22106.11
500.298	22197.41
500.667	22353.34
501.036	22394.47
501.405	22744.51
501.774	22684.18
502.143	22956.49
502.512	23195.8
502.88	23283.26
503.249	23280.55
503.618	23531.84
503.987	23456.59
504.356	23779.52
504.724	23925.5
505.093	24049.79
505.462	24145.83
505.83	24440.74
506.199	24637.8
506.567	24873.27
506.936	24848.41
507.304	25223.77
507.672	25231.68
508.041	25472.8
508.409	25730.2
508.777	25922.96
509.145	26066.01
509.514	26011.55
509.882	26293.8
510.25	26442.72
510.618	26618.09
510.986	26789.83
511.354	27039.54
511.722	27233.21
512.09	27479.98
512.458	27444.96
512.826	27773.08
513.193	27954.1
513.561	27978.05
513.929	28285.16
514.297	28574.42
514.664	28674.98
515.032	28733.51
515.4	29175.76
515.767	29266.38
516.135	29415.3
516.502	29384.11
516.869	29881.28
517.237	30017.32
517.604	29925.57
517.972	30311.1
518.339	30590.41
518.706	30617.75
519.073	30911.76
519.44	31257.06
519.808	31452.08
520.175	31377.06
520.542	31852.98
520.909	32090.48
521.276	32094.78
521.643	32469.23
522.009	32695.44
522.376	32970.01
522.743	33207.52
523.11	33521.63
523.477	33755.52
523.843	33826.48
524.21	34452.46
524.577	34588.27
524.943	34730.41
525.31	34909.62
525.676	35279.78
526.043	35505.76
526.409	35667.56
526.776	36079.98
527.142	36147.1
527.508	36394.33
527.874	36680.87
528.241	36771.94
528.607	36939.17
528.973	37338.26
529.339	37251.7
529.705	37681.3
530.071	37858.02
530.437	38158.12
530.803	38307.27
531.169	38453.48
531.535	38647.83
531.901	38702.74
532.267	39070.64
532.632	39219.34
532.998	39436.96
533.364	39563.28
533.73	39697.29
534.095	40084.4
534.461	40171.85
534.826	40249.82
535.192	40441.22
535.557	40704.72
535.923	40779.07
536.288	40975.67
536.653	41200.75
537.019	41231.49
537.384	41416.34
537.749	41632.61
538.114	41741.98
538.479	41668.09
538.845	41990.56
539.21	41980.85
539.575	42120.05
539.94	42229.2
540.305	42445.92
540.67	42519.14
541.034	42646.59
541.399	42919.8
541.764	42923.65
542.129	43033.47
542.494	43119.8
542.858	43292.45
543.223	43358.89
543.587	43684.08
543.952	43715.71
544.316	43755.71
544.681	43898.99
545.045	44218.75
545.41	44201.13
545.774	44409.26
546.138	44266.43
546.503	44619.65
546.867	44588.01
547.231	44809.25
547.595	45002.01
547.959	45195
548.324	45380.3
548.688	45281.78
549.052	45460.98
549.416	45576.23
549.779	45681.76
550.143	45731.03
550.507	46115.88
550.871	46105.26
551.235	46136.44
551.599	46505.47
551.962	46542.08
552.326	46702.76
552.689	46820.49
553.053	46761.96
553.417	46953.37
553.78	47349.97
554.143	47129.18
554.507	47486.46
554.87	47647.14
555.234	47955.15
555.597	47754.93
555.96	48055.04
556.323	48240.57
556.686	48228.14
557.05	48495.93
557.413	48548.81
557.776	48677.84
558.139	48859.76
558.502	48922.81
558.865	49099.08
559.228	49497.71
559.59	49522.12
559.953	49636.69
560.316	49959.17
560.679	49885.04
561.041	50141.08
561.404	50368.42
561.767	50593.5
562.129	50509.89
562.492	50842.99
562.854	50756.21
563.217	50843.44
563.579	51077.78
563.941	51272.8
564.304	51330.66
564.666	51537.88
565.028	51694.94
565.39	51688.39
565.753	51950.53
566.115	52023.75
566.477	52160.46
566.839	52237.07
567.201	52414.02
567.563	52430.97
567.925	52685.2
568.287	52632.09
568.648	52800.67
569.01	52917.28
569.372	53161.57
569.734	53068.92
570.095	53275.24
570.457	53333.09
570.819	53440.21
571.18	53415.35
571.542	53574.21
571.903	53569.92
572.265	53763.36
572.626	53810.82
572.987	53914.77
573.349	54048.32
573.71	54085.16
574.071	54204.25
574.432	54273.86
574.794	54495.54
575.155	54419.39
575.516	54306.85
575.877	54521.08
576.238	54508.88
576.599	54657.8
576.96	54625.48
577.32	54710.91
577.681	54803.56
578.042	54875.65
578.403	54858.7
578.763	54885.36
579.124	54880.17
579.485	54979.83
579.845	55080.39
580.206	55027.06
580.566	54987.96
580.927	55134.62
581.287	55244.68
581.648	55183.44
582.008	55274.51
582.368	55174.4
582.728	55288.74
583.089	55244
583.449	55258.91
583.809	55238.35
584.169	55303.21
584.529	55231.57
584.889	55422.53
585.249	55244.9
585.609	55192.25
585.969	55364
586.329	55255.3
586.688	55307.27
587.048	55240.38
587.408	55247.62
587.768	55203.55
588.127	55261.63
588.487	55289.2
588.846	55353.38
589.206	55123.55
589.565	55201.29
589.925	55348.63
590.284	55259.14
590.643	55326.71
591.003	55387.05
591.362	55474.5
591.721	55367.16
592.08	55354.73
592.44	55337.33
592.799	55421.4
593.158	55281.96
593.517	55384.56
593.876	55390.66
594.235	55375.07
594.593	55421.85
594.952	55457.55
595.311	55375.52
595.67	55429.08
596.029	55577.1
596.387	55573.93
596.746	55598.11
597.104	55442.64
597.463	55467.95
597.822	55593.59
598.18	55502.98
598.538	55493.71
598.897	55676.98
599.255	55379.82
599.613	55801.05
599.972	55641.05
600.33	55670.88
600.688	55587.49
601.046	55630.43
601.404	55784.78
601.762	55743.42
602.12	55840.59
602.478	55816.87
602.836	55853.7
603.194	55738.45
603.552	55826.13
603.91	55742.74
604.268	55875.4
604.625	55731.67
604.983	56028.84
605.341	55813.7
605.698	55841.95
606.056	56006.24
606.413	55974.38
606.771	56082.17
607.128	56048.27
607.485	55984.77
607.843	56028.84
608.2	56182.28
608.557	56226.8
608.914	56155.39
609.272	56247.81
609.629	56227.93
609.986	56354.48
610.343	56226.57
610.7	56480.13
611.057	56338.21
611.414	56290.07
611.771	56388.15
612.127	56477.41
612.484	56461.59
612.841	56482.38
613.198	56402.16
613.554	56458.88
613.911	56612.55
614.267	56546.34
614.624	56544.53
614.98	56648.26
615.337	56662.72
615.693	56628.37
616.05	56597.86
616.406	56806.22
616.762	56665.43
617.118	56710.18
617.475	56758.31
617.831	56784.07
618.187	56797.4
618.543	56779.78
618.899	56972.77
619.255	56834.24
619.611	56825.2
619.967	56894.58
620.323	56985.2
620.678	56816.61
621.034	56831.53
621.39	56826.33
621.746	56829.04
622.101	57078.98
622.457	56798.99
622.812	56928.93
623.168	57041.69
623.523	57024.97
623.879	57060.22
624.234	56853.22
624.589	56981.81
624.945	57069.71
625.3	57074.01
625.655	56957.17
626.01	56949.27
626.365	56919.66
626.72	56963.95
627.075	56975.71
627.43	57004.18
627.785	56876.95
628.14	56869.72
628.495	56909.49
628.85	56864.52
629.205	56755.6
629.559	56954.46
629.914	56701.36
630.269	56864.52
630.623	56631.53
630.978	56583.85
631.332	56773.9
631.687	56712.21
632.041	56594.92
632.396	56681.02
632.75	56641.93
633.104	56583.4
633.459	56443.29
633.813	56404.42
634.167	56414.82
634.521	56434.93
634.875	56436.51
635.229	56358.55
635.583	56361.03
635.937	56303.18
636.291	56319
636.645	56273.8
636.999	56158.1
637.352	56225.44
637.706	56042.62
638.06	56127.59
638.413	56042.85
638.767	56010.08
639.121	56045.11
639.474	55834.49
639.828	55848.96
640.181	56003.98
640.534	55881.5
640.888	55782.97
641.241	55728.05
641.594	55787.94
641.947	55901.61
642.301	55698.9
642.654	55752.46
643.007	55730.09
643.36	55652.35
643.713	55659.81
644.066	55709.3
644.419	55537.78
644.771	55301.85
645.124	55113.83
645.477	55105.47
645.83	54911.13
646.182	54651.02
646.535	54586.39
646.888	54575.32
647.24	54488.77
647.593	54533.74
647.945	54540.29
648.298	54414.19
648.65	54254.19
649.002	54186.63
649.355	54330.13
649.707	54308.2
650.059	54446.51
650.411	54793.62
650.763	54730.79
651.115	55038.36
651.467	54969.2
651.819	54975.53
652.171	54839.72
652.523	54759.94
652.875	54782.77
653.227	54661.19
653.578	54888.98
653.93	54802.43
654.282	54638.59
654.633	54528.09
654.985	54633.85
655.337	54678.82
655.688	54631.36
656.039	54728.31
656.391	54389.56
656.742	54483.57
657.094	54499.61
657.445	54552.27
657.796	54461.2
658.147	54416.22
658.498	54408.77
658.849	54463.68
659.2	54422.55
659.551	54365.15
659.902	54466.39
660.253	54365.38
660.604	54346.17
660.955	54232.05
661.306	54232.27
661.656	54236.34
662.007	54264.59
662.358	54217.36
662.708	54205.38
663.059	54172.39
663.409	53971.49
663.76	54204.48
664.11	54101.88
664.461	54104.14
664.811	54160.64
665.161	54063.92
665.511	53941.21
665.862	53993.64
666.212	54121.09
666.562	54082.22
666.912	53977.14
667.262	53935.33
667.612	54021.88
667.962	54005.84
668.312	53956.35
668.662	54048.32
669.011	54022.11
669.361	53936.01
669.711	53804.94
670.06	53806.3
670.41	53801.1
670.76	53737.6
671.109	53808.1
671.459	53743.47
671.808	53699.63
672.157	53719.29
672.507	53509.36
672.856	53488.57
673.205	53623.03
673.554	53602.69
673.904	53462.58
674.253	53628.22
674.602	53467.55
674.951	53131.96
675.3	52981.69
675.649	53328.8
675.998	53410.6
676.346	53396.14
676.695	53376.48
677.044	53246.76
677.393	53321.11
677.741	53357.27
678.09	53395.69
678.438	53272.98
678.787	53314.56
679.135	53198.18
679.484	52933.1
679.832	53178.74
680.181	52905.53
680.529	53053.32
680.877	52929.03
681.225	52917.05
681.573	53087.9
681.922	52878.19
682.27	52697.63
682.618	52806.32
682.966	52663.95
683.314	52792.54
683.661	52576.27
684.009	52530.4
684.357	52447.91
684.705	52310.52
685.053	52422.83
685.4	52323.17
685.748	52078.66
686.095	52136.96
686.443	52087.25
686.79	51945.1
687.138	51971.32
687.485	51979.68
687.832	51887.93
688.18	51955.05
688.527	51705.79
688.874	51688.61
689.221	51522.29
689.568	51507.83
689.915	51431.9
690.262	51418.56
690.609	51281.17
690.956	51186.7
691.303	51035.75
691.65	50946.94
691.997	50859.26
692.344	50650.67
692.69	50741.52
693.037	50747.39
693.383	50471.24
693.73	50473.73
694.077	50371.36
694.423	50317.35
694.769	50162.78
695.116	50094.3
695.462	49974.76
695.808	49924.37
696.155	49985.38
696.501	49596.69
696.847	49703.13
697.193	49330.48
697.539	49596.24
697.885	49262.91
698.231	49127.78
698.577	49110.6
698.923	49165.52
699.269	48968.68
699.614	48744.51
699.96	48703.61
700.306	48628.35
700.651	48464.74
700.997	48368.7
701.342	48402.82
701.688	48165.77
702.033	48080.12
702.379	48088.48
702.724	47970.97
703.069	47942.95
703.415	47502.96
703.76	47547.48
704.105	47612.79
704.45	47442.85
704.795	47211.22
705.14	47076.08
705.485	47062.52
705.83	46948.85
706.175	46989.98
706.52	46726.48
706.865	46626.82
707.209	46620.5
707.554	46487.62
707.899	46493.04
708.243	46334.86
708.588	46291.01
708.932	46072.72
709.277	46038.59
709.621	46010.57
709.966	45612.39
710.31	45734.19
710.654	45374.2
710.998	45459.17
711.342	45557.47
711.687	45323.58
712.031	45162
712.375	45087.88
712.719	45173.08
713.063	44912.29
713.407	45107.99
713.75	44754.11
714.094	44649.7
714.438	44479.76
714.782	44546.2
715.125	44332.42
715.469	44479.54
715.812	44212.88
716.156	44048.36
716.499	44082.26
716.843	44118.64
717.186	43720.46
717.53	44015.14
717.873	43899.44
718.216	43844.53
718.559	43704.87
718.902	43392.56
719.246	43499.22
719.589	43291.09
719.932	43203.19
720.275	43190.98
720.617	43204.77
720.96	43054.26
721.303	42991.67
721.646	42921.16
721.989	42725.46
722.331	42855.62
722.674	42712.35
723.016	42723.88
723.359	42619.92
723.701	42556.2
724.044	42294.74
724.386	42196.43
724.729	42412.92
725.071	42214.96
725.413	42183.55
725.755	42125.47
726.097	41988.53
726.439	41839.83
726.782	41808.87
727.124	41981.75
727.465	41619.05
727.807	41537.24
728.149	41387.19
728.491	41346.74
728.833	41325.72
729.175	41156.01
729.516	41076.01
729.858	41098.38
730.199	41189.23
730.541	41037.14
730.882	40982.45
731.224	41099.06
731.565	40716.25
731.906	40803.25
732.248	40945.62
732.589	40628.56
732.93	40529.58
733.271	40505.4
733.612	40653.2
733.953	40612.75
734.294	40267.9
734.635	40085.08
734.976	40192.87
735.317	40062.93
735.658	40007.56
735.999	40003.5
736.339	39774.58
736.68	39973.21
737.021	39744.75
737.361	39499.33
737.702	39719.66
738.042	39587.01
738.383	39518.54
738.723	39560.57
739.063	39421.59
739.404	39502.27
739.744	39369.39
740.084	39107.47
740.424	39166.91
740.764	39159
741.104	39231.54
741.444	38983.64
741.784	38836.97
742.124	38915.84
742.464	38840.36
742.804	38618.22
743.143	38716.3
743.483	38667.26
743.823	38476.08
744.162	38369.41
744.502	38578
744.841	38335.07
745.181	38378.91
745.52	38270.89
745.86	38170.78
746.199	37979.82
746.538	38079.25
746.877	38171
747.216	37977.11
747.556	37926.94
747.895	37805.81
748.234	37665.03
748.573	37676.33
748.911	37585.03
749.25	37448.99
749.589	37331.48
749.928	37380.06
750.267	37324.47
750.605	37190.01
750.944	37004.03
751.283	36898.95
751.621	37135.77
751.96	36747.54
752.298	36781.66
752.636	36862.11
752.975	36584.83
