Data from breadboard_black_back_FLMS001491_00063.txt Node
Date: Wed Feb 08 10:50:43 GMT 2017
User: dcchb
Spectrometer: FLMS00149
Trigger mode: 0
Integration Time (sec): 2.000000E-2
Scans to average: 10
Electric dark correction enabled: true
Nonlinearity correction enabled: false
Boxcar width: 0
XAxis mode: Wavelengths
Number of Pixels in Spectrum: 2048
>>>>>Begin Spectral Data<<<<<
341.393	-12.75
341.776	-12.75
342.16	-12.75
342.543	-59.76
342.927	-63.83
343.31	-65.18
343.693	-61.34
344.077	-77.38
344.46	-77.16
344.843	-34.22
345.226	-46.65
345.61	-34
345.993	-9.82
346.376	8.04
346.759	2.16
347.142	4.42
347.525	64.31
347.908	47.58
348.291	74.02
348.674	90.52
349.057	114.7
349.44	118.32
349.823	129.39
350.206	158.32
350.588	189.5
350.971	205.09
351.354	209.61
351.737	247.13
352.119	239.67
352.502	257.52
352.884	257.3
353.267	282.83
353.65	286.9
354.032	283.51
354.414	307.69
354.797	327.12
355.179	304.98
355.562	315.15
355.944	314.24
356.326	338.2
356.709	315.83
357.091	346.56
357.473	347.24
357.855	323.06
358.238	333.9
358.62	330.97
359.002	339.55
359.384	337.75
359.766	357.18
360.148	369.83
360.53	357.18
360.912	346.56
361.294	335.03
361.676	354.02
362.057	326.67
362.439	314.02
362.821	319.44
363.203	323.96
363.584	335.49
363.966	317.86
364.348	327.35
364.729	325.99
365.111	340.91
365.493	330.06
365.874	332.1
366.256	328.48
366.637	321.25
367.019	329.84
367.4	324.19
367.781	320.12
368.163	340.23
368.544	313.57
368.925	323.96
369.306	320.12
369.688	309.05
370.069	325.77
370.45	323.96
370.831	344.07
371.212	343.17
371.593	316.28
371.974	337.29
372.355	339.1
372.736	355.82
373.117	347.01
373.498	337.07
373.879	351.53
374.26	327.8
374.641	347.24
375.021	335.94
375.402	352.89
375.783	345.43
376.163	361.25
376.544	367.8
376.925	372.09
377.305	353.56
377.686	367.12
378.066	375.03
378.447	376.39
378.827	369.38
379.208	381.13
379.588	367.58
379.968	370.51
380.349	370.51
380.729	361.93
381.109	387.46
381.489	368.48
381.87	366.67
382.25	384.75
382.63	402.83
383.01	401.02
383.39	413.68
383.77	391.53
384.15	403.05
384.53	401.7
384.91	407.12
385.29	406.22
385.67	407.57
386.049	414.58
386.429	399.21
386.809	419.1
387.189	405.77
387.568	424.52
387.948	411.42
388.328	452.54
388.707	432.66
389.087	451.19
389.466	427.69
389.846	450.74
390.225	441.25
390.605	442.38
390.984	454.58
391.363	464.97
391.743	454.58
392.122	461.36
392.501	462.94
392.881	473.34
393.26	464.3
393.639	488.02
394.018	471.3
394.397	490.96
394.776	499.55
395.155	498.65
395.534	498.65
395.913	507.01
396.292	489.83
396.671	514.46
397.05	494.35
397.429	530.06
397.808	521.47
398.186	553.56
398.565	512.43
398.944	525.76
399.323	555.59
399.701	553.33
400.08	520.11
400.458	540.9
400.837	549.72
401.215	531.64
401.594	556.5
401.972	560.11
402.351	567.8
402.729	558.53
403.107	597.63
403.486	561.92
403.864	593.78
404.242	601.24
404.62	608.47
404.999	598.76
405.377	624.52
405.755	587
406.133	617.06
406.511	615.48
406.889	659.77
407.267	633.33
407.645	660.45
408.023	656.38
408.401	657.28
408.779	669.04
409.156	664.29
409.534	678.53
409.912	705.65
410.29	693.67
410.667	686.44
411.045	706.55
411.422	714.46
411.8	711.75
412.178	749.71
412.555	767.79
412.933	746.55
413.31	761.46
413.687	754.01
414.065	787
414.442	774.34
414.819	812.54
415.197	798.07
415.574	818.41
415.951	811.86
416.328	822.25
416.705	831.52
417.082	823.38
417.46	825.42
417.837	851.86
418.214	869.48
418.591	866.32
418.967	823.61
419.344	891.63
419.721	883.49
420.098	894.34
420.475	896.83
420.852	908.35
421.228	914.68
421.605	916.04
421.982	933.44
422.358	923.49
422.735	956.03
423.111	946.09
423.488	966.88
423.864	976.82
424.241	989.93
424.617	993.55
424.994	1003.72
425.37	1008.01
425.746	1023.6
426.123	1038.97
426.499	1032.64
426.875	1045.52
427.251	1069.93
427.627	1079.19
428.003	1089.14
428.379	1121
428.756	1120.1
429.132	1113.09
429.507	1148.35
429.883	1146.76
430.259	1206.42
430.635	1180.66
431.011	1206.88
431.387	1223.82
431.763	1250.49
432.138	1233.32
432.514	1251.39
432.89	1288.45
433.265	1314.44
433.641	1318.28
434.016	1329.36
434.392	1358.51
434.767	1358.74
435.143	1357.38
435.518	1384.5
435.894	1399.64
436.269	1410.71
436.644	1398.28
437.02	1455
437.395	1468.79
437.77	1468.56
438.145	1494.55
438.52	1481.67
438.895	1492.52
439.271	1503.14
439.646	1544.49
440.021	1566.19
440.395	1567.09
440.77	1555.11
441.145	1587.2
441.52	1600.99
441.895	1618.39
442.27	1641.21
442.645	1587.43
443.019	1634.89
443.394	1661.78
443.769	1664.72
444.143	1668.78
444.518	1714.21
444.892	1715.79
445.267	1699.97
445.641	1733.41
446.016	1713.98
446.39	1750.14
446.764	1760.98
447.139	1781.55
447.513	1763.47
447.887	1820.42
448.262	1810.02
448.636	1796.69
449.01	1843.24
449.384	1853.64
449.758	1863.35
450.132	1902.22
450.506	1910.59
450.88	1923.92
451.254	1929.12
451.628	1943.58
452.002	1943.8
452.376	1982.22
452.75	2052.73
453.123	2030.58
453.497	2046.4
453.871	2029
454.244	2120.52
454.618	2103.35
454.992	2126.85
455.365	2137.02
455.739	2200.3
456.112	2245.94
456.486	2265.15
456.859	2276.68
457.232	2306.51
457.606	2296.56
457.979	2342.21
458.352	2414.07
458.725	2401.65
459.099	2443.23
459.472	2489.1
459.845	2506.5
460.218	2525.48
460.591	2551.47
460.964	2561.87
461.337	2614.52
461.71	2671.47
462.083	2692.49
462.456	2713.95
462.829	2725.25
463.201	2779.72
463.574	2789.66
463.947	2828.98
464.32	2861.07
464.692	2877.34
465.065	2955.76
465.438	2921.86
465.81	3002.53
466.183	3053.83
466.555	3099.93
466.928	3135.41
467.3	3120.95
467.672	3160.04
468.045	3245.01
468.417	3266.26
468.789	3329.98
469.161	3336.54
469.534	3382.86
469.906	3402.98
470.278	3467.83
470.65	3544.67
471.022	3557.32
471.394	3634.16
471.766	3638.9
472.138	3710.76
472.51	3770.65
472.882	3877.77
473.253	3853.59
473.625	3981.49
473.997	4030.53
474.369	4060.36
474.74	4074.82
475.112	4161.6
475.484	4218.77
475.855	4324.31
476.227	4330.86
476.598	4466.9
476.97	4523.62
477.341	4578.09
477.713	4698.53
478.084	4741.25
478.455	4834.35
478.827	4868.93
479.198	5037.28
479.569	5046.1
479.94	5206.32
480.311	5231.63
480.682	5291.97
481.053	5439.53
481.424	5541.9
481.795	5583.26
482.166	5675.23
482.537	5753.2
482.908	5890.14
483.279	5970.37
483.65	6071.83
484.021	6145.28
484.391	6213.3
484.762	6274.54
485.133	6324.25
485.503	6455.32
485.874	6588.88
486.244	6598.37
486.615	6747.75
486.985	6839.5
487.356	7021.19
487.726	6992.49
488.097	7134.4
488.467	7178.47
488.837	7339.82
489.207	7448.29
489.578	7568.29
489.948	7559.7
490.318	7703.88
490.688	7704.33
491.058	7909.75
491.428	8004.21
491.798	8056.19
492.168	8239.01
492.538	8287.37
492.908	8332.56
493.278	8429.96
493.648	8486.68
494.017	8585.21
494.387	8667.47
494.757	8758.09
495.126	8816.62
495.496	8877.63
495.866	8907.46
496.235	9132.09
496.605	9126.44
496.974	9170.96
497.344	9346.32
497.713	9332.31
498.082	9376.6
498.452	9543.38
498.821	9539.09
499.19	9633.32
499.559	9678.06
499.928	9763.03
500.298	9841.68
500.667	9929.81
501.036	9920.77
501.405	10067.66
501.774	10158.73
502.143	10203.02
502.512	10212.74
502.88	10325.73
503.249	10327.77
503.618	10418.61
503.987	10481.21
504.356	10577.25
504.724	10596.01
505.093	10652.28
505.462	10733.18
505.83	10794.87
506.199	10953.74
506.567	11087.07
506.936	11055.2
507.304	11205.03
507.672	11213.62
508.041	11250
508.409	11449.54
508.777	11511.01
509.145	11624.45
509.514	11589.2
509.882	11692.02
510.25	11821.74
510.618	11818.35
510.986	11937.89
511.354	12041.62
511.722	12149.86
512.09	12186.25
512.458	12256.75
512.826	12344.66
513.193	12329.29
513.561	12550.53
513.929	12607.93
514.297	12720.47
514.664	12743.07
515.032	12927.92
515.4	13021.93
515.767	13078.43
516.135	13109.61
516.502	13174.24
516.869	13325.2
517.237	13369.72
517.604	13326.1
517.972	13572.65
518.339	13700.11
518.706	13745.08
519.073	13758.64
519.44	13904.85
519.808	14124.05
520.175	13980.32
520.542	14284.72
520.909	14371.05
521.276	14444.95
521.643	14524.26
522.009	14635.67
522.376	14739.63
522.743	14846.97
523.11	15060.75
523.477	15098.26
523.843	15292.61
524.21	15406.95
524.577	15507.74
524.943	15630.68
525.31	15731.69
525.676	15940.27
526.043	15947.73
526.409	16005.36
526.776	16238.57
527.142	16245.58
527.508	16399.92
527.874	16475.17
528.241	16584.1
528.607	16703.87
528.973	16901.83
529.339	16929.17
529.705	17032.22
530.071	17224.53
530.437	17253.68
530.803	17402.83
531.169	17501.59
531.535	17476.28
531.901	17631.98
532.267	17683.5
532.632	17829.94
532.998	17912.2
533.364	17973.89
533.73	18017.96
534.095	18157.84
534.461	18229.7
534.826	18283.26
535.192	18387.21
535.557	18572.97
535.923	18575.46
536.288	18680.09
536.653	18790.59
537.019	18686.87
537.384	18816.81
537.749	18935.67
538.114	19008.67
538.479	18997.37
538.845	19108.1
539.21	19140.64
539.575	19298.15
539.94	19367.53
540.305	19492.95
540.67	19444.59
541.034	19585.37
541.399	19616.33
541.764	19736.78
542.129	19724.81
542.494	19805.03
542.858	19917.12
543.223	19883.45
543.587	20142.87
543.952	20066.49
544.316	20125.02
544.681	20139.26
545.045	20249.99
545.41	20409.08
545.774	20389.42
546.138	20512.81
546.503	20541.06
546.867	20554.61
547.231	20700.83
547.595	20740.37
547.959	20764.1
548.324	20780.15
548.688	20888.39
549.052	21002.29
549.416	21103.53
549.779	21112.34
550.143	21218.55
550.507	21407.47
550.871	21496.29
551.235	21470.07
551.599	21603.63
551.962	21686.34
552.326	21679.56
552.689	21903.05
553.053	21771.98
553.417	21886.56
553.78	22211.07
554.143	22059.66
554.507	22108.25
554.87	22296.04
555.234	22439.09
555.597	22355.02
555.96	22555.92
556.323	22611.06
556.686	22692.41
557.05	22847.66
557.413	22908
557.776	22925.63
558.139	23097.37
558.502	23105.51
558.865	23236.58
559.228	23510.47
559.59	23501.2
559.953	23466.63
560.316	23605.38
560.679	23724.7
561.041	23897.8
561.404	23931.93
561.767	24141.87
562.129	24131.92
562.492	24324.91
562.854	24375.76
563.217	24456.89
563.579	24480.16
563.941	24665.47
564.304	24788.18
564.666	24913.37
565.028	24957.21
565.39	25115.62
565.753	25226.81
566.115	25349.97
566.477	25393.58
566.839	25553.13
567.201	25710.41
567.563	25627.93
567.925	25774.59
568.287	25935.94
568.648	25931.65
569.01	26121.25
569.372	26169.38
569.734	26287.12
570.095	26403.73
570.457	26426.55
570.819	26417.96
571.18	26607.56
571.542	26775.92
571.903	26784.73
572.265	26875.58
572.626	26838.74
572.987	27061.56
573.349	27100.43
573.71	27242.35
574.071	27186.53
574.432	27366.87
574.794	27543.58
575.155	27429.01
575.516	27494.55
575.877	27535.45
576.238	27519.63
576.599	27835.1
576.96	27733.41
577.32	27731.83
577.681	27970.01
578.042	27973.4
578.403	27929.11
578.763	27870.58
579.124	28003.68
579.485	28125.72
579.845	28237.12
580.206	28246.84
580.566	28210.68
580.927	28355.54
581.287	28421.07
581.648	28283.45
582.008	28363.68
582.368	28257.01
582.728	28403.45
583.089	28388.08
583.449	28344.24
583.809	28334.07
584.169	28605.02
584.529	28419.72
584.889	28640.05
585.249	28466.27
585.609	28288.65
585.969	28575.42
586.329	28445.03
586.688	28604.8
587.048	28461.98
587.408	28518.02
587.768	28502.65
588.127	28519.38
588.487	28432.15
588.846	28582.65
589.206	28514.63
589.565	28504.46
589.925	28729.09
590.284	28567.29
590.643	28565.25
591.003	28675.76
591.362	28730.45
591.721	28622.2
592.08	28588.08
592.44	28851.12
592.799	28742.2
593.158	28731.8
593.517	28661.75
593.876	28700.16
594.235	28643.22
594.593	28784.91
594.952	28728.19
595.311	28732.93
595.67	28847.5
596.029	28938.35
596.387	28924.79
596.746	29090.21
597.104	28942.19
597.463	28856.09
597.822	29025.13
598.18	28895.64
598.538	28829.2
598.897	28991.68
599.255	28840.72
599.613	29198.68
599.972	29077.55
600.33	29107.84
600.688	28967.95
601.046	29081.62
601.404	29251.56
601.762	29176.08
602.12	29187.38
602.478	29291.56
602.836	29261.5
603.194	29076.42
603.552	29245.46
603.91	29241.17
604.268	29298.79
604.625	29262.86
604.983	29450.2
605.341	29280.49
605.698	29406.59
606.056	29407.94
606.413	29480.48
606.771	29673.25
607.128	29577.2
607.485	29520.71
607.843	29580.14
608.2	29734.26
608.557	29806.35
608.914	29821.04
609.272	29848.16
609.629	29854.26
609.986	29848.16
610.343	29806.8
610.7	29890.64
611.057	30001.6
611.414	29874.37
611.771	30073.69
612.127	30083.63
612.484	30036.4
612.841	30169.28
613.198	30109.17
613.554	29983.75
613.911	30330.63
614.267	30230.29
614.624	30233.68
614.98	30231.2
615.337	30344.87
615.693	30362.49
616.05	30349.16
616.406	30443.85
616.762	30551.87
617.118	30391.87
617.475	30381.02
617.831	30606.55
618.187	30564.75
618.543	30576.05
618.899	30779.88
619.255	30642.94
619.611	30668.02
619.967	30700.79
620.323	30838.19
620.678	30557.06
621.034	30644.75
621.39	30588.7
621.746	30572.66
622.101	30896.26
622.457	30620.56
622.812	30671.19
623.168	30835.93
623.523	30764.29
623.879	30931.52
624.234	30715.03
624.589	30852.42
624.945	30845.87
625.3	30899.88
625.655	30781.01
626.01	30677.29
626.365	30753.22
626.72	30764.06
627.075	30707.79
627.43	30755.02
627.785	30692.43
628.14	30752.99
628.495	30727.45
628.85	30720.9
629.205	30676.61
629.559	30802.93
629.914	30754.12
630.269	30698.53
630.623	30606.1
630.978	30513.68
631.332	30771.52
631.687	30603.84
632.041	30482.94
632.396	30711.86
632.75	30522.71
633.104	30619.21
633.459	30333.57
633.813	30419.89
634.167	30386.67
634.521	30422.83
634.875	30320.69
635.229	30338.09
635.583	30150.75
635.937	30173.12
636.291	30263.96
636.645	30162.72
636.999	30146
637.352	30108.94
637.706	30073.46
638.06	30168.37
638.413	29906.69
638.767	29901.94
639.121	29955.95
639.474	29826.46
639.828	29922.73
640.181	29771.77
640.534	29794.6
640.888	29737.65
641.241	29513.7
641.594	29638.67
641.947	29735.39
642.301	29621.5
642.654	29629.63
643.007	29672.57
643.36	29566.13
643.713	29483.19
644.066	29566.58
644.419	29470.99
644.771	29223.54
645.124	29011.57
645.477	29001.85
645.83	28749.2
646.182	28507.4
646.535	28525.48
646.888	28577.23
647.24	28231.7
647.593	28452.03
647.945	28383.56
648.298	28168.88
648.65	28249.78
649.002	28161.42
649.355	28261.76
649.707	28220.63
650.059	28310.34
650.411	28739.03
650.763	28812.7
651.115	29039.82
651.467	28856.09
651.819	28939.93
652.171	28764.57
652.523	28712.14
652.875	28756.66
653.227	28605.25
653.578	28721.63
653.93	28665.14
654.282	28549.66
654.633	28482.54
654.985	28679.82
655.337	28554.4
655.688	28551.24
656.039	28640.5
656.391	28431.02
656.742	28421.53
657.094	28458.14
657.445	28464.92
657.796	28443.67
658.147	28343.56
658.498	28362.09
658.849	28399.61
659.2	28273.96
659.551	28410.23
659.902	28331.81
660.253	28375.88
660.604	28338.82
660.955	28101.99
661.306	28265.82
661.656	28286.84
662.007	28286.61
662.358	28201.65
662.708	28257.92
663.059	28200.06
663.409	28072.84
663.76	28150.57
664.11	28223.79
664.461	28240.97
664.811	28153.06
665.161	28169.1
665.511	28024.02
665.862	28117.81
666.212	28111.48
666.562	28177.92
666.912	28041.65
667.262	27995.78
667.612	27955.32
667.962	28025.15
668.312	28030.8
668.662	28166.62
669.011	27883.24
669.361	27965.72
669.711	27997.13
670.06	27878.94
670.41	27940.86
670.76	27774.31
671.109	27963.01
671.459	27897.25
671.808	27816.34
672.157	27835.55
672.507	27694.31
672.856	27667.42
673.205	27611.38
673.554	27878.94
673.904	27622
674.253	27788.77
674.602	27645.05
674.951	27323.48
675.3	27038.06
675.649	27512.62
675.998	27496.35
676.346	27489.12
676.695	27676.01
677.044	27408.9
677.393	27409.35
677.741	27514.88
678.09	27480.31
678.438	27351.05
678.787	27352.85
679.135	27335.45
679.484	27180.66
679.832	27336.13
680.181	27077.16
680.529	27205.29
680.877	27107.44
681.225	27125.29
681.573	27248.68
681.922	27085.06
682.27	26984.73
682.618	26938.63
682.966	26996.25
683.314	26910.38
683.661	26917.39
684.009	26700.22
684.357	26708.58
684.705	26625.87
685.053	26657.05
685.4	26662.48
685.748	26407.34
686.095	26399.21
686.443	26351.52
686.79	26306.33
687.138	26418.19
687.485	26331.41
687.832	26258.42
688.18	26336.16
688.527	26154.24
688.874	26173
689.221	26121.7
689.568	25956.05
689.915	25873.12
690.262	25932.78
690.609	25874.7
690.956	25646.46
691.303	25716.29
691.65	25583.86
691.997	25646.46
692.344	25491.21
692.69	25429.51
693.037	25472.68
693.383	25180.93
693.73	25337.31
694.077	25129.18
694.423	25161.95
694.769	25019.36
695.116	24955.86
695.462	25000.83
695.808	24732.58
696.155	24903.2
696.501	24797.44
696.847	24708.63
697.193	24514.28
697.539	24667.5
697.885	24566.94
698.231	24416.43
698.577	24403.55
698.923	24255.08
699.269	24227.74
699.614	24062.09
699.96	24128.98
700.306	24159.94
700.651	24010.34
700.997	23877.92
701.342	23921.98
701.688	23804.02
702.033	23696.45
702.379	23720.63
702.724	23628.43
703.069	23801.99
703.415	23463.92
703.76	23432.28
704.105	23475.44
704.45	23409
704.795	23221.66
705.14	23077.03
705.485	23106.41
705.83	23107.77
706.175	23155.9
706.52	23062.8
706.865	22899.41
707.209	22855.12
707.554	22820.09
707.899	22783.93
708.243	22800.43
708.588	22688.8
708.932	22544.62
709.277	22512.08
709.621	22644.96
709.966	22375.58
710.31	22446.99
710.654	22274.34
710.998	22285.42
711.342	22327.9
711.687	22169.94
712.031	22119.77
712.375	22140.79
712.719	22154.57
713.063	21953.9
713.407	22136.27
713.75	21943.5
714.094	21962.49
714.438	21872.77
714.782	21878.42
715.125	21740.35
715.469	21803.4
715.812	21693.79
716.156	21665.55
716.499	21642.04
716.843	21525.21
717.186	21536.96
717.53	21521.6
717.873	21582.61
718.216	21440.24
718.559	21357.76
718.902	21115.05
719.246	21282.05
719.589	21273.69
719.932	21102.62
720.275	21109.4
720.617	21066.92
720.96	21107.14
721.303	21084.09
721.646	21040.7
721.989	20881.61
722.331	21002.74
722.674	20828.05
723.016	20852.91
723.359	20800.94
723.701	20804.1
724.044	20743.31
724.386	20615.86
724.729	20706.93
725.071	20612.01
725.413	20637.1
725.755	20549.42
726.097	20426.71
726.439	20381.96
726.782	20453.15
727.124	20590.55
727.465	20417.22
727.807	20418.35
728.149	20235.53
728.491	20348.29
728.833	20349.2
729.175	20153.95
729.516	20215.41
729.858	20139.48
730.199	20200.27
730.541	20143.78
730.882	20119.82
731.224	20166.15
731.565	19940.85
731.906	20045.25
732.248	20030.56
732.589	19901.98
732.93	19917.57
733.271	19892.49
733.612	19904.91
733.953	19973.39
734.294	19727.29
734.635	19719.38
734.976	19772.49
735.317	19726.84
735.658	19628.09
735.999	19634.87
736.339	19700.63
736.68	19547.64
737.021	19594.87
737.361	19405.49
737.702	19594.64
738.042	19444.59
738.383	19554.42
738.723	19510.12
739.063	19406.85
739.404	19414.98
739.744	19303.8
740.084	19211.15
740.424	19364.59
740.764	19201.88
741.104	19329.79
741.444	19124.6
741.784	19119.62
742.124	19073.98
742.464	18968.67
742.804	19073.3
743.143	18996.46
743.483	19052.73
743.823	18926.86
744.162	18975.67
744.502	18823.59
744.841	18854.55
745.181	18919.18
745.52	18792.4
745.86	18878.73
746.199	18812.51
746.538	18737.71
746.877	18782.46
747.216	18804.15
747.556	18677.83
747.895	18583.14
748.234	18539.75
748.573	18487.32
748.911	18493.43
749.25	18422.92
749.589	18426.54
749.928	18423.37
750.267	18401
750.605	18285.3
750.944	18348.8
751.283	18198.74
751.621	18218.18
751.96	18163.04
752.298	18100.22
752.636	18076.71
752.975	18060.9
753.313	17962.59
753.651	17943.38
753.989	17927.11
754.327	17799.21
754.666	17762.37
755.004	17801.24
