Data from breadboard_white_FLMS001491_00003.txt Node
Date: Wed Feb 08 10:47:09 GMT 2017
User: dcchb
Spectrometer: FLMS00149
Trigger mode: 0
Integration Time (sec): 2.000000E-2
Scans to average: 10
Electric dark correction enabled: true
Nonlinearity correction enabled: false
Boxcar width: 0
XAxis mode: Wavelengths
Number of Pixels in Spectrum: 2048
>>>>>Begin Spectral Data<<<<<
341.393	-3.98
341.776	-3.98
342.16	-3.98
342.543	-56.41
342.927	-88.73
343.31	-66.35
343.693	-65
344.077	-51.21
344.46	-52.57
344.843	-61.16
345.226	-35.85
345.61	-27.49
345.993	-43.3
346.376	-9.18
346.759	-6.24
347.142	41.21
347.525	32.85
347.908	81.44
348.291	87.31
348.674	87.31
349.057	88.22
349.44	121.21
349.823	142.23
350.206	178.16
350.588	213.19
350.971	211.83
351.354	236.24
351.737	256.58
352.119	271.94
352.502	277.82
352.884	294.31
353.267	299.74
353.65	302.22
354.032	318.72
354.414	323.69
354.797	334.77
355.179	345.16
355.562	337.03
355.944	363.69
356.326	341.09
356.709	346.06
357.091	362.11
357.473	363.24
357.855	351.04
358.238	355.78
358.62	350.58
359.002	352.62
359.384	351.49
359.766	350.36
360.148	373.18
360.53	359.17
360.912	374.99
361.294	332.28
361.676	361.21
362.057	370.47
362.439	351.94
362.821	352.39
363.203	360.98
363.584	349.45
363.966	341.32
364.348	347.42
364.729	342.9
365.111	330.7
365.493	331.83
365.874	337.48
366.256	368.21
366.637	369.57
367.019	355.56
367.4	350.36
367.781	343.13
368.163	339.06
368.544	342.22
368.925	373.63
369.306	356.69
369.688	343.58
370.069	330.47
370.45	346.97
370.831	330.92
371.212	339.06
371.593	355.1
371.974	343.58
372.355	353.52
372.736	351.49
373.117	341.77
373.498	366.18
373.879	355.78
374.26	340.19
374.641	352.84
375.021	364.82
375.402	362.79
375.783	361.21
376.163	391.03
376.544	377.02
376.925	353.3
377.305	382
377.686	364.14
378.066	372.73
378.447	391.94
378.827	394.65
379.208	393.07
379.588	388.1
379.968	375.89
380.349	387.19
380.729	392.62
381.109	393.07
381.489	405.27
381.87	378.15
382.25	408.66
382.63	409.11
383.01	414.09
383.39	414.76
383.77	409.34
384.15	414.99
384.53	413.86
384.91	415.89
385.29	415.44
385.67	417.93
386.049	441.2
386.429	434.2
386.809	441.88
387.189	433.97
387.568	452.73
387.948	480.52
388.328	457.02
388.707	461.32
389.087	454.08
389.466	469.9
389.846	458.15
390.225	475.78
390.605	469.68
390.984	474.2
391.363	509.9
391.743	492.73
392.122	493.18
392.501	496.57
392.881	518.72
393.26	525.27
393.639	532.73
394.018	521.43
394.397	539.96
394.776	551.48
395.155	549.9
395.534	544.03
395.913	540.41
396.292	568.21
396.671	585.15
397.05	589.22
397.429	598.49
397.808	610.69
398.186	621.76
398.565	596.45
398.944	629.22
399.323	648.2
399.701	649.11
400.08	664.25
400.458	669.22
400.837	668.99
401.215	678.94
401.594	696.34
401.972	693.63
402.351	705.83
402.729	758.93
403.107	748.99
403.486	742.89
403.864	738.37
404.242	796
404.62	800.06
404.999	804.81
405.377	821.53
405.755	839.61
406.133	845.71
406.511	866.28
406.889	867.41
407.267	908.31
407.645	925.26
408.023	927.52
408.401	943.34
408.779	965.94
409.156	961.19
409.534	1017.91
409.912	1012.71
410.29	1026.95
410.667	1055.88
411.045	1097.91
411.422	1097.46
411.8	1134.29
412.178	1168.87
412.555	1205.7
412.933	1201.86
413.31	1226.04
413.687	1231.24
414.065	1250.67
414.442	1280.05
414.819	1288.86
415.197	1299.03
415.574	1345.13
415.951	1373.61
416.328	1405.47
416.705	1412.03
417.082	1413.61
417.46	1424.23
417.837	1450.67
418.214	1459.48
418.591	1509.65
418.967	1523.43
419.344	1526.37
419.721	1576.31
420.098	1569.31
420.475	1593.49
420.852	1629.42
421.228	1637.1
421.605	1646.6
421.982	1675.52
422.358	1689.76
422.735	1729.76
423.111	1735.63
423.488	1748.51
423.864	1788.74
424.241	1809.75
424.617	1821.51
424.994	1842.52
425.37	1884.78
425.746	1882.52
426.123	1911.9
426.499	1943.54
426.875	1965
427.251	1998
427.627	2069.41
428.003	2050.2
428.379	2066.47
428.756	2113.48
429.132	2136.07
429.507	2158.9
429.883	2186.24
430.259	2221.27
430.635	2291.1
431.011	2266.47
431.387	2336.07
431.763	2354.6
432.138	2400.47
432.514	2456.29
432.89	2461.94
433.265	2475.73
433.641	2510.08
434.016	2541.26
434.392	2593.91
434.767	2649.28
435.143	2657.19
435.518	2669.85
435.894	2723.18
436.269	2747.58
436.644	2804.08
437.02	2816.73
437.395	2837.3
437.77	2874.59
438.145	2912.78
438.52	2982.15
438.895	2986.67
439.271	2960.46
439.646	3062.83
440.021	3091.53
440.395	3108.25
440.77	3106.67
441.145	3101.92
441.52	3149.83
441.895	3183.5
442.27	3238.42
442.645	3228.02
443.019	3306.44
443.394	3282.71
443.769	3308.7
444.143	3298.98
444.518	3342.14
444.892	3366.55
445.267	3386.44
445.641	3437.28
446.016	3460.56
446.39	3507.34
446.764	3512.31
447.139	3528.81
447.513	3549.82
447.887	3567.45
448.262	3581.69
448.636	3617.84
449.01	3666.2
449.384	3672.98
449.758	3734.9
450.132	3781.91
450.506	3763.38
450.88	3844.73
451.254	3872.3
451.628	3911.17
452.002	3950.72
452.376	3970.6
452.75	4018.51
453.123	4036.81
453.497	4130.15
453.871	4117.04
454.244	4199.97
454.618	4235.45
454.992	4293.98
455.365	4335.56
455.739	4425.05
456.112	4494.2
456.486	4535.33
456.859	4566.74
457.232	4661.66
457.606	4606.29
457.979	4705.72
458.352	4811.03
458.725	4813.29
459.099	4909.11
459.472	5014.42
459.845	5021.2
460.218	5066.17
460.591	5142.55
460.964	5129.89
461.337	5249.21
461.71	5330.34
462.083	5439.26
462.456	5424.8
462.829	5540.5
463.201	5562.42
463.574	5659.37
463.947	5664.12
464.32	5794.96
464.692	5853.26
465.065	5912.25
465.438	5944.34
465.81	6062.52
466.183	6115.63
466.555	6269.75
466.928	6302.52
467.3	6292.57
467.672	6388.39
468.045	6575.96
468.417	6598.78
468.789	6697.31
469.161	6686.46
469.534	6853.92
469.906	6958.09
470.278	7066.11
470.65	7197.64
471.022	7284.64
471.394	7410.51
471.766	7503.39
472.138	7566.44
472.51	7747.68
472.882	7809.82
473.253	7983.83
473.625	8039.2
473.997	8295.23
474.369	8219.3
474.74	8357.61
475.112	8506.3
475.484	8719.4
475.855	8847.76
476.227	8904.94
476.598	9198.49
476.97	9301.99
477.341	9481.42
477.713	9571.81
478.084	9533.17
478.455	9912.37
478.827	9965.92
479.198	10347.38
479.569	10258.57
479.94	10567.04
480.311	10753.25
480.682	10887.71
481.053	11167.02
481.424	11352.1
481.795	11467.13
482.166	11681.36
482.537	11816.5
482.908	12005.64
483.279	12126.09
483.65	12338.74
484.021	12646.08
484.391	12801.78
484.762	12861.89
485.133	12987.54
485.503	13232.28
485.874	13484.7
486.244	13593.85
486.615	13871.36
486.985	14053.27
487.356	14289.43
487.726	14384.11
488.097	14734.84
488.467	14765.12
488.837	15079.24
489.207	15183.41
489.578	15494.14
489.948	15635.15
490.318	15894.58
490.688	15906.11
491.058	16123.05
491.428	16398.07
491.798	16514.9
492.168	16810.72
492.538	16892.97
492.908	17154.89
493.278	17353.75
493.648	17324.37
494.017	17665.38
494.387	17683.69
494.757	17947.41
495.126	18160.29
495.496	18139.95
495.866	18306.5
496.235	18624.91
496.605	18728.63
496.974	18843.21
497.344	18965.46
497.713	19204.78
498.082	19248.62
498.452	19464.88
498.821	19575.62
499.19	19667.82
499.559	19790.52
499.928	19886.79
500.298	20141.48
500.667	20248.82
501.036	20216.28
501.405	20487.68
501.774	20566.78
502.143	20835.24
502.512	20820.55
502.88	21066.65
503.249	21061
503.618	21306.64
503.987	21385.74
504.356	21572.62
504.724	21640.19
505.093	21656.01
505.462	21878.83
505.83	22064.59
506.199	22175.55
506.567	22427.29
506.936	22445.6
507.304	22810.33
507.672	22865.92
508.041	22972.59
508.409	23167.61
508.777	23416.19
509.145	23531.9
509.514	23506.13
509.882	23836.75
510.25	23734.6
510.618	24044.2
510.986	24087.81
511.354	24368.26
511.722	24626.33
512.09	24731.41
512.458	24775.7
512.826	25064.51
513.193	25215.92
513.561	25361.68
513.929	25517.83
514.297	25688.45
514.664	25851.61
515.032	25955.33
515.4	26226.74
515.767	26467.19
516.135	26525.71
516.502	26377.7
516.869	26880.28
517.237	27011.35
517.604	26992.14
517.972	27229.2
518.339	27555.07
518.706	27586.7
519.073	27828.51
519.44	27909.18
519.808	28345.78
520.175	28261.71
520.542	28722.49
520.909	28821.47
521.276	28924.3
521.643	29258.52
522.009	29426.88
522.376	29639.08
522.743	29789.36
523.11	30125.62
523.477	30412.62
523.843	30430.25
524.21	30762.89
524.577	31006.95
524.943	31238.36
525.31	31455.08
525.676	31703.21
526.043	31876.53
526.409	32038.34
526.776	32378.89
527.142	32510.19
527.508	32601.71
527.874	32768.94
528.241	33112.43
528.607	33262.49
528.973	33516.94
529.339	33551.97
529.705	33897.27
530.071	34104.5
530.437	34188.11
530.803	34472.4
531.169	34573.86
531.535	34674.43
531.901	34871.26
532.267	34992.39
532.632	35281.64
532.998	35435.76
533.364	35564.35
533.73	35631.24
534.095	36001.17
534.461	36003.21
534.826	36199.13
535.192	36220.38
535.557	36535.17
535.923	36489.75
536.288	36674.37
536.653	37041.6
537.019	36868.04
537.384	37177.41
537.749	37223.51
538.114	37437.52
538.479	37434.58
538.845	37627.12
539.21	37515.48
539.575	37885.87
539.94	37948.01
540.305	38026.43
540.67	38103.49
541.034	38330.15
541.399	38428.45
541.764	38536.92
542.129	38808.33
542.494	38756.35
542.858	38964.03
543.223	38905.5
543.587	39169.45
543.952	39135.1
544.316	39340.97
544.681	39380.74
545.045	39606.5
545.41	39726.72
545.774	39782.09
546.138	39957.23
546.503	40015.98
546.867	40118.58
547.231	40506.59
547.595	40429.76
547.959	40509.08
548.324	40615.51
548.688	40701.84
549.052	40800.82
549.416	41024.54
549.779	40975.96
550.143	41174.82
550.507	41515.38
550.871	41577.97
551.235	41461.37
551.599	41846.44
551.962	41861.13
552.326	41978.19
552.689	42243.95
553.053	42014.12
553.417	42271.97
553.78	42759.86
554.143	42725.06
554.507	42827.66
554.87	42988.33
555.234	43325.5
555.597	43134.77
555.96	43367.76
556.323	43467.19
556.686	43618.6
557.05	44019.72
557.413	44046.16
557.776	44266.04
558.139	44409.31
558.502	44441.63
558.865	44569.99
559.228	44904.44
559.59	44948.51
559.953	45126.58
560.316	45465.56
560.679	45537.42
561.041	45690.18
561.404	45824.64
561.767	46164.29
562.129	46039.78
562.492	46464.4
562.854	46425.98
563.217	46531.29
563.579	46799.76
563.941	46932.64
564.304	47136.02
564.666	47365.17
565.028	47407.65
565.39	47553.86
565.753	47742.56
566.115	47928.54
566.477	48032.49
566.839	48160.63
567.201	48434.52
567.563	48351.36
567.925	48707.05
568.287	48674.06
568.648	48698.24
569.01	48833.83
569.372	49170.77
569.734	49166.93
570.095	49408.05
570.457	49514.26
570.819	49606.24
571.18	49582.96
571.542	49800.58
571.903	49866.57
572.265	49941.6
572.626	50146.79
572.987	50099.33
573.349	50267.24
573.71	50342.49
574.071	50433.11
574.432	50521.92
574.794	50671.97
575.155	50818.18
575.516	50641.47
575.877	50816.6
576.238	50952.64
576.599	50952.42
576.96	50988.57
577.32	51089.14
577.681	51226.99
578.042	51271.96
578.403	51328.68
578.763	51237.83
579.124	51296.14
579.485	51501.1
579.845	51436.25
580.206	51494.32
580.566	51513.53
580.927	51557.83
581.287	51714.43
581.648	51446.64
582.008	51766.41
582.368	51626.3
582.728	51700.65
583.089	51604.38
583.449	51599.18
583.809	51735
584.169	51802.11
584.529	51766.63
584.889	51944.03
585.249	51717.37
585.609	51619.97
585.969	51791.49
586.329	51695.67
586.688	51787.88
587.048	51727.54
587.408	51631.72
587.768	51654.09
588.127	51757.37
588.487	51677.82
588.846	51872.85
589.206	51596.69
589.565	51725.96
589.925	51848.66
590.284	51655
590.643	51742.68
591.003	51759.18
591.362	51805.05
591.721	51767.54
592.08	51845.05
592.44	51891.15
592.799	51864.94
593.158	51743.81
593.517	51929.11
593.876	51821.55
594.235	51794.2
594.593	51857.25
594.952	51927.76
595.311	51700.87
595.67	51841.66
596.029	52022.9
596.387	51973.18
596.746	52003.01
597.104	51939.96
597.463	51934.99
597.822	52083.69
598.18	51882.79
598.538	51916.23
598.897	52077.59
599.255	51750.36
599.613	52295.43
599.972	52090.69
600.33	52067.42
600.688	51993.29
601.046	52106.96
601.404	52308.54
601.762	52206.85
602.12	52318.26
602.478	52270.12
602.836	52290.91
603.194	52165.94
603.552	52288.88
603.91	52184.93
604.268	52389.67
604.625	52235.32
604.983	52344.02
605.341	52264.47
605.698	52369.33
606.056	52515.77
606.413	52412.72
606.771	52457.01
607.128	52551.7
607.485	52392.15
607.843	52516.9
608.2	52624.69
608.557	52664.01
608.914	52596.44
609.272	52802.76
609.629	52688.87
609.986	52954.17
610.343	52686.84
610.7	52913.27
611.057	52812.48
611.414	52913.5
611.771	52946.49
612.127	52988.75
612.484	52873.72
612.841	53066.94
613.198	52849.09
613.554	52994.4
613.911	53160.04
614.267	53192.13
614.624	53131.12
614.98	53181.96
615.337	53266.03
615.693	53269.19
616.05	53135.41
616.406	53336.54
616.762	53256.76
617.118	53293.37
617.475	53222.87
617.831	53369.98
618.187	53355.97
618.543	53431.45
618.899	53539.02
619.255	53413.37
619.611	53514.61
619.967	53415.86
620.323	53523.88
620.678	53440.49
621.034	53386.93
621.39	53457.89
621.746	53345.8
622.101	53607.94
622.457	53428.28
622.812	53440.49
623.168	53599.13
623.523	53496.53
623.879	53652.69
624.234	53409.08
624.589	53581.5
624.945	53521.39
625.3	53633.02
625.655	53455.4
626.01	53451.33
626.365	53525.01
626.72	53500.37
627.075	53463.31
627.43	53442.97
627.785	53357.78
628.14	53405.69
628.495	53490.88
628.85	53418.57
629.205	53298.8
629.559	53464.89
629.914	53270.32
630.269	53290.43
630.623	53262.87
630.978	53169.31
631.332	53257.67
631.687	53329.3
632.041	53093.83
632.396	53217.44
632.75	53032.36
633.104	53064.9
633.459	52978.8
633.813	52960.27
634.167	52868.98
634.521	52841.18
634.875	52922.99
635.229	52798.7
635.583	52619.72
635.937	52621.98
636.291	52615.42
636.645	52731.81
636.999	52563.67
637.352	52639.6
637.706	52487.97
638.06	52537.01
638.413	52455.43
638.767	52346.28
639.121	52415.43
639.474	52304.47
639.828	52257.02
640.181	52349.67
640.534	52248.88
640.888	52168.43
641.241	52095.66
641.594	52091.82
641.947	52132.05
642.301	52065.16
642.654	52104.93
643.007	52019.06
643.36	51964.59
643.713	51796.46
644.066	52028.55
644.419	51765.73
644.771	51545.17
645.124	51164.84
645.477	51077.16
645.83	50855.02
646.182	50827.22
646.535	50607.57
646.888	50742.93
647.24	50554.01
647.593	50727.79
647.945	50632.43
648.298	50412.09
648.65	50455.48
649.002	50300.91
649.355	50494.12
649.707	50335.03
650.059	50465.65
650.411	50829.26
650.763	50944.06
651.115	51141.34
651.467	51081.23
651.819	51024.96
652.171	50921.91
652.523	50854.11
652.875	50870.39
653.227	50668.13
653.578	50890.72
653.93	50958.07
654.282	50689.15
654.633	50678.75
654.985	50709.26
655.337	50675.14
655.688	50537.96
656.039	50881.68
656.391	50368.48
656.742	50504.97
657.094	50476.5
657.445	50629.71
657.796	50525.76
658.147	50414.58
658.498	50404.18
658.849	50474.01
659.2	50369.38
659.551	50246.22
659.902	50362.15
660.253	50313.79
660.604	50306.78
660.955	50112.21
661.306	50301.36
661.656	50290.97
662.007	50221.59
662.358	50135.49
662.708	50133.91
663.059	50142.72
663.409	49814.82
663.76	50218.43
664.11	50036.28
664.461	50188.82
664.811	50044.87
665.161	50050.52
665.511	49961.03
665.862	49813.24
666.212	49999.45
666.562	50006.91
666.912	49900.47
667.262	49738.89
667.612	49850.98
667.962	49837.64
668.312	49691.66
668.662	49982.27
669.011	49820.24
669.361	49650.53
669.711	49759
670.06	49650.53
670.41	49673.35
670.76	49560.82
671.109	49726.69
671.459	49703.41
671.808	49586.58
672.157	49606.01
672.507	49359.46
672.856	49444.66
673.205	49378.9
673.554	49633.58
673.904	49282.63
674.253	49624.54
674.602	49456.19
674.951	48831.34
675.3	48837.44
675.649	49235.63
675.998	49196.53
676.346	49091.22
676.695	49281.05
677.044	48990.66
677.393	49160.6
677.741	49063.65
678.09	48984.11
678.438	48869.76
678.787	49004.45
679.135	48992.24
679.484	48706.37
679.832	48780.5
680.181	48509.77
680.529	48714.51
680.877	48548.86
681.225	48432.71
681.573	48799.25
681.922	48355.88
682.27	48367.63
682.618	48368.98
682.966	48291.7
683.314	48226.39
683.661	48061.42
684.009	47968.99
684.357	47866.85
684.705	47760.18
685.053	47928.77
685.4	47796.57
685.748	47539.17
686.095	47635.89
686.443	47369.91
686.79	47311.61
687.138	47366.97
687.485	47424.83
687.832	47196.58
688.18	47345.05
688.527	47070.94
688.874	47104.38
689.221	46974.67
689.568	46816.25
689.915	46645.86
690.262	46594.79
690.609	46556.37
690.956	46511.86
691.303	46503.27
691.65	46148.7
691.997	46082.94
692.344	45826.68
692.69	45817.86
693.037	45787.36
693.383	45539.9
693.73	45721.59
694.077	45427.82
694.423	45455.16
694.769	45154.83
695.116	45158.22
695.462	45117.54
695.808	44939.47
696.155	44932.01
696.501	44588.52
696.847	44713.03
697.193	44371.8
697.539	44566.14
697.885	44125.03
698.231	44201.18
698.577	44121.41
698.923	44025.14
699.269	43787.18
699.614	43555.78
699.96	43596
700.306	43655.21
700.651	43361.88
700.997	43194.88
701.342	43155.33
701.688	43024.49
702.033	42949.01
702.379	42901.78
702.724	42805.74
703.069	42806.87
703.415	42337.95
703.76	42357.39
704.105	42495.69
704.45	42255.92
704.795	42122.37
705.14	41979.55
705.485	41929.6
705.83	41693.9
706.175	41810.74
706.52	41676.5
706.865	41380.47
707.209	41470.63
707.554	41208.49
707.899	41395.83
708.243	41092.11
708.588	41137.53
708.932	40719.24
709.277	40785.45
709.621	40741.84
709.966	40514.95
710.31	40603.99
710.654	40111.12
710.998	40224.56
711.342	40307.05
711.687	40094.85
712.031	39896.44
712.375	39862.31
712.719	39790.45
713.063	39789.55
713.407	39907.06
713.75	39571.02
714.094	39599.72
714.438	39362.21
714.782	39514.98
715.125	39280.86
715.469	39344.36
715.812	39188.66
716.156	38893.75
716.499	38971.49
716.843	38888.1
717.186	38763.36
717.53	38807.43
717.873	38823.02
718.216	38705.96
718.559	38434.78
718.902	38340.09
719.246	38373.54
719.589	38228.46
719.932	38112.75
720.275	38114.34
720.617	38064.17
720.96	37998.86
721.303	37941.69
721.646	38095.58
721.989	37784.85
722.331	37810.39
722.674	37636.61
723.016	37587.35
723.359	37354.81
723.701	37395.71
724.044	37261.7
724.386	37037.53
724.729	37374.02
725.071	37091.31
725.413	37067.81
725.755	37091.31
726.097	36896.29
726.439	36700.14
726.782	36687.48
727.124	36644.09
727.465	36497.43
727.807	36593.02
728.149	36348.06
728.491	36364.1
728.833	36416.08
729.175	36146.48
729.516	36213.37
729.858	36185.8
730.199	36199.36
730.541	36168.85
730.882	36050.44
731.224	36174.73
731.565	35953.94
731.906	35777.45
732.248	35942.42
732.589	35642.31
732.93	35581.75
733.271	35512.37
733.612	35624.46
733.953	35564.8
734.294	35453.62
734.635	35370.23
734.976	35377.69
735.317	35148.31
735.658	35243.68
735.999	35098.14
736.339	34988.54
736.68	35234.64
737.021	34922.1
737.361	34858.83
737.702	35079.16
738.042	34769.34
738.383	34736.8
738.723	34794.2
739.063	34585.39
739.404	34595.56
739.744	34536.8
740.084	34284.38
740.424	34294.55
740.764	34381.1
741.104	34366.19
741.444	34135.68
741.784	34034.67
742.124	34076.93
742.464	34030.6
742.804	33932.75
743.143	33909.48
743.483	33914.22
743.823	33682.81
744.162	33548.36
744.502	33650.73
744.841	33537.96
745.181	33589.48
745.52	33399.66
745.86	33427.68
746.199	33391.3
746.538	33332.32
746.877	33401.69
747.216	33157.63
747.556	33093.68
747.895	33117.63
748.234	33060.46
748.573	33017.3
748.911	32902.72
749.25	32908.15
749.589	32705.89
749.928	32749.96
750.267	32742.73
750.605	32679
750.944	32445.79
751.283	32420.7
751.621	32485.33
751.96	32115.17
752.298	32322.85
752.636	32301.83
752.975	32033.14
