Data from breadboard_white_FLMS001491_00036.txt Node
Date: Wed Feb 08 10:47:38 GMT 2017
User: dcchb
Spectrometer: FLMS00149
Trigger mode: 0
Integration Time (sec): 2.000000E-2
Scans to average: 10
Electric dark correction enabled: true
Nonlinearity correction enabled: false
Boxcar width: 0
XAxis mode: Wavelengths
Number of Pixels in Spectrum: 2048
>>>>>Begin Spectral Data<<<<<
341.393	-11.38
341.776	-11.38
342.16	-11.38
342.543	-49.57
342.927	-50.48
343.31	-61.1
343.693	-83.7
344.077	-80.99
344.46	-55
344.843	-56.81
345.226	-41.21
345.61	-33.76
345.993	1.05
346.376	-16.36
346.759	16.64
347.142	28.84
347.525	29.52
347.908	74.72
348.291	67.03
348.674	94.83
349.057	116.3
349.44	115.84
349.823	122.17
350.206	178.44
350.588	200.36
350.971	213.47
351.354	224.77
351.737	236.97
352.119	241.49
352.502	274.03
352.884	274.48
353.267	292.56
353.65	290.53
354.032	315.39
354.414	322.17
354.797	305.9
355.179	318.78
355.562	320.13
355.944	319.23
356.326	326.91
356.709	332.34
357.091	334.14
357.473	376.85
357.855	347.48
358.238	360.81
358.62	355.84
359.002	343.86
359.384	346.12
359.766	373.46
360.148	370.53
360.53	364.65
360.912	354.26
361.294	338.89
361.676	334.82
362.057	339.12
362.439	338.66
362.821	347.7
363.203	347.48
363.584	348.61
363.966	345.89
364.348	339.12
364.729	352
365.111	326.23
365.493	338.89
365.874	330.98
366.256	328.27
366.637	333.01
367.019	327.82
367.4	319.45
367.781	338.21
368.163	328.95
368.544	333.92
368.925	319
369.306	345.89
369.688	328.95
370.069	350.64
370.45	339.57
370.831	327.82
371.212	325.56
371.593	349.51
371.974	336.63
372.355	356.06
372.736	352.22
373.117	350.41
373.498	357.19
373.879	337.76
374.26	342.28
374.641	348.15
375.021	344.31
375.402	344.76
375.783	365.33
376.163	359
376.544	344.99
376.925	379.11
377.305	357.19
377.686	363.97
378.066	375.05
378.447	339.34
378.827	364.65
379.208	368.04
379.588	337.31
379.968	362.84
380.349	396.06
380.729	378.44
381.109	368.27
381.489	395.61
381.87	391.09
382.25	380.92
382.63	373.69
383.01	387.7
383.39	378.89
383.77	409.62
384.15	406.23
384.53	378.89
384.91	412.79
385.29	395.16
385.67	405.78
386.049	393.58
386.429	433.35
386.809	409.62
387.189	402.39
387.568	429.51
387.948	423.63
388.328	419.79
388.707	425.67
389.087	437.42
389.466	442.39
389.846	440.58
390.225	448.72
390.605	451.43
390.984	442.62
391.363	463.86
391.743	441.71
392.122	462.5
392.501	477.19
392.881	465.89
393.26	469.51
393.639	484.65
394.018	486.91
394.397	491.88
394.776	480.58
395.155	492.78
395.534	496.4
395.913	524.42
396.292	524.65
396.671	545.66
397.05	541.14
397.429	548.38
397.808	538.66
398.186	526.91
398.565	540.92
398.944	543.18
399.323	567.36
399.701	568.26
400.08	557.87
400.458	576.62
400.837	597.64
401.215	609.84
401.594	601.26
401.972	626.57
402.351	622.95
402.729	618.88
403.107	638.99
403.486	673.8
403.864	646.23
404.242	662.5
404.62	688.48
404.999	684.64
405.377	714.92
405.755	700.69
406.133	716.96
406.511	719.22
406.889	719.67
407.267	735.26
407.645	737.3
408.023	799.67
408.401	808.26
408.779	829.05
409.156	842.38
409.534	825.2
409.912	871.08
410.29	872.21
410.667	879.89
411.045	922.38
411.422	910.4
411.8	918.99
412.178	971.87
412.555	963.96
412.933	1003.05
413.31	1015.03
413.687	1032.66
414.065	1035.82
414.442	1074.92
414.819	1080.79
415.197	1096.84
415.574	1134.12
415.951	1118.53
416.328	1135.7
416.705	1172.09
417.082	1160.11
417.46	1191.97
417.837	1192.88
418.214	1233.78
418.591	1234.69
418.967	1252.31
419.344	1273.33
419.721	1282.82
420.098	1249.83
420.475	1295.47
420.852	1308.13
421.228	1329.15
421.605	1352.87
421.982	1393.78
422.358	1396.26
422.735	1376.38
423.111	1427
423.488	1437.17
423.864	1420.89
424.241	1445.53
424.617	1456.15
424.994	1510.84
425.37	1513.1
425.746	1530.5
426.123	1561
426.499	1538.86
426.875	1584.73
427.251	1615.01
427.627	1639.42
428.003	1636.26
428.379	1668.8
428.756	1705.18
429.132	1725.52
429.507	1749.7
429.883	1752.19
430.259	1791.73
430.635	1839.19
431.011	1830.38
431.387	1839.19
431.763	1888.45
432.138	1916.02
432.514	1921.67
432.89	1971.84
433.265	2013.87
433.641	2030.82
434.016	2027.21
434.392	2064.49
434.767	2116.02
435.143	2132.29
435.518	2155.56
435.894	2156.92
436.269	2208.22
436.644	2229.46
437.02	2255.9
437.395	2250.03
437.77	2293.64
438.145	2329.35
438.52	2377.03
438.895	2337.48
439.271	2350.59
439.646	2446.4
440.021	2441.43
440.395	2469.68
440.77	2453.41
441.145	2464.26
441.52	2542.9
441.895	2532.96
442.27	2576.34
442.645	2565.72
443.019	2565.95
443.394	2612.5
443.769	2650.47
444.143	2630.58
444.518	2685.04
444.892	2658.15
445.267	2703.12
445.641	2702.44
446.016	2753.74
446.39	2750.35
446.764	2793.51
447.139	2772.27
447.513	2812.95
447.887	2836.22
448.262	2830.12
448.636	2883.68
449.01	2926.17
449.384	2938.82
449.758	2976.56
450.132	3008.2
450.506	2987.41
450.88	3043.23
451.254	2984.24
451.628	3093.17
452.002	3124.13
452.376	3144.24
452.75	3178.81
453.123	3207.51
453.497	3219.94
453.871	3280.05
454.244	3341.52
454.618	3360.5
454.992	3444.12
455.365	3418.58
455.739	3523.21
456.112	3537.68
456.486	3563.21
456.859	3605.92
457.232	3678.01
457.606	3668.75
457.979	3749.2
458.352	3804.33
458.725	3846.82
459.099	3878.46
459.472	3960.04
459.845	3969.53
460.218	4019.24
460.591	4062.18
460.964	4100.82
461.337	4146.02
461.71	4206.58
462.083	4268.73
462.456	4281.16
462.829	4337.88
463.201	4374.49
463.574	4395.96
463.947	4472.11
464.32	4576.52
464.692	4660.13
465.065	4615.84
465.438	4681.6
465.81	4767.93
466.183	4813.8
466.555	4919.33
466.928	4938.54
467.3	4957.98
467.672	5013.79
468.045	5241.59
468.417	5198.65
468.789	5220.57
469.161	5330.62
469.534	5397.06
469.906	5554.35
470.278	5552.54
470.65	5627.34
471.022	5725.19
471.394	5832.08
471.766	5870.95
472.138	5986.2
472.51	6074.78
472.882	6149.13
473.253	6215.35
473.625	6328.56
473.997	6482.68
474.369	6485.62
474.74	6598.16
475.112	6707.31
475.484	6802
475.855	6928.55
476.227	6967.19
476.598	7179.16
476.97	7222.55
477.341	7475.88
477.713	7516.1
478.084	7568.3
478.455	7826.6
478.827	7865.7
479.198	8111.79
479.569	8083.09
479.94	8283.09
480.311	8404.44
480.682	8573.7
481.053	8768.72
481.424	8928.49
481.795	8947.25
482.166	9151.77
482.537	9221.82
482.908	9427.24
483.279	9573.45
483.65	9702.71
484.021	9961.69
484.391	10031.74
484.762	10124.62
485.133	10251.62
485.503	10312.19
485.874	10610.03
486.244	10698.84
486.615	10895.45
486.985	10983.81
487.356	11178.15
487.726	11316.45
488.097	11514.87
488.467	11571.81
488.837	11833.5
489.207	11914.86
489.578	12171.57
489.948	12306.26
490.318	12493.82
490.688	12466.03
491.058	12675.29
491.428	12861.5
491.798	13011.1
492.168	13268.04
492.538	13306.68
492.908	13445.21
493.278	13656.28
493.648	13687.01
494.017	13869.38
494.387	13906.67
494.757	14055.82
495.126	14246.32
495.496	14309.37
495.866	14421.91
496.235	14600.21
496.605	14667.55
496.974	14819.41
497.344	14943.7
497.713	15091.95
498.082	15124.49
498.452	15314.77
498.821	15446.51
499.19	15409
499.559	15650.35
499.928	15734.64
500.298	15813.06
500.667	15941.64
501.036	16038.59
501.405	16211.01
501.774	16213.05
502.143	16356.32
502.512	16440.61
502.88	16561.74
503.249	16669.76
503.618	16806.7
503.987	16872.24
504.356	17026.36
504.724	17148.62
505.093	17177.54
505.462	17283.08
505.83	17349.52
506.199	17489.17
506.567	17822.72
506.936	17823.85
507.304	17949.5
507.672	18070.63
508.041	18091.87
508.409	18359.66
508.777	18514.91
509.145	18644.62
509.514	18650.05
509.882	18656.37
510.25	18952.64
510.618	18984.27
510.986	19006.65
511.354	19213.2
511.722	19464.26
512.09	19781.09
512.458	19589.91
512.826	19875.78
513.193	20022.67
513.561	20074.87
513.929	20202.1
514.297	20316.44
514.664	20539.04
515.032	20690.67
515.4	20767.5
515.767	20884.56
516.135	21015.86
516.502	21014.73
516.869	21366.59
517.237	21442.97
517.604	21473.93
517.972	21773.81
518.339	21902.84
518.706	21970.64
519.073	22065.32
519.44	22216.05
519.808	22538.08
520.175	22493.56
520.542	22872.31
520.909	23061.23
521.276	23005.64
521.643	23288.79
522.009	23442.46
522.376	23601.55
522.743	23819.85
523.11	23921.55
523.477	24168.77
523.843	24393.62
524.21	24559.5
524.577	24826.38
524.943	24862.76
525.31	25102.08
525.676	25333.49
526.043	25480.38
526.409	25523.54
526.776	25906.58
527.142	25955.84
527.508	26044.43
527.874	26414.36
528.241	26474.47
528.607	26609.39
528.973	26895.25
529.339	26809.15
529.705	27160.56
530.071	27335.92
530.437	27428.12
530.803	27512.41
531.169	27851.84
531.535	27776.81
531.901	27966.86
532.267	28059.97
532.632	28222
532.998	28234.2
533.364	28565.27
533.73	28570.46
534.095	28826.05
534.461	28959.83
534.826	29080.28
535.192	29189.66
535.557	29461.51
535.923	29320.95
536.288	29518.91
536.653	29676.42
537.019	29650.21
537.384	29814.05
537.749	29975.4
538.114	29983.31
538.479	30044.55
538.845	30369.51
539.21	30259.68
539.575	30506.91
539.94	30482.5
540.305	30779.9
540.67	30714.59
541.034	30874.81
541.399	31054.92
541.764	31080.68
542.129	31155.03
542.494	31285.87
542.858	31381.24
543.223	31414.91
543.587	31651.96
543.952	31678.86
544.316	31756.14
544.681	31930.6
545.045	32010.6
545.41	32188.9
545.774	32234.77
546.138	32229.12
546.503	32412.17
546.867	32418.5
547.231	32814.65
547.595	32787.75
547.959	32884.02
548.324	32845.61
548.688	32990.01
549.052	33130.8
549.416	33198.82
549.779	33371.24
550.143	33366.72
550.507	33541.18
550.871	33617.11
551.235	33607.17
551.599	33965.58
551.962	33938.23
552.326	34119.24
552.689	34267.71
553.053	34237.21
553.417	34392.46
553.78	34659.34
554.143	34804.65
554.507	34888.49
554.87	34934.82
555.234	35400.79
555.597	35117.64
555.96	35301.13
556.323	35529.15
556.686	35578.41
557.05	35850.27
557.413	35831.52
557.776	36030.38
558.139	36186.53
558.502	36235.57
558.865	36389.47
559.228	36803.02
559.59	36886.18
559.953	36767.08
560.316	37223.34
560.679	37180.18
561.041	37427.86
561.404	37713.5
561.767	37906.04
562.129	37765.48
562.492	38079.14
562.854	38061.97
563.217	38191.91
563.579	38449.53
563.941	38662.18
564.304	38804.32
564.666	38970.87
565.028	39022.17
565.39	39165.44
565.753	39294.25
566.115	39494.02
566.477	39642.71
566.839	39875.25
567.201	39928.36
567.563	40055.59
567.925	40374.67
568.287	40320.21
568.648	40638.17
569.01	40773.08
569.372	40958.61
569.734	40800.2
570.095	41061.43
570.457	41182.11
570.819	41505.72
571.18	41368.09
571.542	41584.13
571.903	41709.55
572.265	41743
572.626	41893.73
572.987	41943.9
573.349	42089.66
573.71	42252.59
574.071	42379.82
574.432	42404.68
574.794	42768.28
575.155	42554.73
575.516	42576.65
575.877	42861.16
576.238	42968.73
576.599	42999.46
576.96	43044.43
577.32	43196.75
577.681	43114.94
578.042	43248.5
578.403	43261.83
578.763	43281.49
579.124	43323.75
579.485	43589.96
579.845	43604.64
580.206	43383.86
580.566	43561.71
580.927	43484.2
581.287	43702.27
581.648	43736.62
582.008	43819.1
582.368	43668.82
582.728	43792.21
583.089	43783.17
583.449	43796.5
583.809	43738.2
584.169	43894.81
584.529	43961.92
584.889	44196.04
585.249	43749.05
585.609	43801.02
585.969	43894.58
586.329	43799.44
586.688	43991.3
587.048	43826.33
587.408	43863.17
587.768	43770.97
588.127	43797.63
588.487	43851.19
588.846	44150.84
589.206	43829.95
589.565	43866.33
589.925	44100
590.284	43799.89
590.643	44017.74
591.003	44085.76
591.362	44126.89
591.721	44167.57
592.08	44094.58
592.44	44073.33
592.799	44137.06
593.158	44093.9
593.517	44056.16
593.876	44093.67
594.235	44049.15
594.593	44200.79
594.952	44231.52
595.311	44203.5
595.67	44262.03
596.029	44466.77
596.387	44407.11
596.746	44278.3
597.104	44249.83
597.463	44222.71
597.822	44462.25
598.18	44201.01
598.538	44295.7
598.897	44502.02
599.255	44160.79
599.613	44841
599.972	44448.69
600.33	44665.63
600.688	44494.79
601.046	44521.91
601.404	44734.11
601.762	44682.13
602.12	44818.17
602.478	44771.62
602.836	44708.34
603.194	44693.66
603.552	44596.93
603.91	44578.4
604.268	44879.41
604.625	44669.02
604.983	44963.7
605.341	44801.45
605.698	45134.55
606.056	45004.38
606.413	44906.98
606.771	45177.03
607.128	45101.55
607.485	44923.25
607.843	45129.58
608.2	45313.98
608.557	45386.74
608.914	45162.57
609.272	45394.65
609.629	45502.22
609.986	45579.06
610.343	45368.21
610.7	45743.8
611.057	45743.57
611.414	45593.07
611.771	45634.2
612.127	45784.02
612.484	45617.47
612.841	45880.52
613.198	45617.02
613.554	45769.56
613.911	46010
614.267	46029.21
614.624	45892.04
614.98	45834.19
615.337	46277.57
615.693	46108.53
616.05	46061.98
616.406	46282.31
616.762	46133.84
617.118	46255.65
617.475	46215.42
617.831	46265.14
618.187	46354.63
618.543	46357.34
618.899	46540.61
619.255	46372.71
619.611	46414.29
619.967	46482.99
620.323	46475.53
620.678	46471.91
621.034	46331.13
621.39	46406.6
621.746	46365.02
622.101	46828.06
622.457	46480.95
622.812	46475.98
623.168	46637.11
623.523	46613.83
623.879	46618.35
624.234	46459.48
624.589	46604.79
624.945	46628.07
625.3	46616.09
625.655	46707.16
626.01	46561.85
626.365	46560.95
626.72	46431.91
627.075	46506.26
627.43	46420.39
627.785	46453.61
628.14	46389.88
628.495	46518.24
628.85	46362.54
629.205	46200.96
629.559	46458.13
629.914	46176.55
630.269	46303.1
630.623	46156.67
630.978	46068.99
631.332	46273.05
631.687	46316.44
632.041	46146.95
632.396	46153.28
632.75	46084.35
633.104	46068.08
633.459	45959.16
633.813	45863.79
634.167	45901.99
634.521	45740.63
634.875	45879.39
635.229	45836
635.583	45532.28
635.937	45674.42
636.291	45627.42
636.645	45639.17
636.999	45521.43
637.352	45614.54
637.706	45299.29
638.06	45478.95
638.413	45313.53
638.767	45295.45
639.121	45266.3
639.474	45232.85
639.828	45080.09
640.181	44975
640.534	45171.38
640.888	44958.06
641.241	44719.87
641.594	44730.49
641.947	44976.59
642.301	44780.88
642.654	44810.71
643.007	44843.93
643.36	44717.38
643.713	44619.08
644.066	44669.25
644.419	44671.96
644.771	44332.99
645.124	43933.45
645.477	43894.81
645.83	43502.5
646.182	43367.36
646.535	43136.63
646.888	43247.37
647.24	43037.65
647.593	43219.8
647.945	43061.61
648.298	42885.12
648.65	43003.98
649.002	42775.97
649.355	42817.55
649.707	42719.24
650.059	42871.1
650.411	43462.05
650.763	43288.04
651.115	43745.43
651.467	43662.04
651.819	43645.55
652.171	43575.49
652.523	43389.96
652.875	43354.71
653.227	43358.55
653.578	43546.57
653.93	43390.19
654.282	43180.93
654.633	43056.64
654.985	43235.16
655.337	43256.18
655.688	43321.26
656.039	43289.4
656.391	42901.16
656.742	43111.55
657.094	43124.88
657.445	43044.21
657.796	42931.89
658.147	42964.66
658.498	42991.1
658.849	43165.11
659.2	42817.55
659.551	42814.61
659.902	42890.54
660.253	42803.31
660.604	42881.27
660.955	42616.65
661.306	42651.68
661.656	42746.59
662.007	42742.75
662.358	42740.49
662.708	42698.45
663.059	42718.57
663.409	42397.67
663.76	42711.11
664.11	42568.97
664.461	42716.53
664.811	42562.86
665.161	42506.59
665.511	42521.51
665.862	42395.86
666.212	42534.16
666.562	42592.69
666.912	42389.08
667.262	42434.28
667.612	42490.32
667.962	42482.64
668.312	42252.14
668.662	42471.11
669.011	42357.9
669.361	42437.67
669.711	42305.7
670.06	42220.5
670.41	42266.15
670.76	42103.89
671.109	42310.44
671.459	42414.62
671.808	42035.42
672.157	42126.04
672.507	41889.44
672.856	42000.17
673.205	41972.37
673.554	42074.06
673.904	41860.51
674.253	41929.43
674.602	41883.11
674.951	41235.44
675.3	41022.79
675.649	41799.49
675.998	41745.71
676.346	41671.81
676.695	41691.47
677.044	41516.79
677.393	41510.69
677.741	41547.3
678.09	41365.83
678.438	41373.52
678.787	41585.71
679.135	41531.25
679.484	41315.21
679.832	41417.13
680.181	41040.64
680.529	41201.09
680.877	41059.17
681.225	41116.35
681.573	41203.8
681.922	40969.23
682.27	40898.95
682.618	40797.03
682.966	40765.85
683.314	40884.72
683.661	40732.4
684.009	40482.01
684.357	40388.46
684.705	40347.1
685.053	40417.61
685.4	40297.16
685.748	40042.25
686.095	40111.63
686.443	39997.06
686.79	39879.09
687.138	39862.37
687.485	39929.71
687.832	39943.05
688.18	39781.69
688.527	39560.01
688.874	39502.83
689.221	39433
689.568	39425.77
689.915	39263.06
690.262	39281.14
690.609	39200.69
690.956	39004.31
691.303	39019.91
691.65	38776.3
691.997	38800.25
692.344	38565
692.69	38550.99
693.037	38573.82
693.383	38223.77
693.73	38478.9
694.077	38105.58
694.423	38105.58
694.769	38068.74
695.116	37853.38
695.462	37850.45
695.808	37821.97
696.155	37899.48
696.501	37574.07
696.847	37557.12
697.193	37206.17
697.539	37442.77
697.885	37008.66
698.231	36948.55
698.577	37021.09
698.923	36948.1
699.269	36729.34
699.614	36535.23
699.96	36416.36
700.306	36430.82
700.651	36324.38
700.997	36271.05
701.342	36184.95
701.688	36184.27
702.033	35944.96
702.379	35968.01
702.724	35813.21
703.069	35880.78
703.415	35405.99
703.76	35436.27
704.105	35533.22
704.45	35414.13
704.795	35057.98
705.14	35047.81
705.485	35152.66
705.83	34886.23
706.175	34976.17
706.52	34755.16
706.865	34710.87
707.209	34540.93
707.554	34571.89
707.899	34630.64
708.243	34490.08
708.588	34422.29
708.932	34302.74
709.277	34119.7
709.621	34117.66
709.966	33924.45
710.31	33963.77
710.654	33584.57
710.998	33710.89
711.342	33721.51
711.687	33562.87
712.031	33398.36
712.375	33396.1
712.719	33325.14
713.063	33321.75
713.407	33301.64
713.75	33119.27
714.094	33109.78
714.438	32970.35
714.782	32964.92
715.125	32776.23
715.469	32932.61
715.812	32706.17
716.156	32471.83
716.499	32588.21
716.843	32521.32
717.186	32350.7
717.53	32597.93
717.873	32480.42
718.216	32344.15
718.559	32092.4
718.902	32060.54
719.246	32134.66
719.589	31937.38
719.932	31836.37
720.275	31842.24
720.617	31738.97
720.96	31831.39
721.303	31786.88
721.646	31809.25
721.989	31737.39
722.331	31750.27
722.674	31420.11
723.016	31506.66
723.359	31462.82
723.701	31501.23
724.044	31324.74
724.386	31091.53
724.729	31249.26
725.071	31055.14
725.413	31218.76
725.755	31051.98
726.097	30941.25
726.439	30651.76
726.782	30821.48
727.124	30881.36
727.465	30760.69
727.807	30636.85
728.149	30571.31
728.491	30477.76
728.833	30560.69
729.175	30483.41
729.516	30365.22
729.858	30384.2
730.199	30338.1
730.541	30229.85
730.882	30097.65
731.224	30087.94
731.565	30031.89
731.906	30118.22
732.248	29988.05
732.589	29922.07
732.93	29738.12
733.271	29848.85
733.612	29871.22
733.953	29834.84
734.294	29666.93
734.635	29608.85
734.976	29773.14
735.317	29561.4
735.658	29520.95
735.999	29528.18
736.339	29342.19
736.68	29444.79
737.021	29361.4
737.361	29115.76
737.702	29326.38
738.042	29132.48
738.383	29071.69
738.723	29128.87
739.063	29027.85
739.404	29075.99
739.744	29031.02
740.084	28786.05
740.424	28890
740.764	28746.28
741.104	28868.08
741.444	28580.86
741.784	28504.25
742.124	28597.81
742.464	28525.49
742.804	28410.24
743.143	28315.33
743.483	28443.91
743.823	28281.21
744.162	28213.64
744.502	28289.79
744.841	28082.34
745.181	28191.26
745.52	28044.6
745.86	28117.82
746.199	27929.12
746.538	27951.5
746.877	27984.94
747.216	28083.92
747.556	27856.81
747.895	27868.79
748.234	27656.59
748.573	27747.21
748.911	27682.35
749.25	27650.94
749.589	27454.56
749.928	27547.89
750.267	27367.78
750.605	27354.68
750.944	27245.53
751.283	27071.07
751.621	27167.56
751.96	27041.46
752.298	27020.67
752.636	27112.2
752.975	26907
753.313	26792.66
753.651	26856.61
