Data from breadboard_white_FLMS001491_00059.txt Node
Date: Wed Feb 08 10:47:57 GMT 2017
User: dcchb
Spectrometer: FLMS00149
Trigger mode: 0
Integration Time (sec): 2.000000E-2
Scans to average: 10
Electric dark correction enabled: true
Nonlinearity correction enabled: false
Boxcar width: 0
XAxis mode: Wavelengths
Number of Pixels in Spectrum: 2048
>>>>>Begin Spectral Data<<<<<
341.393	-4.99
341.776	-4.99
342.16	-4.99
342.543	-56.06
342.927	-37.53
343.31	-78.43
343.693	-62.16
344.077	-89.5
344.46	-49.73
344.843	-44.98
345.226	-41.14
345.61	-10.41
345.993	-30.75
346.376	3.15
346.759	10.16
347.142	31.85
347.525	44.73
347.908	58.74
348.291	81.79
348.674	81.79
349.057	94.9
349.44	116.59
349.823	123.37
350.206	154.33
350.588	199.75
350.971	211.28
351.354	243.82
351.737	260.32
352.119	277.94
352.502	293.99
352.884	283.37
353.267	316.14
353.65	336.47
354.032	311.16
354.414	321.79
354.797	317.49
355.179	330.37
355.562	352.97
355.944	341.9
356.326	328.56
356.709	355.68
357.091	374.89
357.473	359.07
357.855	363.14
358.238	388
358.62	358.85
359.002	359.98
359.384	361.56
359.766	378.96
360.148	363.14
360.53	356.59
360.912	359.98
361.294	357.72
361.676	351.62
362.057	363.14
362.439	349.36
362.821	365.17
363.203	350.49
363.584	336.25
363.966	355.46
364.348	379.86
364.729	368.11
365.111	367.21
365.493	342.35
365.874	348.45
366.256	350.26
366.637	353.65
367.019	345.74
367.4	350.49
367.781	338.96
368.163	332.63
368.544	339.64
368.925	346.42
369.306	350.94
369.688	355.91
370.069	348.68
370.45	346.87
370.831	355.68
371.212	352.74
371.593	336.93
371.974	359.52
372.355	360.65
372.736	348.23
373.117	366.08
373.498	343.71
373.879	352.29
374.26	376.93
374.641	358.39
375.021	364.5
375.402	361.78
375.783	372.86
376.163	398.17
376.544	391.16
376.925	399.3
377.305	401.33
377.686	390.94
378.066	409.69
378.447	396.59
378.827	392.52
379.208	402.24
379.588	398.85
379.968	399.3
380.349	393.65
380.729	410.82
381.109	415.57
381.489	413.99
381.87	406.75
382.25	416.92
382.63	417.83
383.01	410.82
383.39	425.96
383.77	437.04
384.15	415.12
384.53	433.87
384.91	439.52
385.29	438.84
385.67	451.27
386.049	449.69
386.429	453.08
386.809	447.43
387.189	453.31
387.568	465.51
387.948	474.32
388.328	494.66
388.707	486.53
389.087	475.91
389.466	499.63
389.846	465.74
390.225	494.66
390.605	491.95
390.984	515.23
391.363	516.81
391.743	538.95
392.122	529.69
392.501	537.82
392.881	550.93
393.26	545.96
393.639	564.49
394.018	561.78
394.397	545.06
394.776	564.04
395.155	584.83
395.534	587.77
395.913	626.86
396.292	620.08
396.671	616.47
397.05	611.95
397.429	617.37
397.808	647.88
398.186	626.64
398.565	644.49
398.944	651.04
399.323	675.67
399.701	684.49
400.08	677.26
400.458	687.65
400.837	721.32
401.215	724.03
401.594	734.66
401.972	763.58
402.351	743.24
402.729	757.25
403.107	780.76
403.486	781.21
403.864	806.74
404.242	851.71
404.62	825.05
404.999	830.25
405.377	850.81
405.755	866.18
406.133	894.43
406.511	893.52
406.889	903.24
407.267	940.3
407.645	936.46
408.023	979.4
408.401	985.04
408.779	991.6
409.156	1022.78
409.534	1043.57
409.912	1055.1
410.29	1061.2
410.667	1096.45
411.045	1147.75
411.422	1160.41
411.8	1161.76
412.178	1203.57
412.555	1221.42
412.933	1208.32
413.31	1259.39
413.687	1296.9
414.065	1308.65
414.442	1314.08
414.819	1357.69
415.197	1361.08
415.574	1368.99
415.951	1417.12
416.328	1441.76
416.705	1461.42
417.082	1472.26
417.46	1476.78
417.837	1527.63
418.214	1564.24
418.591	1538.7
418.967	1576.22
419.344	1575.76
419.721	1606.72
420.098	1616.67
420.475	1668.64
420.852	1658.47
421.228	1683.33
421.605	1727.4
421.982	1746.61
422.358	1741.63
422.735	1771.01
423.111	1785.25
423.488	1819.83
423.864	1843.55
424.241	1862.54
424.617	1916.32
424.994	1906.38
425.37	1940.05
425.746	1956.54
426.123	1965.13
426.499	2001.74
426.875	2029.54
427.251	2036.99
427.627	2100.27
428.003	2130.55
428.379	2150.89
428.756	2178.46
429.132	2196.54
429.507	2234.96
429.883	2279.93
430.259	2317.44
430.635	2353.14
431.011	2328.51
431.387	2407.15
431.763	2462.52
432.138	2439.7
432.514	2528.96
432.89	2518.79
433.265	2620.26
433.641	2623.65
434.016	2635.62
434.392	2671.33
434.767	2756.98
435.143	2749.74
435.518	2765.34
435.894	2814.6
436.269	2847.37
436.644	2900.02
437.02	2959.68
437.395	2942.06
437.77	2980.47
438.145	3048.49
438.52	3063.86
438.895	3084.65
439.271	3103.18
439.646	3172.33
440.021	3184.31
440.395	3203.29
440.77	3228.83
441.145	3239.67
441.52	3356.28
441.895	3305.66
442.27	3369.39
442.645	3340.69
443.019	3464.53
443.394	3403.29
443.769	3493
444.143	3450.29
444.518	3541.81
444.892	3493.45
445.267	3537.29
445.641	3608.48
446.016	3608.7
446.39	3640.57
446.764	3658.19
447.139	3661.81
447.513	3710.4
447.887	3782.71
448.262	3739.55
448.636	3795.59
449.01	3851.86
449.384	3932.09
449.758	3881.92
450.132	3952.65
450.506	3977.96
450.88	4017.06
451.254	3998.98
451.628	4062.03
452.002	4117.17
452.376	4168.01
452.75	4224.51
453.123	4234.22
453.497	4333.88
453.871	4350.15
454.244	4461.56
454.618	4484.39
454.992	4549.7
455.365	4545.4
455.739	4729.35
456.112	4727.55
456.486	4752.18
456.859	4843.25
457.232	4890.93
457.606	4889.57
457.979	4970.93
458.352	5065.39
458.725	5117.14
459.099	5228.55
459.472	5307.42
459.845	5356.91
460.218	5374.76
460.591	5451.82
460.964	5461.54
461.337	5592.83
461.71	5696.33
462.083	5715.77
462.456	5788.08
462.829	5778.14
463.201	5956.44
463.574	5925.25
463.947	6004.57
464.32	6211.8
464.692	6232.14
465.065	6282.53
465.438	6397.56
465.81	6490.44
466.183	6533.15
466.555	6713.71
466.928	6746.93
467.3	6756.64
467.672	6840.48
468.045	7027.15
468.417	7074.6
468.789	7087.26
469.161	7172.23
469.534	7305.1
469.906	7553.46
470.278	7584.42
470.65	7672.33
471.022	7832.32
471.394	8028.25
471.766	8027.35
472.138	8171.75
472.51	8369.71
472.882	8416.71
473.253	8465.07
473.625	8678.85
473.997	8840.88
474.369	8956.13
474.74	8992.74
475.112	9167.2
475.484	9333.07
475.855	9491.26
476.227	9602.22
476.598	9946.84
476.97	9957.46
477.341	10205.59
477.713	10202.43
478.084	10447.17
478.455	10687.84
478.827	10781.17
479.198	11156.08
479.569	11112.24
479.94	11497.99
480.311	11462.51
480.682	11823.86
481.053	12103.17
481.424	12257.06
481.795	12331.19
482.166	12701.57
482.537	12799.2
482.908	13075.8
483.279	13158.74
483.65	13445.73
484.021	13724.14
484.391	13810.7
484.762	14034.19
485.133	14136.11
485.503	14351.47
485.874	14700.62
486.244	14817.22
486.615	15109.42
486.985	15186.48
487.356	15603.64
487.726	15616.07
488.097	15980.36
488.467	16067.13
488.837	16412.66
489.207	16621.7
489.578	16858.53
489.948	17109.14
490.318	17264.39
490.688	17280.89
491.058	17699.41
491.428	17854.88
491.798	18005.39
492.168	18437.47
492.538	18498.93
492.908	18703.45
493.278	18924.23
493.648	19027.28
494.017	19311.12
494.387	19463.65
494.757	19615.97
495.126	19939.12
495.496	19901.61
495.866	20068.84
496.235	20363.74
496.605	20399.45
496.974	20542.72
497.344	20784.75
497.713	20996.27
498.082	21133.67
498.452	21414.79
498.821	21406.43
499.19	21634.9
499.559	21796.93
499.928	21977.94
500.298	22090.93
500.667	22377.48
501.036	22270.13
501.405	22556.45
501.774	22579.51
502.143	22923.22
502.512	23086.84
502.88	23132.94
503.249	23228.3
503.618	23405.7
503.987	23550.78
504.356	23789.64
504.724	23864.22
505.093	23968.62
505.462	24162.06
505.83	24205.9
506.199	24578.77
506.567	24847.92
506.936	24836.39
507.304	25182.37
507.672	25268.47
508.041	25401.8
508.409	25622.59
508.777	25827.56
509.145	25971.28
509.514	26106.19
509.882	26282.91
510.25	26405.85
510.618	26769.9
510.986	26777.59
511.354	26962.67
511.722	27211.47
512.09	27469.55
512.458	27383.45
512.826	27804.45
513.193	27968.97
513.561	28022.98
513.929	28397.21
514.297	28605.56
514.664	28763.98
515.032	28873.12
515.4	29126.9
515.767	29312.66
516.135	29331.87
516.502	29356.73
516.869	29922.14
517.237	30015.24
517.604	30001.23
517.972	30484.16
518.339	30578.16
518.706	30785.17
519.073	30942.45
519.44	31241.88
519.808	31597.57
520.175	31523.45
520.542	32012.93
520.909	32167.05
521.276	32245.24
521.643	32711.22
522.009	32789.63
522.376	32943.75
522.743	33341.03
523.11	33649.95
523.477	33823.73
523.843	34011.52
524.21	34435.46
524.577	34679.75
524.943	34889.92
525.31	35096.69
525.676	35402.22
526.043	35637.47
526.409	35786.62
526.776	36067.29
527.142	36322.42
527.508	36445.58
527.874	36829.3
528.241	37091.89
528.607	37173.92
528.973	37542.73
529.339	37570.3
529.705	37860.01
530.071	38268.81
530.437	38352.42
530.803	38548.12
531.169	38812.52
531.535	38770.27
531.901	39024.5
532.267	39346.97
532.632	39461.32
532.998	39692.95
533.364	39843.68
533.73	39966.84
534.095	40231.02
534.461	40466.72
534.826	40617.22
535.192	40796.2
535.557	41045.01
535.923	41049.98
536.288	41254.49
536.653	41613.81
537.019	41415.39
537.384	41622.85
537.749	41918.66
538.114	42050.86
538.479	42032.33
538.845	42334.69
539.21	42352.54
539.575	42478.42
539.94	42554.57
540.305	42913.66
540.67	43034.56
541.034	43085.18
541.399	43211.28
541.764	43295.12
542.129	43450.14
542.494	43636.35
542.858	43859.4
543.223	43823.47
543.587	44096.91
543.952	44083.35
544.316	44394.07
544.681	44334.64
545.045	44571.02
545.41	44868.64
545.774	44940.27
546.138	44911.12
546.503	44980.27
546.867	45054.62
547.231	45379.58
547.595	45451.22
547.959	45589.75
548.324	45676.98
548.688	45689.18
549.052	46020.24
549.416	45983.86
549.779	46059.79
550.143	46310.63
550.507	46482.83
550.871	46606.67
551.235	46611.42
551.599	46941.35
551.962	47003.04
552.326	47220.89
552.689	47424.95
553.053	47301.12
553.417	47389.25
553.78	47983.13
554.143	47880.76
554.507	47964.6
554.87	48183.35
555.234	48460.63
555.597	48466.28
555.96	48646.62
556.323	48746.95
556.686	48894.97
557.05	49022.43
557.413	49242.31
557.776	49339.03
558.139	49553.03
558.502	49581.28
558.865	49764.78
559.228	49979.69
559.59	50035.73
559.953	50141.72
560.316	50473.24
560.679	50574.25
561.041	50684.3
561.404	50892.66
561.767	51125.65
562.129	50953.22
562.492	51311.41
562.854	51445.64
563.217	51377.39
563.579	51590.72
563.941	51785.06
564.304	51885.63
564.666	52133.76
565.028	52216.47
565.39	52293.53
565.753	52449.23
566.115	52504.14
566.477	52738.71
566.839	52762.67
567.201	52992.72
567.563	53015.99
567.925	53187.51
568.287	53171.24
568.648	53325.59
569.01	53553.83
569.372	53664.79
569.734	53577.11
570.095	53804.9
570.457	53862.98
570.819	53919.25
571.18	54006.25
571.542	54208.5
571.903	54222.51
572.265	54360.59
572.626	54387.26
572.987	54413.02
573.349	54585.67
573.71	54690.75
574.071	54771.88
574.432	54801.48
574.794	55003.74
575.155	54953.34
575.516	54908.37
575.877	55118.76
576.238	55104.3
576.599	55253.45
576.96	55301.58
577.32	55248.93
577.681	55390.62
578.042	55433.56
578.403	55357.17
578.763	55380.45
579.124	55532.09
579.485	55607.11
579.845	55651.63
580.206	55607.34
580.566	55624.74
580.927	55679.43
581.287	55807.11
581.648	55652.76
582.008	55838.29
582.368	55782.93
582.728	55789.25
583.089	55832.64
583.449	55754.9
583.809	55760.78
584.169	55911.96
584.529	55760.78
584.889	55931.62
585.249	55844.62
585.609	55730.95
585.969	55915.13
586.329	55835.81
586.688	55881.45
587.048	55900.66
587.408	55863.15
587.768	55873.54
588.127	55803.26
588.487	55907.44
588.846	56041
589.206	55879.42
589.565	55845.07
589.925	56010.72
590.284	55857.95
590.643	55901.11
591.003	56009.36
591.362	56079.19
591.721	56026.76
592.08	56029.7
592.44	56111.73
592.799	56102.24
593.158	56032.64
593.517	56036.25
593.876	56022.92
594.235	55952.86
594.593	56109.47
594.952	56104.5
595.311	56064.5
595.67	56061.34
596.029	56266.98
596.387	56249.58
596.746	56256.59
597.104	56129.13
597.463	56158.74
597.822	56318.28
598.18	56261.11
598.538	56183.14
598.897	56376.58
599.255	56115.57
599.613	56520.31
599.972	56328.67
600.33	56419.07
600.688	56264.5
601.046	56351.95
601.404	56475.56
601.762	56438.73
602.12	56500.2
602.478	56550.14
602.836	56558.95
603.194	56467.88
603.552	56530.02
603.91	56414.32
604.268	56568.89
604.625	56506.3
604.983	56657.25
605.341	56476.02
605.698	56614.54
606.056	56722.34
606.413	56664.48
606.771	56820.41
607.128	56817.25
607.485	56683.47
607.843	56747.65
608.2	56831.94
608.557	56899.96
608.914	56867.64
609.272	56905.83
609.629	56959.39
609.986	57125.49
610.343	56951.93
610.7	57106.51
611.057	57113.51
611.414	57104.02
611.771	57050.92
612.127	57239.61
612.484	57214.75
612.841	57254.07
613.198	57159.16
613.554	57156.9
613.911	57317.57
614.267	57319.38
614.624	57203.45
614.98	57309.44
615.337	57470.79
615.693	57365.94
616.05	57323.68
616.406	57510.11
616.762	57477.8
617.118	57467.85
617.475	57514.41
617.831	57587.62
618.187	57585.59
618.543	57617.91
618.899	57709.2
619.255	57611.58
619.611	57593.27
619.967	57703.1
620.323	57748.3
620.678	57594.4
621.034	57676.89
621.39	57613.61
621.746	57573.61
622.101	57877.33
622.457	57639.37
622.812	57685.93
623.168	57748.75
623.523	57798.69
623.879	57787.84
624.234	57631.69
624.589	57738.58
624.945	57736.09
625.3	57740.84
625.655	57742.42
626.01	57781.97
626.365	57657.9
626.72	57709.88
627.075	57716.43
627.43	57685.25
627.785	57595.31
628.14	57635.98
628.495	57727.73
628.85	57663.33
629.205	57537.68
629.559	57718.02
629.914	57554.63
630.269	57574.74
630.623	57565.03
630.978	57510.79
631.332	57547.4
631.687	57623.78
632.041	57497.01
632.396	57536.33
632.75	57409.55
633.104	57531.13
633.459	57309.67
633.813	57386.05
634.167	57339.04
634.521	57324.81
634.875	57322.55
635.229	57292.04
635.583	57184.92
635.937	57232.61
636.291	57159.39
636.645	57200.74
636.999	57066.06
637.352	57167.3
637.706	57067.86
638.06	57150.8
638.413	57040.29
638.767	56921.2
639.121	56945.83
639.474	56783.35
639.828	56844.14
640.181	56820.64
640.534	56822.22
640.888	56725.27
641.241	56696.35
641.594	56672.62
641.947	56751.26
642.301	56699.51
642.654	56685.5
643.007	56725.95
643.36	56606.41
643.713	56547.88
644.066	56607.31
644.419	56475.11
644.771	56356.02
645.124	56172.97
645.477	56102.69
645.83	55828.12
646.182	55730.72
646.535	55507.23
646.888	55592.65
647.24	55476.95
647.593	55589.48
647.945	55578.86
648.298	55368.25
648.65	55391.75
649.002	55293.67
649.355	55443.73
649.707	55353.11
650.059	55455.48
650.411	55784.28
650.763	55795.35
651.115	56048.91
651.467	55948.8
651.819	55982.69
652.171	55887.78
652.523	55792.87
652.875	55756.49
653.227	55723.94
653.578	55874.9
653.93	55779.31
654.282	55674.45
654.633	55668.35
654.985	55692.08
655.337	55693.66
655.688	55724.62
656.039	55721.91
656.391	55521.69
656.742	55574.34
657.094	55627.68
657.445	55657.28
657.796	55523.27
658.147	55537.06
658.498	55526.21
658.849	55553.1
659.2	55496.15
659.551	55479.66
659.902	55521.24
660.253	55517.4
660.604	55495.02
660.955	55315.14
661.306	55427.23
661.656	55384.74
662.007	55376.61
662.358	55375.93
662.708	55347.01
663.059	55264.97
663.409	55141.13
663.76	55331.19
664.11	55251.41
664.461	55325.08
664.811	55349.49
665.161	55223.62
665.511	55192.88
665.862	55208.93
666.212	55239.44
666.562	55224.97
666.912	55213
667.262	55157.63
667.612	55121.25
667.962	55188.82
668.312	55124.64
668.662	55182.94
669.011	55164.19
669.361	55087.58
669.711	55078.54
670.06	55005.09
670.41	55001.03
670.76	55006.22
671.109	55079.22
671.459	55021.59
671.808	54917.64
672.157	54945.21
672.507	54783.18
672.856	54789.96
673.205	54899.79
673.554	54907.24
673.904	54812.33
674.253	54883.74
674.602	54807.81
674.951	54348.61
675.3	54241.72
675.649	54709.96
675.998	54633.35
676.346	54650.75
676.695	54789.05
677.044	54460.25
677.393	54540.25
677.741	54600.36
678.09	54591.54
678.438	54459.8
678.787	54418.67
679.135	54434.71
679.484	54361.27
679.832	54435.62
680.181	54215.51
680.529	54418.44
680.877	54198.79
681.225	54242.63
681.573	54327.14
681.922	54125.57
682.27	54023.2
682.618	54110.88
682.966	54036.08
683.314	54037.44
683.661	53978.45
684.009	53764.67
684.357	53702.75
684.705	53705.92
685.053	53704.34
685.4	53618.46
685.748	53534.4
686.095	53490.33
686.443	53374.18
686.79	53364.23
687.138	53462.76
687.485	53382.99
687.832	53237.68
688.18	53288.98
688.527	53149.1
688.874	53125.59
689.221	53013.96
689.568	52839.95
689.915	52817.13
690.262	52858.71
690.609	52702.1
690.956	52620.98
691.303	52590.02
691.65	52417.59
691.997	52454.2
692.344	52231.15
692.69	52113.87
693.037	52242.68
693.383	51936.25
693.73	52001.78
694.077	51865.74
694.423	51841.79
694.769	51764.73
695.116	51670.04
695.462	51636.82
695.808	51437.73
696.155	51642.47
696.501	51271.63
696.847	51320.22
697.193	51015.82
697.539	51211.75
697.885	50898.53
698.231	50687.24
698.577	50854.92
698.923	50697.41
699.269	50639.56
699.614	50435.04
699.96	50339.23
700.306	50297.65
700.651	50191.89
700.997	50106.24
701.342	50075.28
701.688	49969.52
702.033	49810.88
702.379	49850.88
702.724	49656.76
703.069	49800.26
703.415	49388.52
703.76	49333.6
704.105	49323.66
704.45	49095.87
704.795	49036.44
705.14	48978.59
705.485	48897.01
705.83	48730.23
706.175	48664.92
706.52	48655.2
706.865	48516.22
707.209	48428.77
707.554	48350.8
707.899	48370.69
708.243	48177.48
708.588	48084.15
708.932	47786.98
709.277	47800.08
709.621	47917.82
709.966	47613.65
710.31	47656.36
710.654	47322.58
710.998	47380.66
711.342	47287.1
711.687	47261.12
712.031	47053.21
712.375	46971.41
712.719	47041.46
713.063	46939.99
713.407	46984.06
713.75	46732.09
714.094	46743.39
714.438	46548.37
714.782	46697.52
715.125	46401.03
715.469	46502.49
715.812	46169.39
716.156	46181.6
716.499	45978.89
716.843	46066.35
717.186	45851.66
717.53	45996.52
717.873	45944.31
718.216	45774.38
718.559	45632.68
718.902	45309.3
719.246	45529.86
719.589	45379.58
719.932	45122.87
720.275	45310.21
720.617	45065.02
720.96	45091.91
721.303	45081.29
721.646	45058.46
721.989	44782.31
722.331	44938.01
722.674	44732.37
723.016	44829.54
723.359	44673.16
723.701	44586.38
724.044	44301.19
724.386	44019.85
724.729	44367.41
725.071	44347.52
725.413	44174.87
725.755	44055.55
726.097	44164.93
726.439	43816.91
726.782	43805.16
727.124	43958.38
727.465	43654.88
727.807	43616.69
728.149	43615.34
728.491	43480.42
728.833	43432.52
729.175	43281.11
729.516	43251.05
729.858	43138.96
730.199	43329.92
730.541	43138.29
730.882	42993.88
731.224	43259.19
731.565	42774.68
731.906	42808.35
732.248	42987.78
732.589	42713.89
732.93	42539.66
733.271	42527.46
733.612	42509.83
733.953	42546.44
734.294	42413.11
734.635	42248.59
734.976	42229.84
735.317	42145.54
735.658	42137.41
735.999	42051.08
736.339	42112.32
736.68	42115.49
737.021	41848.83
737.361	41654.94
737.702	41755.95
738.042	41743.07
738.383	41695.39
738.723	41759.79
739.063	41505.34
739.404	41487.26
739.744	41438.9
740.084	41328.62
740.424	41273.93
740.764	41133.82
741.104	41306.47
741.444	41080.26
741.784	41024.22
742.124	40984.44
742.464	40956.65
742.804	40747.62
743.143	40691.12
743.483	40776.31
743.823	40483.89
744.162	40574.74
744.502	40452.26
744.841	40398.25
745.181	40563.44
745.52	40264.92
745.86	40426.04
746.199	40229.89
746.538	40224.69
746.877	40187.4
747.216	40127.97
747.556	39965.71
747.895	39907.41
748.234	39792.16
748.573	39700.86
748.911	39642.79
749.25	39530.7
749.589	39336.35
749.928	39595.78
750.267	39309.91
750.605	39393.98
750.944	39125.06
751.283	39008.68
751.621	38988.79
751.96	38927.55
