Data from breadboard_black_back_FLMS001491_00029.txt Node
Date: Wed Feb 08 10:50:10 GMT 2017
User: dcchb
Spectrometer: FLMS00149
Trigger mode: 0
Integration Time (sec): 2.000000E-2
Scans to average: 10
Electric dark correction enabled: true
Nonlinearity correction enabled: false
Boxcar width: 0
XAxis mode: Wavelengths
Number of Pixels in Spectrum: 2048
>>>>>Begin Spectral Data<<<<<
341.393	-5.31
341.776	-5.31
342.16	-5.31
342.543	-57.96
342.927	-52.54
343.31	-76.72
343.693	-83.27
344.077	-71.3
344.46	-56.38
344.843	-58.64
345.226	-37.17
345.61	-26.1
345.993	-35.37
346.376	-11.19
346.759	28.36
347.142	17.06
347.525	63.16
347.908	61.35
348.291	76.04
348.674	102.94
349.057	107.23
349.44	103.61
349.823	143.84
350.206	143.39
350.588	180.9
350.971	223.16
351.354	238.52
351.737	240.11
352.119	257.73
352.502	263.83
352.884	299.31
353.267	284.17
353.65	294.12
354.032	307.45
354.414	299.54
354.797	307.68
355.179	318.97
355.562	354.91
355.944	349.71
356.326	341.35
356.709	340.22
357.091	333.66
357.473	350.61
357.855	368.92
358.238	355.13
358.62	368.92
359.002	348.58
359.384	361.91
359.766	342.02
360.148	365.75
360.53	350.16
360.912	371.63
361.294	328.24
361.676	343.83
362.057	371.18
362.439	353.1
362.821	359.43
363.203	352.19
363.584	345.19
363.966	342.48
364.348	347.67
364.729	357.39
365.111	347.45
365.493	361.91
365.874	327.11
366.256	335.25
366.637	347
367.019	340.22
367.4	331.86
367.781	340.89
368.163	344.74
368.544	350.84
368.925	330.05
369.306	354.23
369.688	369.82
370.069	363.49
370.45	358.07
370.831	334.57
371.212	344.74
371.593	341.8
371.974	362.36
372.355	359.2
372.736	358.52
373.117	353.1
373.498	369.37
373.879	353.32
374.26	353.1
374.641	353.55
375.021	362.14
375.402	374.79
375.783	357.39
376.163	369.59
376.544	379.76
376.925	377.5
377.305	391.52
377.686	387
378.066	382.48
378.447	389.26
378.827	384.06
379.208	378.86
379.588	385.41
379.968	368.46
380.349	383.15
380.729	387.9
381.109	395.58
381.489	403.94
381.87	401.68
382.25	393.1
382.63	392.42
383.01	412.76
383.39	421.12
383.77	426.32
384.15	416.15
384.53	431.51
384.91	443.94
385.29	415.7
385.67	425.64
386.049	449.82
386.429	452.53
386.809	433.1
387.189	423.83
387.568	442.14
387.948	444.62
388.328	454.11
388.707	464.06
389.087	467.67
389.466	481
389.846	473.32
390.225	473.55
390.605	492.98
390.984	465.86
391.363	478.07
391.743	487.33
392.122	470.16
392.501	504.28
392.881	499.53
393.26	499.08
393.639	531.62
394.018	498.63
394.397	506.77
394.776	503.83
395.155	504.28
395.534	525.07
395.913	518.52
396.292	514.22
396.671	549.7
397.05	549.93
397.429	539.76
397.808	562.13
398.186	559.42
398.565	544.73
398.944	545.41
399.323	544.05
399.701	579.53
400.08	549.48
400.458	570.72
400.837	586.76
401.215	580.44
401.594	603.03
401.972	599.65
402.351	594.9
402.729	624.73
403.107	622.7
403.486	625.86
403.864	607.78
404.242	612.75
404.62	627.89
404.999	638.51
405.377	638.97
405.755	656.59
406.133	658.4
406.511	639.64
406.889	672.19
407.267	683.03
407.645	691.17
408.023	690.26
408.401	694.33
408.779	707.89
409.156	724.61
409.534	721.68
409.912	721.22
410.29	779.08
410.667	752.64
411.045	741.79
411.422	768
411.8	779.08
412.178	766.42
412.555	814.55
412.933	799.87
413.31	811.84
413.687	812.75
414.065	842.35
414.442	833.54
414.819	820.66
415.197	822.01
415.574	859.07
415.951	852.07
416.328	886.42
416.705	857.49
417.082	904.5
417.46	904.5
417.837	897.94
418.214	901.11
418.591	925.06
418.967	949.01
419.344	926.42
419.721	937.72
420.098	973.87
420.475	988.34
420.852	970.48
421.228	982.69
421.605	1004.61
421.982	1040.09
422.358	1003.02
422.735	1017.94
423.111	1008.22
423.488	1062.68
423.864	1024.04
424.241	1070.14
424.617	1023.59
424.994	1062.91
425.37	1061.78
425.746	1102.91
426.123	1095.9
426.499	1074.21
426.875	1125.73
427.251	1165.73
427.627	1135.9
428.003	1167.54
428.379	1188.78
428.756	1173.42
429.132	1220.19
429.507	1219.29
429.883	1238.5
430.259	1275.11
430.635	1276.46
431.011	1278.05
431.387	1297.48
431.763	1340.64
432.138	1345.84
432.514	1341.09
432.89	1362.11
433.265	1391.26
433.641	1402.79
434.016	1419.06
434.392	1449.11
434.767	1486.4
435.143	1435.78
435.518	1482.79
435.894	1505.38
436.269	1492.28
436.644	1503.35
437.02	1533.63
437.395	1550.13
437.77	1545.61
438.145	1607.75
438.52	1616.57
438.895	1619.73
439.271	1640.07
439.646	1678.94
440.021	1660.18
440.395	1691.37
440.77	1694.76
441.145	1681.2
441.52	1725.04
441.895	1725.04
442.27	1750.58
442.645	1737.92
443.019	1776.34
443.394	1777.24
443.769	1783.34
444.143	1781.76
444.518	1806.17
444.892	1810.46
445.267	1812.27
445.641	1829.67
446.016	1866.96
446.39	1855.88
446.764	1871.25
447.139	1882.1
447.513	1896.33
447.887	1953.96
448.262	1935.2
448.636	1945.15
449.01	1980.63
449.384	1950.57
449.758	2015.2
450.132	2014.52
450.506	2048.65
450.88	2039.61
451.254	2053.17
451.628	2079.61
452.002	2116.44
452.376	2117.12
452.75	2169.1
453.123	2155.99
453.497	2188.3
453.871	2195.31
454.244	2249.09
454.618	2252.48
454.992	2292.93
455.365	2332.03
455.739	2326.61
456.112	2410.45
456.486	2412.48
456.859	2469.65
457.232	2478.24
457.606	2456.09
457.979	2487.28
458.352	2554.62
458.725	2582.19
459.099	2601.63
459.472	2692.25
459.845	2689.53
460.218	2685.24
460.591	2732.47
460.964	2748.97
461.337	2808.85
461.71	2840.94
462.083	2914.84
462.456	2886.82
462.829	2900.38
463.201	2941.96
463.574	2979.24
463.947	3018.79
464.32	3114.16
464.692	3144.89
465.065	3160.03
465.438	3183.76
465.81	3233.25
466.183	3241.16
466.555	3295.85
466.928	3354.15
467.3	3332
467.672	3422.62
468.045	3500.36
468.417	3535.39
468.789	3510.98
469.161	3592.11
469.534	3611.54
469.906	3729.28
470.278	3745.55
470.65	3736.74
471.022	3812.67
471.394	3874.81
471.766	3949.16
472.138	3996.39
472.51	4097.63
472.882	4109.16
473.253	4152.55
473.625	4258.53
473.997	4348.25
474.369	4391.18
474.74	4417.17
475.112	4545.76
475.484	4564.06
475.855	4715.7
476.227	4675.92
476.598	4837.95
476.97	4878.4
477.341	4996.14
477.713	5058.74
478.084	5048.57
478.455	5233.2
478.827	5212.63
479.198	5389.58
479.569	5414.21
479.94	5501.44
480.311	5592.06
480.682	5757.7
481.053	5839.06
481.424	5933.74
481.795	5995.89
482.166	6091.7
482.537	6216.9
482.908	6288.76
483.279	6313.17
483.65	6469.32
484.021	6556.55
484.391	6661.18
484.762	6725.36
485.133	6796.32
485.503	6936.2
485.874	7088.51
486.244	7172.13
486.615	7257.55
486.985	7386.81
487.356	7474.04
487.726	7532.8
488.097	7702.51
488.467	7769.85
488.837	7873.8
489.207	7953.8
489.578	8052.78
489.948	8159.9
490.318	8305.43
490.688	8315.6
491.058	8459.1
491.428	8534.58
491.798	8632.43
492.168	8797.4
492.538	8863.61
492.908	8987.22
493.278	9023.83
493.648	9116.03
494.017	9192.41
494.387	9276.93
494.757	9324.16
495.126	9470.15
495.496	9570.03
495.866	9622.01
496.235	9742
496.605	9803.47
496.974	9834.66
497.344	9990.36
497.713	9987.2
498.082	10117.36
498.452	10208.21
498.821	10323.68
499.19	10316.68
499.559	10455.43
499.928	10498.82
500.298	10554.64
500.667	10694.07
501.036	10677.35
501.405	10822.43
501.774	10811.35
502.143	10910.11
502.512	10946.72
502.88	11125.92
503.249	11152.59
503.618	11258.8
503.987	11273.49
504.356	11336.99
504.724	11358.23
505.093	11437.33
505.462	11471.22
505.83	11599.13
506.199	11754.15
506.567	11924.77
506.936	11908.27
507.304	12019.23
507.672	12073.02
508.041	12143.75
508.409	12213.35
508.777	12365.89
509.145	12470.75
509.514	12451.54
509.882	12587.13
510.25	12616.73
510.618	12718.42
510.986	12841.36
511.354	12952.77
511.722	13037.28
512.09	13166.55
512.458	13180.78
512.826	13229.6
513.193	13421
513.561	13429.82
513.929	13617.38
514.297	13616.48
514.664	13757.72
515.032	13806.76
515.4	14008.56
515.767	14077.03
516.135	14167.88
516.502	14096.24
516.869	14411.03
517.237	14411.71
517.604	14394.76
517.972	14601.99
518.339	14646.51
518.706	14794.07
519.073	14849.67
519.44	14959.95
519.808	15075.65
520.175	15201.3
520.542	15327.85
520.909	15423.66
521.276	15477.22
521.643	15602.87
522.009	15762.41
522.376	15915.85
522.743	15991.78
523.11	16162.85
523.477	16299.57
523.843	16357.42
524.21	16568.72
524.577	16631.09
524.943	16810.07
525.31	16782.27
525.676	17001.93
526.043	17055.71
526.409	17156.05
526.776	17388.81
527.142	17438.75
527.508	17573.21
527.874	17760.1
528.241	17844.16
528.607	17891.62
528.973	18097.26
529.339	18054.1
529.705	18328.44
530.071	18452.74
530.437	18529.12
530.803	18644.82
531.169	18685.72
531.535	18768.43
531.901	18810.47
532.267	18976.79
532.632	19070.57
532.998	19139.72
533.364	19236.44
533.73	19252.26
534.095	19512.59
534.461	19525.02
534.826	19638.47
535.192	19694.74
535.557	19829.2
535.923	19922.53
536.288	19906.93
536.653	20058.12
537.019	19992.81
537.384	20159.36
537.749	20394.38
538.114	20393.48
538.479	20496.3
538.845	20515.73
539.21	20474.38
539.575	20666.91
539.94	20704.43
540.305	20784.65
540.67	20875.72
541.034	20905.55
541.399	21046.11
541.764	21071.2
542.129	21177.41
542.494	21265.32
542.858	21320
543.223	21383.05
543.587	21427.35
543.952	21460.57
544.316	21656.27
544.681	21631.86
545.045	21761.12
545.41	21832.53
545.774	21863.94
546.138	21959.99
546.503	21974.45
546.867	22154.33
547.231	22329.02
547.595	22317.49
547.959	22348.23
548.324	22403.82
548.688	22553.19
549.052	22606.52
549.416	22683.58
549.779	22593.64
550.143	22793.41
550.507	22907.08
550.871	22988.66
551.235	22985.72
551.599	23133.29
551.962	23151.59
552.326	23310.91
552.689	23464.58
553.053	23382.55
553.417	23434.98
553.78	23673.84
554.143	23701.64
554.507	23848.98
554.87	23885.81
555.234	24083.32
555.597	23988.63
555.96	24170.78
556.323	24246.48
556.686	24358.57
557.05	24585.46
557.413	24573.93
557.776	24581.84
558.139	24795.62
558.502	24789.74
558.865	24931.43
559.228	25165.78
559.59	25156.29
559.953	25170.75
560.316	25591.98
560.679	25495.49
561.041	25709.72
561.404	25762.37
561.767	25908.58
562.129	25925.76
562.492	26207.33
562.854	26130.05
563.217	26184.96
563.579	26325.3
563.941	26519.87
564.304	26625.85
564.666	26829.01
565.028	26695.23
565.39	26876.47
565.753	26944.04
566.115	27168.21
566.477	27301.77
566.839	27370.47
567.201	27570.91
567.563	27513.51
567.925	27688.65
568.287	27710.12
568.648	27793.51
569.01	28010
569.372	28100.62
569.734	27975.42
570.095	28323.44
570.457	28387.39
570.819	28416.99
571.18	28408.18
571.542	28693.14
571.903	28811.33
572.265	28772.01
572.626	28896.3
572.987	28957.54
573.349	29070.31
573.71	29161.61
574.071	29200.02
574.432	29343.97
574.794	29543.97
575.155	29395.05
575.516	29348.27
575.877	29588.49
576.238	29559.11
576.599	29758.65
576.96	29747.13
577.32	29777.41
577.681	29873.9
578.042	29854.02
578.403	29990.96
578.763	29975.37
579.124	30057.85
579.485	30175.82
579.845	30255.81
580.206	30108.25
580.566	30161.81
580.927	30346.21
581.287	30346.89
581.648	30250.17
582.008	30391.4
582.368	30373.33
582.728	30338.3
583.089	30358.41
583.449	30410.39
583.809	30363.83
584.169	30442.7
584.529	30479.31
584.889	30676.82
585.249	30485.19
585.609	30569.25
585.969	30652.64
586.329	30543.72
586.688	30586.65
587.048	30508.69
587.408	30542.59
587.768	30487.22
588.127	30541.91
588.487	30551.17
588.846	30722.02
589.206	30511.4
589.565	30597.05
589.925	30741
590.284	30559.08
590.643	30690.83
591.003	30800.66
591.362	30730.6
591.721	30711.85
592.08	30817.16
592.44	30903.48
592.799	30872.3
593.158	30737.84
593.517	30697.61
593.876	30711.4
594.235	30837.95
594.593	30813.54
594.952	30838.85
595.311	30777.38
595.67	30946.64
596.029	31110.03
596.387	31097.15
596.746	31115.91
597.104	30956.81
597.463	30938.73
597.822	31113.87
598.18	30959.98
598.538	30841.11
598.897	31211.5
599.255	30936.02
599.613	31359.51
599.972	31138.05
600.33	31208.11
600.688	31082.69
601.046	31166.07
601.404	31343.24
601.762	31224.15
602.12	31356.35
602.478	31443.13
602.836	31434.77
603.194	31305.96
603.552	31301.66
603.91	31267.99
604.268	31477.93
604.625	31380.76
604.983	31578.49
605.341	31501.43
605.698	31495.1
606.056	31643.12
606.413	31512.5
606.771	31649
607.128	31781.42
607.485	31612.39
607.843	31676.34
608.2	31796.79
608.557	31937.58
608.914	31898.48
609.272	32060.74
609.629	32083.79
609.986	32098.25
610.343	31993.85
610.7	32302.54
611.057	32161.75
611.414	32138.03
611.771	32215.76
612.127	32380.05
612.484	32192.26
612.841	32302.99
613.198	32245.59
613.554	32379.37
613.911	32423.22
614.267	32519.71
614.624	32365.14
614.98	32511.35
615.337	32684.9
615.693	32552.7
616.05	32505.92
616.406	32778.69
616.762	32596.54
617.118	32647.39
617.475	32575.75
617.831	32696.65
618.187	32800.15
618.543	32797.44
618.899	33052.58
619.255	32965.12
619.611	32819.59
619.967	32984.1
620.323	33036.08
620.678	32793.38
621.034	32877.21
621.39	32843.54
621.746	32723.32
622.101	33184.1
622.457	32917.89
622.812	33015.29
623.168	32968.51
623.523	33039.7
623.879	33111.56
624.234	32916.08
624.589	33035.63
624.945	33008.06
625.3	33046.48
625.655	32982.97
626.01	32844.9
626.365	32922.86
626.72	32973.48
627.075	32876.54
627.43	33007.15
627.785	32990.21
628.14	32947.5
628.495	33027.95
628.85	33019.58
629.205	32804.22
629.559	33008.06
629.914	32764.9
630.269	32852.81
630.623	32857.55
630.978	32782.08
631.332	32930.09
631.687	32924.9
632.041	32625.24
632.396	32977.32
632.75	32660.05
633.104	32707.28
633.459	32483.55
633.813	32576.43
634.167	32568.97
634.521	32459.37
634.875	32571.01
635.229	32509.31
635.583	32255.54
635.937	32330.11
636.291	32320.17
636.645	32346.83
636.999	32049.44
637.352	32218.02
637.706	32040.17
638.06	32211.47
638.413	32173.73
638.767	31930.12
639.121	32075.2
639.474	31870.01
639.828	31939.16
640.181	31994.98
640.534	31978.03
640.888	31815.55
641.241	31679.05
641.594	31718.15
641.947	31815.32
642.301	31698.49
642.654	31736.23
643.007	31724.93
643.36	31594.76
643.713	31545.05
644.066	31687.19
644.419	31552.73
644.771	31313.19
645.124	31164.49
645.477	31018.28
645.83	30848.79
646.182	30677.72
646.535	30686.09
646.888	30489.48
647.24	30505.07
647.593	30563.38
647.945	30386.43
648.298	30281.8
648.65	30239.09
649.002	30248.36
649.355	30380.78
649.707	30324.06
650.059	30562.02
650.411	30741.45
650.763	30737.84
651.115	30987.55
651.467	30910.94
651.819	30871.84
652.171	30817.83
652.523	30825.52
652.875	30807.66
653.227	30636.37
653.578	30837.49
653.93	30684.5
654.282	30638.4
654.633	30556.6
654.985	30623.94
655.337	30547.33
655.688	30697.61
656.039	30587.33
656.391	30405.87
656.742	30582.13
657.094	30521.8
657.445	30588.24
657.796	30614.45
658.147	30590.95
658.498	30400.9
658.849	30477.73
659.2	30436.37
659.551	30474.11
659.902	30456.04
660.253	30312.54
660.604	30443.61
660.955	30183.5
661.306	30394.12
661.656	30165.42
662.007	30218.75
662.358	30209.71
662.708	30195.48
663.059	30185.31
663.409	30002.94
663.76	30300.79
664.11	30161.13
664.461	30263.5
664.811	30183.27
665.161	30170.85
665.511	30018.98
665.862	30030.06
666.212	30171.75
666.562	30126.55
666.912	30063.96
667.262	30091.07
667.612	30037.74
667.962	30051.75
668.312	30028.02
668.662	30166.55
669.011	30032.09
669.361	30073.67
669.711	29940.12
670.06	29878.65
670.41	29911.42
670.76	29914.35
671.109	29937.63
671.459	29854.24
671.808	29788.93
672.157	29927.24
672.507	29743.51
672.856	29670.97
673.205	29707.35
673.554	29888.14
673.904	29781.93
674.253	29908.93
674.602	29794.58
674.951	29361.83
675.3	29158.89
675.649	29564.08
675.998	29565.66
676.346	29521.6
676.695	29628.03
677.044	29406.8
677.393	29615.15
677.741	29509.17
678.09	29509.39
678.438	29307.82
678.787	29436.85
679.135	29400.24
679.484	29219.46
679.832	29313.24
680.181	29178.1
680.529	29164.54
680.877	29145.79
681.225	29126.58
681.573	29246.58
681.922	29015.4
682.27	29068.73
682.618	28927.94
682.966	28840.71
683.314	28991.44
683.661	28851.33
684.009	28658.12
684.357	28626.03
684.705	28619.25
685.053	28758.23
685.4	28616.76
685.748	28513.26
686.095	28426.94
686.443	28275.98
686.79	28273.49
687.138	28235.08
687.485	28343.1
687.832	28116.21
688.18	28210.22
688.527	27926.38
688.874	28003.44
689.221	27881.64
689.568	27928.64
689.915	27954.63
690.262	27848.42
690.609	27819.72
690.956	27686.16
691.303	27693.17
691.65	27574.53
691.997	27564.36
692.344	27407.08
692.69	27383.12
693.037	27344.7
693.383	27136.8
693.73	27160.53
694.077	27026.3
694.423	27094.77
694.769	26925.73
695.116	26817.26
695.462	26793.53
695.808	26724.83
696.155	26747.88
696.501	26689.81
696.847	26624.95
697.193	26429.7
697.539	26473.99
697.885	26257.28
698.231	26238.52
698.577	26275.58
698.923	26206.66
699.269	26092.76
699.614	25956.27
699.96	25857.06
700.306	25803.5
700.651	25769.38
700.997	25607.12
701.342	25684.18
701.688	25661.59
702.033	25547.01
702.379	25526
702.724	25387.24
703.069	25474.02
703.415	25210.98
703.76	25239.9
704.105	25203.29
704.45	25078.78
704.795	24950.42
705.14	24934.82
705.485	25020.7
705.83	24752.91
706.175	24850.08
706.52	24782.29
706.865	24618
707.209	24631.56
707.554	24535.29
707.899	24676.98
708.243	24485.12
708.588	24334.84
708.932	24325.35
709.277	24294.39
709.621	24383.2
709.966	24102.53
710.31	24234.5
710.654	23946.83
710.998	23852.14
711.342	23931.24
711.687	23830.9
712.031	23791.8
712.375	23722.65
712.719	23701.64
713.063	23719.94
713.407	23798.36
713.75	23442.43
714.094	23538.25
714.438	23472.72
714.782	23554.52
715.125	23418.93
715.469	23376
715.812	23181.88
716.156	23197.02
716.499	23232.5
716.843	23288.54
717.186	22991.6
717.53	23066.17
717.873	23150.01
718.216	23062.78
718.559	22954.99
718.902	22883.58
719.246	22858.5
719.589	22730.14
719.932	22661.44
720.275	22690.59
720.617	22641.78
720.96	22805.16
721.303	22592.74
721.646	22583.47
721.989	22419.64
722.331	22515.23
722.674	22450.14
723.016	22370.6
723.359	22433.65
723.701	22451.5
724.044	22202.24
724.386	22159.53
724.729	22277.27
725.071	22145.97
725.413	22169.25
725.755	22071.62
726.097	21992.3
726.439	21958.63
726.782	21947.11
727.124	22026.88
727.465	21901.23
727.807	21857.84
728.149	21848.8
728.491	21780.33
728.833	21840.67
729.175	21690.39
729.516	21725.64
729.858	21687
730.199	21716.15
730.541	21696.04
730.882	21512.54
731.224	21625.76
731.565	21322.72
731.906	21484.97
732.248	21485.42
732.589	21267.58
732.93	21273.45
733.271	21277.29
733.612	21355.03
733.953	21308.93
734.294	21229.61
734.635	21059.67
734.976	21150.74
735.317	21084.08
735.658	21087.92
735.999	21008.6
736.339	21088.37
736.68	21102.61
737.021	20943.74
737.361	20913.46
737.702	20973.12
738.042	20926.79
738.383	20824.42
738.723	20827.59
739.063	20853.35
739.404	20845.67
739.744	20717.53
740.084	20751.66
740.424	20664.88
740.764	20665.56
741.104	20737.87
741.444	20543.08
741.784	20482.96
742.124	20612.23
742.464	20503.53
742.804	20458.33
743.143	20507.82
743.483	20411.1
743.823	20320.71
744.162	20345.11
744.502	20351.44
744.841	20242.29
745.181	20380.37
745.52	20183.76
745.86	20194.84
746.199	20206.59
746.538	20125.91
746.877	20140.15
747.216	20137.21
747.556	20056.08
747.895	20011.34
748.234	19907.84
748.573	19881.4
748.911	19841.17
749.25	19850.89
749.589	19735.64
749.928	19829.87
750.267	19745.81
750.605	19680.05
750.944	19672.59
751.283	19649.99
751.621	19615.87
751.96	19529.99
752.298	19538.36
752.636	19548.98
752.975	19366.38
753.313	19261.08
753.651	19479.6
753.989	19206.39
754.327	19181.53
754.666	19090.01
