Data from breadboard_black_back_FLMS001491_00008.txt Node
Date: Wed Feb 08 10:49:52 GMT 2017
User: dcchb
Spectrometer: FLMS00149
Trigger mode: 0
Integration Time (sec): 2.000000E-2
Scans to average: 10
Electric dark correction enabled: true
Nonlinearity correction enabled: false
Boxcar width: 0
XAxis mode: Wavelengths
Number of Pixels in Spectrum: 2048
>>>>>Begin Spectral Data<<<<<
341.393	-5.93
341.776	-5.93
342.16	-5.93
342.543	-52.03
342.927	-55.2
343.31	-61.52
343.693	-73.27
344.077	-59.26
344.46	-64.24
344.843	-52.48
345.226	-30.56
345.61	-43.22
345.993	-5.71
346.376	5.14
346.759	7.17
347.142	41.07
347.525	37.68
347.908	44.01
348.291	56.21
348.674	90.79
349.057	108.19
349.44	116.32
349.823	147.74
350.206	158.13
350.588	208.3
350.971	199.49
351.354	235.42
351.737	240.39
352.119	274.06
352.502	265.93
352.884	261.41
353.267	281.74
353.65	310.44
354.032	303.66
354.414	335.3
354.797	312.93
355.179	329.88
355.562	346.6
355.944	345.92
356.326	330.78
356.709	328.97
357.091	357
357.473	336.43
357.855	327.39
358.238	347.28
358.62	352.93
359.002	350.22
359.384	360.16
359.766	358.13
360.148	366.26
360.53	354.06
360.912	339.37
361.294	365.13
361.676	330.56
362.057	370.56
362.439	341.63
362.821	338.92
363.203	349.76
363.584	331.01
363.966	319.26
364.348	328.75
364.729	351.8
365.111	340.05
365.493	333.04
365.874	335.75
366.256	342.08
366.637	334.85
367.019	327.62
367.4	352.02
367.781	331.23
368.163	357.9
368.544	346.6
368.925	324.45
369.306	358.8
369.688	334.85
370.069	332.82
370.45	352.7
370.831	339.14
371.212	348.41
371.593	356.32
371.974	361.06
372.355	357.9
372.736	358.8
373.117	364.91
373.498	349.99
373.879	333.95
374.26	349.76
374.641	360.16
375.021	325.13
375.402	354.06
375.783	375.75
376.163	381.63
376.544	370.78
376.925	370.78
377.305	368.52
377.686	372.14
378.066	376.66
378.447	366.94
378.827	402.64
379.208	382.76
379.588	388.18
379.968	393.38
380.349	417.56
380.729	390.22
381.109	413.94
381.489	408.07
381.87	405.36
382.25	402.42
382.63	396.32
383.01	404.9
383.39	424.34
383.77	410.33
384.15	432.47
384.53	413.72
384.91	420.95
385.29	428.18
385.67	435.86
386.049	443.55
386.429	420.05
386.809	433.83
387.189	444.68
387.568	446.03
387.948	451.23
388.328	432.93
388.707	449.42
389.087	437.9
389.466	461.85
389.846	465.24
390.225	486.71
390.605	487.16
390.984	477.45
391.363	462.53
391.743	483.09
392.122	471.12
392.501	495.07
392.881	511.57
393.26	485.35
393.639	497.11
394.018	509.99
394.397	531.23
394.776	511.79
395.155	523.77
395.534	526.48
395.913	545.01
396.292	537.78
396.671	544.34
397.05	536.88
397.429	556.77
397.808	548.4
398.186	558.8
398.565	547.05
398.944	570.55
399.323	551.12
399.701	541.85
400.08	565.58
400.458	577.33
400.837	574.62
401.215	592.24
401.594	597.89
401.972	601.51
402.351	601.06
402.729	601.06
403.107	621.4
403.486	616.88
403.864	612.81
404.242	608.29
404.62	612.58
404.999	627.72
405.377	651.9
405.755	642.41
406.133	643.32
406.511	662.52
406.889	672.92
407.267	679.02
407.645	668.63
408.023	705.46
408.401	702.52
408.779	721.51
409.156	697.78
409.534	732.35
409.912	750.66
410.29	765.57
410.667	745.69
411.045	775.74
411.422	776.19
411.8	768.06
412.178	801.96
412.555	796.98
412.933	801.28
413.31	792.92
413.687	818
414.065	821.84
414.442	816.19
414.819	866.36
415.197	837.44
415.574	881.95
415.951	873.14
416.328	864.33
416.705	838.11
417.082	878.79
417.46	909.07
417.837	922.63
418.214	922.86
418.591	925.34
418.967	917.89
419.344	942.29
419.721	936.87
420.098	949.52
420.475	968.73
420.852	954.72
421.228	960.37
421.605	964.21
421.982	1004.66
422.358	1017.32
422.735	998.34
423.111	1024.32
423.488	1015.96
423.864	1034.04
424.241	1080.82
424.617	1097.77
424.994	1083.08
425.37	1074.72
425.746	1092.12
426.123	1108.84
426.499	1088.73
426.875	1141.38
427.251	1148.39
427.627	1173.47
428.003	1159.69
428.379	1151.78
428.756	1199.91
429.132	1242.4
429.507	1248.95
429.883	1248.5
430.259	1280.36
430.635	1253.47
431.011	1270.87
431.387	1328.72
431.763	1347.93
432.138	1332.11
432.514	1356.07
432.89	1360.59
433.265	1413.69
433.641	1413.24
434.016	1424.99
434.392	1427.02
434.767	1467.7
435.143	1472.22
435.518	1464.76
435.894	1502.73
436.269	1514.48
436.644	1563.74
437.02	1549.73
437.395	1550.41
437.77	1615.95
438.145	1608.94
438.52	1609.62
438.895	1619.11
439.271	1602.61
439.646	1675.15
440.021	1662.5
440.395	1691.2
440.77	1674.93
441.145	1700.01
441.52	1717.41
441.895	1728.26
442.27	1739.56
442.645	1731.42
443.019	1776.17
443.394	1767.13
443.769	1830.4
444.143	1789.27
444.518	1792.89
444.892	1814.36
445.267	1831.53
445.641	1868.37
446.016	1890.97
446.39	1888.93
446.764	1931.42
447.139	1919.67
447.513	1921.93
447.887	1924.19
448.262	1912.89
448.636	1935.03
449.01	1980.91
449.384	1990.63
449.758	2012.77
450.132	2045.77
450.506	2049.16
450.88	2050.29
451.254	2038.08
451.628	2067.01
452.002	2079.66
452.376	2119.89
452.75	2140.68
453.123	2182.03
453.497	2200.56
453.871	2216.61
454.244	2267
454.618	2307.45
454.992	2311.3
455.365	2295.02
455.739	2354.01
456.112	2400.56
456.486	2415.02
456.859	2440.33
457.232	2495.25
457.606	2483.27
457.979	2519.43
458.352	2614.11
458.725	2617.73
459.099	2626.54
459.472	2654.56
459.845	2674.68
460.218	2742.7
460.591	2764.84
460.964	2764.39
461.337	2811.62
461.71	2855.91
462.083	2894.1
462.456	2909.02
462.829	2908.79
463.201	2983.37
463.574	2959.19
463.947	3059.98
464.32	3113.08
464.692	3091.84
465.065	3165.74
465.438	3227.88
465.81	3269.69
466.183	3281.44
466.555	3343.36
466.928	3390.14
467.3	3346.07
467.672	3380.19
468.045	3492.51
468.417	3538.16
468.789	3533.18
469.161	3609.79
469.534	3645.95
469.906	3695.21
470.278	3776.79
470.65	3824.93
471.022	3844.14
471.394	3918.94
471.766	3963
472.138	4017.46
472.51	4064.7
472.882	4187.4
473.253	4180.85
473.625	4250.91
473.997	4367.74
474.369	4376.55
474.74	4444.57
475.112	4529.54
475.484	4566.38
475.855	4684.11
476.227	4732.02
476.598	4809.08
476.97	4900.61
477.341	4985.58
477.713	5052.01
478.084	5068.74
478.455	5302.85
478.827	5301.27
479.198	5407.71
479.569	5403.64
479.94	5640.47
480.311	5621.49
480.682	5802.28
481.053	5887.25
481.424	5977.19
481.795	5996.4
482.166	6111.2
482.537	6156.84
482.908	6262.38
483.279	6347.12
483.65	6506.67
484.021	6635.48
484.391	6679.77
484.762	6799.99
485.133	6840.67
485.503	6909.37
485.874	7040.21
486.244	7124.5
486.615	7229.36
486.985	7382.8
487.356	7500.54
487.726	7623.92
488.097	7734.88
488.467	7769.91
488.837	7956.12
489.207	7990.92
489.578	8053.74
489.948	8228.88
490.318	8306.17
490.688	8396.11
491.058	8494.64
491.428	8622.32
491.798	8685.59
492.168	8892.37
492.538	8891.24
492.908	9019.14
493.278	9204.9
493.648	9131.23
494.017	9268.85
494.387	9388.4
494.757	9486.02
495.126	9562.86
495.496	9567.83
495.866	9709.74
496.235	9742.29
496.605	9835.39
496.974	9897.31
497.344	10039.91
497.713	10065.44
498.082	10130.75
498.452	10282.61
498.821	10336.85
499.19	10325.32
499.559	10478.76
499.928	10579.55
500.298	10675.14
500.667	10750.62
501.036	10670.17
501.405	10792.88
501.774	10901.58
502.143	10984.06
502.512	11003.72
502.88	11142.48
503.249	11121.01
503.618	11227.9
503.987	11334.56
504.356	11387.44
504.724	11403.26
505.093	11594.44
505.462	11497.49
505.83	11655.91
506.199	11846.86
506.567	11890.03
506.936	11927.77
507.304	12041.66
507.672	12098.83
508.041	12139.96
508.409	12322.56
508.777	12389.67
509.145	12527.52
509.514	12524.81
509.882	12642.1
510.25	12664.02
510.618	12829.89
510.986	12866.27
511.354	13024.46
511.722	13064.68
512.09	13170.44
512.458	13206.83
512.826	13348.97
513.193	13361.17
513.561	13476.2
513.929	13570.43
514.297	13749.64
514.664	13838.68
515.032	13893.36
515.4	13993.02
515.767	14115.5
516.135	14220.13
516.502	14181.27
516.869	14353.46
517.237	14481.37
517.604	14486.79
517.972	14660.35
518.339	14755.94
518.706	14777.63
519.073	14889.72
519.44	15015.14
519.808	15159.32
520.175	15230.05
520.542	15394.34
520.909	15560.44
521.276	15485.86
521.643	15786.42
522.009	15745.74
522.376	15949.81
522.743	16061.67
523.11	16265.73
523.477	16359.29
523.843	16465.05
524.21	16573.75
524.577	16850.57
524.943	16908.43
525.31	16862.55
525.676	17076.78
526.043	17241.75
526.409	17259.6
526.776	17542.53
527.142	17472.93
527.508	17664.11
527.874	17817.78
528.241	17836.08
528.607	17923.31
528.973	18201.05
529.339	18133.93
529.705	18432.45
530.071	18522.62
530.437	18576.18
530.803	18693.46
531.169	18802.16
531.535	18802.84
531.901	18947.24
532.267	19099.55
532.632	19231.3
532.998	19165.32
533.364	19383.16
533.73	19429.49
534.095	19530.73
534.461	19678.52
534.826	19789.71
535.192	19743.15
535.557	19960.77
535.923	20020.43
536.288	20082.58
536.653	20180.2
537.019	20126.19
537.384	20337.26
537.749	20381.33
538.114	20469.91
538.479	20601.89
538.845	20600.53
539.21	20613.64
539.575	20753.75
539.94	20889.34
540.305	20991.71
540.67	20847.98
541.034	21082.78
541.399	21074.64
541.764	21167.75
542.129	21301.08
542.494	21383.79
542.858	21404.8
543.223	21464.92
543.587	21623.33
543.952	21555.99
544.316	21736.55
544.681	21750.33
545.045	21860.84
545.41	21950.1
545.774	22066.48
546.138	22083.43
546.503	22177.44
546.867	22201.62
547.231	22403.65
547.595	22352.58
547.959	22443.87
548.324	22478.9
548.688	22597.77
549.052	22689.74
549.416	22718.44
549.779	22742.85
550.143	22883.18
550.507	22925.22
550.871	23085.89
551.235	23109.39
551.599	23284.98
551.962	23266.22
552.326	23384.87
552.689	23472.55
553.053	23437.07
553.417	23431.19
553.78	23884.97
554.143	23820.79
554.507	23940.78
554.87	23936.72
555.234	24138.97
555.597	24102.81
555.96	24145.07
556.323	24341.9
556.686	24378.96
557.05	24526.08
557.413	24550.48
557.776	24700.99
558.139	24957.25
558.502	24966.97
558.865	24998.83
559.228	25288.32
559.59	25303.01
559.953	25349.56
560.316	25355.21
560.679	25647.86
561.041	25709.78
561.404	25663.9
561.767	25904.8
562.129	25894.18
562.492	26237.45
562.854	26169.2
563.217	26329.42
563.579	26341.4
563.941	26556.31
564.304	26717.21
564.666	26814.38
565.028	26838.79
565.39	26942.06
565.753	27107.48
566.115	27266.35
566.477	27413.91
566.839	27401.48
567.201	27601.48
567.563	27594.7
567.925	27740.91
568.287	27843.96
568.648	27863.39
569.01	28012.09
569.372	28255.25
569.734	28227.45
570.095	28425.64
570.457	28442.36
570.819	28458.63
571.18	28574.33
571.542	28769.13
571.903	28679.42
572.265	28843.7
572.626	29030.14
572.987	29085.51
573.349	29136.35
573.71	29232.62
574.071	29269.46
574.432	29388.78
574.794	29669.67
575.155	29603.68
575.516	29586.74
575.877	29656.79
576.238	29707.64
576.599	29990.57
576.96	29854.3
577.32	29875.99
577.681	30008.19
578.042	30154.4
578.403	30119.6
578.763	30075.08
579.124	30122.32
579.485	30251.13
579.845	30361.63
580.206	30236.21
580.566	30274.4
580.927	30285.7
581.287	30379.26
581.648	30316.66
582.008	30519.59
582.368	30451.12
582.728	30545.36
583.089	30524.79
583.449	30549.87
583.809	30610.21
584.169	30606.37
584.529	30448.86
584.889	30800.72
585.249	30712.36
585.609	30534.51
585.969	30731.11
586.329	30557.56
586.688	30634.84
587.048	30566.15
587.408	30642.53
587.768	30680.49
588.127	30556.65
588.487	30551
588.846	30815.63
589.206	30589.42
589.565	30737.21
589.925	30746.71
590.284	30745.12
590.643	30694.5
591.003	30926.14
591.362	30949.64
591.721	30790.09
592.08	30776.99
592.44	30918
592.799	30805.01
593.158	30832.58
593.517	30885.46
593.876	30836.87
594.235	30819.02
594.593	30794.39
594.952	30995.96
595.311	30732.92
595.67	30907.38
596.029	31056.53
596.387	31129.52
596.746	31192.57
597.104	31062.63
597.463	31051.1
597.822	31090.2
598.18	31061.27
598.538	31067.6
598.897	31357.99
599.255	31021.05
599.613	31430.98
599.972	31250.87
600.33	31322.74
600.688	31185.79
601.046	31235.96
601.404	31452
601.762	31353.7
602.12	31550.07
602.478	31421.94
602.836	31698.32
603.194	31453.58
603.552	31506.69
603.91	31341.27
604.268	31583.29
604.625	31446.57
604.983	31633.01
605.341	31521.37
605.698	31581.94
606.056	31615.16
606.413	31623.97
606.771	31771.76
607.128	31812.21
607.485	31734.02
607.843	31746.68
608.2	31849.5
608.557	32171.75
608.914	31941.93
609.272	32128.14
609.629	32197.51
609.986	32144.41
610.343	32072.77
610.7	32246.78
611.057	32243.62
611.414	32249.49
611.771	32253.33
612.127	32383.95
612.484	32270.96
612.841	32322.26
613.198	32383.05
613.554	32359.77
613.911	32503.95
614.267	32485.19
614.624	32474.8
614.98	32589.14
615.337	32690.16
615.693	32604.74
616.05	32632.76
616.406	32830.27
616.762	32698.07
617.118	32656.26
617.475	32703.04
617.831	32759.99
618.187	32803.6
618.543	32749.14
618.899	32906.65
619.255	33014.44
619.611	32920.66
619.967	32938.74
620.323	33019.64
620.678	32995.23
621.034	32819.19
621.39	32838.4
621.746	32806.99
622.101	33271.16
622.457	32969.47
622.812	33009.7
623.168	33206.3
623.523	33105.97
623.879	33219.41
624.234	32946.2
624.589	33046.76
624.945	33119.75
625.3	33097.38
625.655	33014.89
626.01	33075.46
626.365	33144.16
626.72	33100.09
627.075	33042.69
627.43	33134.44
627.785	32986.87
628.14	33071.62
628.495	33060.54
628.85	32935.12
629.205	32946.65
629.559	32988
629.914	32954.33
630.269	33011.73
630.623	32888.12
630.978	32817.16
631.332	32952.52
631.687	32979.64
632.041	32864.16
632.396	32835.92
632.75	32767.9
633.104	32824.84
633.459	32602.02
633.813	32650.16
634.167	32623.72
634.521	32564.51
634.875	32642.25
635.229	32536.04
635.583	32427.11
635.937	32336.95
636.291	32333.1
636.645	32460.11
636.999	32280.22
637.352	32351.18
637.706	32253.11
638.06	32370.84
638.413	32315.7
638.767	32121.13
639.121	32253.33
639.474	32029.84
639.828	32150.74
640.181	32143.96
640.534	32076.39
640.888	31951.42
641.241	31773.57
641.594	31919.56
641.947	31984.87
642.301	31811.76
642.654	31801.59
643.007	31777.41
643.36	31693.35
643.713	31722.95
644.066	31706
644.419	31556.85
644.771	31422.85
645.124	31157.32
645.477	31096.3
645.83	30941.05
646.182	30717.78
646.535	30716.65
646.888	30705.35
647.24	30466.94
647.593	30505.36
647.945	30516.43
648.298	30371.8
648.65	30349.2
649.002	30193.05
649.355	30341.07
649.707	30376.77
650.059	30428.52
650.411	30816.99
650.763	30862.63
651.115	31146.92
651.467	31116.19
651.819	31037.09
652.171	30904.22
652.523	30899.7
652.875	30861.73
653.227	30843.2
653.578	30917.77
653.93	30946.47
654.282	30638.91
654.633	30619.25
654.985	30704.9
655.337	30657.22
655.688	30713.03
656.039	30803.2
656.391	30464.23
656.742	30499.03
657.094	30575.18
657.445	30567.95
657.796	30542.64
658.147	30516.43
658.498	30398.01
658.849	30483.66
659.2	30366.38
659.551	30409.31
659.902	30467.17
660.253	30435.08
660.604	30433.27
660.955	30248.41
661.306	30479.82
661.656	30254.97
662.007	30304.46
662.358	30374.74
662.708	30256.78
663.059	30388.3
663.409	30037.12
663.76	30245.93
664.11	30312.14
664.461	30230.11
664.811	30166.38
665.161	30182.2
665.511	30189.88
665.862	30224.46
666.212	30337
666.562	30301.52
666.912	30152.15
667.262	30101.98
667.612	30051.13
667.962	30112.37
668.312	29997.57
668.662	30312.59
669.011	30042.32
669.361	30136.55
669.711	29914.86
670.06	30078.7
670.41	29908.54
670.76	29837.8
671.109	30072.6
671.459	29904.92
671.808	29873.51
672.157	29864.24
672.507	29845.26
672.856	29747.41
673.205	29809.56
673.554	29894.75
673.904	29673.29
674.253	29847.97
674.602	29701.99
674.951	29244.15
675.3	29117.14
675.649	29688.43
675.998	29599.84
676.346	29539.05
676.695	29571.37
677.044	29421.54
677.393	29416.35
677.741	29561.2
678.09	29483.01
678.438	29400.3
678.787	29516.46
679.135	29327.76
679.484	29189.91
679.832	29288.44
680.181	29200.31
680.529	29297.93
680.877	29126.64
681.225	29088.9
681.573	29293.41
681.922	29155.11
682.27	29030.59
682.618	29075.34
682.966	28990.59
683.314	29029.01
683.661	29045.73
684.009	28750.37
684.357	28652.07
684.705	28725.06
685.053	28642.81
685.4	28690.26
685.748	28560.32
686.095	28628.8
686.443	28346.54
686.79	28199.88
687.138	28402.36
687.485	28310.16
687.832	28403.94
688.18	28246.66
688.527	28174.34
688.874	28091.41
689.221	28048.7
689.568	28021.13
689.915	27899.55
690.262	27923.28
690.609	27843.05
690.956	27827.46
691.303	27807.57
691.65	27624.98
691.997	27675.37
692.344	27400.35
692.69	27392.44
693.037	27437.87
693.383	27208.27
693.73	27313.8
694.077	27062.28
694.423	27173.47
694.769	26899.35
695.116	26999.91
695.462	26893.25
695.808	26749.97
696.155	26923.53
696.501	26666.81
696.847	26656.64
697.193	26557.21
697.539	26570.09
697.885	26394.73
698.231	26272.47
698.577	26291.68
698.923	26226.37
699.269	26204.45
699.614	25977.57
699.96	25886.49
700.306	26028.19
700.651	25837
700.997	25781.19
701.342	25724.69
701.688	25751.81
702.033	25652.83
702.379	25533.06
702.724	25481.99
703.069	25525.37
703.415	25142.79
703.76	25340.52
704.105	25161.09
704.45	25240.41
704.795	25058.72
705.14	24931.49
705.485	24985.05
705.83	24843.81
706.175	24847.43
706.52	24743.7
706.865	24625.28
707.209	24672.97
707.554	24476.36
707.899	24669.8
708.243	24520.65
708.588	24464.16
708.932	24315.24
709.277	24365.4
709.621	24289.7
709.966	24117.05
710.31	24202.02
710.654	23948.47
710.998	24046.32
711.342	24075.02
711.687	23928.58
712.031	23877.96
712.375	23760.22
712.719	23781.69
713.063	23801.13
713.407	23899.88
713.75	23677.74
714.094	23685.42
714.438	23584.86
714.782	23684.97
715.125	23372.89
715.469	23412.66
715.812	23304.42
716.156	23324.3
716.499	23188.49
716.843	23352.55
717.186	23072.56
717.53	23296.05
717.873	23255.83
718.216	23103.29
718.559	23054.7
718.902	22825.33
719.246	22931.09
719.589	22848.61
719.932	22753.24
720.275	22733.58
720.617	22856.97
720.96	22630.53
721.303	22803.19
721.646	22727.26
721.989	22561.84
722.331	22569.07
722.674	22460.37
723.016	22480.93
723.359	22458.34
723.701	22455.85
724.044	22315.97
724.386	22200.49
724.729	22339.02
725.071	22155.97
725.413	22228.29
725.755	22203.88
726.097	22195.29
726.439	22002.08
726.782	22014.96
727.124	22097.22
727.465	21896.77
727.807	22032.13
728.149	21865.13
728.491	21816.32
728.833	21852.7
729.175	21637.11
729.516	21717.56
729.858	21669.66
730.199	21780.16
730.541	21699.03
730.882	21633.95
731.224	21663.33
731.565	21478.93
731.906	21540.62
732.248	21544.69
732.589	21401.64
732.93	21437.12
733.271	21310.8
733.612	21373.17
733.953	21376.56
734.294	21314.41
734.635	21196.9
734.976	21264.7
735.317	21173.85
735.658	21256.33
735.999	21195.09
736.339	21034.19
736.68	21157.81
737.021	20936.79
737.361	20928.43
737.702	21012.72
738.042	20926.62
738.383	20914.87
738.723	20945.38
739.063	20777.02
739.404	20878.04
739.744	20811.15
740.084	20707.87
740.424	20775.67
740.764	20741.55
741.104	20691.6
741.444	20613.41
741.784	20628.78
742.124	20604.37
742.464	20503.36
742.804	20551.04
743.143	20587.88
743.483	20538.84
743.823	20334.1
744.162	20291.61
744.502	20406.19
744.841	20378.39
745.181	20362.57
745.52	20081.68
745.86	20263.14
746.199	20217.04
746.538	20161.45
746.877	20181.56
747.216	20247.32
747.556	20148.79
747.895	20233.54
748.234	20060.21
748.573	19883.49
748.911	19903.37
749.25	19772.98
749.589	19703.61
749.928	19811.4
750.267	19848.24
750.605	19715.58
750.944	19661.35
751.283	19617.28
751.621	19643.72
751.96	19461.13
752.298	19573.44
752.636	19590.61
752.975	19400.79
753.313	19358.3
753.651	19403.05
753.989	19234.69
754.327	19281.24
