Data from breadboard_white_FLMS001491_00017.txt Node
Date: Wed Feb 08 10:47:21 GMT 2017
User: dcchb
Spectrometer: FLMS00149
Trigger mode: 0
Integration Time (sec): 2.000000E-2
Scans to average: 10
Electric dark correction enabled: true
Nonlinearity correction enabled: false
Boxcar width: 0
XAxis mode: Wavelengths
Number of Pixels in Spectrum: 2048
>>>>>Begin Spectral Data<<<<<
341.393	7.1
341.776	7.1
342.16	7.1
342.543	-47.58
342.927	-42.84
343.31	-54.14
343.693	-67.24
344.077	-60.01
344.46	-64.98
344.843	-55.72
345.226	-55.04
345.61	-32.22
345.993	-6
346.376	-4.42
346.759	19.53
347.142	29.93
347.525	44.39
347.908	38.06
348.291	94.56
348.674	71.06
349.057	102.24
349.44	122.36
349.823	132.52
350.206	165.97
350.588	203.48
350.971	239.19
351.354	245.52
351.737	246.19
352.119	252.52
352.502	293.42
352.884	284.84
353.267	330.71
353.65	296.14
354.032	328.9
354.414	342.69
354.797	353.99
355.179	340.65
355.562	340.65
355.944	337.72
356.326	352.63
356.709	347.66
357.091	371.16
357.473	364.38
357.855	382.24
358.238	372.52
358.62	363.48
359.002	376.36
359.384	361.22
359.766	349.47
360.148	377.72
360.53	359.19
360.912	367.55
361.294	346.53
361.676	364.38
362.057	376.59
362.439	349.69
362.821	353.31
363.203	340.88
363.584	338.17
363.966	360.54
364.348	363.93
364.729	379.07
365.111	356.93
365.493	372.07
365.874	358.51
366.256	359.19
366.637	366.64
367.019	366.64
367.4	350.37
367.781	349.02
368.163	345.85
368.544	372.07
368.925	342.46
369.306	353.99
369.688	344.5
370.069	368.68
370.45	366.64
370.831	359.41
371.212	361.45
371.593	368
371.974	336.14
372.355	365.29
372.736	374.33
373.117	389.92
373.498	361.67
373.879	370.71
374.26	360.54
374.641	372.52
375.021	356.25
375.402	357.6
375.783	396.25
376.163	409.13
376.544	400.99
376.925	389.24
377.305	400.77
377.686	401.9
378.066	406.87
378.447	391.5
378.827	398.28
379.208	420.88
379.588	413.65
379.968	409.13
380.349	420.65
380.729	420.65
381.109	405.06
381.489	432.63
381.87	421.78
382.25	422.23
382.63	430.37
383.01	422.23
383.39	438.05
383.77	436.02
384.15	426.98
384.53	451.61
384.91	428.56
385.29	450.48
385.67	451.84
386.049	467.88
386.429	480.99
386.809	448.67
387.189	480.54
387.568	475.57
387.948	489.13
388.328	481.44
388.707	480.76
389.087	494.32
389.466	511.72
389.846	507.88
390.225	509.24
390.605	524.38
390.984	526.19
391.363	542.01
391.743	530.25
392.122	521.89
392.501	557.6
392.881	557.82
393.26	571.16
393.639	573.19
394.018	570.25
394.397	577.26
394.776	588.33
395.155	588.56
395.534	588.56
395.913	626.98
396.292	631.72
396.671	658.61
397.05	629.01
397.429	646.64
397.808	655.9
398.186	665.84
398.565	662.68
398.944	670.82
399.323	683.7
399.701	694.09
400.08	707.42
400.458	720.76
400.837	742
401.215	747.65
401.594	750.81
401.972	753.75
402.351	774.99
402.729	797.59
403.107	794.88
403.486	816.12
403.864	822.68
404.242	835.11
404.62	875.33
404.999	847.53
405.377	873.07
405.755	901.77
406.133	908.1
406.511	921.43
406.889	926.85
407.267	942.9
407.645	979.73
408.023	970.24
408.401	998.04
408.779	1041.88
409.156	1049.11
409.534	1076.23
409.912	1060.18
410.29	1139.96
410.667	1133.85
411.045	1160.97
411.422	1166.17
411.8	1205.49
412.178	1228.32
412.555	1254.76
412.933	1285.94
413.31	1279.61
413.687	1318.48
414.065	1333.17
414.442	1360.06
414.819	1367.29
415.197	1404.13
415.574	1401.64
415.951	1429.21
416.328	1458.14
416.705	1516.9
417.082	1489.55
417.46	1514.86
417.837	1571.13
418.214	1566.39
418.591	1603.22
418.967	1620.17
419.344	1621.3
419.721	1673.73
420.098	1656.33
420.475	1701.3
420.852	1722.09
421.228	1706.27
421.605	1787.4
421.982	1747.4
422.358	1775.19
422.735	1816.55
423.111	1848.19
423.488	1859.94
423.864	1887.96
424.241	1892.03
424.617	1937.45
424.994	1967.5
425.37	1963.66
425.746	1963.21
426.123	2028.07
426.499	2025.81
426.875	2035.98
427.251	2085.24
427.627	2116.43
428.003	2184.45
428.379	2193.49
428.756	2226.48
429.132	2273.03
429.507	2314.84
429.883	2310.77
430.259	2365.23
430.635	2387.61
431.011	2411.56
431.387	2468.28
431.763	2537.66
432.138	2537.89
432.514	2539.69
432.89	2592.8
433.265	2670.31
433.641	2695.85
434.016	2726.35
434.392	2772.91
434.767	2798.44
435.143	2810.42
435.518	2861.72
435.894	2881.61
436.269	2935.39
436.644	3010.87
437.02	2999.57
437.395	3005.22
437.77	3064.65
438.145	3100.81
438.52	3139.45
438.895	3162.95
439.271	3227.58
439.646	3265.55
440.021	3282.72
440.395	3289.73
440.77	3255.61
441.145	3335.15
441.52	3398.88
441.895	3386.45
442.27	3451.08
442.645	3436.84
443.019	3515.03
443.394	3507.35
443.769	3539.21
444.143	3529.95
444.518	3561.81
444.892	3583.73
445.267	3602.26
445.641	3642.26
446.016	3652.88
446.39	3738.76
446.764	3720.23
447.139	3739.44
447.513	3788.25
447.887	3786.67
448.262	3819.66
448.636	3853.78
449.01	3901.92
449.384	3963.38
449.758	3993.89
450.132	4055.36
450.506	4071.18
450.88	4084.06
451.254	4096.49
451.628	4173.32
452.002	4218.07
452.376	4272.98
452.75	4295.81
453.123	4308.91
453.497	4402.69
453.871	4438.4
454.244	4492.64
454.618	4523.82
454.992	4627.55
455.365	4590.49
455.739	4739.64
456.112	4824.83
456.486	4849.46
456.859	4908.44
457.232	4994.77
457.606	5001.1
457.979	5089.68
458.352	5147.31
458.725	5202.45
459.099	5268.89
459.472	5392.95
459.845	5389.34
460.218	5419.39
460.591	5526.96
460.964	5580.97
461.337	5690.8
461.71	5804.69
462.083	5884.92
462.456	5870
462.829	5912.71
463.201	6032.71
463.574	6072.03
463.947	6161.97
464.32	6316.99
464.692	6332.14
465.065	6394.73
465.438	6446.03
465.81	6550.21
466.183	6620.49
466.555	6773.48
466.928	6774.38
467.3	6836.3
467.672	6951.1
468.045	7124.21
468.417	7176.86
468.789	7215.05
469.161	7297.08
469.534	7446.46
469.906	7635.38
470.278	7631.31
470.65	7798.09
471.022	7900
471.394	8057.29
471.766	8137.74
472.138	8215.25
472.51	8389.48
472.882	8543.38
473.253	8652.53
473.625	8736.82
473.997	8964.61
474.369	8985.85
474.74	9115.57
475.112	9318.27
475.484	9415.22
475.855	9648.21
476.227	9726.4
476.598	10038.93
476.97	10033.28
477.341	10325.03
477.713	10482.31
478.084	10547.62
478.455	10857.89
478.827	10969.75
479.198	11189.64
479.569	11256.98
479.94	11571.55
480.311	11707.14
480.682	11970.41
481.053	12123.4
481.424	12376.5
481.795	12534.23
482.166	12694.91
482.537	12849.25
482.908	13198.85
483.279	13317.04
483.65	13577.14
484.021	13830.47
484.391	13964.93
484.762	14075.66
485.133	14221.19
485.503	14499.83
485.874	14875.19
486.244	14953.38
486.615	15212.81
486.985	15344.55
487.356	15657.77
487.726	15773.24
488.097	16123.74
488.467	16246.45
488.837	16553.11
489.207	16711.52
489.578	16926.21
489.948	17092.76
490.318	17401.9
490.688	17575.23
491.058	17731.38
491.428	18014.77
491.798	18173.86
492.168	18543.57
492.538	18600.97
492.908	18758.48
493.278	19005.02
493.648	19225.13
494.017	19375.41
494.387	19488.85
494.757	19720.03
495.126	19976.75
495.496	20122.28
495.866	20176.74
496.235	20447.02
496.605	20627.13
496.974	20702.61
497.344	20958.87
497.713	21038.19
498.082	21262.82
498.452	21555.46
498.821	21603.15
499.19	21726.99
499.559	21882.46
499.928	22135.79
500.298	22144.6
500.667	22440.19
501.036	22344.6
501.405	22534.65
501.774	22736.68
502.143	23068.42
502.512	23034.75
502.88	23206.27
503.249	23267.06
503.618	23448.75
503.987	23520.16
504.356	23751.11
504.724	23895.52
505.093	24027.72
505.462	24072.91
505.83	24388.38
506.199	24490.53
506.567	24891.65
506.936	24837.41
507.304	25128.93
507.672	25277.4
508.041	25492.99
508.409	25659.09
508.777	25845.75
509.145	26006.19
509.514	26063.14
509.882	26315.79
510.25	26339.97
510.618	26484.6
510.986	26624.94
511.354	26966.85
511.722	27225.15
512.09	27551.24
512.458	27597.57
512.826	27788.52
513.193	27825.81
513.561	28092.02
513.929	28272.58
514.297	28487.49
514.664	28761.15
515.032	28773.81
515.4	29126.79
515.767	29294.92
516.135	29400.23
516.502	29315.94
516.869	29771.75
517.237	29976.94
517.604	29868.24
517.972	30410.6
518.339	30634.55
518.706	30699.18
519.073	30871.15
519.44	31018.49
519.808	31394.3
520.175	31538.48
520.542	31879.26
520.909	32110.67
521.276	32077.22
521.643	32411
522.009	32745.45
522.376	32841.27
522.743	33204.88
523.11	33427.92
523.477	33836.72
523.843	33925.08
524.21	34288.91
524.577	34451.4
524.943	34723.71
525.31	34906.75
525.676	35261.54
526.043	35429.45
526.409	35575.66
526.776	35966.38
527.142	36034.41
527.508	36361.85
527.874	36602.98
528.241	36837.32
528.607	36835.97
528.973	37291.77
529.339	37202.28
529.705	37700.12
530.071	38008.37
530.437	37992.09
530.803	38378.98
531.169	38611.51
531.535	38519.54
531.901	38716.14
532.267	38853.31
532.632	39204.04
532.998	39332.85
533.364	39624.37
533.73	39635.44
534.095	39901.65
534.461	40090.8
534.826	40296.21
535.192	40344.57
535.557	40765.35
535.923	40820.95
536.288	40995.41
536.653	41216.19
537.019	40963.09
537.384	41313.59
537.749	41556.52
538.114	41678.33
538.479	41778.66
538.845	42003.06
539.21	41927.36
539.575	42118.77
539.94	42135.49
540.305	42451.86
540.67	42429.49
541.034	42490.51
541.399	42772.76
541.764	42861.57
542.129	42948.35
542.494	43160.09
542.858	43330.03
543.223	43462.01
543.587	43597.37
543.952	43638.73
544.316	43918.49
544.681	43881.66
545.045	44092.72
545.41	44379.5
545.774	44390.34
546.138	44570.9
546.503	44437.35
546.867	44589.21
547.231	44923.21
547.595	45067.16
547.959	45045.69
548.324	45199.14
548.688	45270.55
549.052	45555.29
549.416	45600.26
549.779	45598
550.143	45734.49
550.507	45940.13
550.871	46129.28
551.235	46139.22
551.599	46428.03
551.962	46579.21
552.326	46590.06
552.689	46908.24
553.053	46896.72
553.417	46790.73
553.78	47382.58
554.143	47182.14
554.507	47467.33
554.87	47574.89
555.234	48040.19
555.597	47640.65
555.96	47923.36
556.323	48183.46
556.686	48210.36
557.05	48553.62
557.413	48486.73
557.776	48635.43
558.139	48934.18
558.502	48998.58
558.865	49073.38
559.228	49426.37
559.59	49556.54
559.953	49529.87
560.316	49890.54
560.679	49793.82
561.041	50205.56
561.404	50263.18
561.767	50493.01
562.129	50405.78
562.492	50790.63
562.854	50793.57
563.217	50813.45
563.579	50935.03
563.941	51312.2
564.304	51379.54
564.666	51491.85
565.028	51586.77
565.39	51637.61
565.753	52001.22
566.115	52092.74
566.477	52100.65
566.839	52142.91
567.201	52448.89
567.563	52429.68
567.925	52617.02
568.287	52687.53
568.648	52777.02
569.01	52973.62
569.372	53142.43
569.734	53007.07
570.095	53139.94
570.457	53365.93
570.819	53456.77
571.18	53432.37
571.542	53570.89
571.903	53689.76
572.265	53772.47
572.626	53829.19
572.987	53849.3
573.349	53986.48
573.71	54083.2
574.071	54159.8
574.432	54347.82
574.794	54444.99
575.155	54431.21
575.516	54294.26
575.877	54458.33
576.238	54593.01
576.599	54653.8
576.96	54564.09
577.32	54632.56
577.681	54808.15
578.042	54862.84
578.403	54810.64
578.763	54886.34
579.124	54977.64
579.485	55042.04
579.845	55073.68
580.206	54976.51
580.566	55018.09
580.927	55058.54
581.287	55142.83
581.648	55105.99
582.008	55159.78
582.368	55145.54
582.728	55234.13
583.089	55149.61
583.449	55222.83
583.809	55217.86
584.169	55292.2
584.529	55206.56
584.889	55417.4
585.249	55235.48
585.609	55216.95
585.969	55329.72
586.329	55228.48
586.688	55361.36
587.048	55234.8
587.408	55180.57
587.768	55234.13
588.127	55213.79
588.487	55224.41
588.846	55306.44
589.206	55216.27
589.565	55203.85
589.925	55308.02
590.284	55261.47
590.643	55297.85
591.003	55363.84
591.362	55386.67
591.721	55264.18
592.08	55321.36
592.44	55427.79
592.799	55458.75
593.158	55328.14
593.517	55351.41
593.876	55375.37
594.235	55263.5
594.593	55383.28
594.952	55425.99
595.311	55392.99
595.67	55401.81
596.029	55572.2
596.387	55559.77
596.746	55615.81
597.104	55454.69
597.463	55480.9
597.822	55622.37
598.18	55462.6
598.538	55526.32
598.897	55604.29
599.255	55456.27
599.613	55789.59
599.972	55685.41
600.33	55628.92
600.688	55580.33
601.046	55646.55
601.404	55823.72
601.762	55703.72
602.12	55870.72
602.478	55866.88
602.836	55883.83
603.194	55699.2
603.552	55768.12
603.91	55730.84
604.268	55842.7
604.625	55783.72
604.983	55925.86
605.341	55839.31
605.698	55935.58
606.056	56023.71
606.413	55984.84
606.771	56056.03
607.128	56100.32
607.485	55958.18
607.843	56021.45
608.2	56105.29
608.557	56203.82
608.914	56097.15
609.272	56231.39
609.629	56324.04
609.986	56365.17
610.343	56214.89
610.7	56452.63
611.057	56355.91
611.414	56306.64
611.771	56334.21
612.127	56430.48
612.484	56444.94
612.841	56455.34
613.198	56388.45
613.554	56470.93
613.911	56529.46
614.267	56566.75
614.624	56625.73
614.98	56548.44
615.337	56673.41
615.693	56618.5
616.05	56577.14
616.406	56764.48
616.762	56624.82
617.118	56713.18
617.475	56675.67
617.831	56782.33
618.187	56843.58
618.543	56792.05
618.899	56862.56
619.255	56828.89
619.611	56798.15
619.967	56937.81
620.323	56969
620.678	56839.73
621.034	56855.1
621.39	56837.25
621.746	56832.05
622.101	57116.11
622.457	56829.57
622.812	57000.63
623.168	57026.85
623.523	56986.62
623.879	57032.95
624.234	56784.82
624.589	56943.69
624.945	57007.41
625.3	57000.86
625.655	56976.91
626.01	56922.67
626.365	56966.06
626.72	56965.61
627.075	56971.03
627.43	56976.45
627.785	56878.38
628.14	56781.88
628.495	56882.67
628.85	56865.95
629.205	56759.06
629.559	56882.22
629.914	56772.62
630.269	56772.39
630.623	56681.09
630.978	56574.66
631.332	56725.61
631.687	56735.56
632.041	56578.27
632.396	56631.38
632.75	56575.11
633.104	56530.59
633.459	56444.94
633.813	56524.49
634.167	56423.02
634.521	56487.2
634.875	56399.52
635.229	56359.29
635.583	56214.67
635.937	56329.24
636.291	56204.95
636.645	56237.04
636.999	56195.91
637.352	56220.99
637.706	56065.74
638.06	56153.88
638.413	56075.91
638.767	55946.2
639.121	56017.83
639.474	55897.61
639.828	55935.8
640.181	55933.32
640.534	55889.7
640.888	55734.9
641.241	55719.09
641.594	55759.99
641.947	55813.77
642.301	55719.09
642.654	55687.9
643.007	55654.23
643.36	55663.72
643.713	55583.95
644.066	55688.35
644.419	55502.59
644.771	55302.6
645.124	55120.68
645.477	55058.54
645.83	54826.23
646.182	54735.83
646.535	54618.55
646.888	54640.02
647.24	54439.12
647.593	54668.49
647.945	54473.69
648.298	54282.29
648.65	54346.01
649.002	54224.21
649.355	54284.77
649.707	54268.28
650.059	54381.95
650.411	54777.64
650.763	54786.91
651.115	55055.6
651.467	54905.32
651.819	54976.05
652.171	54846.34
652.523	54797.98
652.875	54697.42
653.227	54666.91
653.578	54886.79
653.93	54751.43
654.282	54679.11
654.633	54510.76
654.985	54619.45
655.337	54622.17
655.688	54584.43
656.039	54641.37
656.391	54395.28
656.742	54441.61
657.094	54485.22
657.445	54516.63
657.796	54456.97
658.147	54344.21
658.498	54415.17
658.849	54448.61
659.2	54403.41
659.551	54283.19
659.902	54510.76
660.253	54366.35
660.604	54428.72
660.955	54246.36
661.306	54307.6
661.656	54303.98
662.007	54221.05
662.358	54215.62
662.708	54220.14
663.059	54170.88
663.409	53974.27
663.76	54091.11
664.11	54070.54
664.461	54135.17
664.811	54066.7
665.161	54055.4
665.511	54012.24
665.862	53945.35
666.212	54055.85
666.562	53984.44
666.912	53989.19
667.262	54000.49
667.612	53967.27
667.962	54001.84
668.312	53882.07
668.662	54011.79
669.011	53876.2
669.361	53886.59
669.711	53872.13
670.06	53838.46
670.41	53809.53
670.76	53815.63
671.109	53831
671.459	53795.07
671.808	53636.65
672.157	53765.46
672.507	53524.57
672.856	53479.14
673.205	53585.13
673.554	53667.61
673.904	53478.47
674.253	53574.06
674.602	53515.98
674.951	53139.72
675.3	52973.62
675.649	53465.81
675.998	53365.93
676.346	53425.81
676.695	53478.92
677.044	53125.48
677.393	53440.05
677.741	53300.62
678.09	53319.15
678.438	53174.29
678.787	53212.49
679.135	53215.87
679.484	52995.77
679.832	53211.36
680.181	52907.41
680.529	53008.65
680.877	52924.36
681.225	52823.34
681.573	53082.32
681.922	52754.64
682.27	52740.63
682.618	52757.36
682.966	52660.18
683.314	52798.26
683.661	52644.82
684.009	52460.87
684.357	52486.4
684.705	52280.31
685.053	52389.91
685.4	52196.92
685.748	52183.81
686.095	52083.7
686.443	51972.97
686.79	51991.27
687.138	52011.39
687.485	51978.62
687.832	51925.74
688.18	51878.73
688.527	51659.76
688.874	51631.28
689.221	51473.1
689.568	51517.61
689.915	51421.57
690.262	51448.24
690.609	51196.94
690.956	51170.5
691.303	51121.92
691.65	50939.32
691.997	50982.26
692.344	50735.71
692.69	50680.8
693.037	50755.15
693.383	50411.2
693.73	50499.34
694.077	50191.1
694.423	50264.54
694.769	50089.18
695.116	50188.84
695.462	50147.93
695.808	49864.32
696.155	50068.61
696.501	49711.56
696.847	49698.45
697.193	49495.97
697.539	49531.45
697.885	49200.61
698.231	49208.97
698.577	49147.51
698.923	49060.05
699.269	48778.03
699.614	48622.78
699.96	48708.2
700.306	48636.56
700.651	48581.19
700.997	48466.17
701.342	48282.45
701.688	48262.78
702.033	47942.12
702.379	48159.96
702.724	47997.93
703.069	47987.54
703.415	47462.13
703.76	47506.65
704.105	47613.99
704.45	47471.39
704.795	47176.71
705.14	47054.45
705.485	47204.96
705.83	46913.22
706.175	46945.53
706.52	46729.27
706.865	46578.99
707.209	46575.6
707.554	46434.36
707.899	46447.24
708.243	46202.27
708.588	46257.64
708.932	46007.25
709.277	45941.72
709.621	45898.78
709.966	45570.43
710.31	45729.52
710.654	45488.85
710.998	45486.36
711.342	45541.5
711.687	45298.12
712.031	45155.75
712.375	44976.54
712.719	45143.77
713.063	44887.73
713.407	45094.05
713.75	44812.48
714.094	44720.5
714.438	44623.78
714.782	44653.16
715.125	44340.85
715.469	44447.52
715.812	44264.7
716.156	43992.61
716.499	44021.77
716.843	44158.71
717.186	43847.99
717.53	44005.04
717.873	43953.52
718.216	43880.53
718.559	43771.6
718.902	43322.35
719.246	43369.35
719.589	43306.76
719.932	43184.05
720.275	43222.24
720.617	43053.88
720.96	43184.05
721.303	43061.11
721.646	42972.53
721.989	42795.13
722.331	42970.95
722.674	42670.62
723.016	42824.74
723.359	42487.34
723.701	42537.06
724.044	42322.6
724.386	42182.27
724.729	42307.24
725.071	42179.78
725.413	42241.7
725.755	42022.95
726.097	41939.56
726.439	41884.87
726.782	41736.85
727.124	41870.41
727.465	41636.52
727.807	41672.45
728.149	41492.57
728.491	41327.83
728.833	41423.87
729.175	41250.09
729.516	41157.66
729.858	41213.25
730.199	41237.88
730.541	41100.26
730.882	41003.77
731.224	41077.66
731.565	40742.53
731.906	40741.63
732.248	40672.7
732.589	40719.93
732.93	40482.42
733.271	40495.76
733.612	40473.84
733.953	40405.14
734.294	40312.26
734.635	40150.91
734.976	40299.83
735.317	40060.29
735.658	39971.03
735.999	39818.71
736.339	39753.18
736.68	39810.35
737.021	39594.76
737.361	39490.59
737.702	39657.81
738.042	39553.86
738.383	39578.49
738.723	39678.38
739.063	39349.35
739.404	39490.59
739.744	39320.19
740.084	39137.15
740.424	39236.81
740.764	39151.84
741.104	39143.7
741.444	38851.05
741.784	38757.5
742.124	38897.83
742.464	38795.01
742.804	38666.88
743.143	38643.6
743.483	38513.66
743.823	38407.45
744.162	38516.37
744.502	38466.21
744.841	38372.88
745.181	38431.86
745.52	38214.91
745.86	38211.75
746.199	38115.48
746.538	38047.23
746.877	38208.59
747.216	38074.35
747.556	37860.57
747.895	37863.74
748.234	37663.52
748.573	37602.5
748.911	37590.3
749.25	37502.62
749.589	37404.31
749.928	37366.8
750.267	37418.55
750.605	37122.06
750.944	37116.19
751.283	36907.6
751.621	36949.41
751.96	36708.74
752.298	36790.77
