Data from breadboard_black_back_FLMS001491_00015.txt Node
Date: Wed Feb 08 10:50:01 GMT 2017
User: dcchb
Spectrometer: FLMS00149
Trigger mode: 0
Integration Time (sec): 2.000000E-2
Scans to average: 10
Electric dark correction enabled: true
Nonlinearity correction enabled: false
Boxcar width: 0
XAxis mode: Wavelengths
Number of Pixels in Spectrum: 2048
>>>>>Begin Spectral Data<<<<<
341.393	-25.88
341.776	-25.88
342.16	-25.88
342.543	-52.77
342.927	-80.34
343.31	-76.5
343.693	-67.68
344.077	-57.96
344.46	-56.38
344.843	-69.94
345.226	-40.79
345.61	-29.94
345.993	-17.06
346.376	1.92
346.759	32.65
347.142	21.13
347.525	26.78
347.908	45.76
348.291	68.36
348.674	99.77
349.057	119.88
349.44	134.12
349.823	151.52
350.206	153.78
350.588	199.88
350.971	202.82
351.354	231.75
351.737	254.8
352.119	257.73
352.502	252.08
352.884	272.87
353.267	266.32
353.65	297.05
354.032	320.78
354.414	299.31
354.797	319.43
355.179	326.21
355.562	320.33
355.944	333.21
356.326	331.4
356.709	341.12
357.091	347.9
357.473	346.32
357.855	353.32
358.238	351.97
358.62	340.89
359.002	332.53
359.384	348.35
359.766	334.79
360.148	351.52
360.53	361.01
360.912	354.91
361.294	351.74
361.676	346.32
362.057	346.54
362.439	342.7
362.821	348.58
363.203	352.42
363.584	358.52
363.966	347.9
364.348	348.8
364.729	347.45
365.111	337.73
365.493	335.7
365.874	341.8
366.256	339.09
366.637	334.57
367.019	328.69
367.4	340.44
367.781	349.93
368.163	344.74
368.544	339.09
368.925	332.76
369.306	342.02
369.688	323.04
370.069	335.25
370.45	337.51
370.831	336.38
371.212	357.17
371.593	338.18
371.974	346.32
372.355	358.75
372.736	353.1
373.117	342.48
373.498	356.94
373.879	355.81
374.26	369.59
374.641	367.11
375.021	351.97
375.402	349.03
375.783	359.88
376.163	384.74
376.544	390.84
376.925	377.05
377.305	373.44
377.686	365.3
378.066	393.1
378.447	383.15
378.827	383.83
379.208	386.77
379.588	405.3
379.968	391.74
380.349	402.36
380.729	404.85
381.109	377.5
381.489	399.88
381.87	426.77
382.25	392.42
382.63	407.79
383.01	438.75
383.39	414.79
383.77	439.65
384.15	414.57
384.53	423.83
384.91	412.53
385.29	428.58
385.67	411.85
386.049	429.25
386.429	432.87
386.809	426.54
387.189	463.83
387.568	454.34
387.948	439.42
388.328	463.15
388.707	495.24
389.087	462.93
389.466	456.37
389.846	469.03
390.225	482.59
390.605	476.94
390.984	498.86
391.363	490.27
391.743	478.07
392.122	485.3
392.501	505.64
392.881	507.67
393.26	521.68
393.639	520.78
394.018	506.09
394.397	528.46
394.776	532.3
395.155	517.84
395.534	532.75
395.913	524.17
396.292	537.27
396.671	535.92
397.05	541.34
397.429	576.37
397.808	553.32
398.186	546.09
398.565	562.13
398.944	550.83
399.323	559.19
399.701	564.62
400.08	581.57
400.458	588.12
400.837	597.16
401.215	580.66
401.594	603.71
401.972	615.92
402.351	611.4
402.729	617.05
403.107	615.92
403.486	641
403.864	643.49
404.242	630.15
404.62	641
404.999	643.26
405.377	654.56
405.755	667.44
406.133	674.22
406.511	659.3
406.889	671.96
407.267	692.3
407.645	707.89
408.023	713.54
408.401	702.02
408.779	717.83
409.156	718.74
409.534	728.23
409.912	742.01
410.29	746.53
410.667	768.45
411.045	790.37
411.422	765.74
411.8	781.79
412.178	789.02
412.555	808.91
412.933	832.18
413.31	808.91
413.687	823.59
414.065	825.18
414.442	838.28
414.819	850.94
415.197	865.17
415.574	864.72
415.951	901.56
416.328	878.28
416.705	885.29
417.082	904.5
417.46	911.5
417.837	932.52
418.214	947.21
418.591	936.36
418.967	959.64
419.344	966.42
419.721	974.78
420.098	962.12
420.475	989.92
420.852	986.08
421.228	991.95
421.605	1019.75
421.982	1029.46
422.358	1027.66
422.735	1037.37
423.111	1021.33
423.488	1066.53
423.864	1065.17
424.241	1074.44
424.617	1078.05
424.994	1093.19
425.37	1113.08
425.746	1151.04
426.123	1125.28
426.499	1154.21
426.875	1144.49
427.251	1144.94
427.627	1212.96
428.003	1205.05
428.379	1213.41
428.756	1244.83
429.132	1241.66
429.507	1254.32
429.883	1267.88
430.259	1279.18
430.635	1317.59
431.011	1303.13
431.387	1339.74
431.763	1363.69
432.138	1351.26
432.514	1386.97
432.89	1402.34
433.265	1457.25
433.641	1438.04
434.016	1431.71
434.392	1500.19
434.767	1520.98
435.143	1496.34
435.518	1528.43
435.894	1547.19
436.269	1534.08
436.644	1566.85
437.02	1569.56
437.395	1588.32
437.77	1615.66
438.145	1666.51
438.52	1627.19
438.895	1654.31
439.271	1661.99
439.646	1712.16
440.021	1728.43
440.395	1740.86
440.77	1711.93
441.145	1739.05
441.52	1788.31
441.895	1748.32
442.27	1828.31
442.645	1779.95
443.019	1804.13
443.394	1809.78
443.769	1838.93
444.143	1801.65
444.518	1889.55
444.892	1870.8
445.267	1883.23
445.641	1887.07
446.016	1882.55
446.39	1929.33
446.764	1950.8
447.139	1944.69
447.513	1948.54
447.887	1946.28
448.262	1985.15
448.636	1971.81
449.01	2031.02
449.384	2066.73
449.758	2056.1
450.132	2093.39
450.506	2056.33
450.88	2103.79
451.254	2115.99
451.628	2155.54
452.002	2179.26
452.376	2198.7
452.75	2196.89
453.123	2224.91
453.497	2244.8
453.871	2276.44
454.244	2306.04
454.618	2340.39
454.992	2360.73
455.365	2360.95
455.739	2407.96
456.112	2467.39
456.486	2476.21
456.859	2501.97
457.232	2532.25
457.606	2534.96
457.979	2567.05
458.352	2621.51
458.725	2652.7
459.099	2674.62
459.472	2744
459.845	2736.99
460.218	2759.81
460.591	2833.48
460.964	2865.8
461.337	2905.8
461.71	2937.44
462.083	2976.76
462.456	2963.88
462.829	2995.97
463.201	3085
463.574	3053.37
463.947	3123.87
464.32	3210.88
464.692	3175.17
465.065	3265.56
465.438	3270.76
465.81	3333.81
466.183	3336.07
466.555	3444.32
466.928	3463.3
467.3	3460.81
467.672	3489.74
468.045	3624.2
468.417	3638.21
468.789	3605.89
469.161	3669.62
469.534	3777.19
469.906	3824.65
470.278	3847.02
470.65	3876.4
471.022	3969.95
471.394	4020.57
471.766	4096.73
472.138	4113.45
472.51	4220.79
472.882	4287.68
473.253	4346.44
473.625	4396.61
473.997	4479.09
474.369	4499.43
474.74	4521.58
475.112	4626.66
475.484	4744.4
475.855	4837.73
476.227	4896.71
476.598	4961.56
476.97	5039.08
477.341	5118.4
477.713	5180.77
478.084	5246.98
478.455	5416.24
478.827	5374.66
479.198	5574.88
479.569	5598.61
479.94	5714.54
480.311	5790.47
480.682	5939.39
481.053	6028.2
481.424	6140.74
481.795	6172.15
482.166	6252.38
482.537	6369.89
482.908	6530.79
483.279	6588.19
483.65	6657.57
484.021	6789.76
484.391	6926.26
484.762	6897.33
485.133	7066.37
485.503	7133.26
485.874	7288.06
486.244	7383.87
486.615	7478.79
486.985	7575.96
487.356	7719.01
487.726	7759.68
488.097	7960.58
488.467	7966.01
488.837	8130.97
489.207	8260.23
489.578	8388.59
489.948	8395.37
490.318	8536.84
490.688	8621.36
491.058	8717.4
491.428	8846.89
491.798	8889.14
492.168	9071.06
492.538	9170.04
492.908	9263.37
493.278	9386.08
493.648	9408.68
494.017	9535.46
494.387	9628.11
494.757	9735.68
495.126	9787.88
495.496	9876.69
495.866	9988.32
496.235	10050.02
496.605	10116.68
496.974	10172.27
497.344	10321.65
497.713	10400.29
498.082	10484.81
498.452	10571.13
498.821	10557.12
499.19	10660.4
499.559	10770.45
499.928	10887.28
500.298	10925.7
500.667	11042.53
501.036	11047.51
501.405	11169.08
501.774	11176.32
502.143	11246.37
502.512	11340.15
502.88	11367.27
503.249	11494.73
503.618	11591.67
503.987	11576.76
504.356	11817.2
504.724	11815.85
505.093	11798.67
505.462	11899.91
505.83	11995.96
506.199	12120.25
506.567	12267.36
506.936	12286.34
507.304	12411.76
507.672	12492.44
508.041	12552.33
508.409	12636.16
508.777	12750.06
509.145	12911.64
509.514	12923.84
509.882	12995.48
510.25	13111.18
510.618	13154.8
510.986	13205.87
511.354	13465.75
511.722	13458.97
512.09	13593.2
512.458	13615.8
512.826	13753.42
513.193	13785.51
513.561	13888.11
513.929	13969.69
514.297	14155
514.664	14263.69
515.032	14270.7
515.4	14434.08
515.767	14538.94
516.135	14599.73
516.502	14496.68
516.869	14788.42
517.237	14870.68
517.604	14785.49
517.972	15132.37
518.339	15179.15
518.706	15225.93
519.073	15328.75
519.44	15380.73
519.808	15681.51
520.175	15713.6
520.542	15821.62
520.909	15946.59
521.276	15991.33
521.643	16173.93
522.009	16319.91
522.376	16427.93
522.743	16496.4
523.11	16703.4
523.477	16845.55
523.843	16890.06
524.21	17045.09
524.577	17270.39
524.943	17283.27
525.31	17463.38
525.676	17603.27
526.043	17706.77
526.409	17841.23
526.776	18029.24
527.142	18065.4
527.508	18235.11
527.874	18316.92
528.241	18458.16
528.607	18497.48
528.973	18730.69
529.339	18750.13
529.705	18880.29
530.071	19003.91
530.437	19182.89
530.803	19282.54
531.169	19369.77
531.535	19411.13
531.901	19524.12
532.267	19580.16
532.632	19665.58
532.998	19866.26
533.364	19871.91
533.73	20051.34
534.095	20151.9
534.461	20188.06
534.826	20301.27
535.192	20362.74
535.557	20626.24
535.923	20594.6
536.288	20658.1
536.653	20794.82
537.019	20811.54
537.384	20899.9
537.749	20974.93
538.114	21110.29
538.479	21157.3
538.845	21285.88
539.21	21210.18
539.575	21284.53
539.94	21373.34
540.305	21622.37
540.67	21618.53
541.034	21683.16
541.399	21771.97
541.764	21894
542.129	21987.33
542.494	21899.42
542.858	22094
543.223	22063.49
543.587	22279.53
543.952	22128.34
544.316	22317.49
544.681	22333.09
545.045	22461.9
545.41	22600.65
545.774	22723.81
546.138	22616.47
546.503	22793.86
546.867	22813.98
547.231	23006.06
547.595	23008.1
547.959	23080.41
548.324	23192.27
548.688	23240.63
549.052	23358.82
549.416	23287.64
549.779	23328.54
550.143	23412.83
550.507	23648.76
550.871	23684.69
551.235	23612.83
551.599	23960.61
551.962	24034.74
552.326	24118.8
552.689	24222.53
553.053	24171.68
553.417	24211.68
553.78	24699.8
554.143	24461.84
554.507	24646.92
554.87	24717.88
555.234	25002.39
555.597	24798.56
555.96	24989.51
556.323	25097.31
556.686	25156.29
557.05	25331.88
557.413	25440.8
557.776	25437.86
558.139	25520.57
558.502	25756.27
558.865	25771.64
559.228	25950.39
559.59	26012.08
559.953	26034.46
560.316	26423.6
560.679	26357.16
561.041	26615.01
561.404	26660.43
561.767	26798.5
562.129	26773.65
562.492	26987.88
562.854	27010.48
563.217	27052.96
563.579	27217.25
563.941	27435.78
564.304	27582.21
564.666	27649.78
565.028	27640.74
565.39	27827.63
565.753	28021.52
566.115	28122.99
566.477	28245.7
566.839	28290.67
567.201	28521.4
567.563	28531.34
567.925	28581.73
568.287	28757.77
568.648	28794.16
569.01	29006.13
569.372	29168.16
569.734	29152.57
570.095	29401.37
570.457	29362.28
570.819	29547.81
571.18	29494.03
571.542	29570.63
571.903	29672.1
572.265	29805.88
572.626	29828.93
572.987	30019.89
573.349	30029.61
573.71	30189.83
574.071	30283.61
574.432	30433.66
574.794	30652.19
575.155	30502.59
575.516	30505.07
575.877	30555.24
576.238	30543.49
576.599	30879.53
576.96	30836.82
577.32	30867.55
577.681	30875.23
578.042	30998.39
578.403	31089.24
578.763	31017.38
579.124	31078.62
579.485	31350.7
579.845	31336.69
580.206	31208.78
580.566	31355.45
580.927	31249.23
581.287	31468.66
581.648	31305.28
582.008	31520.87
582.368	31526.06
582.728	31532.39
583.089	31488.78
583.449	31481.32
583.809	31566.97
584.169	31627.08
584.529	31615.33
584.889	31742.56
585.249	31587.53
585.609	31569.68
585.969	31601.77
586.329	31599.51
586.688	31704.82
587.048	31613.07
587.408	31608.55
587.768	31653.29
588.127	31572.16
588.487	31587.31
588.846	31747.3
589.206	31670.24
589.565	31617.36
589.925	31658.49
590.284	31751.14
590.643	31757.24
591.003	31694.19
591.362	31873.63
591.721	31769
592.08	31768.32
592.44	31892.83
592.799	31758.15
593.158	31779.84
593.517	31841.08
593.876	31843.57
594.235	31779.84
594.593	31973.06
594.952	31941.42
595.311	31924.7
595.67	32042.66
596.029	32193.39
596.387	32072.94
596.746	32196.78
597.104	32094.64
597.463	31998.14
597.822	32103
598.18	32084.69
598.538	32047.86
598.897	32351.8
599.255	31959.5
599.613	32475.64
599.972	32236.1
600.33	32367.4
600.688	32238.81
601.046	32348.87
601.404	32341.18
601.762	32358.13
602.12	32434.06
602.478	32492.82
602.836	32554.06
603.194	32394.06
603.552	32485.13
603.91	32494.85
604.268	32707.5
604.625	32561.97
604.983	32697.33
605.341	32514.74
605.698	32789.99
606.056	32693.04
606.413	32761.29
606.771	32728.07
607.128	32904.11
607.485	32818.91
607.843	32806.03
608.2	32904.78
608.557	32954.27
608.914	32967.16
609.272	33098.45
609.629	33174.83
609.986	33299.35
610.343	33045.35
610.7	33300.25
611.057	33256.87
611.414	33234.95
611.771	33235.4
612.127	33410.53
612.484	33370.08
612.841	33436.97
613.198	33360.82
613.554	33443.98
613.911	33564.2
614.267	33564.65
614.624	33387.26
614.98	33669.74
615.337	33751.77
615.693	33696.63
616.05	33645.56
616.406	33719.23
616.762	33622.05
617.118	33656.4
617.475	33800.35
617.831	33944.53
618.187	34044.19
618.543	33871.54
618.899	34050.29
619.255	33880.58
619.611	33996.28
619.967	34108.59
620.323	34079.67
620.678	34012.33
621.034	34030.4
621.39	33977.75
621.746	33928.03
622.101	34352.66
622.457	33961.48
622.812	34109.27
623.168	34142.94
623.523	34219.55
623.879	34219.55
624.234	33980.24
624.589	34141.59
624.945	34275.37
625.3	34159.44
625.655	34088.48
626.01	34128.03
626.365	34077.18
626.72	34170.51
627.075	34070.18
627.43	34099.1
627.785	34033.57
628.14	34082.15
628.495	34048.71
628.85	34025.88
629.205	33985.43
629.559	34134.58
629.914	33935.04
630.269	33966.68
630.623	34006.9
630.978	33990.63
631.332	33940.92
631.687	34007.35
632.041	33901.14
632.396	33823.63
632.75	33748.15
633.104	33862.05
633.459	33726.46
633.813	33482.17
634.167	33483.07
634.521	33668.61
634.875	33650.3
635.229	33572.79
635.583	33470.87
635.937	33473.36
636.291	33447.6
636.645	33370.99
636.999	33280.59
637.352	33394.94
637.706	33047.83
638.06	33445.79
638.413	33283.08
638.767	33117.89
639.121	33180.71
639.474	32990.88
639.828	33061.84
640.181	33004.22
640.534	33131.67
640.888	32919.25
641.241	32750.89
641.594	32836.99
641.947	32961.73
642.301	32821.85
642.654	32884.67
643.007	32893.03
643.36	32757.9
643.713	32631.8
644.066	32672.25
644.419	32568.3
644.771	32405.81
645.124	32267.97
645.477	32154.3
645.83	31782.1
646.182	31688.09
646.535	31689.22
646.888	31641.99
647.24	31461.66
647.593	31526.06
647.945	31519.51
648.298	31363.58
648.65	31343.7
649.002	31127.66
649.355	31382.79
649.707	31342.11
650.059	31573.07
650.411	31860.74
650.763	31894.42
651.115	32064.13
651.467	32019.84
651.819	31988.65
652.171	31898.26
652.523	31949.1
652.875	31829.11
653.227	31594.31
653.578	31920.63
653.93	31813.97
654.282	31729
654.633	31658.04
654.985	31637.25
655.337	31737.13
655.688	31707.3
656.039	31786.4
656.391	31373.53
656.742	31616.46
657.094	31438.16
657.445	31717.47
657.796	31533.52
658.147	31430.92
658.498	31432.96
658.849	31462.56
659.2	31457.82
659.551	31405.16
659.902	31517.02
660.253	31493.75
660.604	31577.14
660.955	31244.72
661.306	31335.79
661.656	31270.03
662.007	31346.63
662.358	31234.09
662.708	31230.93
663.059	31287.88
663.409	31005.4
663.76	31235.9
664.11	31292.62
664.461	31297.82
664.811	31319.74
665.161	31183.47
665.511	31179.18
665.862	31063.25
666.212	31267.77
666.562	31244.04
666.912	31187.77
667.262	31030.03
667.612	31046.3
667.962	31071.61
668.312	31049.47
668.662	31182.8
669.011	31039.97
669.361	30988.9
669.711	30914.33
670.06	30898.28
670.41	30920.2
670.76	30872.52
671.109	30973.76
671.459	30796.59
671.808	30880.43
672.157	30985.06
672.507	30717.27
672.856	30794.11
673.205	30731.28
673.554	30842.47
673.904	30836.59
674.253	30914.33
674.602	30803.6
674.951	30321.12
675.3	30181.69
675.649	30524.96
675.998	30626.2
676.346	30535.81
676.695	30746.42
677.044	30411.06
677.393	30582.36
677.741	30564.06
678.09	30363.61
678.438	30346.66
678.787	30450.84
679.135	30440.22
679.484	30194.8
679.832	30357.73
680.181	30160.9
680.529	30178.3
680.877	30087.23
681.225	29991.19
681.573	30313.89
681.922	30007.46
682.27	29956.39
682.618	29870.74
682.966	30017.4
683.314	29981.47
683.661	29831.64
684.009	29670.52
684.357	29605.66
684.705	29663.97
685.053	29692.44
685.4	29684.53
685.748	29421.71
686.095	29494.25
686.443	29274.6
686.79	29303.07
687.138	29284.31
687.485	29288.83
687.832	29154.15
688.18	29159.8
688.527	29129.97
688.874	29013.36
689.221	28862.63
689.568	28935.62
689.915	28847.26
690.262	28778.79
690.609	28720.71
690.956	28619.25
691.303	28627.83
691.65	28378.8
691.997	28454.73
692.344	28233.95
692.69	28260.84
693.037	28216.09
693.383	28195.98
693.73	28200.28
694.077	27864.24
694.423	27928.19
694.769	27948.53
695.116	27741.53
695.462	27905.14
695.808	27629.89
696.155	27814.75
696.501	27443.69
696.847	27549.45
697.193	27368.43
697.539	27368.66
697.885	27224.03
698.231	27045.96
698.577	27204.14
698.923	27034.88
699.269	26890.48
699.614	26855.45
699.96	26749.92
700.306	26771.39
700.651	26599.64
700.997	26572.97
701.342	26582.46
701.688	26508.12
702.033	26362.58
702.379	26407.1
702.724	26303.83
703.069	26397.16
703.415	25979.54
703.76	26109.26
704.105	26029.26
704.45	25873.33
704.795	25822.48
705.14	25809.6
705.485	25799.21
705.83	25577.97
706.175	25693.9
706.52	25517.41
706.865	25437.64
707.209	25425.66
707.554	25414.81
707.899	25406.68
708.243	25323.74
708.588	25308.15
708.932	25110.87
709.277	25111.54
709.621	25081.26
709.966	25038.55
710.31	25001.04
710.654	24792.46
710.998	24769.63
711.342	24887.37
711.687	24757.43
712.031	24652.12
712.375	24640.14
712.719	24611.9
713.063	24538.68
713.407	24577.55
713.75	24455.06
714.094	24297.55
714.438	24197.22
714.782	24244.22
715.125	24116.09
715.469	24192.25
715.812	23992.48
716.156	24005.81
716.499	24002.87
716.843	24026.83
717.186	23876.55
717.53	23973.72
717.873	23933.27
718.216	23868.41
718.559	23726.04
718.902	23655.76
719.246	23652.15
719.589	23603.56
719.932	23520.4
720.275	23451.25
720.617	23427.75
720.96	23418.93
721.303	23384.36
721.646	23470.91
721.989	23245.38
722.331	23373.28
722.674	23186.17
723.016	23284.47
723.359	23216.68
723.701	23150.24
724.044	23034.54
724.386	22918.83
724.729	22964.03
725.071	22942.11
725.413	22909.79
725.755	22827.08
726.097	22788.67
726.439	22743.47
726.782	22681.32
727.124	22771.49
727.465	22545.28
727.807	22648.33
728.149	22554.55
728.491	22513.65
728.833	22483.59
729.175	22481.56
729.516	22526.53
729.858	22406.08
730.199	22546.86
730.541	22305.74
730.882	22345.51
731.224	22448.11
731.565	22262.13
731.906	22169.02
732.248	22246.31
732.589	22152.07
732.93	22043.38
733.271	22108.46
733.612	21987.56
733.953	22125.63
734.294	21920.21
734.635	21961.12
734.976	21909.37
735.317	21859.43
735.658	21776.72
735.999	21845.41
736.339	21853.78
736.68	21889.03
737.021	21719.09
737.361	21562.26
737.702	21722.71
738.042	21690.16
738.383	21571.52
738.723	21684.29
739.063	21527
739.404	21537.85
739.744	21533.33
740.084	21434.8
740.424	21345.99
740.764	21363.62
741.104	21463.96
741.444	21351.87
741.784	21202.04
742.124	21342.15
742.464	21246.33
742.804	21184.87
743.143	21172.44
743.483	21174.47
743.823	21142.38
744.162	21007.24
744.502	21084.08
744.841	20891.32
745.181	21035.49
745.52	21026
745.86	21019
746.199	20928.83
746.538	20867.36
746.877	20883.86
747.216	20769.28
747.556	20677.08
747.895	20749.17
748.234	20651.55
748.573	20548.05
748.911	20652.23
749.25	20545.79
749.589	20444.55
749.928	20503.3
750.267	20575.84
750.605	20425.56
750.944	20305.57
751.283	20279.35
751.621	20363.19
751.96	20159.13
752.298	20159.81
752.636	20058.57
752.975	20002.52
753.313	19916.65
753.651	20030.77
753.989	19980.15
754.327	19843.21
