Data from breadboard_white_FLMS001491_00061.txt Node
Date: Wed Feb 08 10:48:05 GMT 2017
User: dcchb
Spectrometer: FLMS00149
Trigger mode: 0
Integration Time (sec): 2.000000E-2
Scans to average: 10
Electric dark correction enabled: true
Nonlinearity correction enabled: false
Boxcar width: 0
XAxis mode: Wavelengths
Number of Pixels in Spectrum: 2048
>>>>>Begin Spectral Data<<<<<
341.393	13.32
341.776	13.32
342.16	13.32
342.543	-73.68
342.927	-65.1
343.31	-70.97
343.693	-72.33
344.077	-51.99
344.46	-89.73
344.843	-45.44
345.226	-20.13
345.61	-49.5
345.993	-18.54
346.376	-7.02
346.759	4.51
347.142	28.91
347.525	43.6
347.908	79.53
348.291	55.35
348.674	97.61
349.057	116.14
349.44	137.16
349.823	139.19
350.206	162.69
350.588	196.36
350.971	209.92
351.354	251.96
351.737	246.53
352.119	253.09
352.502	247.66
352.884	293.09
353.267	278.62
353.65	293.99
354.032	310.94
354.414	311.16
354.797	318.62
355.179	340.09
355.562	340.32
355.944	326.3
356.326	329.92
356.709	341.9
357.091	337.83
357.473	360.65
357.855	364.72
358.238	377.83
358.62	360.65
359.002	352.52
359.384	371.28
359.766	362.24
360.148	366.08
360.53	332.86
360.912	343.25
361.294	343.93
361.676	345.06
362.057	331.5
362.439	358.62
362.821	362.46
363.203	362.69
363.584	344.61
363.966	346.42
364.348	362.91
364.729	340.99
365.111	350.49
365.493	349.13
365.874	338.06
366.256	323.37
366.637	338.73
367.019	338.06
367.4	349.36
367.781	340.09
368.163	347.77
368.544	352.97
368.925	350.71
369.306	341.22
369.688	336.25
370.069	346.64
370.45	370.6
370.831	370.82
371.212	340.09
371.593	340.32
371.974	340.77
372.355	339.19
372.736	358.62
373.117	329.47
373.498	350.26
373.879	363.59
374.26	358.62
374.641	341.22
375.021	345.74
375.402	355.23
375.783	355.91
376.163	362.01
376.544	376.7
376.925	360.65
377.305	359.98
377.686	352.74
378.066	362.46
378.447	354.33
378.827	386.87
379.208	361.33
379.588	377.6
379.968	398.62
380.349	404.27
380.729	405.4
381.109	366.76
381.489	394.55
381.87	390.71
382.25	408.56
382.63	401.11
383.01	395
383.39	422.35
383.77	398.39
384.15	392.07
384.53	401.33
384.91	397.49
385.29	421.44
385.67	396.13
386.049	446.08
386.429	428.9
386.809	442.23
387.189	453.53
387.568	443.14
387.948	446.75
388.328	462.35
388.707	433.87
389.087	453.99
389.466	458.5
389.846	471.61
390.225	466.19
390.605	476.58
390.984	474.32
391.363	468.9
391.743	493.31
392.122	487.66
392.501	491.95
392.881	488.33
393.26	517.03
393.639	526.07
394.018	505.51
394.397	519.52
394.776	527.2
395.155	545.96
395.534	512.29
395.913	517.26
396.292	549.12
396.671	546.64
397.05	543.93
397.429	554.55
397.808	581.44
398.186	581.44
398.565	578.5
398.944	596.13
399.323	604.26
399.701	623.7
400.08	600.2
400.458	600.87
400.837	634.09
401.215	646.75
401.594	640.87
401.972	656.01
402.351	653.53
402.729	681.32
403.107	689.91
403.486	706.18
403.864	710.48
404.242	695.11
404.62	731.27
404.999	739.85
405.377	746.18
405.755	740.76
406.133	775.56
406.511	763.36
406.889	813.07
407.267	809.68
407.645	803.35
408.023	854.65
408.401	865.95
408.779	853.07
409.156	867.76
409.534	884.93
409.912	868.89
410.29	910.47
410.667	945.5
411.045	980.98
411.422	962.22
411.8	981.88
412.178	1009.9
412.555	1045.16
412.933	1022.56
413.31	1077.47
413.687	1085.16
414.065	1103.69
414.442	1120.41
414.819	1151.14
415.197	1122.67
415.574	1179.84
415.951	1183.91
416.328	1218.03
416.705	1211.48
417.082	1239.28
417.46	1245.15
417.837	1280.86
418.214	1283.12
418.591	1302.78
418.967	1310.23
419.344	1298.48
419.721	1372.38
420.098	1351.59
420.475	1381.19
420.852	1358.37
421.228	1379.84
421.605	1401.76
421.982	1451.47
422.358	1408.54
422.735	1495.99
423.111	1486.05
423.488	1531.7
423.864	1528.76
424.241	1544.58
424.617	1562.88
424.994	1577.8
425.37	1597.01
425.746	1612.15
426.123	1637.68
426.499	1632.49
426.875	1654.41
427.251	1655.99
427.627	1710.68
428.003	1741.86
428.379	1769.2
428.756	1780.73
429.132	1799.26
429.507	1836.1
429.883	1855.08
430.259	1904.12
430.635	1930.56
431.011	1920.61
431.387	1997
431.763	1997
432.138	2056.65
432.514	2044.9
432.89	2048.75
433.265	2096.43
433.641	2147.27
434.016	2136.43
434.392	2186.37
434.767	2213.49
435.143	2240.15
435.518	2277.21
435.894	2275.63
436.269	2356.76
436.644	2376.65
437.02	2367.38
437.395	2371
437.77	2429.3
438.145	2449.41
438.52	2474.05
438.895	2489.41
439.271	2515.17
439.646	2620.26
440.021	2550.88
440.395	2592.91
440.77	2564.89
441.145	2620.26
441.52	2682.85
441.895	2685.79
442.27	2737.09
442.645	2718.11
443.019	2771.21
443.394	2753.13
443.769	2780.48
444.143	2774.83
444.518	2832.45
444.892	2821.15
445.267	2828.39
445.641	2918.1
446.016	2897.31
446.39	2956.07
446.764	2957.2
447.139	2921.49
447.513	2988.16
447.887	2992.22
448.262	2966.69
448.636	3037.19
449.01	3092.11
449.384	3125.55
449.758	3140.24
450.132	3184.31
450.506	3182.95
450.88	3195.38
451.254	3206.23
451.628	3271.09
452.002	3260.47
452.376	3310.63
452.75	3348.37
453.123	3382.04
453.497	3408.94
453.871	3485.77
454.244	3556.28
454.618	3582.04
454.992	3603.73
455.365	3619.55
455.739	3701.58
456.112	3735.25
456.486	3765.76
456.859	3844.63
457.232	3926.21
457.606	3878.98
457.979	3928.02
458.352	4042.37
458.725	4062.25
459.099	4083.04
459.472	4174.57
459.845	4197.84
460.218	4278.29
460.591	4321.23
460.964	4321.23
461.337	4448.68
461.71	4510.83
462.083	4519.19
462.456	4573.2
462.829	4564.84
463.201	4646.64
463.574	4680.99
463.947	4784.27
464.32	4888.9
464.692	4897.71
465.065	4904.04
465.438	4973.19
465.81	5062.68
466.183	5165.73
466.555	5250.47
466.928	5234.88
467.3	5235.1
467.672	5402.56
468.045	5525.72
468.417	5526.17
468.789	5548.09
469.161	5625.15
469.534	5694.75
469.906	5837.35
470.278	5895.88
470.65	5948.53
471.022	6057.91
471.394	6193.27
471.766	6258.13
472.138	6365.24
472.51	6485.24
472.882	6578.57
473.253	6644.78
473.625	6686.14
473.997	6867.6
474.369	6934.04
474.74	7010.65
475.112	7089.07
475.484	7236.18
475.855	7376.74
476.227	7415.61
476.598	7646.34
476.97	7735.38
477.341	7844.75
477.713	7999.32
478.084	8062.6
478.455	8286.77
478.827	8350.27
479.198	8617.61
479.569	8660.1
479.94	8850.37
480.311	8919.53
480.682	9108.9
481.053	9322.23
481.424	9493.3
481.795	9525.84
482.166	9749.56
482.537	9946.39
482.908	10063.9
483.279	10209.43
483.65	10348.41
484.021	10546.15
484.391	10671.12
484.762	10770.55
485.133	10819.81
485.503	11037.21
485.874	11290.08
486.244	11379.57
486.615	11655.27
486.985	11723.75
487.356	11964.87
487.726	12122.15
488.097	12344.29
488.467	12311.07
488.837	12677.62
489.207	12768.01
489.578	12942.7
489.948	13035.8
490.318	13300.2
490.688	13279.41
491.058	13590.81
491.428	13727.31
491.798	13824.93
492.168	14094.08
492.538	14181.99
492.908	14329.1
493.278	14511.92
493.648	14619.71
494.017	14735.19
494.387	14868.07
494.757	14986.94
495.126	15179.02
495.496	15219.02
495.866	15273.26
496.235	15564.32
496.605	15665.56
496.974	15775.84
497.344	15956.85
497.713	16081.6
498.082	16125.89
498.452	16305.77
498.821	16392.78
499.19	16585.31
499.559	16604.3
499.928	16897.62
500.298	16912.76
500.667	17025.07
501.036	17085.41
501.405	17276.14
501.774	17269.81
502.143	17447.44
502.512	17590.94
502.88	17688.33
503.249	17750.48
503.618	17922
503.987	18091.94
504.356	18202.67
504.724	18265.72
505.093	18349.79
505.462	18498.26
505.83	18613.06
506.199	18757.68
506.567	18997.45
506.936	18938.02
507.304	19197.45
507.672	19280.16
508.041	19410.55
508.409	19671.11
508.777	19718.79
509.145	19896.19
509.514	19942.06
509.882	20121.26
510.25	20160.81
510.618	20383.86
510.986	20478.54
511.354	20699.78
511.722	20839.89
512.09	21102.26
512.458	21085.31
512.826	21258.86
513.193	21353.32
513.561	21413.66
513.929	21597.84
514.297	21759.64
514.664	21987.88
515.032	22038.28
515.4	22266.07
515.767	22293.86
516.135	22549.68
516.502	22431.49
516.869	22890.91
517.237	22937.46
517.604	22915.32
517.972	23226.27
518.339	23427.39
518.706	23437.34
519.073	23753.26
519.44	23889.75
519.808	24021.05
520.175	24159.8
520.542	24432.34
520.909	24525.89
521.276	24672.11
521.643	24884.08
522.009	25144.64
522.376	25254.46
522.743	25437.74
523.11	25780.78
523.477	25967.89
523.843	26038.62
524.21	26408.11
524.577	26461.66
524.943	26773.07
525.31	26775.33
525.676	27035.43
526.043	27238.59
526.409	27316.78
526.776	27756.54
527.142	27813.94
527.508	27946.37
527.874	28219.58
528.241	28272.91
528.607	28393.14
528.973	28740.93
529.339	28790.42
529.705	28966.68
530.071	29281.48
530.437	29411.87
530.803	29672.43
531.169	29783.38
531.535	29683.5
531.901	29983.15
532.267	30145.63
532.632	30278.74
532.998	30356.25
533.364	30646.19
533.73	30730.7
534.095	31020.64
534.461	31052.73
534.826	31325.04
535.192	31367.75
535.557	31715.31
535.923	31559.16
536.288	31663.11
536.653	31781.07
537.019	31789.21
537.384	32057.45
537.749	32145.58
538.114	32249.53
538.479	32329.08
538.845	32547.15
539.21	32495.18
539.575	32613.82
539.94	32748.73
540.305	33052.45
540.67	33054.94
541.034	33169.06
541.399	33281.14
541.764	33461.25
542.129	33571.08
542.494	33565.43
542.858	33643.4
543.223	33880.22
543.587	34083.61
543.952	34016.72
544.316	34153.89
544.681	34266.88
545.045	34348.91
545.41	34630.26
545.774	34717.04
546.138	34628.45
546.503	34796.81
546.867	34802.91
547.231	35090.81
547.595	35199.96
547.959	35286.74
548.324	35347.31
548.688	35416
549.052	35715.2
549.416	35666.39
549.779	35807.86
550.143	35843.79
550.507	36141.41
550.871	36289.2
551.235	36292.36
551.599	36530.32
551.962	36620.49
552.326	36637.89
552.689	36874.27
553.053	36864.55
553.417	37043.53
553.78	37434.93
554.143	37347.48
554.507	37610.97
554.87	37666.79
555.234	37971.87
555.597	37729.62
555.96	37928.71
556.323	38188.13
556.686	38199.66
557.05	38393.55
557.413	38717.16
557.776	38630.83
558.139	39129.58
558.502	38958.51
558.865	39301.55
559.228	39447.31
559.59	39588.78
559.953	39700.18
560.316	40127.07
560.679	40129.1
561.041	40302.2
561.404	40349.43
561.767	40739.93
562.129	40550.56
562.492	40965.46
562.854	41023.99
563.217	41062.63
563.579	41289.97
563.941	41408.84
564.304	41691.77
564.666	41929.73
565.028	42037.98
565.39	42207.46
565.753	42446.78
566.115	42350.28
566.477	42557.96
566.839	42742.36
567.201	43137.83
567.563	43011.06
567.925	43424.83
568.287	43466.41
568.648	43447.21
569.01	43635.45
569.372	43861.43
569.734	43759.06
570.095	44160.86
570.457	44166.06
570.819	44428.42
571.18	44348.65
571.542	44598.14
571.903	44621.41
572.265	44831.35
572.626	44926.94
572.987	45107.95
573.349	45210.1
573.71	45321.28
574.071	45492.12
574.432	45666.81
574.794	45858.22
575.155	45784.32
575.516	45754.49
575.877	45767.82
576.238	46036.74
576.599	45998.32
576.96	46243.29
577.32	46154.7
577.681	46404.64
578.042	46391.76
578.403	46489.16
578.763	46575.03
579.124	46493
579.485	46653.22
579.845	46831.3
580.206	46769.83
580.566	46682.83
580.927	46686.44
581.287	46844.4
581.648	46822.48
582.008	46972.76
582.368	46909.71
582.728	46871.07
583.089	46851.41
583.449	46940.67
583.809	46868.36
584.169	47083.27
584.529	46957.17
584.889	47363.71
585.249	47058.64
585.609	47003.95
585.969	47156.94
586.329	46960.11
586.688	47090.73
587.048	47059.54
587.408	47045.08
587.768	47032.87
588.127	47142.48
588.487	47024.96
588.846	47240.55
589.206	46933.44
589.565	47072.65
589.925	47245.52
590.284	47079.2
590.643	47067.9
591.003	47195.36
591.362	47392.41
591.721	47343.37
592.08	47289.14
592.44	47459.75
592.799	47351.96
593.158	47186.32
593.517	47335.92
593.876	47399.64
594.235	47257.95
594.593	47238.07
594.952	47492.75
595.311	47356.03
595.67	47369.14
596.029	47567.77
596.387	47595.8
596.746	47639.64
597.104	47480.09
597.463	47450.72
597.822	47642.12
598.18	47507.21
598.538	47518.96
598.897	47624.04
599.255	47447.78
599.613	47912.17
599.972	47660.88
600.33	47731.16
600.688	47566.19
601.046	47735.45
601.404	47920.99
601.762	47866.52
602.12	48079.85
602.478	48051.83
602.836	47951.27
603.194	47908.33
603.552	47850.03
603.91	47886.64
604.268	48045.95
604.625	47865.17
604.983	48136.57
605.341	47963.47
605.698	48115.56
606.056	48254.54
606.413	48115.33
606.771	48310.58
607.128	48264.25
607.485	48147.87
607.843	48205.5
608.2	48499.95
608.557	48544.02
608.914	48330.01
609.272	48626.05
609.629	48640.29
609.986	48762.09
610.343	48553.06
610.7	48899.72
611.057	48784.47
611.414	48735.2
611.771	48844.8
612.127	48921.41
612.484	48980.17
612.841	49051.35
613.198	48825.14
613.554	48921.19
613.911	49055.87
614.267	49241.63
614.624	49135.19
614.98	49256.77
615.337	49432.81
615.693	49321.85
616.05	49192.14
616.406	49427.61
616.762	49268.97
617.118	49409.31
617.475	49323.43
617.831	49385.81
618.187	49469.19
618.543	49477.1
618.899	49693.37
619.255	49476.2
619.611	49542.86
619.967	49605.91
620.323	49711.67
620.678	49617.66
621.034	49358.24
621.39	49559.59
621.746	49481.62
622.101	49893.14
622.457	49588.96
622.812	49605.69
623.168	49805.68
623.523	49758.68
623.879	49736.08
624.234	49530.21
624.589	49754.16
624.945	49646.82
625.3	49790.54
625.655	49726.36
626.01	49621.96
626.365	49659.7
626.72	49712.8
627.075	49743.54
627.43	49549.19
627.785	49541.96
628.14	49577.44
628.495	49632.81
628.85	49623.09
629.205	49461.06
629.559	49645.23
629.914	49459.25
630.269	49595.07
630.623	49408.63
630.978	49364.34
631.332	49396.43
631.687	49450.21
632.041	49249.54
632.396	49404.34
632.75	49230.56
633.104	49348.74
633.459	49189.88
633.813	49230.78
634.167	49033.95
634.521	49017.45
634.875	49172.03
635.229	49070.56
635.583	48861.07
635.937	48788.08
636.291	48767.07
636.645	48803.9
636.999	48654.3
637.352	48819.27
637.706	48487.07
638.06	48752.38
638.413	48700.85
638.767	48521.2
639.121	48520.97
639.474	48427.19
639.828	48404.14
640.181	48395.32
640.534	48380.63
640.888	48300.41
641.241	48108.78
641.594	48184.71
641.947	48287.76
642.301	48120.08
642.654	48181.77
643.007	48122.11
643.36	48057.03
643.713	47990.81
644.066	48149.91
644.419	47839.86
644.771	47720.31
645.124	47373.88
645.477	47287.33
645.83	46979.54
646.182	46828.59
646.535	46571.64
646.888	46551.08
647.24	46539.1
647.593	46646.89
647.945	46572.32
648.298	46378.43
648.65	46285.55
649.002	46117.19
649.355	46266.57
649.707	46304.76
650.059	46502.27
650.411	46792.2
650.763	46954.01
651.115	47278.52
651.467	47146.54
651.819	47120.78
652.171	46868.58
652.523	46952.2
652.875	46994.46
653.227	46751.07
653.578	47012.08
653.93	46872.2
654.282	46684.63
654.633	46525.32
654.985	46745.65
655.337	46614.13
655.688	46682.15
656.039	46693.22
656.391	46437.86
656.742	46471.53
657.094	46472.21
657.445	46573.45
657.796	46454.81
658.147	46439.89
658.498	46412.1
658.849	46427.92
659.2	46214.82
659.551	46303.4
659.902	46453.45
660.253	46284.42
660.604	46302.27
660.955	46132.56
661.306	46314.02
661.656	46150.86
662.007	46176.85
662.358	46147.02
662.708	46239.22
663.059	46063.86
663.409	45828.84
663.76	46161.03
664.11	46017.76
664.461	46151.54
664.811	46085.55
665.161	46084.2
665.511	45981.6
665.862	45947.48
666.212	46014.14
666.562	45903.19
666.912	45888.95
667.262	45841.27
667.612	45787.93
667.962	45774.6
668.312	45729.18
668.662	45996.97
669.011	45825.9
669.361	45734.38
669.711	45815.73
670.06	45788.84
670.41	45733.25
670.76	45597.88
671.109	45777.77
671.459	45618.22
671.808	45609.63
672.157	45581.61
672.507	45364.22
672.856	45377.32
673.205	45441.5
673.554	45534.38
673.904	45208.29
674.253	45402.86
674.602	45498.22
674.951	44887.62
675.3	44676.78
675.649	45267.5
675.998	45184.33
676.346	45205.8
676.695	45322.41
677.044	44950.44
677.393	45073.6
677.741	45056.43
678.09	45055.3
678.438	44901.86
678.787	44975.3
679.135	44912.93
679.484	44602.65
679.832	44843.1
680.181	44620.73
680.529	44793.84
680.877	44497.35
681.225	44583.9
681.573	44828.64
681.922	44405.82
682.27	44301.65
682.618	44323.11
682.966	44298.26
683.314	44306.39
683.661	44270.23
684.009	43890.58
684.357	43926.74
684.705	43807.87
685.053	43899.62
685.4	43901.88
685.748	43655.79
686.095	43511.61
686.443	43591.38
686.79	43428.9
687.138	43482.23
687.485	43322.91
687.832	43256.48
688.18	43296.02
688.527	43022.13
688.874	43089.7
689.221	42988.69
689.568	42857.39
689.915	42823.49
690.262	42764.74
690.609	42593.22
690.956	42461.47
691.303	42489.26
691.65	42214.92
691.997	42094.7
692.344	41942.84
692.69	42015.15
693.037	42056.28
693.383	41567.93
693.73	41897.42
694.077	41480.03
694.423	41536.07
694.769	41321.84
695.116	41307.83
695.462	41113.26
695.808	41188.06
696.155	41296.75
696.501	40929.98
696.847	40941.73
697.193	40614.29
697.539	40657.9
697.885	40524.8
698.231	40270.34
698.577	40458.13
698.923	40306.5
699.269	39960.97
699.614	39870.35
699.96	39913.06
700.306	39834.42
700.651	39565.05
700.997	39594.65
701.342	39467.2
701.688	39347.2
702.033	39217.26
702.379	39148.56
702.724	39207.09
703.069	39211.38
703.415	38686.88
703.76	38704.73
704.105	38790.15
704.45	38656.6
704.795	38494.79
705.14	38387.23
705.485	38371.18
705.83	38180.22
706.175	38185.2
706.52	37947.01
706.865	37903.4
707.209	37977.52
707.554	37729.84
707.899	37871.53
708.243	37739.78
708.588	37591.99
708.932	37502.05
709.277	37371.66
709.621	37281.27
709.966	36991.1
710.31	37087.37
710.654	36843.31
710.998	36721.51
711.342	36885.12
711.687	36662.07
712.031	36643.54
712.375	36380.72
712.719	36660.49
713.063	36425.02
713.407	36556.31
713.75	36267.96
714.094	36235.64
714.438	36091.92
714.782	36046.72
715.125	35857.35
715.469	36124.01
715.812	35741.87
716.156	35532.61
716.499	35702.78
716.843	35646.28
717.186	35481.31
717.53	35510.69
717.873	35616.22
718.216	35443.57
718.559	35356.57
718.902	35090.81
719.246	35237.03
719.589	35155.45
719.932	34900.31
720.275	34911.84
720.617	34908.22
720.96	34734.21
721.303	34709.36
721.646	34857.83
721.989	34558.85
722.331	34738.73
722.674	34433.88
723.016	34473.2
723.359	34492.86
723.701	34387.1
724.044	34136.49
724.386	34012.42
724.729	34167.9
725.071	34028.47
725.413	33867.8
725.755	33925.65
726.097	33861.69
726.439	33655.82
726.782	33727.91
727.124	33876.16
727.465	33608.82
727.807	33630.06
728.149	33457.19
728.491	33261.26
728.833	33374.02
729.175	33354.82
729.516	33223.52
729.858	33225.78
730.199	33321.6
730.541	33043.86
730.882	33092.9
731.224	33136.97
731.565	32957.76
731.906	32988.5
732.248	32880.03
732.589	32875.05
732.93	32611.56
733.271	32778.79
733.612	32731.33
733.953	32638.22
734.294	32520.94
734.635	32389.19
734.976	32655.85
735.317	32354.62
735.658	32404.11
735.999	32374.73
736.339	32167.05
736.68	32214.96
737.021	32182.87
737.361	32022.19
737.702	32117.33
738.042	32060.39
738.383	31911.46
738.723	32029.65
739.063	31793.27
739.404	31935.42
739.744	31784.69
740.084	31635.76
740.424	31596.44
740.764	31628.53
741.104	31719.83
741.444	31451.36
741.784	31370.23
742.124	31582.43
742.464	31496.11
742.804	31467.63
743.143	31275.1
743.483	31281.88
743.823	31159.39
744.162	30979.28
744.502	31127.53
744.841	30991.04
745.181	31046.85
745.52	30852.06
745.86	30823.58
746.199	30745.39
746.538	30814.99
746.877	30792.4
747.216	30722.34
747.556	30652.06
747.895	30630.14
748.234	30309.02
748.573	30317.83
748.911	30386.08
749.25	30345.18
749.589	30122.58
749.928	30207.55
750.267	30309.92
750.605	30097.73
750.944	29979.76
751.283	29849.14
751.621	29909.48
751.96	29765.3
752.298	29694.35
752.636	29655.48
752.975	29631.52
