Data from breadboard_black_back_FLMS001491_00085.txt Node
Date: Wed Feb 08 10:51:02 GMT 2017
User: dcchb
Spectrometer: FLMS00149
Trigger mode: 0
Integration Time (sec): 2.000000E-2
Scans to average: 10
Electric dark correction enabled: true
Nonlinearity correction enabled: false
Boxcar width: 0
XAxis mode: Wavelengths
Number of Pixels in Spectrum: 2048
>>>>>Begin Spectral Data<<<<<
341.393	-18.57
341.776	-18.57
342.16	-18.57
342.543	-75.97
342.927	-73.26
343.31	-80.49
343.693	-64
344.077	-75.07
344.46	-61.74
344.843	-42.75
345.226	-30.55
345.61	-31.68
345.993	-14.05
346.376	5.83
346.759	23.46
347.142	13.97
347.525	27.53
347.908	50.58
348.291	62.78
348.674	105.27
349.057	110.92
349.44	139.84
349.823	149.11
350.206	157.69
350.588	212.61
350.971	210.8
351.354	217.13
351.737	259.16
352.119	260.29
352.502	272.27
352.884	289.67
353.267	287.18
353.65	314.98
354.032	307.29
354.414	309.55
354.797	319.95
355.179	328.31
355.562	342.32
355.944	345.94
356.326	324.69
356.709	343.23
357.091	356.33
357.473	338.48
357.855	350.68
358.238	359.95
358.62	338.03
359.002	350.91
359.384	337.12
359.766	344.81
360.148	354.07
360.53	365.6
360.912	334.19
361.294	348.42
361.676	351.13
362.057	347.07
362.439	325.6
362.821	355.65
363.203	343.23
363.584	341.19
363.966	338.48
364.348	350.23
364.729	350.91
365.111	331.47
365.493	333.73
365.874	346.62
366.256	339.84
366.637	343.23
367.019	325.6
367.4	350.68
367.781	330.8
368.163	349.55
368.544	347.29
368.925	356.78
369.306	358.82
369.688	351.13
370.069	343.23
370.45	341.19
370.831	344.36
371.212	358.59
371.593	352.04
371.974	341.64
372.355	354.07
372.736	360.17
373.117	346.62
373.498	369.21
373.879	334.86
374.26	338.03
374.641	354.75
375.021	333.28
375.402	354.75
375.783	378.48
376.163	360.17
376.544	376.22
376.925	381.87
377.305	391.36
377.686	357.01
378.066	388.2
378.447	385.26
378.827	373.96
379.208	380.74
379.588	406.5
379.968	371.25
380.349	369.89
380.729	394.3
381.109	405.14
381.489	391.59
381.87	420.29
382.25	402.43
382.63	409.66
383.01	405.6
383.39	423.9
383.77	417.35
384.15	397.24
384.53	420.29
384.91	413.51
385.29	448.31
385.67	440.4
386.049	451.47
386.429	431.81
386.809	444.24
387.189	431.58
387.568	412.15
387.948	448.08
388.328	453.96
388.707	473.84
389.087	464.8
389.466	437.69
389.846	462.09
390.225	470
390.605	456.22
390.984	459.38
391.363	473.62
391.743	476.33
392.122	476.56
392.501	486.72
392.881	507.74
393.26	501.19
393.639	530.34
394.018	504.8
394.397	515.88
394.776	526.95
395.155	509.32
395.534	523.56
395.913	530.11
396.292	530.11
396.671	517.01
397.05	525.14
397.429	519.49
397.808	533.95
398.186	540.28
398.565	570.79
398.944	554.75
399.323	554.75
399.701	543.45
400.08	580.28
400.458	572.37
400.837	571.92
401.215	599.72
401.594	578.02
401.972	587.96
402.351	588.87
402.729	592.03
403.107	596.1
403.486	611.69
403.864	626.16
404.242	619.83
404.62	633.39
404.999	639.04
405.377	625.25
405.755	639.04
406.133	646.72
406.511	669.77
406.889	662.09
407.267	697.11
407.645	679.94
408.023	667.51
408.401	693.72
408.779	712.48
409.156	691.24
409.534	708.41
409.912	714.97
410.29	743.44
410.667	718.36
411.045	755.42
411.422	755.87
411.8	746.6
412.178	761.97
412.555	770.11
412.933	804.68
413.31	795.42
413.687	786.15
414.065	814.85
414.442	831.35
414.819	846.49
415.197	836.77
415.574	865.02
415.951	873.61
416.328	874.28
416.705	860.05
417.082	857.56
417.46	876.32
417.837	879.03
418.214	901.18
418.591	923.32
418.967	922.65
419.344	941.4
419.721	939.14
420.098	937.33
420.475	925.13
420.852	957.67
421.228	983.43
421.605	979.14
421.982	969.42
422.358	1002.42
422.735	992.47
423.111	1000.16
423.488	1030.89
423.864	1035.86
424.241	1052.36
424.617	1051.46
424.994	1046.48
425.37	1095.97
425.746	1049.42
426.123	1089.42
426.499	1118.12
426.875	1126.93
427.251	1142.07
427.627	1147.27
428.003	1183.88
428.379	1147.95
428.756	1198.8
429.132	1216.87
429.507	1232.24
429.883	1242.41
430.259	1246.25
430.635	1243.54
431.011	1279.02
431.387	1306.82
431.763	1318.57
432.138	1319.92
432.514	1349.98
432.89	1331.9
433.265	1369.87
433.641	1381.62
434.016	1410.99
434.392	1417.1
434.767	1435.63
435.143	1428.62
435.518	1467.04
435.894	1485.57
436.269	1482.18
436.644	1504.32
437.02	1552.23
437.395	1541.84
437.77	1569.18
438.145	1568.73
438.52	1596.07
438.895	1625.9
439.271	1601.5
439.646	1644.89
440.021	1621.38
440.395	1662.29
440.77	1665.9
441.145	1680.37
441.52	1719.23
441.895	1735.28
442.27	1706.35
442.645	1750.42
443.019	1758.56
443.394	1757.43
443.769	1736.86
444.143	1750.42
444.518	1792
444.892	1806.01
445.267	1813.24
445.641	1842.4
446.016	1807.37
446.39	1836.75
446.764	1867.25
447.139	1872.9
447.513	1889.17
447.887	1872.68
448.262	1887.14
448.636	1904.09
449.01	1904.99
449.384	1971.88
449.758	1954.93
450.132	2021.15
450.506	2009.85
450.88	2025.44
451.254	2031.09
451.628	2065.21
452.002	2104.54
452.376	2113.57
452.75	2112.9
453.123	2154.7
453.497	2176.4
453.871	2178.43
454.244	2264.98
454.618	2247.36
454.992	2277.19
455.365	2311.08
455.739	2319.67
456.112	2374.81
456.486	2364.19
456.859	2364.87
457.232	2449.16
457.606	2448.71
457.979	2478.54
458.352	2518.08
458.725	2559.21
459.099	2565.54
459.472	2602.6
459.845	2674.69
460.218	2668.59
460.591	2714.46
460.964	2701.36
461.337	2795.14
461.71	2839.88
462.083	2837.62
462.456	2847.57
462.829	2865.64
463.201	2963.5
463.574	2948.81
463.947	3004.85
464.32	3068.58
464.692	3046.66
465.065	3106.54
465.438	3159.65
465.81	3186.54
466.183	3233.77
466.555	3326.88
466.928	3326.42
467.3	3327.78
467.672	3364.61
468.045	3477.83
468.417	3459.08
468.789	3491.84
469.161	3525.97
469.534	3603.25
469.906	3670.82
470.278	3708.79
470.65	3718.05
471.022	3758.28
471.394	3841.21
471.766	3934.09
472.138	3953.07
472.51	4018.38
472.882	4123.24
473.253	4099.06
473.625	4197.81
473.997	4327.53
474.369	4342.44
474.74	4379.73
475.112	4415.21
475.484	4513.06
475.855	4596.45
476.227	4633.28
476.598	4740.62
476.97	4812.49
477.341	4912.82
477.713	5016.1
478.084	5020.16
478.455	5121.63
478.827	5197.79
479.198	5290.67
479.569	5335.18
479.94	5472.13
480.311	5562.52
480.682	5644.78
481.053	5766.13
481.424	5901.95
481.795	5890.65
482.166	6009.97
482.537	6076.63
482.908	6239.79
483.279	6270.75
483.65	6440.01
484.021	6468.04
484.391	6606.34
484.762	6645.66
485.133	6715.49
485.503	6795.26
485.874	6988.7
486.244	7027.57
486.615	7169.26
486.985	7242.93
487.356	7372.87
487.726	7465.98
488.097	7632.07
488.467	7671.62
488.837	7807.44
489.207	7840.66
489.578	8026.64
489.948	8070.03
490.318	8143.47
490.688	8232.51
491.058	8376.69
491.428	8458.27
491.798	8597.02
492.168	8714.98
492.538	8746.85
492.908	8840.63
493.278	8946.16
493.648	8939.61
494.017	9037.23
494.387	9182.54
494.757	9276.55
495.126	9399.48
495.496	9403.33
495.866	9471.8
496.235	9576.88
496.605	9669.08
496.974	9705.47
497.344	9819.81
497.713	9963.54
498.082	9968.74
498.452	10127.83
498.821	10171.44
499.19	10173.7
499.559	10312.45
499.928	10346.8
500.298	10397.42
500.667	10531.66
501.036	10526.01
501.405	10640.13
501.774	10660.47
502.143	10813.91
502.512	10859.11
502.88	10953.79
503.249	10917.64
503.618	11024.75
503.987	11157.4
504.356	11193.34
504.724	11260
505.093	11338.19
505.462	11408.92
505.83	11475.36
506.199	11555.81
506.567	11779.08
506.936	11736.82
507.304	11835.13
507.672	12007.78
508.041	11968.23
508.409	12078.51
508.777	12163.03
509.145	12293.42
509.514	12278.28
509.882	12483.92
510.25	12418.84
510.618	12517.14
510.986	12576.12
511.354	12741.32
511.722	12875.1
512.09	12993.97
512.458	13039.39
512.826	13089.33
513.193	13202.1
513.561	13225.6
513.929	13368.65
514.297	13473.05
514.664	13561.41
515.032	13664.23
515.4	13716.43
515.767	13903.09
516.135	13946.48
516.502	13951.68
516.869	14202.52
517.237	14171.79
517.604	14228.96
517.972	14433.25
518.339	14524.77
518.706	14620.14
519.073	14605.45
519.44	14762.96
519.808	14876.63
520.175	14949.62
520.542	15105.55
520.909	15233.68
521.276	15284.98
521.643	15387.35
522.009	15467.35
522.376	15672.77
522.743	15759.32
523.11	15912.99
523.477	16103.94
523.843	16173.32
524.21	16345.74
524.577	16407.66
524.943	16542.8
525.31	16630.93
525.676	16779.63
526.043	16901.66
526.409	16951.15
526.776	17188.66
527.142	17238.6
527.508	17367.86
527.874	17464.81
528.241	17611.25
528.607	17692.83
528.973	17822.99
529.339	17858.25
529.705	18027.05
530.071	18293.49
530.437	18229.76
530.803	18433.6
531.169	18534.84
531.535	18473.37
531.901	18644.67
532.267	18746.58
532.632	18938.44
532.998	18940.02
533.364	19007.59
533.73	19116.97
534.095	19235.38
534.461	19315.61
534.826	19406.68
535.192	19513.57
535.557	19578.88
535.923	19614.13
536.288	19697.52
536.653	19840.11
537.019	19901.81
537.384	19951.52
537.749	20060.45
538.114	20062.03
538.479	20143.38
538.845	20251.63
539.21	20247.33
539.575	20418.63
539.94	20549.7
540.305	20589.25
540.67	20550.15
541.034	20688.23
541.399	20860.88
541.764	20849.8
542.129	20834.66
542.494	20934.1
542.858	21031.04
543.223	21117.14
543.587	21241.43
543.952	21255.22
544.316	21377.25
544.681	21432.84
545.045	21486.4
545.41	21556.23
545.774	21608.88
546.138	21655.43
546.503	21687.52
546.867	21788.54
547.231	21901.53
547.595	22039.38
547.959	22189.66
548.324	22120.05
548.688	22058.81
549.052	22362.31
549.416	22259.49
549.779	22411.8
550.143	22502.19
550.507	22596.2
550.871	22697.89
551.235	22616.54
551.599	22927.04
551.962	22974.95
552.326	22986.02
552.689	23250.42
553.053	23072.8
553.417	23196.86
553.78	23481.83
554.143	23394.37
554.507	23528.38
554.87	23570.41
555.234	23857.86
555.597	23634.59
555.96	23854.25
556.323	23975.37
556.686	24017.63
557.05	24121.58
557.413	24321.13
557.776	24320
558.139	24438.19
558.502	24512.08
558.865	24669.82
559.228	24802.7
559.59	24844.28
559.953	24890.38
560.316	25190.71
560.679	25175.34
561.041	25348.9
561.404	25454.2
561.767	25609.45
562.129	25547.31
562.492	25691.94
562.854	25785.27
563.217	25795.89
563.579	25924.02
563.941	26084.02
564.304	26279.72
564.666	26420.51
565.028	26491.01
565.39	26465.48
565.753	26737.56
566.115	27014.39
566.477	26897.78
566.839	27040.38
567.201	27159.47
567.563	27282.63
567.925	27385.23
568.287	27369.63
568.648	27483.08
569.01	27672.45
569.372	27885.1
569.734	27762.84
570.095	27901.37
570.457	28091.65
570.819	28097.98
571.18	28143.62
571.542	28412.32
571.903	28313.56
572.265	28487.34
572.626	28541.58
572.987	28570.96
573.349	28637.62
573.71	28815.47
574.071	28811.63
574.432	28918.52
574.794	29198.06
575.155	29229.7
575.516	29059.98
575.877	29250.49
576.238	29156.03
576.599	29420.65
576.96	29394.44
577.32	29522.35
577.681	29641.89
578.042	29732.51
578.403	29601.67
578.763	29624.04
579.124	29609.8
579.485	29889.34
579.845	29851.15
580.206	29859.96
580.566	29803.69
580.927	29831.49
581.287	29910.58
581.648	29834.88
582.008	30052.95
582.368	30006.85
582.728	30001.88
583.089	30095.21
583.449	29993.97
583.809	30018.83
584.169	30091.14
584.529	30022.45
584.889	30361.65
585.249	30063.8
585.609	30131.14
585.969	30100.18
586.329	30117.13
586.688	30130.69
587.048	30149.67
587.408	30089.11
587.768	30090.47
588.127	30246.85
588.487	30044.37
588.846	30309.22
589.206	30094.31
589.565	30134.08
589.925	30337.92
590.284	30195.55
590.643	30280.74
591.003	30481.42
591.362	30443.9
591.721	30361.65
592.08	30387.18
592.44	30354.19
592.799	30349.89
593.158	30323.68
593.517	30380.18
593.876	30584.01
594.235	30432.38
594.593	30534.52
594.952	30459.72
595.311	30422.89
595.67	30424.24
596.029	30704.46
596.387	30580.17
596.746	30699.49
597.104	30690.22
597.463	30515.31
597.822	30656.78
598.18	30537.23
598.538	30579.04
598.897	30742.2
599.255	30646.38
599.613	31081.85
599.972	30742.65
600.33	30781.97
600.688	30679.6
601.046	30862.42
601.404	30998.01
601.762	30930.44
602.12	31152.13
602.478	30999.37
602.836	31074.17
603.194	30997.33
603.552	31001.85
603.91	30999.82
604.268	31075.07
604.625	30991.01
604.983	31210.89
605.341	30989.43
605.698	31183.32
606.056	31243.88
606.413	31298.34
606.771	31240.04
607.128	31437.78
607.485	31115.98
607.843	31243.2
608.2	31386.48
608.557	31533.37
608.914	31442.07
609.272	31636.41
609.629	31692.91
609.986	31740.82
610.343	31632.8
610.7	31747.6
611.057	31711.67
611.414	31598.22
611.771	31696.3
612.127	31845.67
612.484	31881.38
612.841	31988.5
613.198	31761.38
613.554	31926.8
613.911	32048.15
614.267	32108.94
614.624	32049.28
614.98	32067.59
615.337	32249.96
615.693	32228.49
616.05	32113.46
616.406	32225.1
616.762	32143.07
617.118	32239.34
617.475	32284.98
617.831	32370.41
618.187	32358.65
618.543	32375.83
618.899	32580.34
619.255	32547.35
619.611	32414.02
619.967	32583.96
620.323	32541.02
620.678	32502.15
621.034	32496.28
621.39	32453.34
621.746	32506
622.101	32766.78
622.457	32418.31
622.812	32572.89
623.168	32691.75
623.523	32640.46
623.879	32814.46
624.234	32393
624.589	32618.99
624.945	32546.9
625.3	32681.58
625.655	32645.2
626.01	32612.21
626.365	32566.56
626.72	32529.72
627.075	32544.64
627.43	32572.66
627.785	32454.02
628.14	32409.27
628.495	32573.34
628.85	32414.7
629.205	32385.77
629.559	32654.01
629.914	32473.68
630.269	32419.44
630.623	32328.83
630.978	32319.79
631.332	32471.42
631.687	32433
632.041	32357.3
632.396	32334.02
632.75	32169.28
633.104	32322.27
633.459	32224.42
633.813	32042.05
634.167	32043.41
634.521	31983.75
634.875	32065.1
635.229	32066.91
635.583	31903.3
635.937	31962.96
636.291	31893.36
636.645	31845.22
636.999	31864.2
637.352	31960.7
637.706	31659.24
638.06	31803.42
638.413	31643.87
638.767	31760.48
639.121	31723.64
639.474	31514.61
639.828	31557.77
640.181	31547.38
640.534	31367.72
640.888	31343.31
641.241	31383.99
641.594	31346.93
641.947	31376.08
642.301	31326.59
642.654	31354.39
643.007	31228.29
643.36	31250.89
643.713	31169.53
644.066	31312.35
644.419	31106.03
644.771	30983.1
645.124	30686.38
645.477	30593.05
645.83	30419.04
646.182	30317.58
646.535	30186.06
646.888	30167.75
647.24	29946.51
647.593	30188.09
647.945	29995.78
648.298	29881.88
648.65	29916.01
649.002	29756.46
649.355	29984.03
649.707	29876.69
650.059	29958.27
650.411	30339.95
650.763	30362.32
651.115	30588.53
651.467	30499.27
651.819	30430.57
652.171	30454.75
652.523	30332.72
652.875	30397.58
653.227	30328.43
653.578	30590.57
653.93	30394.41
654.282	30179.5
654.633	30092.95
654.985	30256.11
655.337	30303.34
655.688	30307.41
656.039	30205.49
656.391	29956.91
656.742	30047.53
657.094	30175.21
657.445	30181.08
657.796	30131.59
658.147	30029.9
658.498	30007.76
658.849	30049.34
659.2	29997.81
659.551	29985.84
659.902	30021.54
660.253	29948.55
660.604	29972.28
660.955	29773.19
661.306	29967.98
661.656	29808.21
662.007	29770.93
662.358	29847.08
662.708	29890.47
663.059	29850.25
663.409	29615.9
663.76	29953.29
664.11	29777.71
664.461	29842.56
664.811	29727.31
665.161	29735.9
665.511	29630.14
665.862	29583.81
666.212	29782.23
666.562	29784.26
666.912	29659.06
667.262	29638.95
667.612	29579.74
667.962	29679.4
668.312	29541.1
668.662	29789.46
669.011	29785.62
669.361	29555.56
669.711	29531.61
670.06	29499.29
670.41	29550.59
670.76	29504.27
671.109	29597.82
671.459	29450.26
671.808	29395.34
672.157	29604.15
672.507	29354.89
672.856	29417.94
673.205	29452.97
673.554	29379.98
673.904	29415.23
674.253	29480.54
674.602	29322.12
674.951	28890.72
675.3	28847.11
675.649	29198.96
675.998	29048.23
676.346	29157.84
676.695	29307.44
677.044	28996.48
677.393	28991.74
677.741	29229.47
678.09	29017.27
678.438	28965.52
678.787	29071.96
679.135	29069.7
679.484	28847.79
679.832	29070.15
680.181	28792.65
680.529	28959.87
680.877	28736.83
681.225	28693.89
681.573	28865.87
681.922	28714.46
682.27	28605.99
682.618	28671.75
682.966	28499.1
683.314	28612.99
683.661	28516.27
684.009	28301.59
684.357	28416.61
684.705	28245.54
685.053	28354.47
685.4	28173.23
685.748	28152.66
686.095	28064.98
686.443	27925.55
686.79	27820.92
687.138	27975.72
687.485	27946.57
687.832	27857.08
688.18	27898.66
688.527	27679.68
688.874	27654.82
689.221	27604.88
689.568	27575.28
689.915	27486.24
690.262	27465.9
690.609	27479.01
690.956	27388.16
691.303	27231.11
691.65	27165.57
691.997	27143.2
692.344	27053.94
692.69	27048.06
693.037	26923.09
693.383	26590.9
693.73	26803.32
694.077	26632.25
694.423	26757.45
694.769	26686.26
695.116	26341.86
695.462	26560.84
695.808	26273.17
696.155	26422.77
696.501	26192.26
696.847	26137.8
697.193	26080.4
697.539	26079.5
697.885	25905.72
698.231	25764.03
698.577	25851.71
698.923	25776.46
699.269	25645.39
699.614	25614.88
699.96	25606.29
700.306	25520.87
700.651	25453.53
700.997	25318.61
701.342	25275.68
701.688	25261.67
702.033	25163.59
702.379	25158.84
702.724	25152.29
703.069	25138.05
703.415	24782.36
703.76	24813.99
704.105	24743.26
704.45	24801.57
704.795	24672.3
705.14	24597.28
705.485	24580.1
705.83	24440.22
706.175	24408.58
706.52	24346.21
706.865	24337.85
707.209	24320.9
707.554	24256.95
707.899	24258.75
708.243	24131.53
708.588	24089.72
708.932	23962.27
709.277	23934.24
709.621	24028.93
709.966	23850.63
710.31	23824.19
710.654	23623.29
710.998	23641.6
711.342	23688.83
711.687	23515.72
712.031	23477.31
712.375	23464.2
712.719	23492.9
713.063	23416.07
713.407	23436.63
713.75	23323.19
714.094	23250.42
714.438	23155.96
714.782	23199.57
715.125	22989.64
715.469	22997.09
715.812	22907.6
716.156	22894.95
716.499	22911.67
716.843	22931.33
717.186	22673.71
717.53	22838.91
717.873	22854.5
718.216	22838.68
718.559	22726.14
718.902	22545.81
719.246	22581.28
719.589	22464
719.932	22358.01
720.275	22400.72
720.617	22307.17
720.96	22410.44
721.303	22371.8
721.646	22367.73
721.989	22178.13
722.331	22321.18
722.674	22126.16
723.016	22118.25
723.359	22125.7
723.701	22035.08
724.044	22011.81
724.386	21967.29
724.729	22078.02
725.071	21901.53
725.413	21856.78
725.755	21847.74
726.097	21853.39
726.439	21666.51
726.782	21678.94
727.124	21722.55
727.465	21607.07
727.807	21637.81
728.149	21587.86
728.491	21575.66
728.833	21520.07
729.175	21388.1
729.516	21403.01
729.858	21437.36
730.199	21385.61
730.541	21321.88
730.882	21377.93
731.224	21266.74
731.565	21155.11
731.906	21136.13
732.248	21171.15
732.589	21043.7
732.93	21164.6
733.271	21049.8
733.612	21113.07
733.953	21033.3
734.294	20915.11
734.635	21015
734.976	20955.79
735.317	20884.61
735.658	20838.05
735.999	20820.65
736.339	20723.03
736.68	20805.96
737.021	20680.77
737.361	20549.7
737.702	20744.27
738.042	20608.68
738.383	20572.98
738.723	20652.3
739.063	20443.49
739.404	20494.11
739.744	20516.93
740.084	20379.99
740.424	20539.76
740.764	20414.79
741.104	20487.1
741.444	20335.69
741.784	20258.63
742.124	20310.16
742.464	20184.29
742.804	20187.45
743.143	20258.86
743.483	20176.38
743.823	20059.54
744.162	20065.19
744.502	20034.23
744.841	19984.06
745.181	20027
745.52	19942.48
745.86	20038.3
746.199	19879.21
746.538	19914.01
746.877	19846.67
747.216	19867.91
747.556	19727.8
747.895	19703.17
748.234	19637.63
748.573	19584.75
748.911	19512.21
749.25	19539.78
749.589	19550.18
749.928	19559.9
750.267	19582.72
750.605	19363.97
750.944	19379.34
751.283	19344.31
751.621	19408.71
751.96	19255.5
752.298	19172.11
752.636	19130.3
752.975	19199.23
753.313	19091.21
753.651	19083.98
753.989	18982.74
754.327	18944.77
754.666	18863.42
