Data from breadboard_black_back_FLMS001491_00011.txt Node
Date: Wed Feb 08 10:50:00 GMT 2017
User: dcchb
Spectrometer: FLMS00149
Trigger mode: 0
Integration Time (sec): 2.000000E-2
Scans to average: 10
Electric dark correction enabled: true
Nonlinearity correction enabled: false
Boxcar width: 0
XAxis mode: Wavelengths
Number of Pixels in Spectrum: 2048
>>>>>Begin Spectral Data<<<<<
341.393	-21.3
341.776	-21.3
342.16	-21.3
342.543	-53.16
342.927	-49.32
343.31	-57.46
343.693	-73.95
344.077	-67.63
344.46	-53.61
344.843	-56.1
345.226	-29.43
345.61	-26.04
345.993	-25.37
346.376	5.14
346.759	15.54
347.142	14.86
347.525	40.39
347.908	54.63
348.291	69.09
348.674	75.42
349.057	114.52
349.44	124.23
349.823	143.44
350.206	188.19
350.588	198.81
350.971	216.66
351.354	229.77
351.737	258.02
352.119	251.69
352.502	268.64
352.884	265.02
353.267	290.33
353.65	311.12
354.032	309.99
354.414	299.6
354.797	306.6
355.179	334.85
355.562	305.47
355.944	333.04
356.326	321.97
356.709	325.36
357.091	352.25
357.473	349.99
357.855	330.78
358.238	344.12
358.62	348.41
359.002	354.28
359.384	342.53
359.766	348.86
360.148	346.15
360.53	340.05
360.912	342.08
361.294	352.25
361.676	374.85
362.057	357.9
362.439	348.63
362.821	345.47
363.203	365.13
363.584	331.23
363.966	348.86
364.348	318.81
364.729	335.08
365.111	353.83
365.493	351.8
365.874	347.5
366.256	325.36
366.637	325.36
367.019	352.7
367.4	345.25
367.781	342.31
368.163	339.37
368.544	349.76
368.925	339.14
369.306	357.45
369.688	357.22
370.069	323.55
370.45	337.11
370.831	346.6
371.212	340.73
371.593	354.28
371.974	362.19
372.355	346.38
372.736	357.22
373.117	347.73
373.498	358.35
373.879	350.67
374.26	365.36
374.641	363.32
375.021	351.8
375.402	369.43
375.783	381.85
376.163	374.85
376.544	381.18
376.925	370.1
377.305	389.54
377.686	368.3
378.066	368.97
378.447	366.71
378.827	381.4
379.208	400.16
379.588	396.32
379.968	394.51
380.349	424.57
380.729	413.72
381.109	382.98
381.489	405.81
381.87	380.72
382.25	406.94
382.63	413.94
383.01	427.95
383.39	432.25
383.77	413.04
384.15	413.04
384.53	430.67
384.91	428.86
385.29	430.67
385.67	429.08
386.049	445.36
386.429	451.68
386.809	460.72
387.189	435.64
387.568	451.01
387.948	463.89
388.328	465.02
388.707	446.49
389.087	476.99
389.466	463.43
389.846	489.2
390.225	470.89
390.605	482.64
390.984	481.29
391.363	478.8
391.743	485.81
392.122	473.6
392.501	520.16
392.881	512.7
393.26	516.09
393.639	527.84
394.018	503.66
394.397	536.65
394.776	539.82
395.155	542.3
395.534	530.33
395.913	500.5
396.292	503.89
396.671	543.66
397.05	558.12
397.429	547.73
397.808	569.65
398.186	561.06
398.565	573.71
398.944	563.77
399.323	548.86
399.701	572.36
400.08	582.53
400.458	586.59
400.837	573.26
401.215	599.93
401.594	589.31
401.972	620.94
402.351	600.15
402.729	639.7
403.107	619.36
403.486	625.69
403.864	633.6
404.242	623.66
404.62	642.19
404.999	623.88
405.377	668.63
405.755	663.88
406.133	696.2
406.511	680.83
406.889	679.93
407.267	706.82
407.645	709.53
408.023	695.52
408.401	706.14
408.779	697.1
409.156	744.78
409.534	716.08
409.912	734.39
410.29	728.74
410.667	734.61
411.045	781.17
411.422	796.53
411.8	788.85
412.178	784.78
412.555	815.52
412.933	807.83
413.31	819.13
413.687	830.43
414.065	833.82
414.442	835.63
414.819	865.46
415.197	863.42
415.574	868.4
415.951	881.95
416.328	914.95
416.705	895.51
417.082	914.5
417.46	929.64
417.837	937.77
418.214	937.09
418.591	952.46
418.967	964.44
419.344	953.36
419.721	958.11
420.098	972.12
420.475	1000.6
420.852	1005.57
421.228	1021.39
421.605	1013.7
421.982	1002.4
422.358	1028.39
422.735	1032.46
423.111	1053.7
423.488	1070.88
423.864	1066.81
424.241	1091.67
424.617	1076.07
424.994	1101.38
425.37	1142.51
425.746	1100.25
426.123	1145.45
426.499	1147.94
426.875	1167.6
427.251	1183.19
427.627	1214.83
428.003	1191.1
428.379	1216.63
428.756	1229.52
429.132	1234.26
429.507	1246.46
429.883	1248.72
430.259	1317.87
430.635	1292.79
431.011	1296.86
431.387	1357.87
431.763	1361.72
432.138	1356.29
432.514	1402.84
432.89	1412.11
433.265	1422.5
433.641	1438.78
434.016	1445.1
434.392	1476.74
434.767	1522.16
435.143	1497.76
435.518	1525.55
435.894	1557.87
436.269	1565.55
436.644	1579.11
437.02	1587.02
437.395	1598.77
437.77	1611.2
438.145	1623.18
438.52	1644.65
438.895	1658.43
439.271	1662.95
439.646	1688.71
440.021	1702.72
440.395	1714.02
440.77	1694.14
441.145	1742.04
441.52	1770.52
441.895	1780.01
442.27	1784.3
442.645	1791.08
443.019	1810.74
443.394	1851.87
443.769	1856.62
444.143	1881.48
444.518	1828.6
444.892	1872.66
445.267	1890.74
445.641	1894.81
446.016	1933.45
446.39	1910.85
446.764	1934.58
447.139	1933.68
447.513	1968.25
447.887	1956.28
448.262	1966.9
448.636	1994.02
449.01	1995.82
449.384	2036.05
449.758	2050.06
450.132	2060
450.506	2088.7
450.88	2097.74
451.254	2124.63
451.628	2123.05
452.002	2166.21
452.376	2211.18
452.75	2204.41
453.123	2233.33
453.497	2262.71
453.871	2258.64
454.244	2315.14
454.618	2337.28
454.992	2391.29
455.365	2396.49
455.739	2436.04
456.112	2435.13
456.486	2467
456.859	2519.65
457.232	2572.76
457.606	2533.21
457.979	2586.09
458.352	2608.69
458.725	2686.65
459.099	2651.85
459.472	2713.09
459.845	2718.52
460.218	2764.84
460.591	2797.38
460.964	2815.69
461.337	2891.84
461.71	2950.37
462.083	2966.19
462.456	2975.23
462.829	2997.83
463.201	3032.41
463.574	3051.16
463.947	3105.62
464.32	3165.51
464.692	3196.24
465.065	3270.82
465.438	3298.16
465.81	3361.89
466.183	3351.27
466.555	3420.19
466.928	3454.54
467.3	3457.25
467.672	3538.38
468.045	3620.87
468.417	3597.14
468.789	3605.5
469.161	3696.57
469.534	3730.47
469.906	3857.24
470.278	3856.11
470.65	3856.34
471.022	3985.83
471.394	4038.93
471.766	4066.28
472.138	4098.59
472.51	4208.42
472.882	4243.9
473.253	4330
473.625	4386.49
473.997	4466.49
474.369	4513.27
474.74	4525.47
475.112	4624
475.484	4710.55
475.855	4791.91
476.227	4806.6
476.598	5000.26
476.97	5006.14
477.341	5085.69
477.713	5193.48
478.084	5229.64
478.455	5389.18
478.827	5370.88
479.198	5551.66
479.569	5579.68
479.94	5738.32
480.311	5786.23
480.682	5925.21
481.053	6000.24
481.424	6106.9
481.795	6175.15
482.166	6267.12
482.537	6334.92
482.908	6505.31
483.279	6510.73
483.65	6669.37
484.021	6834.34
484.391	6877.95
484.762	6963.83
485.133	7017.61
485.503	7204.5
485.874	7241.11
486.244	7362.24
486.615	7515
486.985	7569.24
487.356	7715.67
487.726	7838.61
488.097	7927.87
488.467	8025.95
488.837	8208.32
489.207	8225.04
489.578	8387.29
489.948	8461.64
490.318	8568.08
490.688	8578.48
491.058	8725.36
491.428	8937.56
491.798	8983.66
492.168	9091.68
492.538	9123.55
492.908	9251.45
493.278	9370.77
493.648	9406.48
494.017	9565.12
494.387	9618.9
494.757	9670.65
495.126	9834.26
495.496	9839.23
495.866	9915.16
496.235	10030.19
496.605	10154.93
496.974	10228.83
497.344	10224.53
497.713	10378.65
498.082	10435.6
498.452	10628.36
498.821	10597.18
499.19	10612.32
499.559	10791.3
499.928	10887.11
500.298	10946.77
500.667	11016.83
501.036	11001.91
501.405	11119.43
501.774	11167.56
502.143	11304.96
502.512	11340.66
502.88	11471.05
503.249	11476.48
503.618	11553.31
503.987	11734.78
504.356	11727.77
504.724	11744.95
505.093	11833.3
505.462	11871.27
505.83	11977.48
506.199	12107.42
506.567	12268.77
506.936	12186.97
507.304	12475.55
507.672	12476.68
508.041	12543.57
508.409	12668.54
508.777	12699.27
509.145	12910.34
509.514	12867.4
509.882	12939.49
510.25	13050.22
510.618	13052.93
510.986	13179.03
511.354	13320.95
511.722	13447.5
512.09	13535.63
512.458	13595.97
512.826	13734.72
513.193	13802.52
513.561	13788.73
513.929	13963.19
514.297	14099.69
514.664	14179.23
515.032	14250.19
515.4	14436.85
515.767	14490.86
516.135	14624.64
516.502	14487.7
516.869	14921.36
517.237	14882.94
517.604	14899.89
517.972	15061.47
518.339	15194.8
518.706	15223.27
519.073	15345.08
519.44	15423.72
519.808	15685.86
520.175	15730.15
520.542	15860.09
520.909	15891.73
521.276	15935.57
521.643	16242
522.009	16271.38
522.376	16347.76
522.743	16562.67
523.11	16652.61
523.477	16901.65
523.843	16931.7
524.21	17102.09
524.577	17302.31
524.943	17365.59
525.31	17445.59
525.676	17500.95
526.043	17716.99
526.409	17853.03
526.776	18003.31
527.142	18058.45
527.508	18128.96
527.874	18275.85
528.241	18512
528.607	18491.43
528.973	18648.27
529.339	18756.74
529.705	18918.77
530.071	19044.87
530.437	19185.88
530.803	19187.91
531.169	19304.97
531.535	19370.96
531.901	19539.54
532.267	19637.17
532.632	19754.68
532.998	19704.28
533.364	19919.42
533.73	19981.57
534.095	20167.77
534.461	20145.18
534.826	20419.07
535.192	20432.63
535.557	20530.25
535.923	20501.55
536.288	20711.04
536.653	20748.32
537.019	20861.32
537.384	20925.72
537.749	21022.44
538.114	20998.94
538.479	21039.62
538.845	21274.19
539.21	21205.49
539.575	21341.53
539.94	21425.37
540.305	21630.11
540.67	21515.31
541.034	21664.23
541.399	21830.56
541.764	21777.9
542.129	21933.6
542.494	21888.41
542.858	22126.82
543.223	22073.49
543.587	22225.8
543.952	22315.51
544.316	22234.39
544.681	22389.64
545.045	22481.61
545.41	22595.51
545.774	22654.94
546.138	22671.66
546.503	22838.21
546.867	22725.67
547.231	23067.81
547.595	23009.06
547.959	23167.92
548.324	23231.65
548.688	23214.93
549.052	23362.72
549.416	23429.16
549.779	23363.85
550.143	23475.94
550.507	23711.86
550.871	23704.63
551.235	23786.21
551.599	23899.65
551.962	24006.32
552.326	24189.14
552.689	24201.12
553.053	24154.56
553.417	24298.97
553.78	24502.35
554.143	24498.51
554.507	24637.49
554.87	24721.33
555.234	24889.01
555.597	24742.8
555.96	24931.94
556.323	25093.3
556.686	25188.66
557.05	25427.98
557.413	25332.61
557.776	25463
558.139	25673.62
558.502	25709.78
558.865	25672.94
559.228	25957.45
559.59	26078.58
559.953	26068.64
560.316	26322.19
560.679	26392.47
561.041	26541.62
561.404	26615.29
561.767	26751.1
562.129	26675.4
562.492	27049.18
562.854	27082.85
563.217	27028.39
563.579	27158.1
563.941	27399
564.304	27562.16
564.666	27741.36
565.028	27601.7
565.39	27883.28
565.753	27992.43
566.115	28088.47
566.477	28308.13
566.839	28249.82
567.201	28527.55
567.563	28560.55
567.925	28815.23
568.287	28678.51
568.648	28862.24
569.01	28905.17
569.372	29199.85
569.734	29064.72
570.095	29412.05
570.457	29409.79
570.819	29452.73
571.18	29430.13
571.542	29590.58
571.903	29743.57
572.265	29746.96
572.626	29834.41
572.987	29988.53
573.349	30131.35
573.71	30168.87
574.071	30243.67
574.432	30419.03
574.794	30563.43
575.155	30485.7
575.516	30433.27
575.877	30649.53
576.238	30610.21
576.599	30719.36
576.96	30796.42
577.32	30859.92
577.681	30949.64
578.042	31069.64
578.403	31136.98
578.763	31127.49
579.124	31081.16
579.485	31298.1
579.845	31378.33
580.206	31221.72
580.566	31211.1
580.927	31302.17
581.287	31398.21
581.648	31337.88
582.008	31469.62
582.368	31487.7
582.728	31524.54
583.089	31505.78
583.449	31473.69
583.809	31514.37
584.169	31619.23
584.529	31490.64
584.889	31791.2
585.249	31494.03
585.609	31460.13
585.969	31689.73
586.329	31551.2
586.688	31629.17
587.048	31504.43
587.408	31584.42
587.768	31640.69
588.127	31576.51
588.487	31573.12
588.846	31739.45
589.206	31517.08
589.565	31509.4
589.925	31740.35
590.284	31588.27
590.643	31744.19
591.003	31823.74
591.362	31766.34
591.721	31728.6
592.08	31788.03
592.44	31840.24
592.799	31812.67
593.158	31797.53
593.517	31749.84
593.876	31961.36
594.235	31868.26
594.593	31899.22
594.952	31984.19
595.311	31835.26
595.67	31845.21
596.029	32089.72
596.387	32170.85
596.746	32096.05
597.104	32043.62
597.463	32045.2
597.822	32241.36
598.18	32096.5
598.538	31977.63
598.897	32341.01
599.255	31995.94
599.613	32412.88
599.972	32187.12
600.33	32341.92
600.688	32296.04
601.046	32315.93
601.404	32352.09
601.762	32349.38
602.12	32588.69
602.478	32417.4
602.836	32575.13
603.194	32379.21
603.552	32558.41
603.91	32428.24
604.268	32710.72
604.625	32519.77
604.983	32685.64
605.341	32585.3
605.698	32687.22
606.056	32716.37
606.413	32689.93
606.771	32824.17
607.128	32841.34
607.485	32804.96
607.843	32712.53
608.2	32875.24
608.557	33031.17
608.914	32940.55
609.272	33170.82
609.629	33202.23
609.986	33141.9
610.343	33163.59
610.7	33283.36
611.057	33291.95
611.414	33290.37
611.771	33123.59
612.127	33333.53
612.484	33366.07
612.841	33366.98
613.198	33234.55
613.554	33437.48
613.911	33525.39
614.267	33650.81
614.624	33486.52
614.98	33611.49
615.337	33855.55
615.693	33779.39
616.05	33601.77
616.406	33811.71
616.762	33746.63
617.118	33744.14
617.475	33755.21
617.831	33825.27
618.187	33832.73
618.543	33785.04
618.899	34152.27
619.255	34029.56
619.611	33945.49
619.967	33966.96
620.323	34130.35
620.678	33971.25
621.034	33917.7
621.39	33941.2
621.746	33921.99
622.101	34397.23
622.457	34021.42
622.812	34053.06
623.168	34180.29
623.523	34190.68
623.879	34172.38
624.234	33893.29
624.589	34122.21
624.945	34130.12
625.3	34245.37
625.655	34154.53
626.01	34145.49
626.365	34087.63
626.72	34182.77
627.075	34135.32
627.43	34071.82
627.785	34042.89
628.14	34040.63
628.495	34051.48
628.85	34109.78
629.205	34006.96
629.559	34103.45
629.914	33990.91
630.269	33970.8
630.623	33931.25
630.978	33875.21
631.332	33998.82
631.687	33970.12
632.041	33834.99
632.396	33887.19
632.75	33843.35
633.104	33787.08
633.459	33639.96
633.813	33656.46
634.167	33637.48
634.521	33607.87
634.875	33640.87
635.229	33576.46
635.583	33379.63
635.937	33425.28
636.291	33438.16
636.645	33395.22
636.999	33350.71
637.352	33359.52
637.706	33223.93
638.06	33409.23
638.413	33312.97
638.767	33150.71
639.121	33365.85
639.474	33076.59
639.828	33126.76
640.181	32988.45
640.534	33046.08
640.888	32861.9
641.241	32750.27
641.594	32843.6
641.947	33031.39
642.301	32788.23
642.654	32860.32
643.007	32850.15
643.36	32726.31
643.713	32688.35
644.066	32801.79
644.419	32468.47
644.771	32473.21
645.124	32114.35
645.477	32061.93
645.83	31827.13
646.182	31736.06
646.535	31541.71
646.888	31570.19
647.24	31410.64
647.593	31496.06
647.945	31455.39
648.298	31351.21
648.65	31316.18
649.002	31174.27
649.355	31383.98
649.707	31282.28
650.059	31537.65
650.411	31842.72
650.763	31802.95
651.115	32158.19
651.467	31948.71
651.819	31955.26
652.171	31969.05
652.523	31775.83
652.875	31849.05
653.227	31715.49
653.578	31865.09
653.93	31910.06
654.282	31713.91
654.633	31646.34
654.985	31626.68
655.337	31671.88
655.688	31601.37
656.039	31620.58
656.391	31454.48
656.742	31534.48
657.094	31451.09
657.445	31646.12
657.796	31531.32
658.147	31388.95
658.498	31430.98
658.849	31430.53
659.2	31427.59
659.551	31376.29
659.902	31417.65
660.253	31366.12
660.604	31408.38
660.955	31212.23
661.306	31384.66
661.656	31307.14
662.007	31328.16
662.358	31275.96
662.708	31167.03
663.059	31211.78
663.409	31032.12
663.76	31185.79
664.11	31205.9
664.461	31242.51
664.811	31232.57
665.161	31230.76
665.511	31062.63
665.862	31092.23
666.212	31137.2
666.562	31234.38
666.912	31017.66
667.262	31186.92
667.612	31132.01
667.962	31087.49
668.312	31029.64
668.662	31148.28
669.011	31029.64
669.361	31019.69
669.711	30896.08
670.06	30958
670.41	30859.25
670.76	30925.46
671.109	31056.98
671.459	30953.93
671.808	30820.38
672.157	30938.57
672.507	30758.23
672.856	30780.6
673.205	30786.03
673.554	30809.75
673.904	30670.32
674.253	30858.79
674.602	30728.18
674.951	30325.02
675.3	30065.37
675.649	30639.82
675.998	30532.47
676.346	30528.86
676.695	30667.16
677.044	30404.57
677.393	30461.06
677.741	30470.78
678.09	30508.07
678.438	30211.13
678.787	30405.47
679.135	30445.92
679.484	30206.38
679.832	30340.39
680.181	30147.85
680.529	30202.99
680.877	30168.42
681.225	30046.61
681.573	30324.57
681.922	30022.66
682.27	29940.63
682.618	29941.76
682.966	29947.4
683.314	29925.26
683.661	29847.29
684.009	29758.94
684.357	29715.55
684.705	29577.47
685.053	29632.61
685.4	29538.38
685.748	29446.85
686.095	29479.39
686.443	29300.64
686.79	29340.41
687.138	29344.93
687.485	29285.95
687.832	29175.9
688.18	29151.04
688.527	29005.51
688.874	28968.67
689.221	28943.36
689.568	28895.68
689.915	28829.24
690.262	28804.16
690.609	28747.89
690.956	28641.45
691.303	28563.71
691.65	28476.48
691.997	28394.68
692.344	28329.14
692.69	28392.64
693.037	28306.54
693.383	28017.29
693.73	28220.67
694.077	27997.4
694.423	27904.52
694.769	27908.59
695.116	27734.13
695.462	27777.74
695.808	27612.32
696.155	27753.56
696.501	27489.16
696.847	27450.75
697.193	27157.2
697.539	27297.98
697.885	27190.64
698.231	27034.71
698.577	27116.29
698.923	27043.75
699.269	27020.48
699.614	26767.6
699.96	26833.14
700.306	26805.34
700.651	26675.85
700.997	26574.61
701.342	26563.09
701.688	26566.48
702.033	26409.42
702.379	26443.32
702.724	26466.37
703.069	26420.27
703.415	26071.35
703.76	26038.13
704.105	26009.88
704.45	25935.31
704.795	25766.72
705.14	25778.25
705.485	25741.41
705.83	25620.96
706.175	25639.95
706.52	25513.85
706.865	25463.91
707.209	25538.48
707.554	25385.04
707.899	25349.79
708.243	25286.51
708.588	25154.54
708.932	25081.77
709.277	25123.35
709.621	25152.5
709.966	24943.47
710.31	24972.17
710.654	24681.33
710.998	24864.83
711.342	24780.08
711.687	24751.38
712.031	24608.11
712.375	24481.33
712.719	24636.81
713.063	24559.75
713.407	24569.92
713.75	24389.81
714.094	24385.07
714.438	24248.57
714.782	24338.06
715.125	24052.64
715.469	24295.58
715.812	24060.1
716.156	23971.74
716.499	24046.32
716.843	23929.26
717.186	23876.15
717.53	23960.44
717.873	23962.93
718.216	23852.2
718.559	23864.63
718.902	23541.92
719.246	23659.43
719.589	23549.15
719.932	23446.56
720.275	23454.02
720.617	23486.33
720.96	23413.11
721.303	23451.3
721.646	23434.58
721.989	23250.86
722.331	23341.48
722.674	23324.75
723.016	23302.38
723.359	23234.59
723.701	23051.99
724.044	23006.57
724.386	22987.59
724.729	23011.54
725.071	22894.71
725.413	22925.22
725.755	22939
726.097	22939.91
726.439	22609.29
726.782	22738.55
727.124	22781.27
727.465	22627.15
727.807	22607.94
728.149	22660.59
728.491	22502.85
728.833	22523.65
729.175	22471.9
729.516	22533.59
729.858	22473.02
730.199	22481.16
730.541	22394.83
730.882	22348.06
731.224	22461.5
731.565	22201.62
731.906	22282.52
732.248	22325.01
732.589	22118.46
732.93	22056.76
733.271	22123.88
733.612	22122.75
733.953	22041.85
734.294	21864.45
734.635	21891.8
734.976	21846.83
735.317	21905.36
735.658	21864.23
735.999	21846.15
736.339	21839.14
736.68	21858.58
737.021	21736.77
737.361	21730.9
737.702	21753.72
738.042	21578.13
738.383	21590.56
738.723	21691.8
739.063	21506.95
739.404	21635.08
739.744	21525.71
740.084	21308.76
740.424	21367.74
740.764	21323.22
741.104	21481.64
741.444	21336.33
741.784	21240.51
742.124	21194.87
742.464	21228.99
742.804	21289.55
743.143	21179.95
743.483	21186.05
743.823	20881.43
744.162	20937.92
744.502	21070.12
744.841	20938.83
745.181	21018.15
745.52	20963.46
745.86	20868.77
746.199	20818.38
746.538	20806.4
746.877	20843.01
747.216	20730.47
747.556	20692.96
747.895	20823.12
748.234	20594.2
748.573	20539.74
748.911	20644.6
749.25	20543.58
749.589	20471.04
749.928	20449.8
750.267	20399.18
750.605	20406.64
750.944	20367.32
751.283	20268.79
751.621	20406.41
751.96	20157.38
752.298	20041
752.636	20041.68
752.975	19990.83
753.313	19963.71
753.651	19945.18
753.989	19769.14
754.327	19843.49
