Data from breadboard_black_back_FLMS001491_00052.txt Node
Date: Wed Feb 08 10:50:34 GMT 2017
User: dcchb
Spectrometer: FLMS00149
Trigger mode: 0
Integration Time (sec): 2.000000E-2
Scans to average: 10
Electric dark correction enabled: true
Nonlinearity correction enabled: false
Boxcar width: 0
XAxis mode: Wavelengths
Number of Pixels in Spectrum: 2048
>>>>>Begin Spectral Data<<<<<
341.393	-16.21
341.776	-16.21
342.16	-16.21
342.543	-57.12
342.927	-56.89
343.31	-72.48
343.693	-70
344.077	-58.93
344.46	-53.95
344.843	-50.56
345.226	-42.65
345.61	-25.48
345.993	-19.6
346.376	11.36
346.759	-20.51
347.142	16.1
347.525	50.68
347.908	71.92
348.291	78.7
348.674	81.64
349.057	103.78
349.44	128.87
349.823	132.03
350.206	172.26
350.588	184.23
350.971	197.79
351.354	228.07
351.737	233.27
352.119	234.85
352.502	261.52
352.884	293.83
353.267	279.82
353.65	287.96
354.032	291.12
354.414	308.07
354.797	331.57
355.179	348.97
355.562	339.48
355.944	320.5
356.326	351.01
356.709	337.45
357.091	329.31
357.473	348.75
357.855	335.87
358.238	354.17
358.62	341.52
359.002	360.05
359.384	367.73
359.766	359.14
360.148	353.72
360.53	325.02
360.912	362.98
361.294	329.09
361.676	351.91
362.057	351.46
362.439	340.84
362.821	342.42
363.203	332.03
363.584	336.77
363.966	347.39
364.348	339.26
364.729	355.08
365.111	333.83
365.493	348.3
365.874	332.7
366.256	330.67
366.637	343.55
367.019	314.62
367.4	338.35
367.781	333.16
368.163	350.33
368.544	335.87
368.925	345.13
369.306	353.72
369.688	374.06
370.069	320.27
370.45	341.06
370.831	311.01
371.212	365.24
371.593	345.36
371.974	320.95
372.355	360.27
372.736	344
373.117	354.17
373.498	341.29
373.879	353.95
374.26	346.94
374.641	312.82
375.021	351.46
375.402	354.4
375.783	363.44
376.163	372.02
376.544	366.6
376.925	351.91
377.305	334.28
377.686	369.54
378.066	371.35
378.447	367.5
378.827	383.78
379.208	391.23
379.588	377.22
379.968	361.4
380.349	402.31
380.729	384.68
381.109	363.44
381.489	380.84
381.87	404.11
382.25	401.4
382.63	391.46
383.01	399.59
383.39	384.45
383.77	389.88
384.15	420.84
384.53	414.73
384.91	422.19
385.29	411.12
385.67	410.67
386.049	431.91
386.429	431.23
386.809	421.06
387.189	436.43
387.568	420.38
387.948	458.12
388.328	445.02
388.707	448.63
389.087	459.03
389.466	439.59
389.846	454.06
390.225	476.88
390.605	453.83
390.984	488.86
391.363	483.66
391.743	474.85
392.122	480.27
392.501	460.16
392.881	492.7
393.26	493.83
393.639	500.61
394.018	490.89
394.397	487.05
394.776	501.96
395.155	501.74
395.534	506.26
395.913	489.54
396.292	502.19
396.671	519.82
397.05	537.22
397.429	515.3
397.808	531.12
398.186	531.57
398.565	521.4
398.944	551.23
399.323	551
399.701	527.95
400.08	558.91
400.458	542.42
400.837	550.1
401.215	551.68
401.594	575.41
401.972	570.21
402.351	600.72
402.729	600.72
403.107	598.01
403.486	574.96
403.864	585.13
404.242	625.8
404.62	628.74
404.999	597.1
405.377	614.05
405.755	618.8
406.133	637.78
406.511	660.6
406.889	675.07
407.267	657.44
407.645	660.83
408.023	692.24
408.401	691.11
408.779	667.61
409.156	682.52
409.534	679.36
409.912	715.52
410.29	711.68
410.667	742.86
411.045	714.61
411.422	718.91
411.8	737.66
412.178	735.18
412.555	759.13
412.933	757.1
413.31	760.04
413.687	786.48
414.065	765.23
414.442	805.91
414.819	791.45
415.197	815.18
415.574	834.61
415.951	821.05
416.328	838
416.705	848.17
417.082	842.52
417.46	832.35
417.837	838.9
418.214	879.13
418.591	878.9
418.967	868.06
419.344	895.85
419.721	899.02
420.098	894.72
420.475	908.73
420.852	910.32
421.228	924.33
421.605	932.46
421.982	949.41
422.358	957.77
422.735	970.65
423.111	973.59
423.488	996.41
423.864	986.47
424.241	992.35
424.617	1002.74
424.994	1012.46
425.37	1034.83
425.746	1040.71
426.123	1052.91
426.499	1055.4
426.875	1078.9
427.251	1080.93
427.627	1074.83
428.003	1098.11
428.379	1106.92
428.756	1138.78
429.132	1173.81
429.507	1188.95
429.883	1173.58
430.259	1193.92
430.635	1202.74
431.011	1196.64
431.387	1250.87
431.763	1273.02
432.138	1242.06
432.514	1264.43
432.89	1284.54
433.265	1321.83
433.641	1325.22
434.016	1328.38
434.392	1350.76
434.767	1357.53
435.143	1374.71
435.518	1381.26
435.894	1396.18
436.269	1428.04
436.644	1443.86
437.02	1439.34
437.395	1441.6
437.77	1471.43
438.145	1496.97
438.52	1522.5
438.895	1513.01
439.271	1528.6
439.646	1538.55
440.021	1551.43
440.395	1600.69
440.77	1588.26
441.145	1624.19
441.52	1641.82
441.895	1631.88
442.27	1619
442.645	1623.52
443.019	1642.27
443.394	1669.39
443.769	1677.53
444.143	1699.67
444.518	1717.53
444.892	1734.47
445.267	1730.86
445.641	1720.69
446.016	1721.14
446.39	1737.19
446.764	1790.74
447.139	1771.31
447.513	1808.37
447.887	1810.4
448.262	1819.22
448.636	1843.85
449.01	1865.32
449.384	1878.88
449.758	1934.92
450.132	1922.49
450.506	1891.31
450.88	1906.67
451.254	1922.72
451.628	1969.95
452.002	1975.82
452.376	1972.43
452.75	2013.79
453.123	2038.42
453.497	2054.24
453.871	2071.87
454.244	2089.72
454.618	2098.53
454.992	2194.35
455.365	2211.52
455.739	2209.94
456.112	2239.32
456.486	2264.86
456.859	2286.78
457.232	2354.57
457.606	2345.31
457.979	2348.7
458.352	2412.87
458.725	2427.79
459.099	2427.79
459.472	2480.67
459.845	2508.47
460.218	2561.35
460.591	2564.51
460.964	2556.37
461.337	2614
461.71	2686.09
462.083	2712.98
462.456	2721.57
462.829	2769.25
463.201	2770.61
463.574	2791.62
463.947	2862.13
464.32	2948
464.692	2908.91
465.065	2915.23
465.438	2998.85
465.81	3032.29
466.183	3107.32
466.555	3129.47
466.928	3173.53
467.3	3137.15
467.672	3186.41
468.045	3267.54
468.417	3256.69
468.789	3295.11
469.161	3368.1
469.534	3426.18
469.906	3465.73
470.278	3497.14
470.65	3525.84
471.022	3604.93
471.394	3684.25
471.766	3736.46
472.138	3745.72
472.51	3826.17
472.882	3900.74
473.253	3921.54
473.625	3973.06
473.997	4056.45
474.369	4084.47
474.74	4130.57
475.112	4248.76
475.484	4326.72
475.855	4381.41
476.227	4385.03
476.598	4534.4
476.97	4572.37
477.341	4637.45
477.713	4758.8
478.084	4734.62
478.455	4886.03
478.827	4892.36
479.198	5033.6
479.569	5088.28
479.94	5206.7
480.311	5290.54
480.682	5411.44
481.053	5530.98
481.424	5554.71
481.795	5622.06
482.166	5715.84
482.537	5806.68
482.908	5949.96
483.279	5958.09
483.65	6079.9
484.021	6186.56
484.391	6259.1
484.762	6321.02
485.133	6413.67
485.503	6467.01
485.874	6646.89
486.244	6713.55
486.615	6873.55
486.985	6887.78
487.356	7015.24
487.726	7092.98
488.097	7213.2
488.467	7266.08
488.837	7434.89
489.207	7420.65
489.578	7667.43
489.948	7650.48
490.318	7761.66
490.688	7838.72
491.058	7906.97
491.428	8112.84
491.798	8125.27
492.168	8247.75
492.538	8348.76
492.908	8424.47
493.278	8516.22
493.648	8479.38
494.017	8690.45
494.387	8779.26
494.757	8777.9
495.126	8953.95
495.496	8964.11
495.866	9073.04
496.235	9117.56
496.605	9249.08
496.974	9264.22
497.344	9384.67
497.713	9388.28
498.082	9480.03
498.452	9642.06
498.821	9654.04
499.19	9682.74
499.559	9828.95
499.928	9927.48
500.298	9946.91
500.667	10047.7
501.036	10091.99
501.405	10191.43
501.774	10215.83
502.143	10282.05
502.512	10404.3
502.88	10435.71
503.249	10433.23
503.618	10538.99
503.987	10598.65
504.356	10623.51
504.724	10739.89
505.093	10736.05
505.462	10840.45
505.83	10927.68
506.199	11061.23
506.567	11166.09
506.936	11206.99
507.304	11344.62
507.672	11395.24
508.041	11376.93
508.409	11587.77
508.777	11632.74
509.145	11723.59
509.514	11696.47
509.882	11752.97
510.25	11859.86
510.618	11975.79
510.986	12028.44
511.354	12118.83
511.722	12294.87
512.09	12338.94
512.458	12358.6
512.826	12495.32
513.193	12600.4
513.561	12634.75
513.929	12767.86
514.297	12893.5
514.664	13002.43
515.032	13086.27
515.4	13195.64
515.767	13165.36
516.135	13395.41
516.502	13330.33
516.869	13526.25
517.237	13602.86
517.604	13632.01
517.972	13768.73
518.339	13816.42
518.706	13864.1
519.073	14015.28
519.44	14129.85
519.808	14269.06
520.175	14321.04
520.542	14487.59
520.909	14525.1
521.276	14610.07
521.643	14721.93
522.009	14810.97
522.376	15011.41
522.743	15105.87
523.11	15166.44
523.477	15267.68
523.843	15518.07
524.21	15670.15
524.577	15685.97
524.943	15777.04
525.31	15874.89
525.676	16014.78
526.043	16166.19
526.409	16276.46
526.776	16467.65
527.142	16469.91
527.508	16625.83
527.874	16764.81
528.241	16871.7
528.607	16856.79
528.973	17152.37
529.339	17132.94
529.705	17283.9
530.071	17461.97
530.437	17500.16
530.803	17572.25
531.169	17832.58
531.535	17748.29
531.901	17864.45
532.267	17916.65
532.632	18061.73
532.998	18108.96
533.364	18285.68
533.73	18279.12
534.095	18459.68
534.461	18437.31
534.826	18602.05
535.192	18564.09
535.557	18814.93
535.923	18779.9
536.288	18955.04
536.653	18950.52
537.019	19014.02
537.384	19128.14
537.749	19244.75
538.114	19222.15
538.479	19355.25
538.845	19514.57
539.21	19448.58
539.575	19676.38
539.94	19579.43
540.305	19778.97
540.67	19762.93
541.034	19962.92
541.399	19847.9
541.764	19919.98
542.129	20036.14
542.494	20269.58
542.858	20153.42
543.223	20207.43
543.587	20410.59
543.952	20293.08
544.316	20465.06
544.681	20498.5
545.045	20588.44
545.41	20778.27
545.774	20832.05
546.138	20772.17
546.503	20890.58
546.867	20919.73
547.231	21143.91
547.595	21183.91
547.959	21174.41
548.324	21292.6
548.688	21316.33
549.052	21346.61
549.416	21470.45
549.779	21530.56
550.143	21604.91
550.507	21708.86
550.871	21791.8
551.235	21780.73
551.599	22078.57
551.962	22085.8
552.326	22212.81
552.689	22266.82
553.053	22132.13
553.417	22310.43
553.78	22453.7
554.143	22467.49
554.507	22626.58
554.87	22658.9
555.234	22880.58
555.597	22744.77
555.96	22920.81
556.323	23023.18
556.686	23149.28
557.05	23218.43
557.413	23349.27
557.776	23370.74
558.139	23592.88
558.502	23554.92
558.865	23625.2
559.228	23901.35
559.59	23948.35
559.953	23976.6
560.316	24266.09
560.679	24201.23
561.041	24421.34
561.404	24437.38
561.767	24593.08
562.129	24652.52
562.492	24937.48
562.854	24840.99
563.217	24828.33
563.579	24968.21
563.941	25144.48
564.304	25310.8
564.666	25459.27
565.028	25520.52
565.39	25475.32
565.753	25755.31
566.115	25862.65
566.477	25951.92
566.839	26037.79
567.201	26210.21
567.563	26183.1
567.925	26414.05
568.287	26448.17
568.648	26478.23
569.01	26648.4
569.372	26786.24
569.734	26668.73
570.095	26915.73
570.457	27071.21
570.819	27014.71
571.18	27108.5
571.542	27287.02
571.903	27321.15
572.265	27364.53
572.626	27414.25
572.987	27635.04
573.349	27749.38
573.71	27727.69
574.071	27883.17
574.432	28005.42
574.794	28194.12
575.155	28011.52
575.516	28007.68
575.877	28117.96
576.238	28302.36
576.599	28367.22
576.96	28379.65
577.32	28375.36
577.681	28508.01
578.042	28532.87
578.403	28583.49
578.763	28596.59
579.124	28571.28
579.485	28818.51
579.845	28855.34
580.206	28904.83
580.566	28756.14
580.927	28813.54
581.287	28962.23
581.648	28767.44
582.008	28973.31
582.368	28996.13
582.728	29054.21
583.089	29061.44
583.449	29012.18
583.809	29150.25
584.169	29121.32
584.529	29039.07
584.889	29257.59
585.249	29039.97
585.609	29071.16
585.969	29232.28
586.329	29085.62
586.688	29110.7
587.048	29220.53
587.408	29163.13
587.768	29259.17
588.127	29150.02
588.487	29128.33
588.846	29245.16
589.206	29152.28
589.565	29236.8
589.925	29291.26
590.284	29024.83
590.643	29333.3
591.003	29314.54
591.362	29314.31
591.721	29361.32
592.08	29403.8
592.44	29383.01
592.799	29403.8
593.158	29370.58
593.517	29300.98
593.876	29418.94
594.235	29289.23
594.593	29406.06
594.952	29428.89
595.311	29380.75
595.67	29498.26
596.029	29682.44
596.387	29718.15
596.746	29689.22
597.104	29626.4
597.463	29507.53
597.822	29659.84
598.18	29594.76
598.538	29698.03
598.897	29822.78
599.255	29541.65
599.613	29920.63
599.972	29722.44
600.33	29771.48
600.688	29659.39
601.046	29964.69
601.404	29945.26
601.762	29913.17
602.12	30044.01
602.478	29994.52
602.836	30009.66
603.194	29887.41
603.552	30069.77
603.91	29863.68
604.268	30159.04
604.625	30055.09
604.983	30205.82
605.341	30021.41
605.698	30206.27
606.056	30313.38
606.413	30169.88
606.771	30236.78
607.128	30355.19
607.485	30096.67
607.843	30201.75
608.2	30501.63
608.557	30616.2
608.914	30484.23
609.272	30502.98
609.629	30789.98
609.986	30740.72
610.343	30606.26
610.7	30869.53
611.057	30700.94
611.414	30818.46
611.771	30736.42
612.127	30803.77
612.484	30911.11
612.841	30972.8
613.198	30808.51
613.554	30791.79
613.911	31020.71
614.267	31020.48
614.624	31005.57
614.98	31079.24
615.337	31272.45
615.693	31150.65
616.05	31021.16
616.406	31393.81
616.762	31259.8
617.118	31243.98
617.475	31310.19
617.831	31404.2
618.187	31509.06
618.543	31332.57
618.899	31514.26
619.255	31542.05
619.611	31448.5
619.967	31614.82
620.323	31590.19
620.678	31512.9
621.034	31464.77
621.39	31539.11
621.746	31398.1
622.101	31873.57
622.457	31502.51
622.812	31706.57
623.168	31650.52
623.523	31604.65
623.879	31691.2
624.234	31565.1
624.589	31674.93
624.945	31751.09
625.3	31748.37
625.655	31795.6
626.01	31730.52
626.365	31641.94
626.72	31656.85
627.075	31617.76
627.43	31656.85
627.785	31614.82
628.14	31608.49
628.495	31693.91
628.85	31653.01
629.205	31479
629.559	31749.28
629.914	31507.7
630.269	31537.31
630.623	31427.7
630.978	31417.31
631.332	31672.44
631.687	31701.82
632.041	31450.08
632.396	31393.81
632.75	31370.76
633.104	31546.12
633.459	31215.05
633.813	31261.38
634.167	31190.87
634.521	31185.68
634.875	31228.84
635.229	31220.48
635.583	31080.82
635.937	31185.9
636.291	31064.55
636.645	31077.88
636.999	30947.27
637.352	30999.24
637.706	30797.21
638.06	31068.62
638.413	30964.89
638.767	30961.95
639.121	31030.65
639.474	30738.46
639.828	30723.99
640.181	30754.28
640.534	30606.03
640.888	30648.97
641.241	30397.68
641.594	30671.34
641.947	30554.28
642.301	30502.76
642.654	30514.96
643.007	30573.04
643.36	30396.09
643.713	30423.21
644.066	30497.33
644.419	30350.67
644.771	30092.82
645.124	30035.2
645.477	29812.15
645.83	29570.58
646.182	29498.04
646.535	29466.17
646.888	29431.6
647.24	29186.63
647.593	29300.3
647.945	29286.74
648.298	29147.76
648.65	29097.6
649.002	28958.84
649.355	29165.17
649.707	29152.96
650.059	29375.78
650.411	29618.71
650.763	29704.81
651.115	29894.41
651.467	29780.52
651.819	29739.16
652.171	29712.95
652.523	29612.39
652.875	29528.55
653.227	29546.17
653.578	29686.73
653.93	29497.36
654.282	29472.5
654.633	29256.46
654.985	29443.35
655.337	29487.19
655.688	29476.57
656.039	29606.96
656.391	29242.9
656.742	29417.81
657.094	29406.97
657.445	29430.02
657.796	29267.31
658.147	29404.71
658.498	29255.78
658.849	29326.97
659.2	29203.36
659.551	29299.17
659.902	29374.88
660.253	29177.14
660.604	29305.05
660.955	29059.18
661.306	29156.13
661.656	29121.55
662.007	29196.12
662.358	29026.19
662.708	29090.14
663.059	28974.89
663.409	29086.3
663.76	29131.49
664.11	29057.15
664.461	29017.6
664.811	29081.55
665.161	28960.65
665.511	29040.2
665.862	28968.79
666.212	29014.21
666.562	29126.97
666.912	29016.47
667.262	28918.17
667.612	28955.68
667.962	28969.69
668.312	28963.36
668.662	28926.08
669.011	29015.56
669.361	28870.26
669.711	28904.61
670.06	28933.76
670.41	28862.8
670.76	28723.14
671.109	28820.09
671.459	28718.17
671.808	28771.73
672.157	28780.77
672.507	28568.57
672.856	28554.11
673.205	28680.43
673.554	28679.75
673.904	28539.19
674.253	28737.38
674.602	28686.53
674.951	28222.37
675.3	28185.08
675.649	28521.57
675.998	28491.51
676.346	28422.13
676.695	28522.02
677.044	28330.16
677.393	28275.7
677.741	28381.68
678.09	28364.28
678.438	28208.35
678.787	28337.16
679.135	28311.63
679.484	28165.42
679.832	28187.34
680.181	28178.3
680.529	28144.18
680.877	28078.41
681.225	28066.21
681.573	28336.94
681.922	28025.53
682.27	27966.78
682.618	27969.94
682.966	27908.02
683.314	27898.98
683.661	27844.07
684.009	27834.13
684.357	27687.46
684.705	27647.69
685.053	27625.54
685.4	27576.05
685.748	27493.34
686.095	27454.7
686.443	27218.1
686.79	27329.28
687.138	27297.87
687.485	27257.87
687.832	27134.26
688.18	27204.31
688.527	27092.68
688.874	27058.78
689.221	26960.93
689.568	26911.44
689.915	26830.54
690.262	26882.06
690.609	26888.39
690.956	26751.9
691.303	26748.96
691.65	26542.41
691.997	26543.99
692.344	26422.19
692.69	26394.62
693.037	26381.06
693.383	26168.63
693.73	26207.73
694.077	26103.32
694.423	26112.36
694.769	26040.95
695.116	25977.23
695.462	25999.6
695.808	25779.27
696.155	25796.67
696.501	25547.41
696.847	25619.95
697.193	25582.21
697.539	25585.82
697.885	25321.2
698.231	25272.61
698.577	25311.93
698.923	25312.16
699.269	25131.37
699.614	24962.56
699.96	24870.81
700.306	24918.72
700.651	24891.83
700.997	24737.03
701.342	24706.98
701.688	24765.73
702.033	24618.39
702.379	24594.21
702.724	24615
703.069	24629.24
703.415	24400.77
703.76	24402.8
704.105	24386.08
704.45	24289.36
704.795	24198.06
705.14	23957.84
705.485	24009.37
705.83	24030.16
706.175	23897.28
706.52	23801.92
706.865	23831.52
707.209	23812.76
707.554	23667.91
707.899	23750.62
708.243	23575.26
708.588	23574.13
708.932	23478.08
709.277	23419.55
709.621	23427.01
709.966	23289.16
710.31	23327.13
710.654	23128.94
710.998	23283.96
711.342	23161.71
711.687	23125.32
712.031	23103.4
712.375	22993.8
712.719	22995.84
713.063	22917.19
713.407	22964.65
713.75	22727.59
714.094	22737.09
714.438	22667.26
714.782	22744.32
715.125	22566.92
715.469	22681.95
715.812	22499.13
716.156	22485.11
716.499	22422.07
716.843	22431.78
717.186	22314.27
717.53	22518.79
717.873	22373.93
718.216	22315.63
718.559	22246.48
718.902	22083.54
719.246	22128.29
719.589	21932.36
719.932	21985.69
720.275	21983.89
720.617	21992.7
720.96	21875.41
721.303	21982.98
721.646	21965.81
721.989	21815.53
722.331	21854.4
722.674	21752.48
723.016	21756.55
723.359	21678.81
723.701	21721.07
724.044	21574.63
724.386	21422.32
724.729	21523.56
725.071	21464.35
725.413	21466.61
725.755	21384.8
726.097	21300.06
726.439	21256.67
726.782	21323.56
727.124	21373.96
727.465	21183
727.807	21164.92
728.149	21074.98
728.491	21031.82
728.833	21063.46
729.175	21029.33
729.516	21005.83
729.858	20909.11
730.199	21067.98
730.541	20876.12
730.882	20865.27
731.224	20858.04
731.565	20800.19
731.906	20778.95
732.248	20818.49
732.589	20723.13
732.93	20712.28
733.271	20705.95
733.612	20635.67
733.953	20704.82
734.294	20550.25
734.635	20541.66
734.976	20615.11
735.317	20432.51
735.658	20448.11
735.999	20470.7
736.339	20354.1
736.68	20361.56
737.021	20327.43
737.361	20248.34
737.702	20348.67
738.042	20194.33
738.383	20218.73
738.723	20333.76
739.063	20133.31
739.404	20159.07
739.744	20076.59
740.084	20090.15
740.424	20087.44
740.764	20024.84
741.104	20042.24
741.444	19885.41
741.784	19926.09
742.124	19938.06
742.464	19832.53
742.804	19862.81
743.143	19755.47
743.483	19809.03
743.823	19625.53
744.162	19682.48
744.502	19695.81
744.841	19656.04
745.181	19761.57
745.52	19590.28
745.86	19557.73
746.199	19554.34
746.538	19599.54
746.877	19525.87
747.216	19491.97
747.556	19388.7
747.895	19412.2
748.234	19333.11
748.573	19298.98
748.911	19225.77
749.25	19207.46
749.589	19120.23
749.928	19200.91
750.267	19131.3
750.605	19085.2
750.944	19007.92
751.283	18981.25
751.621	19049.73
751.96	18786.68
752.298	18917.75
752.636	18864.65
752.975	18799.79
753.313	18706.23
753.651	18788.49
753.989	18755.95
754.327	18696.29
754.666	18502.62
