Data from breadboard_black_back_FLMS001491_00053.txt Node
Date: Wed Feb 08 10:50:34 GMT 2017
User: dcchb
Spectrometer: FLMS00149
Trigger mode: 0
Integration Time (sec): 2.000000E-2
Scans to average: 10
Electric dark correction enabled: true
Nonlinearity correction enabled: false
Boxcar width: 0
XAxis mode: Wavelengths
Number of Pixels in Spectrum: 2048
>>>>>Begin Spectral Data<<<<<
341.393	-32.74
341.776	-32.74
342.16	-32.74
342.543	-54.66
342.927	-62.57
343.31	-80.87
343.693	-67.77
344.077	-90.59
344.46	-56.24
344.843	-53.08
345.226	-23.25
345.61	-25.51
345.993	-5.62
346.376	-18.73
346.759	5.45
347.142	31.44
347.525	27.82
347.908	81.61
348.291	77.99
348.674	94.26
349.057	103.08
349.44	128.39
349.823	159.57
350.206	158.67
350.588	196.41
350.971	226.69
351.354	232.34
351.737	239.34
352.119	249.51
352.502	269.4
352.884	265.11
353.267	274.15
353.65	306.91
354.032	301.94
354.414	324.99
354.797	319.57
355.179	316.18
355.562	332.22
355.944	332.67
356.326	341.49
356.709	333.58
357.091	344.43
357.473	361.37
357.855	361.83
358.238	351.88
358.62	353.01
359.002	341.49
359.384	359.57
359.766	373.35
360.148	348.95
360.53	340.58
360.912	352.56
361.294	353.92
361.676	339.68
362.057	354.82
362.439	349.62
362.821	332.9
363.203	347.14
363.584	339.23
363.966	323.64
364.348	324.99
364.729	327.25
365.111	333.13
365.493	357.98
365.874	321.38
366.256	328.83
366.637	348.27
367.019	338.32
367.4	334.93
367.781	334.48
368.163	341.71
368.544	334.26
368.925	337.65
369.306	353.01
369.688	344.43
370.069	357.98
370.45	349.4
370.831	341.04
371.212	343.97
371.593	344.43
371.974	342.17
372.355	369.96
372.736	334.03
373.117	347.82
373.498	342.62
373.879	353.01
374.26	343.52
374.641	338.32
375.021	346.01
375.402	358.66
375.783	367.25
376.163	372.67
376.544	374.93
376.925	368.15
377.305	348.95
377.686	365.22
378.066	374.48
378.447	355.27
378.827	374.26
379.208	381.71
379.588	373.35
379.968	383.3
380.349	380.36
380.729	396.63
381.109	405.89
381.489	401.15
381.87	380.81
382.25	383.75
382.63	391.2
383.01	388.94
383.39	398.44
383.77	416.51
384.15	414.48
384.53	421.71
384.91	402.73
385.29	427.14
385.67	410.19
386.049	436.85
386.429	423.52
386.809	424.88
387.189	443.41
387.568	438.89
387.948	424.88
388.328	432.56
388.707	441.15
389.087	430.07
389.466	457.42
389.846	457.42
390.225	445.21
390.605	456.06
390.984	458.77
391.363	451.09
391.743	468.04
392.122	476.4
392.501	454.48
392.881	486.57
393.26	492.44
393.639	482.73
394.018	513.24
394.397	512.78
394.776	514.82
395.155	478.43
395.534	510.07
395.913	511.65
396.292	514.37
396.671	531.09
397.05	533.8
397.429	522.73
397.808	535.61
398.186	527.47
398.565	546.23
398.944	552.33
399.323	569.05
399.701	541.93
400.08	553.01
400.458	561.37
400.837	565.21
401.215	570.86
401.594	605.89
401.972	565.21
402.351	577.64
402.729	569.05
403.107	568.6
403.486	586.68
403.864	590.3
404.242	619.67
404.62	628.94
404.999	613.12
405.377	614.7
405.755	630.75
406.133	621.93
406.511	659.45
406.889	658.54
407.267	642.72
407.645	646.34
408.023	655.15
408.401	647.47
408.779	664.42
409.156	667.81
409.534	686.79
409.912	694.02
410.29	703.29
410.667	719.56
411.045	728.82
411.422	737.86
411.8	764.3
412.178	758.43
412.555	757.97
412.933	773.57
413.31	772.21
413.687	775.6
414.065	795.94
414.442	783.51
414.819	793.68
415.197	809.72
415.574	830.74
415.951	804.53
416.328	830.06
416.705	847.69
417.082	838.42
417.46	832.1
417.837	848.82
418.214	875.26
418.591	878.42
418.967	847.69
419.344	872.32
419.721	905.99
420.098	904.41
420.475	931.3
420.852	903.28
421.228	935.37
421.605	924.98
421.982	934.24
422.358	966.56
422.735	969.95
423.111	978.08
423.488	970.62
423.864	967.01
424.241	992.09
424.617	996.61
424.994	1004.52
425.37	1010.62
425.746	1024.86
426.123	1073.67
426.499	1075.93
426.875	1063.28
427.251	1088.14
427.627	1096.72
428.003	1126.78
428.379	1135.14
428.756	1126.55
429.132	1150.28
429.507	1168.13
429.883	1193.67
430.259	1185.31
430.635	1180.56
431.011	1201.58
431.387	1221.69
431.763	1263.27
432.138	1237.28
432.514	1265.08
432.89	1283.38
433.265	1319.32
433.641	1325.19
434.016	1322.25
434.392	1368.13
434.767	1385.08
435.143	1389.82
435.518	1392.53
435.894	1396.6
436.269	1419.88
436.644	1402.93
437.02	1453.55
437.395	1457.17
437.77	1463.49
438.145	1512.08
438.52	1498.52
438.895	1505.3
439.271	1500.33
439.646	1557.28
440.021	1588.69
440.395	1585.07
440.77	1562.47
441.145	1579.87
441.52	1632.75
441.895	1613.55
442.27	1641.57
442.645	1654.67
443.019	1672.53
443.394	1635.47
443.769	1682.24
444.143	1672.07
444.518	1712.3
444.892	1720.66
445.267	1729.7
445.641	1743.03
446.016	1736.03
446.39	1762.02
446.764	1776.03
447.139	1781.9
447.513	1795.24
447.887	1801.11
448.262	1820.32
448.636	1818.96
449.01	1844.73
449.384	1851.96
449.758	1871.84
450.132	1906.42
450.506	1931.5
450.88	1893.09
451.254	1945.51
451.628	1953.65
452.002	1982.8
452.376	1975.57
452.75	2014.89
453.123	2029.81
453.497	2054.89
453.871	2075
454.244	2141.89
454.618	2169.69
454.992	2159.07
455.365	2197.71
455.739	2230.7
456.112	2259.18
456.486	2259.86
456.859	2309.35
457.232	2344.15
457.606	2344.83
457.979	2369.23
458.352	2410.59
458.725	2420.3
459.099	2460.98
459.472	2486.06
459.845	2506.63
460.218	2529.45
460.591	2599.51
460.964	2571.03
461.337	2636.8
461.71	2684.03
462.083	2697.81
462.456	2734.42
462.829	2796.34
463.201	2795.89
463.574	2803.8
463.947	2847.41
464.32	2927.63
464.692	2950.69
465.065	2955.43
465.438	2989.78
465.81	3031.36
466.183	3025.71
466.555	3132.15
466.928	3125.82
467.3	3083.79
467.672	3194.52
468.045	3296.21
468.417	3306.38
468.789	3329.66
469.161	3368.75
469.534	3447.85
469.906	3503.66
470.278	3571.69
470.65	3576.43
471.022	3623.66
471.394	3669.54
471.766	3695.98
472.138	3789.31
472.51	3815.3
472.882	3886.48
473.253	3946.59
473.625	3974.39
473.997	4097.32
474.369	4095.51
474.74	4140.03
475.112	4172.12
475.484	4328.28
475.855	4361.95
476.227	4413.47
476.598	4513.13
476.97	4581.6
477.341	4618.44
477.713	4703.63
478.084	4751.54
478.455	4894.81
478.827	4923.97
479.198	5068.14
479.569	5090.29
479.94	5208.25
480.311	5277.86
480.682	5368.25
481.053	5467.68
481.424	5587.68
481.795	5695.25
482.166	5719.88
482.537	5847.33
482.908	5935.92
483.279	5996.93
483.65	6100.66
484.021	6202.8
484.391	6319.41
484.762	6367.32
485.133	6401.67
485.503	6451.16
485.874	6603.92
486.244	6659.74
486.615	6814.09
486.985	6910.36
487.356	6943.8
487.726	7125.04
488.097	7244.58
488.467	7244.58
488.837	7399.61
489.207	7466.05
489.578	7543.56
489.948	7670.56
490.318	7774.74
490.688	7857.67
491.058	7930.44
491.428	8000.27
491.798	8151
492.168	8307.83
492.538	8358
492.908	8392.58
493.278	8543.98
493.648	8502.63
494.017	8687.03
494.387	8779.91
494.757	8830.53
495.126	8915.05
495.496	8922.51
495.866	9034.82
496.235	9191.88
496.605	9216.28
496.974	9292.67
497.344	9371.99
497.713	9419.67
498.082	9514.58
498.452	9602.04
498.821	9637.29
499.19	9655.37
499.559	9805.42
499.928	9918.41
500.298	9951.86
500.667	10076.37
501.036	9978.3
501.405	10150.5
501.774	10169.7
502.143	10309.14
502.512	10421
502.88	10391.85
503.249	10474.56
503.618	10487.21
503.987	10589.58
504.356	10695.57
504.724	10764.94
505.093	10818.5
505.462	10788.67
505.83	10960.64
506.199	10971.04
506.567	11140.98
506.936	11188.66
507.304	11309.79
507.672	11345.27
508.041	11429.78
508.409	11534.64
508.777	11692.15
509.145	11740.06
509.514	11778.48
509.882	11817.8
510.25	11867.74
510.618	11956.55
510.986	12021.63
511.354	12166.94
511.722	12185.7
512.09	12383.21
512.458	12343.21
512.826	12445.58
513.193	12629.07
513.561	12667.72
513.929	12770.31
514.297	12936.41
514.664	12959.91
515.032	13063.41
515.4	13133.47
515.767	13164.43
516.135	13248.72
516.502	13276.74
516.869	13483.74
517.237	13559.67
517.604	13598.54
517.972	13797.18
518.339	13843.96
518.706	13903.84
519.073	13950.4
519.44	14050.28
519.808	14287.56
520.175	14339.54
520.542	14452.53
520.909	14589.48
521.276	14614.79
521.643	14697.49
522.009	14850.49
522.376	14969.58
522.743	15075.56
523.11	15275.78
523.477	15390.36
523.843	15471.49
524.21	15635.78
524.577	15807.07
524.943	15762.1
525.31	15877.12
525.676	15950.8
526.043	16264.69
526.409	16280.28
526.776	16497.9
527.142	16466.04
527.508	16588.74
527.874	16715.52
528.241	16852.92
528.607	16923.88
528.973	17053.14
529.339	17110.09
529.705	17203.64
530.071	17485.9
530.437	17571.09
530.803	17637.3
531.169	17770.41
531.535	17797.53
531.901	17859.45
532.267	17930.63
532.632	18026.67
532.998	18123.85
533.364	18184.41
533.73	18296.95
534.095	18538.3
534.461	18588.47
534.826	18596.83
535.192	18734.22
535.557	18809.25
535.923	18771.74
536.288	18878.18
536.653	19005.86
537.019	18997.95
537.384	19151.16
537.749	19155.23
538.114	19227.77
538.479	19362.68
538.845	19426.18
539.21	19469.57
539.575	19517.26
539.94	19563.58
540.305	19665.73
540.67	19740.53
541.034	19809.68
541.399	19909.79
541.764	20057.35
542.129	20096.67
542.494	20208.76
542.858	20201.76
543.223	20235.65
543.587	20351.36
543.952	20332.15
544.316	20544.8
544.681	20430.23
545.045	20565.14
545.41	20769.65
545.774	20800.16
546.138	20754.06
546.503	20977.56
546.867	20852.14
547.231	21132.13
547.595	21113.15
547.959	21180.49
548.324	21328.28
548.688	21352.24
549.052	21437.43
549.416	21467.03
549.779	21493.25
550.143	21531.67
550.507	21698.67
550.871	21834.26
551.235	21737.99
551.599	22012.33
551.962	22039
552.326	22039.22
552.689	22252.78
553.053	22172.33
553.417	22252.32
553.78	22532.09
554.143	22582.03
554.507	22549.49
554.87	22615.48
555.234	22857.96
555.597	22806.21
555.96	22949.26
556.323	22989.71
556.686	23054.79
557.05	23299.53
557.413	23292.98
557.776	23459.75
558.139	23589.24
558.502	23521.9
558.865	23723.92
559.228	23874.43
559.59	23918.95
559.953	24020.19
560.316	24186.28
560.679	24243.91
561.041	24373.17
561.404	24527.07
561.767	24622.66
562.129	24491.36
562.492	24928.41
562.854	24889.54
563.217	24986.72
563.579	24897.45
563.941	25259.25
564.304	25330.21
564.666	25422.18
565.028	25480.49
565.39	25560.03
565.753	25710.09
566.115	25804.1
566.477	25920.48
566.839	25992.79
567.201	26234.37
567.563	26172.22
567.925	26417.19
568.287	26424.64
568.648	26592.78
569.01	26634.81
569.372	26735.6
569.734	26673.23
570.095	26886.33
570.457	27048.81
570.819	27094.23
571.18	27110.28
571.542	27223.49
571.903	27238.18
572.265	27403.6
572.626	27541
572.987	27477.5
573.349	27632.07
573.71	27771.5
574.071	27891.72
574.432	27936.69
574.794	28143.24
575.155	28030.48
575.516	27980.76
575.877	28171.04
576.238	28213.07
576.599	28269.79
576.96	28463.69
577.32	28465.72
577.681	28472.05
578.042	28591.14
578.403	28529
578.763	28554.98
579.124	28649.9
579.485	28723.11
579.845	28788.65
580.206	28780.29
580.566	28838.37
580.927	28926.95
581.287	29014.63
581.648	28813.73
582.008	29138.02
582.368	29055.54
582.728	29083.33
583.089	28927.63
583.449	29020.96
583.809	29078.36
584.169	29003.56
584.529	29035.87
584.889	29252.82
585.249	29154.06
585.609	28996.1
585.969	29269.77
586.329	29156.32
586.688	29294.85
587.048	29060.96
587.408	29166.94
587.768	29207.85
588.127	29180.05
588.487	29030.68
588.846	29284.68
589.206	29148.87
589.565	29089.66
589.925	29262.54
590.284	29100.05
590.643	29208.98
591.003	29356.32
591.362	29443.1
591.721	29380.05
592.08	29418.92
592.44	29405.81
592.799	29382.31
593.158	29405.81
593.517	29410.78
593.876	29454.85
594.235	29344.79
594.593	29364.68
594.952	29517.9
595.311	29338.24
595.67	29458.46
596.029	29641.51
596.387	29676.76
596.746	29763.31
597.104	29597.89
597.463	29558.35
597.822	29742.52
598.18	29549.08
598.538	29626.37
598.897	29798.34
599.255	29447.39
599.613	29939.35
599.972	29731.45
600.33	29811.45
600.688	29677.44
601.046	29826.14
601.404	29957.66
601.762	29821.39
602.12	29979.35
602.478	30074.72
602.836	30070.88
603.194	29950.65
603.552	29944.33
603.91	29867.04
604.268	30127.6
604.625	29904.55
604.983	30232.68
605.341	30146.13
605.698	30222.06
606.056	30344.54
606.413	30158.11
606.771	30362.39
607.128	30344.54
607.485	30180.25
607.843	30323.75
608.2	30350.64
608.557	30599.22
608.914	30485.33
609.272	30565.33
609.629	30580.24
609.986	30652.78
610.343	30519
610.7	30816.39
611.057	30841.03
611.414	30589.28
611.771	30818.65
612.127	30847.35
612.484	30863.4
612.841	30941.14
613.198	30869.27
613.554	30897.07
613.911	31103.62
614.267	31142.49
614.624	31010.06
614.98	31156.72
615.337	31240.34
615.693	31183.62
616.05	31035.37
616.406	31318.98
616.762	31257.29
617.118	31203.73
617.475	31214.12
617.831	31381.12
618.187	31378.41
618.543	31442.14
618.899	31603.49
619.255	31577.73
619.611	31494.34
619.967	31599.2
620.323	31655.47
620.678	31524.17
621.034	31477.39
621.39	31527.56
621.746	31464.29
622.101	31724.17
622.457	31635.35
622.812	31593.55
623.168	31640.55
623.523	31718.06
623.879	31706.54
624.234	31524.17
624.589	31758.74
624.945	31665.86
625.3	31598.75
625.655	31669.25
626.01	31697.95
626.365	31848.46
626.72	31715.35
627.075	31703.15
627.43	31668.12
627.785	31606.65
628.14	31647.11
628.495	31688.23
628.85	31619.31
629.205	31535.47
629.559	31735.92
629.914	31549.03
630.269	31565.98
630.623	31509.71
630.978	31417.06
631.332	31446.43
631.687	31535.47
632.041	31429.94
632.396	31467.22
632.75	31424.74
633.104	31444.17
633.459	31303.16
633.813	31305.87
634.167	31312.88
634.521	31252.09
634.875	31222.94
635.229	31190.62
635.583	31091.41
635.937	31116.95
636.291	31068.36
636.645	31122.83
636.999	30939.78
637.352	31019.1
637.706	30811.65
638.06	30922.38
638.413	30979.78
638.767	30896.39
639.121	31054.8
639.474	30744.53
639.828	30785.89
640.181	30717.41
640.534	30704.76
640.888	30617.75
641.241	30461.6
641.594	30551.99
641.947	30707.24
642.301	30492.33
642.654	30517.87
643.007	30520.13
643.36	30474.48
643.713	30419.34
644.066	30516.06
644.419	30314.49
644.771	30146.13
645.124	29957.21
645.477	29749.08
645.83	29603.09
646.182	29328.07
646.535	29415.53
646.888	29451.91
647.24	29220.28
647.593	29442.64
647.945	29314.29
648.298	29220.95
648.65	29092.6
649.002	29078.59
649.355	29211.46
649.707	29139.15
650.059	29278.35
650.411	29541.62
650.763	29526.48
651.115	30016.64
651.467	29780.49
651.819	29846.48
652.171	29761.05
652.523	29618.01
652.875	29659.59
653.227	29508.4
653.578	29744.1
653.93	29632.24
654.282	29375.98
654.633	29498.24
654.985	29531.23
655.337	29391.8
655.688	29548.86
656.039	29499.59
656.391	29268.64
656.742	29452.14
657.094	29375.53
657.445	29484.45
657.796	29500.72
658.147	29301.63
658.498	29272.03
658.849	29235.64
659.2	29333.27
659.551	29212.82
659.902	29293.04
660.253	29288.98
660.604	29269.99
660.955	29085.82
661.306	29320.39
661.656	29145.7
662.007	29153.61
662.358	29035.65
662.708	29109.09
663.059	29120.62
663.409	28861.19
663.76	29111.13
664.11	29081.98
664.461	29056.44
664.811	29089.21
665.161	29011.02
665.511	28926.05
665.862	29034.07
666.212	29072.26
666.562	29075.65
666.912	28983.67
667.262	28993.62
667.612	28974.63
667.962	28917.69
668.312	28897.12
668.662	29084.24
669.011	28970.34
669.361	28936.22
669.711	28905.93
670.06	28962.88
670.41	28725.6
670.76	28773.96
671.109	28866.61
671.459	28796.79
671.808	28583.46
672.157	28817.35
672.507	28512.95
672.856	28709.78
673.205	28633.17
673.554	28715.21
673.904	28650.8
674.253	28703.45
674.602	28718.6
674.951	28164.71
675.3	27986.41
675.649	28580.07
675.998	28383.69
676.346	28452.39
676.695	28503.46
677.044	28347.98
677.393	28446.96
677.741	28367.42
678.09	28222.56
678.438	28285.39
678.787	28382.56
679.135	28344.37
679.484	28135.11
679.832	28263.24
680.181	28108.22
680.529	28146.41
680.877	28107.09
681.225	28014.43
681.573	28165.84
681.922	28091.27
682.27	27985.51
682.618	28065.96
682.966	27878.39
683.314	27948.9
683.661	27679.53
684.009	27703.71
684.357	27684.95
684.705	27703.25
685.053	27657.61
685.4	27627.78
685.748	27596.82
686.095	27356.37
686.443	27305.75
686.79	27240.22
687.138	27294
687.485	27404.05
687.832	27256.49
688.18	27208.35
688.527	27127.22
688.874	27042.71
689.221	27004.97
689.568	26885.2
689.915	26931.75
690.262	26901.02
690.609	26887
690.956	26686.78
691.303	26647.01
691.65	26498.54
691.997	26555.26
692.344	26415.83
692.69	26323.86
693.037	26260.81
693.383	26128.38
693.73	26248.6
694.077	25992.79
694.423	26098.33
694.769	25944.2
695.116	25886.58
695.462	25884.55
695.808	25772.68
696.155	25797.54
696.501	25682.06
696.847	25664.44
697.193	25389.42
697.539	25529.07
697.885	25255.41
698.231	25326.37
698.577	25356.65
698.923	25274.84
699.269	25148.97
699.614	25031.23
699.96	24920.73
700.306	25022.87
700.651	24861.07
700.997	24826.49
701.342	24820.84
701.688	24761.41
702.033	24635.09
702.379	24552.38
702.724	24561.64
703.069	24586.5
703.415	24302.89
703.76	24235.32
704.105	24294.08
704.45	24156.46
704.795	24088.89
705.14	23999.17
705.485	24058.15
705.83	23925.05
706.175	23915.56
706.52	23962.34
706.865	23811.15
707.209	23781.55
707.554	23649.8
707.899	23786.52
708.243	23565.74
708.588	23635.34
708.932	23361.67
709.277	23481.67
709.621	23395.8
709.966	23232.86
710.31	23323.26
710.654	23062.25
710.998	23170.04
711.342	23143.37
711.687	23149.25
712.031	23006.43
712.375	22846.43
712.719	22888.69
713.063	22872.42
713.407	22867.9
713.75	22860.9
714.094	22770.05
714.438	22648.02
714.782	22661.81
715.125	22544.75
715.469	22705.19
715.812	22528.93
716.156	22374.58
716.499	22409.38
716.843	22429.72
717.186	22348.82
717.53	22330.29
717.873	22449.83
718.216	22394.92
718.559	22193.79
718.902	22059.11
719.246	22192.21
719.589	21949.73
719.932	21996.74
720.275	21974.37
720.617	21969.39
720.96	22038.09
721.303	21821.15
721.646	21963.97
721.989	21751.55
722.331	21876.74
722.674	21759.68
723.016	21794.48
723.359	21722.39
723.701	21720.81
724.044	21473.59
724.386	21413.48
724.729	21503.19
725.071	21505.9
725.413	21476.3
725.755	21382.06
726.097	21297.1
726.439	21202.41
726.782	21310.43
727.124	21307.04
727.465	21293.48
727.807	21114.05
728.149	21119.25
728.491	21057.33
728.833	21116.76
729.175	21030.89
729.516	20997.89
729.858	20911.12
730.199	21086.93
730.541	20862.3
730.882	20863.43
731.224	20955.41
731.565	20775.08
731.906	20911.79
732.248	20797
732.589	20742.76
732.93	20739.82
733.271	20706.83
733.612	20699.15
733.953	20634.06
734.294	20609.43
734.635	20518.36
734.976	20502.77
735.317	20412.82
735.658	20493.73
735.999	20420.51
736.339	20349.32
736.68	20443.56
737.021	20219.38
737.361	20385.03
737.702	20337.12
738.042	20350.23
738.383	20232.04
738.723	20304.13
739.063	20198.37
739.404	20093.51
739.744	20131.25
740.084	20120.4
740.424	20107.75
740.764	19973.06
741.104	20024.59
741.444	19916.34
741.784	19856
742.124	19868.88
742.464	19887.19
742.804	19813.29
743.143	19839.28
743.483	19925.38
743.823	19635.44
744.162	19741.43
744.502	19729.23
744.841	19660.53
745.181	19603.35
745.52	19619.63
745.86	19572.17
746.199	19540.76
746.538	19519.52
746.877	19518.84
747.216	19562.23
747.556	19465.96
747.895	19313.64
748.234	19331.05
748.573	19187.77
748.911	19279.3
749.25	19185.51
749.589	19169.92
749.928	19115.23
750.267	19149.13
750.605	19140.54
750.944	19090.83
751.283	18984.16
751.621	19033.88
751.96	18811.29
752.298	18834.56
752.636	18821.45
752.975	18661.91
753.313	18724.73
753.651	18768.12
753.989	18676.83
754.327	18654
