Data from breadboard_white_FLMS001491_00099.txt Node
Date: Wed Feb 08 10:48:34 GMT 2017
User: dcchb
Spectrometer: FLMS00149
Trigger mode: 0
Integration Time (sec): 2.000000E-2
Scans to average: 10
Electric dark correction enabled: true
Nonlinearity correction enabled: false
Boxcar width: 0
XAxis mode: Wavelengths
Number of Pixels in Spectrum: 2048
>>>>>Begin Spectral Data<<<<<
341.393	-0.06
341.776	-0.06
342.16	-0.06
342.543	-48.42
342.927	-60.85
343.31	-61.3
343.693	-67.17
344.077	-61.52
344.46	-50
344.843	-48.42
345.226	-56.78
345.61	-34.86
345.993	-25.82
346.376	-5.93
346.759	5.82
347.142	27.29
347.525	48.76
347.908	50.11
348.291	79.26
348.674	88.3
349.057	112.26
349.44	144.12
349.823	126.72
350.206	195.19
350.588	212.14
350.971	219.82
351.354	242.65
351.737	250.78
352.119	280.61
352.502	284.23
352.884	270.9
353.267	274.29
353.65	295.98
354.032	305.47
354.414	321.07
354.797	301.4
355.179	335.08
355.562	319.94
355.944	335.53
356.326	349.99
356.709	325.13
357.091	364.23
357.473	354.28
357.855	356.09
358.238	359.03
358.62	355.19
359.002	348.41
359.384	359.03
359.766	373.94
360.148	359.26
360.53	356.54
360.912	373.94
361.294	343.44
361.676	366.26
362.057	366.71
362.439	362.42
362.821	360.16
363.203	335.08
363.584	336.21
363.966	334.4
364.348	340.27
364.729	343.66
365.111	345.7
365.493	353.83
365.874	333.49
366.256	346.6
366.637	331.69
367.019	341.86
367.4	326.49
367.781	338.69
368.163	315.42
368.544	357.22
368.925	338.01
369.306	342.31
369.688	342.31
370.069	350.67
370.45	340.95
370.831	334.62
371.212	355.64
371.593	323.78
371.974	330.1
372.355	326.49
372.736	335.75
373.117	338.01
373.498	346.83
373.879	337.79
374.26	341.18
374.641	357.22
375.021	347.73
375.402	357
375.783	352.48
376.163	378.69
376.544	361.97
376.925	362.19
377.305	366.49
377.686	352.93
378.066	366.71
378.447	352.25
378.827	340.05
379.208	355.41
379.588	367.17
379.968	374.4
380.349	351.35
380.729	363.32
381.109	378.24
381.489	392.25
381.87	374.85
382.25	394.96
382.63	404.23
383.01	399.71
383.39	398.8
383.77	399.71
384.15	403.55
384.53	405.81
384.91	401.97
385.29	423.89
385.67	407.84
386.049	414.62
386.429	423.66
386.809	428.86
387.189	415.75
387.568	409.65
387.948	428.18
388.328	448.52
388.707	438.58
389.087	447.84
389.466	427.05
389.846	427.95
390.225	459.14
390.605	452.59
390.984	457.33
391.363	456.65
391.743	454.62
392.122	467.95
392.501	509.31
392.881	487.61
393.26	468.86
393.639	478.8
394.018	486.26
394.397	491
394.776	507.95
395.155	499.82
395.534	526.03
395.913	528.97
396.292	516.54
396.671	534.17
397.05	525.81
397.429	575.75
397.808	560.38
398.186	566.71
398.565	571.45
398.944	560.38
399.323	572.81
399.701	602.41
400.08	584.79
400.458	604.22
400.837	594.73
401.215	612.58
401.594	614.84
401.972	653.94
402.351	662.3
402.729	649.64
403.107	660.72
403.486	669.53
403.864	678.34
404.242	693.71
404.62	698.46
404.999	714.28
405.377	722.86
405.755	754.95
406.133	767.61
406.511	739.36
406.889	761.51
407.267	805.12
407.645	808.96
408.023	795.4
408.401	832.24
408.779	837.89
409.156	860.26
409.534	857.77
409.912	887.15
410.29	889.19
410.667	906.36
411.045	938.45
411.422	938
411.8	959.69
412.178	992.01
412.555	996.75
412.933	1010.31
413.31	1015.96
413.687	1044.89
414.065	1054.61
414.442	1078.56
414.819	1105
415.197	1112.68
415.574	1153.59
415.951	1170.76
416.328	1165.79
416.705	1195.62
417.082	1172.57
417.46	1214.37
417.837	1214.37
418.214	1233.58
418.591	1260.25
418.967	1290.76
419.344	1279.01
419.721	1303.19
420.098	1326.24
420.475	1371.66
420.852	1366.01
421.228	1356.97
421.605	1367.82
421.982	1417.76
422.358	1410.3
422.735	1448.94
423.111	1441.49
423.488	1492.79
423.864	1449.62
424.241	1505.44
424.617	1523.97
424.994	1559.45
425.37	1557.64
425.746	1555.16
426.123	1579.56
426.499	1599.22
426.875	1652.78
427.251	1642.16
427.627	1687.13
428.003	1689.62
428.379	1769.39
428.756	1783.17
429.132	1802.16
429.507	1825.21
429.883	1829.95
430.259	1852.1
430.635	1876.28
431.011	1872.44
431.387	1933
431.763	1970.97
432.138	1972.32
432.514	2020.68
432.89	2061.13
433.265	2050.29
433.641	2099.78
434.016	2128.48
434.392	2122.83
434.767	2220.68
435.143	2193.56
435.518	2244.86
435.894	2259.32
436.269	2300.9
436.644	2290.05
437.02	2337.51
437.395	2344.97
437.77	2397.62
438.145	2459.09
438.52	2432.87
438.895	2469.71
439.271	2462.93
439.646	2565.07
440.021	2556.26
440.395	2562.36
440.77	2525.3
441.145	2577.95
441.52	2636.71
441.895	2685.75
442.27	2648.69
442.645	2653.89
443.019	2710.83
443.394	2720.55
443.769	2762.58
444.143	2717.61
444.518	2808.01
444.892	2819.98
445.267	2806.88
445.641	2886.2
446.016	2898.17
446.39	2885.97
446.764	2910.6
447.139	2927.32
447.513	2977.94
447.887	3005.97
448.262	3025.85
448.636	3018.4
449.01	3017.94
449.384	3067.21
449.758	3108.56
450.132	3181.55
450.506	3178.17
450.88	3200.99
451.254	3179.97
451.628	3213.64
452.002	3288.44
452.376	3323.02
452.75	3340.87
453.123	3352.85
453.497	3415.9
453.871	3442.34
454.244	3555.78
454.618	3535.44
454.992	3649.79
455.365	3590.81
455.739	3695.67
456.112	3725.72
456.486	3755.1
456.859	3820.86
457.232	3849.33
457.606	3861.54
457.979	3951.93
458.352	4044.81
458.725	4050.46
459.099	4132.72
459.472	4186.95
459.845	4192.38
460.218	4230.34
460.591	4308.98
460.964	4323.45
461.337	4448.19
461.71	4437.79
462.083	4580.61
462.456	4589.88
462.829	4591.46
463.201	4703.32
463.574	4678.69
463.947	4793.49
464.32	4875.52
464.692	4928.18
465.065	4919.81
465.438	5031.22
465.81	5056.08
466.183	5123.2
466.555	5305.11
466.928	5349.63
467.3	5300.82
467.672	5386.02
468.045	5534.94
468.417	5567.03
468.789	5589.63
469.161	5659.68
469.534	5751.43
469.906	5895.16
470.278	5941.26
470.65	6044.98
471.022	6159.1
471.394	6233.45
471.766	6319.78
472.138	6371.53
472.51	6498.53
472.882	6592.99
473.253	6668.24
473.625	6811.97
473.997	6943.26
474.369	6999.76
474.74	7028.23
475.112	7149.59
475.484	7369.47
475.855	7429.58
476.227	7517.71
476.598	7712.51
476.97	7821.21
477.341	8006.29
477.713	8043.8
478.084	8173.51
478.455	8401.76
478.827	8442.66
479.198	8644.46
479.569	8687.62
479.94	8897.56
480.311	9044.45
480.682	9273.82
481.053	9471.33
481.424	9555.85
481.795	9752.91
482.166	9880.14
482.537	10033.13
482.908	10177.3
483.279	10290.75
483.65	10472.66
484.021	10792.65
484.391	10797.85
484.762	10892.99
485.133	11003.95
485.503	11184.06
485.874	11498.62
486.244	11549.47
486.615	11817.26
486.985	11908.78
487.356	12143.58
487.726	12210.7
488.097	12467.86
488.467	12585.15
488.837	12849.55
489.207	12967.29
489.578	13179.26
489.948	13271.68
490.318	13489.76
490.688	13462.87
491.058	13714.16
491.428	14006.35
491.798	14108.05
492.168	14401.82
492.538	14352.79
492.908	14629.39
493.278	14851.98
493.648	14832.55
494.017	15047.01
494.387	15215.59
494.757	15313.67
495.126	15496.49
495.496	15578.29
495.866	15665.97
496.235	15845.18
496.605	16001.1
496.974	16004.49
497.344	16235.22
497.713	16441.55
498.082	16472.05
498.452	16696.23
498.821	16776
499.19	16860.74
499.559	17079.95
499.928	17153.84
500.298	17246.5
500.667	17413.27
501.036	17472.03
501.405	17719.48
501.774	17769.87
502.143	17898.91
502.512	17923.09
502.88	18151.78
503.249	18196.53
503.618	18263.42
503.987	18389.06
504.356	18473.13
504.724	18747.93
505.093	18746.34
505.462	18989.5
505.83	19004.64
506.199	19209.38
506.567	19461.35
506.936	19431.52
507.304	19689.6
507.672	19817.05
508.041	19866.31
508.409	20077.61
508.777	20253.42
509.145	20343.59
509.514	20395.79
509.882	20577.26
510.25	20676.01
510.618	20749.68
510.986	20908.09
511.354	21170.91
511.722	21266.05
512.09	21564.35
512.458	21444.58
512.826	21826.04
513.193	21969.54
513.561	21948.74
513.929	22156.42
514.297	22377.21
514.664	22545.57
515.032	22644.77
515.4	22778.1
515.767	22999.79
516.135	23153.91
516.502	23069.17
516.869	23454.24
517.237	23622.15
517.604	23543.05
517.972	23819.88
518.339	24065.75
518.706	24082.7
519.073	24257.16
519.44	24402.69
519.808	24792.51
520.175	24708.67
520.542	25022.11
520.909	25172.84
521.276	25267.53
521.643	25535.09
522.009	25737.8
522.376	25917.23
522.743	26172.36
523.11	26415.97
523.477	26741.16
523.843	26792.23
524.21	27052.79
524.577	27300.24
524.943	27453.23
525.31	27508.6
525.676	27836.5
526.043	27980.9
526.409	28274.45
526.776	28502.47
527.142	28504.5
527.508	28760.32
527.874	28976.81
528.241	29137.03
528.607	29267.87
528.973	29576.11
529.339	29604.59
529.705	29927.52
530.071	30238.02
530.437	30243.22
530.803	30335.19
531.169	30678.01
531.535	30697.22
531.901	30824.44
532.267	31035.74
532.632	31170.88
532.998	31337.42
533.364	31433.24
533.73	31673.69
534.095	31793.01
534.461	31901.48
534.826	32270.73
535.192	32333.1
535.557	32336.95
535.923	32440.67
536.288	32658.52
536.653	32874.33
537.019	32830.94
537.384	33095.57
537.749	33218.51
538.114	33125.4
538.479	33249.46
538.845	33536.01
539.21	33405.17
539.575	33597.25
539.94	33682.22
540.305	33938.03
540.67	33944.14
541.034	34091.02
541.399	34290.57
541.764	34409.89
542.129	34532.14
542.494	34508.19
542.858	34755.87
543.223	34878.8
543.587	35110.88
543.952	34875.64
544.316	35173.93
544.681	35200.6
545.045	35398.79
545.41	35573.02
545.774	35609.4
546.138	35689.4
546.503	35919.45
546.867	35781.6
547.231	36178.65
547.595	36183.85
547.959	36329.84
548.324	36427.69
548.688	36502.03
549.052	36605.99
549.416	36639.66
549.779	36765.53
550.143	36782.93
550.507	37083.26
550.871	37119.87
551.235	37323.03
551.599	37528.45
551.962	37626.75
552.326	37800.31
552.689	37927.53
553.053	37856.58
553.417	38070.58
553.78	38651.58
554.143	38466.5
554.507	38668.76
554.87	38688.87
555.234	39030.33
555.597	38971.8
555.96	39159.82
556.323	39218.12
556.686	39363.2
557.05	39527.27
557.413	39716.19
557.776	39846.35
558.139	40111.88
558.502	40182.84
558.865	40135.16
559.228	40609.27
559.59	40705.54
559.953	40755.93
560.316	41101.46
560.679	41144.85
561.041	41443.37
561.404	41576.93
561.767	41728.34
562.129	41650.83
562.492	42019.18
562.854	42155.22
563.217	42061.21
563.579	42320.64
563.941	42652.16
564.304	42723.79
564.666	43064.8
565.028	43043.11
565.39	43191.35
565.753	43441.74
566.115	43593.37
566.477	43691
566.839	43909.98
567.201	44111.33
567.563	44191.78
567.925	44441.26
568.287	44393.13
568.648	44507.93
569.01	44802.61
569.372	45034.01
569.734	44977.52
570.095	45234.23
570.457	45379.09
570.819	45455.02
571.18	45518.52
571.542	45739.98
571.903	45776.37
572.265	45945.18
572.626	46056.13
572.987	46052.74
573.349	46255.9
573.71	46350.14
574.071	46462
574.432	46641.88
574.794	46932.27
575.155	46805.72
575.516	46677.36
575.877	46960.97
576.238	46930.69
576.599	47092.94
576.96	47106.05
577.32	47095.43
577.681	47317.34
578.042	47409.54
578.403	47356.89
578.763	47353.73
579.124	47463.78
579.485	47561.18
579.845	47570.9
580.206	47607.96
580.566	47744.68
580.927	47743.32
581.287	47938.57
581.648	47837.33
582.008	47866.26
582.368	47923.43
582.728	47955.52
583.089	47852.24
583.449	47917.78
583.809	48007.27
584.169	47942.64
584.529	47999.59
584.889	48150.77
585.249	47908.29
585.609	47916.88
585.969	48150.54
586.329	48065.57
586.688	48109.86
587.048	47965.46
587.408	48032.35
587.768	48080.94
588.127	47991.22
588.487	48002.98
588.846	48202.97
589.206	48057.44
589.565	48074.84
589.925	48170.2
590.284	48045.23
590.643	48122.97
591.003	48165.68
591.362	48421.27
591.721	48238.68
592.08	48231.67
592.44	48419.24
592.799	48352.57
593.158	48285.45
593.517	48282.29
593.876	48368.84
594.235	48253.82
594.593	48269.63
594.952	48423.98
595.311	48312.8
595.67	48358.67
596.029	48557.54
596.387	48553.02
596.746	48669.17
597.104	48535.62
597.463	48526.35
597.822	48585.33
598.18	48567.48
598.538	48549.18
598.897	48659.23
599.255	48446.81
599.613	48928.15
599.972	48607.25
600.33	48645.44
600.688	48705.78
601.046	48751.88
601.404	48849.05
601.762	48826.91
602.12	48912.78
602.478	49013.57
602.836	49062.38
603.194	48841.6
603.552	48918.66
603.91	48869.17
604.268	49160.23
604.625	48886.57
604.983	49121.36
605.341	48933.12
605.698	49150.29
606.056	49180.12
606.413	49132.21
606.771	49400.23
607.128	49341.25
607.485	49276.84
607.843	49079.56
608.2	49494.24
608.557	49632.31
608.914	49458.3
609.272	49602.26
609.629	49683.83
609.986	49756.6
610.343	49498.08
610.7	49868.24
611.057	49803.38
611.414	49655.36
611.771	49740.56
612.127	49861.01
612.484	49828.46
612.841	49960.44
613.198	49837.73
613.554	49915.47
613.911	50015.13
614.267	50131.05
614.624	50061.68
614.98	50199.75
615.337	50295.8
615.693	50223.71
616.05	50126.99
616.406	50356.13
616.762	50156.14
617.118	50331.05
617.475	50284.95
617.831	50370.82
618.187	50355.68
618.543	50487.88
618.899	50621.44
619.255	50519.07
619.611	50440.2
619.967	50581.66
620.323	50607.2
620.678	50574.88
621.034	50554.55
621.39	50450.14
621.746	50493.76
622.101	50878.83
622.457	50504.38
622.812	50634.54
623.168	50685.62
623.523	50666.63
623.879	50811.49
624.234	50615.11
624.589	50720.42
624.945	50690.14
625.3	50694.2
625.655	50705.73
626.01	50696.92
626.365	50692.17
626.72	50631.83
627.075	50574.88
627.43	50568.56
627.785	50498.73
628.14	50597.71
628.495	50635.22
628.85	50482.01
629.205	50414.89
629.559	50671.61
629.914	50462.8
630.269	50409.24
630.623	50390.93
630.978	50370.14
631.332	50550.7
631.687	50508.45
632.041	50386.64
632.396	50361.78
632.75	50269.36
633.104	50326.08
633.459	50108
633.813	50180.09
634.167	50100.32
634.521	50013.09
634.875	50101.45
635.229	50087.21
635.583	49912.76
635.937	49950.72
636.291	49840.44
636.645	49846.99
636.999	49784.4
637.352	49870.27
637.706	49707.56
638.06	49851.74
638.413	49620.56
638.767	49569.94
639.121	49588.02
639.474	49503.95
639.828	49418.31
640.181	49561.8
640.534	49440.68
640.888	49202.49
641.241	49162.04
641.594	49274.58
641.947	49219.44
642.301	49295.6
642.654	49237.29
643.007	49106.67
643.36	49155.94
643.713	48934.7
644.066	49146
644.419	48918.88
644.771	48765.89
645.124	48481.15
645.477	48326.36
645.83	48078.91
646.182	47825.13
646.535	47680.95
646.888	47736.54
647.24	47504.46
647.593	47667.39
647.945	47588.97
648.298	47404.12
648.65	47366.83
649.002	47320.28
649.355	47404.35
649.707	47350.11
650.059	47545.36
650.411	47992.81
650.763	48014.05
651.115	48370.42
651.467	48151.45
651.819	48094.27
652.171	48060.15
652.523	47918.68
652.875	48047.72
653.227	47773.38
653.578	48036.87
653.93	47950.77
654.282	47692.47
654.633	47679.59
654.985	47838.69
655.337	47718.24
655.688	47913.26
656.039	47922.07
656.391	47497.68
656.742	47569.31
657.094	47518.24
657.445	47572.7
657.796	47575.87
658.147	47501.29
658.498	47513.04
658.849	47564.79
659.2	47541.52
659.551	47491.12
659.902	47515.53
660.253	47408.19
660.604	47476.89
660.955	47234.86
661.306	47409.32
661.656	47144.01
662.007	47240.06
662.358	47162.55
662.708	47231.02
663.059	47166.84
663.409	46989.67
663.76	47339.26
664.11	47224.69
664.461	47333.61
664.811	47228.98
665.161	47177.23
665.511	47115.09
665.862	47023.79
666.212	47193.96
666.562	47284.12
666.912	47108.99
667.262	46988.09
667.612	47020.4
667.962	47019.95
668.312	47087.07
668.662	47218.81
669.011	46971.36
669.361	46958.26
669.711	47022.44
670.06	46887.52
670.41	46964.58
670.76	46929.11
671.109	46906.28
671.459	46871.93
671.808	46724.36
672.157	46812.95
672.507	46517.36
672.856	46509.68
673.205	46692.05
673.554	46740.18
673.904	46498.83
674.253	46638.94
674.602	46536.12
674.951	46012.74
675.3	45791.28
675.649	46422.45
675.998	46310.82
676.346	46401.21
676.695	46518.49
677.044	46189.24
677.393	46271.27
677.741	46276.69
678.09	46222.23
678.438	46018.17
678.787	46240.99
679.135	46082.57
679.484	45904.05
679.832	45931.84
680.181	45786.31
680.529	46045.51
680.877	45775.01
681.225	45619.76
681.573	46049.58
681.922	45654.34
682.27	45638.52
682.618	45568.46
682.966	45465.41
683.314	45631.74
683.661	45302.26
684.009	45235.82
684.357	45186.1
684.705	45017.29
685.053	45058.65
685.4	45090.51
685.748	44756.96
686.095	44724.87
686.443	44465.44
686.79	44584.31
687.138	44800.57
687.485	44594.7
687.832	44342.28
688.18	44625.89
688.527	44258.89
688.874	44310.19
689.221	44091.67
689.568	44063.19
689.915	43907.04
690.262	43973.48
690.609	43680.38
690.956	43711.11
691.303	43720.6
691.65	43477.9
691.997	43308.41
692.344	43211.46
692.69	43034.52
693.037	43145.48
693.383	42818.48
693.73	42875.2
694.077	42615.09
694.423	42628.65
694.769	42702.1
695.116	42511.14
695.462	42528.99
695.808	42383.01
696.155	42307.76
696.501	42117.03
696.847	42028.89
697.193	41859.41
697.539	41839.07
697.885	41606.53
698.231	41441.79
698.577	41609.7
698.923	41395.47
699.269	41255.58
699.614	41073.89
699.96	41028.47
700.306	41018.75
700.651	40950.73
700.997	40734.69
701.342	40674.58
701.688	40788.93
702.033	40431.2
702.379	40459.22
702.724	40247.7
703.069	40420.12
703.415	39910.08
703.76	39908.27
704.105	39828.5
704.45	39798.22
704.795	39512.8
705.14	39543.99
705.485	39489.07
705.83	39266.48
706.175	39451.56
706.52	39149.42
706.865	39073.04
707.209	39083.66
707.554	38960.5
707.899	38961.4
708.243	38751.47
708.588	38577.23
708.932	38431.48
709.277	38461.53
709.621	38473.06
709.966	38122.33
710.31	38260.63
710.654	37810.93
710.998	37972.96
711.342	37960.75
711.687	37818.38
712.031	37671.72
712.375	37527.32
712.719	37589.46
713.063	37475.34
713.407	37541.78
713.75	37384.72
714.094	37245.97
714.438	37058.63
714.782	37119.65
715.125	37101.11
715.469	36986.32
715.812	36848.01
716.156	36854.34
716.499	36633.1
716.843	36765.08
717.186	36595.14
717.53	36700.67
717.873	36615.93
718.216	36460.68
718.559	36393.11
718.902	36159.44
719.246	36339.33
719.589	36064.08
719.932	35942.73
720.275	35898.21
720.617	35907.25
720.96	35863.63
721.303	35863.18
721.646	35747.25
721.989	35599.23
722.331	35810.98
722.674	35476.98
723.016	35676.97
723.359	35393.14
723.701	35443.31
724.044	35212.58
724.386	35087.38
724.729	35272.69
725.071	34945.01
725.413	35120.6
725.755	35030.89
726.097	34851
726.439	34556.55
726.782	34641.29
727.124	34891.46
727.465	34720.39
727.807	34654.63
728.149	34458.02
728.491	34412.37
728.833	34545.48
729.175	34397.46
729.516	34281.3
729.858	34286.05
730.199	34152.94
730.541	34120.85
730.882	34062.32
731.224	34115.2
731.565	33853.06
731.906	33913.63
732.248	33933.06
732.589	33764.25
732.93	33613.07
733.271	33655.78
733.612	33662.11
733.953	33657.14
734.294	33564.94
734.635	33362.23
734.976	33568.33
735.317	33329.69
735.658	33360.65
735.999	33361.78
736.339	33207.66
736.68	33257.6
737.021	32996.82
737.361	33051.5
737.702	33142.35
738.042	32932.18
738.383	33023.93
738.723	32966.31
739.063	32789.14
739.404	32891.51
739.744	32815.58
740.084	32649.48
740.424	32647.45
740.764	32495.81
741.104	32658.75
741.444	32394.12
741.784	32298.08
742.124	32401.35
742.464	32228.7
742.804	32249.49
743.143	32265.31
743.483	32209.04
743.823	32003.85
744.162	32011.53
744.502	31985.09
744.841	31944.87
745.181	32124.07
745.52	31775.15
745.86	31888.14
746.199	31675.95
746.538	31530.41
746.877	31678.88
747.216	31671.43
747.556	31510.75
747.895	31471.88
748.234	31555.72
748.573	31339.68
748.911	31247.94
749.25	31313.92
749.589	31014.72
749.928	31198.45
750.267	31110.54
750.605	30920.49
750.944	30913.93
751.283	30731.34
751.621	30917.1
751.96	30805.46
752.298	30606.14
752.636	30609.08
752.975	30549.2
