Data from breadboard_black_back_FLMS001491_00014.txt Node
Date: Wed Feb 08 10:50:01 GMT 2017
User: dcchb
Spectrometer: FLMS00149
Trigger mode: 0
Integration Time (sec): 2.000000E-2
Scans to average: 10
Electric dark correction enabled: true
Nonlinearity correction enabled: false
Boxcar width: 0
XAxis mode: Wavelengths
Number of Pixels in Spectrum: 2048
>>>>>Begin Spectral Data<<<<<
341.393	-3.42
341.776	-3.42
342.16	-3.42
342.543	-66.47
342.927	-89.97
343.31	-67.15
343.693	-66.47
344.077	-68.05
344.46	-73.02
344.843	-46.35
345.226	-40.71
345.61	-31.44
345.993	-25.11
346.376	-27.15
346.759	13.3
347.142	36.81
347.525	49.46
347.908	59.18
348.291	78.61
348.674	79.74
349.057	128.33
349.44	116.13
349.823	132.62
350.206	177.37
350.588	192.96
350.971	210.14
351.354	227.99
351.737	247.65
352.119	264.6
352.502	282.9
352.884	260.53
353.267	290.13
353.65	284.26
354.032	313.41
354.414	314.31
354.797	325.61
355.179	311.15
355.562	331.49
355.944	332.17
356.326	337.14
356.709	338.49
357.091	353.63
357.473	333.75
357.855	357.25
358.238	350.92
358.62	370.58
359.002	364.48
359.384	339.85
359.766	338.72
360.148	355.44
360.53	360.19
360.912	343.01
361.294	361.54
361.676	336.69
362.057	316.12
362.439	347.76
362.821	353.86
363.203	343.92
363.584	349.57
363.966	350.92
364.348	326.29
364.729	340.75
365.111	322.22
365.493	314.54
365.874	339.4
366.256	328.55
366.637	340.53
367.019	335.78
367.4	335.56
367.781	336.23
368.163	348.89
368.544	322.45
368.925	343.24
369.306	349.34
369.688	333.52
370.069	356.8
370.45	343.01
370.831	340.3
371.212	353.18
371.593	357.02
371.974	350.02
372.355	354.76
372.736	350.47
373.117	340.3
373.498	333.97
373.879	329.68
374.26	358.61
374.641	352.28
375.021	364.71
375.402	363.58
375.783	366.97
376.163	387.31
376.544	372.17
376.925	364.03
377.305	376.46
377.686	332.84
378.066	381.43
378.447	371.26
378.827	377.59
379.208	382.11
379.588	373.07
379.968	418.72
380.349	390.47
380.729	397.25
381.109	402.22
381.489	403.58
381.87	394.76
382.25	407.87
382.63	413.07
383.01	422.56
383.39	418.94
383.77	425.05
384.15	404.48
384.53	415.1
384.91	433.18
385.29	428.44
385.67	442.67
386.049	439.51
386.429	436.12
386.809	451.49
387.189	457.13
387.568	440.19
387.948	451.71
388.328	463.91
388.707	465.5
389.087	438.83
389.466	465.95
389.846	463.91
390.225	483.57
390.605	479.51
390.984	477.93
391.363	506.17
391.743	496.23
392.122	497.59
392.501	507.76
392.881	512.05
393.26	524.03
393.639	539.39
394.018	494.2
394.397	509.56
394.776	509.11
395.155	511.6
395.534	517.7
395.913	533.52
396.292	524.25
396.671	555.21
397.05	562.89
397.429	547.75
397.808	568.54
398.186	549.56
398.565	558.83
398.944	566.96
399.323	570.13
399.701	577.81
400.08	580.52
400.458	578.04
400.837	573.97
401.215	598.15
401.594	598.83
401.972	625.27
402.351	591.59
402.729	604.48
403.107	619.39
403.486	635.44
403.864	619.84
404.242	641.54
404.62	622.55
404.999	667.75
405.377	662.33
405.755	657.36
406.133	667.52
406.511	667.98
406.889	677.47
407.267	694.64
407.645	697.81
408.023	704.81
408.401	699.39
408.779	717.24
409.156	713.17
409.534	717.47
409.912	751.36
410.29	758.82
410.667	761.99
411.045	762.44
411.422	784.81
411.8	783.91
412.178	803.79
412.555	817.35
412.933	816.22
413.31	814.64
413.687	820.97
414.065	833.17
414.442	846.96
414.819	879.95
415.197	856.45
415.574	864.36
415.951	870.23
416.328	880.85
416.705	887.18
417.082	887.41
417.46	924.69
417.837	934.86
418.214	928.76
418.591	937.12
418.967	954.07
419.344	973.96
419.721	978.48
420.098	995.2
420.475	968.99
420.852	1005.82
421.228	1006.95
421.605	1022.09
421.982	1025.71
422.358	1017.8
422.735	1042.2
423.111	1032.71
423.488	1034.07
423.864	1046.72
424.241	1087.4
424.617	1102.99
424.994	1110
425.37	1081.3
425.746	1119.72
426.123	1122.65
426.499	1142.09
426.875	1167.85
427.251	1157.91
427.627	1215.53
428.003	1191.35
428.379	1233.61
428.756	1212.82
429.132	1229.32
429.507	1264.35
429.883	1258.7
430.259	1302.31
430.635	1317.68
431.011	1317
431.387	1362.65
431.763	1359.26
432.138	1383.21
432.514	1362.87
432.89	1388.41
433.265	1399.48
433.641	1410.1
434.016	1438.8
434.392	1480.38
434.767	1509.08
435.143	1485.13
435.518	1522.42
435.894	1538.46
436.269	1547.28
436.644	1577.78
437.02	1600.16
437.395	1590.66
437.77	1631.34
438.145	1657.33
438.52	1650.55
438.895	1655.75
439.271	1666.14
439.646	1681.28
440.021	1702.3
440.395	1736.42
440.77	1721.06
441.145	1750.43
441.52	1750.66
441.895	1759.02
442.27	1786.59
442.645	1773.71
443.019	1827.95
443.394	1816.42
443.769	1835.18
444.143	1867.72
444.518	1888.28
444.892	1834.5
445.267	1894.16
445.641	1897.1
446.016	1879.7
446.39	1942.07
446.764	1920.83
447.139	1961.28
447.513	1982.29
447.887	1954.04
448.262	1959.92
448.636	1982.74
449.01	2023.2
449.384	2032.01
449.758	2047.38
450.132	2076.53
450.506	2076.08
450.88	2120.37
451.254	2103.87
451.628	2153.81
452.002	2176.86
452.376	2182.29
452.75	2222.51
453.123	2227.71
453.497	2280.59
453.871	2281.95
454.244	2332.79
454.618	2330.53
454.992	2397.65
455.365	2383.19
455.739	2442.17
456.112	2467.7
456.486	2479.23
456.859	2520.36
457.232	2524.43
457.606	2574.82
457.979	2590.41
458.352	2638.32
458.725	2626.8
459.099	2708.6
459.472	2728.04
459.845	2740.01
460.218	2780.69
460.591	2799.9
460.964	2807.36
461.337	2884.87
461.71	2902.04
462.083	2962.15
462.456	2985.66
462.829	2976.16
463.201	3073.11
463.574	3057.97
463.947	3146.33
464.32	3189.27
464.692	3190.85
465.065	3216.38
465.438	3268.13
465.81	3290.28
466.183	3357.85
466.555	3437.85
466.928	3441.01
467.3	3442.59
467.672	3529.82
468.045	3601.68
468.417	3610.27
468.789	3647.11
469.161	3675.13
469.534	3704.28
469.906	3814.33
470.278	3809.14
470.65	3880.77
471.022	3953.54
471.394	4043.71
471.766	4054.33
472.138	4144.04
472.51	4195.79
472.882	4258.62
473.253	4310.59
473.625	4375.45
473.997	4484.15
474.369	4504.49
474.74	4579.74
475.112	4636.69
475.484	4749.23
475.855	4790.81
476.227	4880.75
476.598	4980.41
476.97	4970.69
477.341	5146.5
477.713	5200.51
478.084	5208.65
478.455	5330
478.827	5387.85
479.198	5536.32
479.569	5615.42
479.94	5770.44
480.311	5776.54
480.682	5937.44
481.053	6010.89
481.424	6113.71
481.795	6180.6
482.166	6295.63
482.537	6394.15
482.908	6461.5
483.279	6520.03
483.65	6684.99
484.021	6834.82
484.391	6888.6
484.762	6949.85
485.133	7048.6
485.503	7136.73
485.874	7288.59
486.244	7367.91
486.615	7529.04
486.985	7560.45
487.356	7788.47
487.726	7824.85
488.097	7931.97
488.467	7964.96
488.837	8151.17
489.207	8184.39
489.578	8345.29
489.948	8439.75
490.318	8571.27
490.688	8580.99
491.058	8738.73
491.428	8872.96
491.798	8927.65
492.168	9049
492.538	9192.05
492.908	9308.43
493.278	9323.79
493.648	9342.32
494.017	9520.17
494.387	9642.2
494.757	9689.43
495.126	9841.52
495.496	9836.1
495.866	9921.97
496.235	10041.52
496.605	10112.7
496.974	10226.82
497.344	10199.03
497.713	10347.72
498.082	10405.12
498.452	10586.59
498.821	10574.16
499.19	10629.3
499.559	10832.68
499.928	10799.01
500.298	10849.4
500.667	11042.17
501.036	11025.67
501.405	11203.07
501.774	11175.27
502.143	11253.46
502.512	11353.8
502.88	11465.21
503.249	11472.44
503.618	11552.44
503.987	11654.81
504.356	11746.56
504.724	11749.49
505.093	11819.32
505.462	11895.25
505.83	12048.24
506.199	12174.57
506.567	12169.6
506.936	12252.53
507.304	12405.3
507.672	12487.78
508.041	12536.59
508.409	12649.81
508.777	12745.85
509.145	12856.13
509.514	12916.69
509.882	12987.2
510.25	13070.14
510.618	13166.63
510.986	13244.37
511.354	13362.78
511.722	13535.89
512.09	13614.08
512.458	13510.58
512.826	13714.64
513.193	13778.82
513.561	13857.46
513.929	14040.51
514.297	14167.51
514.664	14225.81
515.032	14413.38
515.4	14517.1
515.767	14478.91
516.135	14565.01
516.502	14558.01
516.869	14766.82
517.237	14807.94
517.604	14884.1
517.972	15154.6
518.339	15200.93
518.706	15214.71
519.073	15269.85
519.44	15446.35
519.808	15602.95
520.175	15696.51
520.542	15885.43
520.909	15962.49
521.276	16072.77
521.643	16202.48
522.009	16226.21
522.376	16372.2
522.743	16551.63
523.11	16710.72
523.477	16797.72
523.843	16896.48
524.21	17217.6
524.577	17195
524.943	17355.22
525.31	17453.07
525.676	17527.19
526.043	17789.11
526.409	17831.82
526.776	18123.79
527.142	18096.45
527.508	18205.82
527.874	18251.47
528.241	18507.73
528.607	18485.36
528.973	18634.51
529.339	18686.49
529.705	18956.76
530.071	18976.65
530.437	19122.18
530.803	19186.36
531.169	19408.95
531.535	19406.47
531.901	19446.92
532.267	19537.09
532.632	19713.58
532.998	19759.68
533.364	19877.64
533.73	20043.06
534.095	20179.1
534.461	20235.6
534.826	20280.34
535.192	20421.81
535.557	20576.15
535.923	20546.32
536.288	20652.31
536.653	20833.32
537.019	20753.78
537.384	20868.12
537.749	21016.14
538.114	21128.68
538.479	21099.76
538.845	21210.49
539.21	21196.25
539.575	21409.35
539.94	21433.08
540.305	21575
540.67	21579.97
541.034	21766.41
541.399	21807.31
541.764	21911.49
542.129	21846.85
542.494	22011.37
542.858	22064.25
543.223	22103.12
543.587	22292.72
543.952	22120.07
544.316	22327.75
544.681	22253.62
545.045	22405.03
545.41	22620.85
545.774	22761.86
546.138	22628.08
546.503	22743.33
546.867	22803.67
547.231	22966.6
547.595	23000.27
547.959	23084.56
548.324	23160.72
548.688	23348.06
549.052	23350.32
549.416	23355.97
549.779	23420.82
550.143	23556.19
550.507	23700.59
550.871	23666.47
551.235	23720.25
551.599	23994.37
551.962	24050.41
552.326	24072.79
552.689	24271.88
553.053	24123.63
553.417	24262.84
553.78	24580.57
554.143	24477.52
554.507	24597.07
554.87	24703.95
555.234	25006.09
555.597	24793.9
555.96	24917.28
556.323	25076.37
556.686	25168.12
557.05	25396.59
557.413	25394.78
557.776	25408.8
558.139	25532.41
558.502	25739.41
558.865	25762.91
559.228	25943.92
559.59	26141.43
559.953	26126.74
560.316	26307.3
560.679	26441.99
561.041	26442.44
561.404	26533.96
561.767	26827.97
562.129	26832.49
562.492	27093.04
562.854	27014.18
563.217	27128.75
563.579	27353.83
563.941	27446.26
564.304	27424.79
564.666	27726.93
565.028	27690.09
565.39	27848.73
565.753	27935.96
566.115	28142.51
566.477	28354.48
566.839	28300.24
567.201	28439.9
567.563	28481.03
567.925	28780.91
568.287	28748.82
568.648	28772.77
569.01	28885.54
569.372	29061.81
569.734	29009.15
570.095	29269.94
570.457	29342.7
570.819	29514.9
571.18	29513.32
571.542	29599.87
571.903	29688.91
572.265	29834.89
572.626	29835.12
572.987	29960.77
573.349	30116.92
573.71	30179.97
574.071	30194.66
574.432	30254.77
574.794	30605.49
575.155	30508.32
575.516	30413.41
575.877	30695.21
576.238	30636
576.599	30851.59
576.96	30807.3
577.32	30852.04
577.681	30887.97
578.042	31075.76
578.403	30916.67
578.763	31028.99
579.124	31129.1
579.485	31272.14
579.845	31448.86
580.206	31208.19
580.566	31237.57
580.927	31337
581.287	31482.76
581.648	31439.37
582.008	31553.49
582.368	31437.56
582.728	31488.41
583.089	31426.72
583.449	31489.54
583.809	31540.84
584.169	31578.35
584.529	31574.28
584.889	31793.71
585.249	31595.75
585.609	31466.71
585.969	31690.66
586.329	31472.36
586.688	31537
587.048	31672.13
587.408	31573.83
587.768	31603.43
588.127	31603.43
588.487	31567.05
588.846	31705.8
589.206	31597.78
589.565	31613.6
589.925	31748.06
590.284	31637.33
590.643	31719.36
591.003	31816.54
591.362	31918.91
591.721	31742.19
592.08	31843.2
592.44	31883.43
592.799	31825.12
593.158	31805.24
593.517	31907.16
593.876	31882.3
594.235	31739.48
594.593	31964.33
594.952	31931.56
595.311	31738.8
595.67	31892.69
596.029	32210.88
596.387	32103.31
596.746	32122.52
597.104	32004.1
597.463	32010.2
597.822	32148.73
598.18	32052.01
598.538	32118.68
598.897	32244.55
599.255	32040.49
599.613	32591.21
599.972	32187.37
600.33	32409.06
600.688	32183.53
601.046	32322.51
601.404	32294.72
601.762	32328.61
602.12	32492.22
602.478	32569.96
602.836	32497.42
603.194	32439.8
603.552	32497.2
603.91	32405.22
604.268	32516.63
604.625	32561.83
604.983	32585.78
605.341	32407.93
605.698	32637.08
606.056	32793.01
606.413	32713.01
606.771	32727.47
607.128	32770.64
607.485	32802.27
607.843	32720.47
608.2	32952.78
608.557	33018.09
608.914	32863.97
609.272	33079.1
609.629	33174.01
609.986	33252.88
610.343	33045.2
610.7	33393.44
611.057	33323.16
611.414	33229.61
611.771	33201.13
612.127	33241.81
612.484	33453.78
612.841	33479.32
613.198	33384.86
613.554	33398.42
613.911	33571.97
614.267	33579.88
614.624	33464.63
614.98	33583.27
615.337	33844.96
615.693	33656.04
616.05	33731.29
616.406	33843.6
616.762	33740.55
617.118	33774
617.475	33737.16
617.831	33774
618.187	33784.62
618.543	33972.86
618.899	33993.2
619.255	34061.22
619.611	34056.48
619.967	33972.19
620.323	34139.41
620.678	34004.05
621.034	33971.06
621.39	33991.85
621.746	34035.91
622.101	34296.92
622.457	33971.06
622.812	34024.16
623.168	34242.24
623.523	34145.06
623.879	34309.13
624.234	33951.85
624.589	34152.07
624.945	34223.7
625.3	34101.67
625.655	34092.86
626.01	34081.79
626.365	34156.81
626.72	34124.95
627.075	34175.12
627.43	34162.46
627.785	34106.19
628.14	34070.71
628.495	34037.27
628.85	34100.77
629.205	33963.37
629.559	34168.56
629.914	33960.89
630.269	34028.23
630.623	34035.91
630.978	33844.73
631.332	34145.29
631.687	33981
632.041	33852.64
632.396	33813.32
632.75	33731.29
633.104	33779.42
633.459	33628.24
633.813	33720.89
634.167	33621.46
634.521	33613.33
634.875	33698.52
635.229	33624.4
635.583	33389.83
635.937	33416.27
636.291	33435.7
636.645	33386.44
636.999	33323.84
637.352	33392.99
637.706	33293.56
638.06	33344.18
638.413	33275.48
638.767	33174.92
639.121	33294.24
639.474	33170.17
639.828	33083.85
640.181	33153.45
640.534	32996.17
640.888	32871.65
641.241	32879.56
641.594	32974.25
641.947	32891.76
642.301	32890.18
642.654	32926.11
643.007	32804.08
643.36	32799.11
643.713	32521.15
644.066	32847.02
644.419	32584.43
644.771	32416.75
645.124	32115.74
645.477	32165.91
645.83	31962.3
646.182	31696.54
646.535	31480.73
646.888	31557.56
647.24	31422.2
647.593	31506.04
647.945	31502.87
648.298	31235.53
648.65	31277.79
649.002	31218.81
649.355	31371.8
649.707	31293.16
650.059	31445.92
650.411	31908.29
650.763	31848.85
651.115	32197.54
651.467	31957.32
651.819	31958.68
652.171	31889.98
652.523	31895.86
652.875	31823.54
653.227	31632.36
653.578	31877.1
653.93	31788.06
654.282	31655.86
654.633	31718.46
654.985	31625.13
655.337	31704.22
655.688	31626.48
656.039	31563.66
656.391	31438.02
656.742	31596.88
657.094	31536.77
657.445	31684.34
657.796	31487.51
658.147	31501.74
658.498	31277.79
658.849	31563.66
659.2	31404.34
659.551	31465.59
659.902	31524.57
660.253	31355.31
660.604	31388.75
660.955	31327.74
661.306	31382.2
661.656	31169.32
662.007	31411.35
662.358	31294.74
662.708	31252.94
663.059	31261.3
663.409	31117.8
663.76	31220.17
664.11	31209.77
664.461	31238.02
664.811	31336.1
665.161	31220.17
665.511	31138.81
665.862	31104.24
666.212	31233.05
666.562	31216.78
666.912	31149.89
667.262	31045.94
667.612	30977.24
667.962	31051.36
668.312	30944.92
668.662	31121.41
669.011	31053.62
669.361	30885.04
669.711	30954.41
670.06	30948.76
670.41	30877.13
670.76	30742.44
671.109	30870.57
671.459	30822.21
671.808	30808.88
672.157	30922.77
672.507	30614.31
672.856	30609.11
673.205	30683.46
673.554	30846.39
673.904	30637.81
674.253	30895.43
674.602	30713.51
674.951	30381.32
675.3	30181.1
675.649	30567.53
675.998	30489.57
676.346	30613.18
676.695	30685.94
677.044	30388.33
677.393	30542.9
677.741	30498.83
678.09	30369.34
678.438	30330.25
678.787	30349.23
679.135	30412.73
679.484	30166.64
679.832	30362.56
680.181	30172.51
680.529	30215.9
680.877	30169.57
681.225	30113.53
681.573	30263.13
681.922	30053.64
682.27	29877.83
682.618	30005.51
682.966	29953.08
683.314	29946.53
683.661	29820.66
684.009	29644.62
684.357	29607.1
684.705	29637.38
685.053	29568.01
685.4	29572.75
685.748	29477.84
686.095	29405.75
686.443	29240.11
686.79	29104.07
687.138	29177.28
687.485	29316.72
687.832	29076.72
688.18	29192.65
688.527	29062.03
688.874	28950.17
689.221	28943.39
689.568	28884.64
689.915	28788.37
690.262	28878.99
690.609	28866.11
690.956	28674.7
691.303	28663.85
691.65	28482.39
691.997	28524.65
692.344	28285.78
692.69	28364.42
693.037	28259.34
693.383	28074.04
693.73	28166.24
694.077	27894.15
694.423	28088.5
694.769	27865.45
695.116	27777.77
695.462	27735.29
695.808	27609.87
696.155	27850.54
696.501	27491
696.847	27505.69
697.193	27244
697.539	27406.93
697.885	27103.44
698.231	27181.86
698.577	27139.6
698.923	27132.14
699.269	26893.5
699.614	26808.53
699.96	26701.64
700.306	26763.34
700.651	26608.76
700.997	26475.21
701.342	26613.51
701.688	26547.75
702.033	26386.4
702.379	26473.4
702.724	26280.86
703.069	26294.87
703.415	26110.02
703.76	26005.39
704.105	26014.2
704.45	25969.46
704.795	25822.34
705.14	25896.01
705.485	25701.67
705.83	25642.69
706.175	25660.31
706.52	25553.2
706.865	25552.52
707.209	25433.88
707.554	25284.73
707.899	25434.11
708.243	25294.45
708.588	25184.62
708.932	25088.58
709.277	25135.36
709.621	25127.9
709.966	24936.49
710.31	24975.13
710.654	24778.98
710.998	24824.86
711.342	24803.84
711.687	24725.42
712.031	24723.62
712.375	24501.25
712.719	24516.84
713.063	24430.97
713.407	24483.85
713.75	24479.78
714.094	24396.62
714.438	24147.13
714.782	24369.27
715.125	24164.53
715.469	24219.22
715.812	24069.4
716.156	23953.24
716.499	23948.72
716.843	24093.58
717.186	23795.96
717.53	23961.83
717.873	23880.47
718.216	23986.46
718.559	23791.21
718.902	23646.13
719.246	23568.62
719.589	23578.79
719.932	23520.71
720.275	23444.33
720.617	23473.25
720.96	23479.13
721.303	23438.68
721.646	23522.29
721.989	23299.02
722.331	23353.03
722.674	23233.71
723.016	23301.05
723.359	23132.47
723.701	23212.47
724.044	23136.09
724.386	22946.26
724.729	22946.49
725.071	22950.55
725.413	22900.61
725.755	22964.34
726.097	22900.16
726.439	22698.58
726.782	22639.83
727.124	22753.95
727.465	22669.66
727.807	22659.94
728.149	22555.76
728.491	22569.55
728.833	22626.72
729.175	22473.96
729.516	22401.64
729.858	22423.34
730.199	22469.89
730.541	22349.67
730.882	22335.43
731.224	22489.1
731.565	22128.43
731.906	22237.35
732.248	22273.28
732.589	21986.74
732.93	22118.49
733.271	22120.07
733.612	22021.09
733.953	22046.62
734.294	22080.07
734.635	21891.37
734.976	22003.69
735.317	21763.02
735.658	21950.13
735.999	21816.35
736.339	21759.85
736.68	21814.31
737.021	21700.64
737.361	21645.73
737.702	21702.23
738.042	21685.5
738.383	21568.67
738.723	21694.32
739.063	21610.25
739.404	21612.28
739.744	21617.93
740.084	21427.66
740.424	21389.92
740.764	21277.38
741.104	21478.96
741.444	21391.27
741.784	21198.96
742.124	21221.79
742.464	21191.05
742.804	21196.7
743.143	21209.13
743.483	21182.69
743.823	21020.66
744.162	21021.34
744.502	21126.87
744.841	20958.97
745.181	20923.49
745.52	20930.95
745.86	20932.3
746.199	20946.31
746.538	20883.94
746.877	20857.73
747.216	20806.88
747.556	20636.49
747.895	20684.4
748.234	20620.45
748.573	20630.84
748.911	20583.61
749.25	20501.58
749.589	20538.41
749.928	20448.93
750.267	20435.82
750.605	20367.12
750.944	20384.52
751.283	20248.48
751.621	20163.06
751.96	20139.56
752.298	20221.36
752.636	20154.02
752.975	20069.05
753.313	19860.47
753.651	19968.26
753.989	19916.06
754.327	19837.42
