Data from breadboard_white_FLMS001491_00030.txt Node
Date: Wed Feb 08 10:47:30 GMT 2017
User: dcchb
Spectrometer: FLMS00149
Trigger mode: 0
Integration Time (sec): 2.000000E-2
Scans to average: 10
Electric dark correction enabled: true
Nonlinearity correction enabled: false
Boxcar width: 0
XAxis mode: Wavelengths
Number of Pixels in Spectrum: 2048
>>>>>Begin Spectral Data<<<<<
341.393	-14.99
341.776	-14.99
342.16	-14.99
342.543	-52.5
342.927	-78.49
343.31	-60.86
343.693	-95.21
344.077	-67.87
344.46	-56.34
344.843	-68.32
345.226	-45.04
345.61	-16.34
345.993	7.16
346.376	-5.49
346.759	12.81
347.142	24.79
347.525	44.45
347.908	60.04
348.291	59.14
348.674	99.81
349.057	107.27
349.44	119.25
349.823	137.78
350.206	165.35
350.588	193.6
350.971	245.8
351.354	239.92
351.737	274.05
352.119	288.06
352.502	294.84
352.884	303.2
353.267	307.04
353.65	314.27
354.032	341.39
354.414	324.89
354.797	339.13
355.179	330.99
355.562	355.63
355.944	356.76
356.326	356.76
356.709	345.68
357.091	386.59
357.473	363.08
357.855	394.95
358.238	384.55
358.62	359.47
359.002	369.41
359.384	382.74
359.766	363.31
360.148	353.82
360.53	391.56
360.912	363.08
361.294	385.23
361.676	360.6
362.057	363.76
362.439	382.52
362.821	375.29
363.203	354.27
363.584	384.1
363.966	374.16
364.348	369.19
364.729	364.67
365.111	376.42
365.493	385
365.874	358.34
366.256	377.32
366.637	349.07
367.019	351.11
367.4	377.55
367.781	362.41
368.163	343.65
368.544	364.89
368.925	349.07
369.306	359.47
369.688	366.25
370.069	349.98
370.45	373.03
370.831	404.89
371.212	363.08
371.593	364.21
371.974	373.03
372.355	377.09
372.736	373.7
373.117	382.29
373.498	370.09
373.879	369.19
374.26	373.25
374.641	372.8
375.021	368.96
375.402	355.63
375.783	408.73
376.163	408.28
376.544	386.59
376.925	401.73
377.305	404.21
377.686	397.21
378.066	412.12
378.447	399.01
378.827	405.79
379.208	430.88
379.588	424.78
379.968	421.84
380.349	397.89
380.729	419.35
381.109	427.94
381.489	416.87
381.87	425.45
382.25	425.23
382.63	442.86
383.01	440.6
383.39	427.71
383.77	461.39
384.15	457.54
384.53	458.22
384.91	437.21
385.29	463.87
385.67	471.78
386.049	455.74
386.429	493.48
386.809	493.7
387.189	469.52
387.568	490.99
387.948	493.48
388.328	494.61
388.707	501.61
389.087	489.41
389.466	514.04
389.846	519.24
390.225	505.45
390.605	542.29
390.984	532.12
391.363	545.68
391.743	552.91
392.122	543.64
392.501	565.11
392.881	585
393.26	577.77
393.639	577.54
394.018	573.47
394.397	624.55
394.776	596.3
395.155	608.95
395.534	612.57
395.913	618.44
396.292	629.74
396.671	635.62
397.05	649.63
397.429	658.44
397.808	669.29
398.186	680.14
398.565	683.98
398.944	681.72
399.323	700.25
399.701	728.5
400.08	720.59
400.458	752.68
400.837	739.34
401.215	772.79
401.594	779.8
401.972	770.76
402.351	814.6
402.729	814.15
403.107	828.61
403.486	836.74
403.864	849.4
404.242	867.25
404.62	890.3
404.999	903.41
405.377	922.84
405.755	920.81
406.133	923.07
406.511	944.76
406.889	966.91
407.267	1013.46
407.645	996.74
408.023	1016.17
408.401	1036.74
408.779	1060.69
409.156	1073.35
409.534	1126.45
409.912	1135.72
410.29	1147.7
410.667	1178.88
411.045	1213.46
411.422	1256.85
411.8	1217.98
412.178	1280.35
412.555	1290.52
412.933	1304.53
413.31	1343.4
413.687	1364.87
414.065	1385.43
414.442	1404.41
414.819	1436.05
415.197	1464.3
415.574	1505.88
415.951	1545.65
416.328	1535.26
416.705	1532.77
417.082	1572.54
417.46	1587.46
417.837	1615.03
418.214	1642.82
418.591	1675.59
418.967	1693.44
419.344	1711.52
419.721	1689.6
420.098	1729.83
420.475	1778.87
420.852	1774.12
421.228	1798.98
421.605	1855.47
421.982	1859.54
422.358	1881.46
422.735	1909.48
423.111	1943.16
423.488	1967.56
423.864	1949.03
424.241	1996.04
424.617	2034.68
424.994	2046.66
425.37	2074.68
425.746	2075.13
426.123	2111.06
426.499	2145.18
426.875	2148.12
427.251	2191.74
427.627	2246.65
428.003	2303.6
428.379	2290.72
428.756	2320.77
429.132	2407.1
429.507	2423.82
429.883	2443.48
430.259	2493.42
430.635	2511.28
431.011	2537.04
431.387	2617.71
431.763	2650.48
432.138	2674.89
432.514	2675.57
432.89	2716.92
433.265	2802.57
433.641	2806.18
434.016	2856.58
434.392	2909.01
434.767	2963.02
435.143	2986.29
435.518	3002.11
435.894	3050.92
436.269	3071.04
436.644	3138.83
437.02	3157.36
437.395	3203.46
437.77	3214.08
438.145	3280.07
438.52	3312.84
438.895	3354.19
439.271	3349.9
439.646	3470.12
440.021	3462.89
440.395	3458.37
440.77	3481.87
441.145	3542.89
441.52	3594.64
441.895	3598.03
442.27	3610.68
442.645	3635.31
443.019	3697.46
443.394	3673.05
443.769	3743.11
444.143	3733.39
444.518	3802.09
444.892	3824.69
445.267	3856.33
445.641	3892.26
446.016	3944.46
446.39	3934.52
446.764	3961.86
447.139	3956.89
447.513	3990.11
447.887	4024.68
448.262	4061.07
448.636	4028.3
449.01	4149.88
449.384	4202.3
449.758	4201.63
450.132	4275.07
450.506	4271.91
450.88	4371.34
451.254	4362.75
451.628	4413.82
452.002	4481.85
452.376	4483.2
452.75	4536.53
453.123	4583.99
453.497	4647.94
453.871	4715.51
454.244	4803.42
454.618	4797.09
454.992	4917.77
455.365	4889.52
455.739	5051.1
456.112	5048.84
456.486	5165.67
456.859	5173.8
457.232	5309.62
457.606	5258.77
457.979	5373.57
458.352	5477.3
458.725	5520.24
459.099	5564.3
459.472	5655.83
459.845	5762.94
460.218	5791.19
460.591	5837.74
460.964	5863.96
461.337	6060.79
461.71	6124.74
462.083	6216.26
462.456	6221.46
462.829	6261.46
463.201	6404.96
463.574	6392.76
463.947	6514.11
464.32	6706.65
464.692	6680.43
465.065	6802.69
465.438	6918.62
465.81	7030.25
466.183	7067.77
466.555	7192.96
466.928	7280.42
467.3	7265.28
467.672	7429.34
468.045	7602.89
468.417	7640.86
468.789	7718.82
469.161	7867.97
469.534	7946.61
469.906	8143.9
470.278	8152.71
470.65	8286.49
471.022	8431.12
471.394	8638.12
471.766	8736.87
472.138	8758.12
472.51	8961.28
472.882	9139.8
473.253	9222.96
473.625	9384.54
473.997	9566.23
474.369	9664.99
474.74	9759.67
475.112	9928.48
475.484	10078.76
475.855	10297.96
476.227	10401.24
476.598	10673.55
476.97	10800.78
477.341	10995.57
477.713	11182.23
478.084	11330.03
478.455	11611.83
478.827	11684.14
479.198	12031.93
479.569	11983.34
479.94	12441.86
480.311	12421.52
480.682	12807.73
481.053	13034.39
481.424	13309.18
481.795	13502.63
482.166	13621.49
482.537	13782.62
482.908	14159.11
483.279	14247.92
483.65	14484.29
484.021	14775.59
484.391	15010.16
484.762	15150.27
485.133	15271.62
485.503	15556.13
485.874	15833.86
486.244	16052.39
486.615	16331.93
486.985	16554.75
487.356	16824.8
487.726	16956.32
488.097	17294.62
488.467	17425.46
488.837	17760.82
489.207	17964.2
489.578	18155.84
489.948	18353.57
490.318	18684.18
490.688	18804.18
491.058	19084.85
491.428	19320.1
491.798	19433.32
492.168	19958.27
492.538	19965.73
492.908	20272.62
493.278	20561.42
493.648	20491.14
494.017	20853.39
494.387	21050.45
494.757	21186.04
495.126	21499.03
495.496	21504.45
495.866	21800.71
496.235	21932.91
496.605	22153.92
496.974	22275.05
497.344	22499.45
497.713	22600.47
498.082	22851.08
498.452	23084.52
498.821	23178.75
499.19	23266.66
499.559	23544.62
499.928	23687.44
500.298	23873.88
500.667	24009.92
501.036	24058.96
501.405	24336.24
501.774	24475.44
502.143	24607.19
502.512	24675.89
502.88	25067.52
503.249	25030.91
503.618	25339.15
503.987	25387.74
504.356	25531.01
504.724	25762.87
505.093	25875.63
505.462	26048.74
505.83	26283.98
506.199	26471.78
506.567	26874.93
506.936	26810.75
507.304	27059.78
507.672	27294.13
508.041	27346.78
508.409	27634.68
508.777	27887.78
509.145	28052.07
509.514	28103.15
509.882	28361.67
510.25	28424.49
510.618	28668.78
510.986	28800.98
511.354	29066.51
511.722	29448.42
512.09	29578.59
512.458	29565.93
512.826	29818.58
513.193	30083.43
513.561	30265.12
513.929	30438.45
514.297	30640.93
514.664	30955.95
515.032	31068.27
515.4	31373.57
515.767	31597.97
516.135	31815.59
516.502	31602.26
516.869	32263.71
517.237	32328.8
517.604	32362.24
517.972	32647.43
518.339	33041.77
518.706	33043.81
519.073	33340.52
519.44	33456.9
519.808	33811.92
520.175	33916.55
520.542	34430.21
520.909	34675.18
521.276	34586.14
521.643	35137.99
522.009	35259.34
522.376	35602.84
522.743	35858.65
523.11	36179.54
523.477	36480.78
523.843	36617.95
524.21	37073.98
524.577	37317.37
524.943	37412.28
525.31	37704.93
525.676	38006.84
526.043	38141.3
526.409	38378.36
526.776	38884.33
527.142	38899.92
527.508	39069.86
527.874	39455.84
528.241	39759.11
528.607	39851.31
528.973	40304.41
529.339	40319.55
529.705	40788.46
530.071	41102.8
530.437	41149.36
530.803	41339.18
531.169	41618.72
531.535	41752.28
531.901	41774.65
532.267	42016.45
532.632	42326.05
532.998	42511.13
533.364	42713.83
533.73	42983.43
534.095	43152.69
534.461	43323.08
534.826	43519.92
535.192	43581.38
535.557	43987.47
535.923	43913.58
536.288	44161.93
536.653	44383.4
537.019	44306.34
537.384	44659.09
537.749	44657.96
538.114	44764.18
538.479	44878.75
538.845	45249.59
539.21	45182.24
539.575	45416.59
539.94	45488.68
540.305	45725.73
540.67	45775.67
541.034	45916.69
541.399	46167.76
541.764	46310.8
542.129	46464.02
542.494	46550.57
542.858	46691.13
543.223	46713.5
543.587	47070.78
543.952	47041.4
544.316	47142.42
544.681	47237.11
545.045	47411.11
545.41	47670.09
545.774	47692.01
546.138	47772.23
546.503	47863.08
546.867	47903.75
547.231	48261.71
547.595	48230.07
547.959	48356.17
548.324	48489.28
548.688	48680.91
549.052	48800
549.416	48912.99
549.779	48874.58
550.143	49063.5
550.507	49255.58
550.871	49431.62
551.235	49381.23
551.599	49799.75
551.962	49857.6
552.326	49896.92
552.689	50132.85
553.053	50034.32
553.417	50177.82
553.78	50560.18
554.143	50472.73
554.507	50653.96
554.87	50750.01
555.234	51063.9
555.597	50945.93
555.96	51046.72
556.323	51274.29
556.686	51280.16
557.05	51615.75
557.413	51689.19
557.776	51768.74
558.139	51996.75
558.502	51929.86
558.865	52035.85
559.228	52424.31
559.59	52447.82
559.953	52528.49
560.316	52835.15
560.679	52830.63
561.041	52991.53
561.404	53091.64
561.767	53375.48
562.129	53294.35
562.492	53624.96
562.854	53671.29
563.217	53642.81
563.579	53791.96
563.941	54000.54
564.304	54170.03
564.666	54262.23
565.028	54340.65
565.39	54407.09
565.753	54538.16
566.115	54665.16
566.477	54830.35
566.839	54800.75
567.201	55072.83
567.563	55094.98
567.925	55309.66
568.287	55312.83
568.648	55338.14
569.01	55493.84
569.372	55619.94
569.734	55602.31
570.095	55747.16
570.457	55930.66
570.819	55986.03
571.18	55969.98
571.542	56126.14
571.903	56177.21
572.265	56301.95
572.626	56306.47
572.987	56415.4
573.349	56475.96
573.71	56627.82
574.071	56707.59
574.432	56704.65
574.794	56906.46
575.155	56929.96
575.516	56857.87
575.877	56978.77
576.238	57031.65
576.599	57110.74
576.96	57157.52
577.32	57187.35
577.681	57220.8
578.042	57349.61
578.403	57313
578.763	57318.2
579.124	57303.28
579.485	57461.24
579.845	57536.5
580.206	57482.49
580.566	57516.61
580.927	57521.13
581.287	57587.12
581.648	57430.28
582.008	57616.27
582.368	57541.47
582.728	57638.41
583.089	57622.37
583.449	57614.69
583.809	57635.48
584.169	57702.37
584.529	57637.51
584.889	57835.92
585.249	57651.07
585.609	57618.53
585.969	57794.12
586.329	57701.01
586.688	57775.36
587.048	57735.13
587.408	57625.98
587.768	57692.88
588.127	57715.7
588.487	57688.13
588.846	57820.33
589.206	57659.66
589.565	57706.89
589.925	57863.49
590.284	57765.19
590.643	57783.49
591.003	57848.58
591.362	57886.32
591.721	57812.42
592.08	57825.75
592.44	57906.88
592.799	57962.93
593.158	57918.63
593.517	57840.22
593.876	57922.25
594.235	57782.59
594.593	57876.83
594.952	57993.66
595.311	57805.87
595.67	57922.25
596.029	58030.95
596.387	58020.78
596.746	58120.89
597.104	57967.67
597.463	57912.3
597.822	58034.34
598.18	57940.33
598.538	57981
598.897	58124.95
599.255	57906.66
599.613	58335.57
599.972	58075.46
600.33	58192.07
600.688	58018.29
601.046	58188
601.404	58268
601.762	58197.72
602.12	58348.23
602.478	58242.92
602.836	58310.26
603.194	58211.05
603.552	58280.2
603.91	58185.29
604.268	58355.23
604.625	58255.8
604.983	58350.49
605.341	58258.74
605.698	58440.2
606.056	58440.2
606.413	58451.73
606.771	58545.96
607.128	58557.71
607.485	58475.91
607.843	58412.18
608.2	58597.03
608.557	58701.21
608.914	58519.52
609.272	58707.09
609.629	58720.65
609.986	58798.61
610.343	58699.63
610.7	58871.15
611.057	58763.81
611.414	58762.45
611.771	58788.67
612.127	58895.56
612.484	58863.92
612.841	58915.67
613.198	58907.98
613.554	58923.58
613.911	59002.9
614.267	58991.37
614.624	58956.12
614.98	59004.48
615.337	59174.64
615.693	59116.12
616.05	59138.71
616.406	59291.25
616.762	59129.45
617.118	59165.15
617.475	59182.1
617.831	59253.29
618.187	59244.25
618.543	59240.41
618.899	59393.62
619.255	59388.65
619.611	59286.73
619.967	59349.56
620.323	59382.55
620.678	59338.03
621.034	59321.08
621.39	59315.88
621.746	59304.58
622.101	59518.59
622.457	59284.7
622.812	59403.79
623.168	59436.78
623.523	59460.51
623.879	59489.89
624.234	59322.21
624.589	59491.47
624.945	59455.77
625.3	59421.87
625.655	59394.98
626.01	59424.81
626.365	59411.25
626.72	59361.76
627.075	59398.82
627.43	59469.33
627.785	59340.06
628.14	59277.69
628.495	59378.03
628.85	59328.99
629.205	59241.54
629.559	59359.72
629.914	59216.45
630.269	59290.12
630.623	59245.6
630.978	59152.27
631.332	59304.13
631.687	59268.2
632.041	59165.61
632.396	59187.3
632.75	59053.52
633.104	59195.44
633.459	59060.75
633.813	59054.87
634.167	58962.22
634.521	58950.47
634.875	59039.05
635.229	58935.55
635.583	58807.87
635.937	58858.04
636.291	58811.94
636.645	58837.03
636.999	58772.62
637.352	58786.41
637.706	58646.07
638.06	58805.84
638.413	58709.57
638.767	58592.29
639.121	58653.75
639.474	58564.27
639.828	58526.98
640.181	58489.01
640.534	58502.35
640.888	58420.09
641.241	58302.58
641.594	58420.99
641.947	58472.06
642.301	58355.46
642.654	58328.34
643.007	58412.86
643.36	58283.82
643.713	58192.07
644.066	58310.49
644.419	58156.82
644.771	58051.28
645.124	57815.13
645.477	57802.03
645.83	57565.2
646.182	57477.29
646.535	57373.79
646.888	57384.86
647.24	57316.61
647.593	57398.42
647.945	57223.96
648.298	57196.17
648.65	57176.96
649.002	57023.29
649.355	57200.23
649.707	57093.12
650.059	57227.8
650.411	57477.74
650.763	57578.08
651.115	57830.5
651.467	57704.4
651.819	57638.87
652.171	57585.31
652.523	57550.28
652.875	57560.45
653.227	57400.45
653.578	57575.59
653.93	57520.45
654.282	57344.64
654.633	57359.33
654.985	57402.94
655.337	57407.91
655.688	57379.21
656.039	57424.18
656.391	57230.06
656.742	57310.51
657.094	57207.92
657.445	57402.94
657.796	57389.38
658.147	57237.29
658.498	57164.08
658.849	57282.27
659.2	57187.35
659.551	57148.03
659.902	57179.22
660.253	57169.5
660.604	57201.36
660.955	57019
661.306	57131.53
661.656	57037.75
662.007	57102.83
662.358	57033.68
662.708	57009.96
663.059	56999.11
663.409	56865.33
663.76	57064.19
664.11	56992.56
664.461	56974.7
664.811	56980.8
665.161	56969.05
665.511	56904.87
665.862	56904.65
666.212	57041.37
666.562	56977.41
666.912	56945.55
667.262	56815.84
667.612	56926.79
667.962	56915.72
668.312	56861.26
668.662	56908.04
669.011	56897.87
669.361	56821.03
669.711	56818.1
670.06	56833.92
670.41	56868.26
670.76	56695.16
671.109	56759.79
671.459	56700.36
671.808	56722.28
672.157	56702.17
672.507	56536.97
672.856	56476.64
673.205	56585.33
673.554	56559.12
673.904	56528.61
674.253	56668.04
674.602	56505.79
674.951	56121.39
675.3	56011.56
675.649	56413.81
675.998	56423.08
676.346	56428.05
676.695	56518.9
677.044	56292.69
677.393	56396.19
677.741	56363.87
678.09	56325
678.438	56222.18
678.787	56305.79
679.135	56177.66
679.484	56040.49
679.832	56212.46
680.181	56035.29
680.529	56114.84
680.877	56010.89
681.225	55997.55
681.573	56152.58
681.922	55875.97
682.27	55766.6
682.618	55824
682.966	55884.34
683.314	55827.84
683.661	55692.7
684.009	55662.87
684.357	55512.82
684.705	55517.79
685.053	55566.6
685.4	55501.29
685.748	55370.9
686.095	55252.26
686.443	55078.03
686.79	55150.57
687.138	55208.87
687.485	55186.95
687.832	55151.47
688.18	55128.65
688.527	54917.36
688.874	54965.94
689.221	54827.64
689.568	54789.22
689.915	54768.66
690.262	54821.09
690.609	54627.87
690.956	54580.87
691.303	54559.62
691.65	54346.52
691.997	54319.41
692.344	54244.83
692.69	54164.38
693.037	54145.17
693.383	53921.68
693.73	54043.03
694.077	53868.12
694.423	53801.68
694.769	53727.78
695.116	53603.94
695.462	53672.19
695.808	53448.24
696.155	53480.78
696.501	53309.94
696.847	53335.48
697.193	53001.25
697.539	53207.34
697.885	52944.3
698.231	52870.86
698.577	52862.95
698.923	52745.89
699.269	52662.73
699.614	52505.44
699.96	52448.49
700.306	52400.81
700.651	52382.05
700.997	52183.87
701.342	52120.37
701.688	52022.97
702.033	51967.6
702.379	51877.21
702.724	51864.1
703.069	51846.48
703.415	51487.62
703.76	51528.74
704.105	51493.04
704.45	51352.03
704.795	51268.19
705.14	51000.62
705.485	51114.74
705.83	50799.27
706.175	50975.31
706.52	50800.4
706.865	50713.85
707.209	50680.63
707.554	50513.4
707.899	50612.61
708.243	50303.24
708.588	50348.21
708.932	50060.31
709.277	50171.49
709.621	50212.62
709.966	49937.6
710.31	49965.4
710.654	49676.36
710.998	49698.06
711.342	49666.87
711.687	49666.87
712.031	49382.13
712.375	49268.92
712.719	49317.73
713.063	49262.36
713.407	49456.48
713.75	49165.19
714.094	49131.07
714.438	48946.44
714.782	49040
715.125	48856.95
715.469	48829.83
715.812	48633.23
716.156	48384.87
716.499	48443.85
716.843	48493.8
717.186	48323.18
717.53	48450.41
717.873	48395.95
718.216	48293.12
718.559	48174.48
718.902	47856.52
719.246	47960.25
719.589	47801.61
719.932	47627.83
720.275	47638.22
720.617	47645.68
720.96	47494.27
721.303	47513.48
721.646	47509.41
721.989	47457.89
722.331	47360.49
722.674	47204.34
723.016	47231.68
723.359	47022.42
723.701	47155.07
724.044	46761.19
724.386	46576.11
724.729	46775.87
725.071	46676.44
725.413	46542.21
725.755	46571.59
726.097	46432.83
726.439	46243.91
726.782	46279.62
727.124	46383.34
727.465	46243.69
727.807	46085.72
728.149	46045.27
728.491	45918.5
728.833	45977.48
729.175	45915.78
729.516	45651.38
729.858	45704.72
730.199	45749.69
730.541	45639.63
730.882	45357.83
731.224	45573.87
731.565	45324.84
731.906	45445.74
732.248	45388.57
732.589	45236.93
732.93	44989.03
733.271	44897.28
733.612	44972.76
733.953	44966.43
734.294	44747.23
734.635	44686.89
734.976	44793.1
735.317	44615.71
735.658	44759.43
735.999	44483.05
736.339	44347.01
736.68	44428.37
737.021	44258.65
737.361	43911.32
737.702	44340.68
738.042	44100.92
738.383	44179.33
738.723	44146.57
739.063	43915.38
739.404	43959.23
739.744	43885.78
740.084	43656.41
740.424	43711.55
740.764	43593.81
741.104	43721.49
741.444	43534.15
741.784	43337.55
742.124	43439.92
742.464	43318.79
742.804	43228.62
743.143	43304.78
743.483	43209.64
743.823	42926.03
744.162	42947.27
744.502	42944.11
744.841	42710.67
745.181	42905.02
745.52	42555.65
745.86	42692.59
746.199	42641.29
746.538	42551.35
746.877	42604.01
747.216	42420.51
747.556	42326.05
747.895	42403.33
748.234	42157.46
748.573	42019.16
748.911	41960.18
749.25	41995.21
749.589	41692.84
749.928	41815.55
750.267	41855.1
750.605	41607.87
750.944	41576.92
751.283	41456.69
751.621	41425.73
751.96	41187.32
752.298	41234.78
