Data from breadboard_black_back_FLMS001491_00055.txt Node
Date: Wed Feb 08 10:50:35 GMT 2017
User: dcchb
Spectrometer: FLMS00149
Trigger mode: 0
Integration Time (sec): 2.000000E-2
Scans to average: 10
Electric dark correction enabled: true
Nonlinearity correction enabled: false
Boxcar width: 0
XAxis mode: Wavelengths
Number of Pixels in Spectrum: 2048
>>>>>Begin Spectral Data<<<<<
341.393	-18.49
341.776	-18.49
342.16	-18.49
342.543	-56
342.927	-80.18
343.31	-69.56
343.693	-79.96
344.077	-58.26
344.46	-55.32
344.843	-59.62
345.226	-40.41
345.61	-23.01
345.993	-10.35
346.376	-10.35
346.759	9.08
347.142	28.06
347.525	55.63
347.908	49.76
348.291	70.55
348.674	79.36
349.057	114.39
349.44	113.49
349.823	159.13
350.206	182.86
350.588	206.82
350.971	198.46
351.354	210.66
351.737	254.5
352.119	252.24
352.502	266.93
352.884	275.97
353.267	268.06
353.65	302.63
354.032	306.7
354.414	297.89
354.797	303.99
355.179	320.49
355.562	339.02
355.944	321.39
356.326	332.69
356.709	347.6
357.091	355.06
357.473	350.32
357.855	381.5
358.238	327.94
358.62	341.95
359.002	354.61
359.384	341.28
359.766	354.61
360.148	345.12
360.53	336.3
360.912	328.85
361.294	314.84
361.676	358.9
362.057	355.29
362.439	325.46
362.821	343.54
363.203	335.4
363.584	337.89
363.966	348.51
364.348	338.34
364.729	333.14
365.111	340.37
365.493	329.3
365.874	336.3
366.256	326.81
366.637	325.46
367.019	327.04
367.4	329.75
367.781	321.62
368.163	317.77
368.544	329.53
368.925	332.69
369.306	340.37
369.688	342.63
370.069	325.91
370.45	329.3
370.831	354.16
371.212	340.82
371.593	344.89
371.974	356.42
372.355	340.82
372.736	365
373.117	354.61
373.498	340.82
373.879	349.86
374.26	345.8
374.641	337.21
375.021	313.48
375.402	348.73
375.783	351.45
376.163	363.2
376.544	370.43
376.925	372.69
377.305	369.52
377.686	379.24
378.066	372.46
378.447	373.37
378.827	363.65
379.208	357.77
379.588	382.41
379.968	370.88
380.349	376.98
380.729	404.1
381.109	371.78
381.489	384.67
381.87	391.44
382.25	383.99
382.63	396.64
383.01	409.52
383.39	405.68
383.77	387.15
384.15	418.79
384.53	400.03
384.91	418.56
385.29	413.59
385.67	407.26
386.049	423.76
386.429	423.76
386.809	424.21
387.189	409.3
387.568	440.48
387.948	423.99
388.328	422.63
388.707	439.13
389.087	461.5
389.466	449.3
389.846	462.4
390.225	429.86
390.605	472.35
390.984	457.21
391.363	485
391.743	475.96
392.122	477.77
392.501	469.86
392.881	487.04
393.26	465.34
393.639	479.35
394.018	494.49
394.397	499.24
394.776	514.15
395.155	501.05
395.534	526.13
395.913	515.74
396.292	528.62
396.671	519.12
397.05	521.16
397.429	520.25
397.808	510.76
398.186	523.19
398.565	539.24
398.944	546.92
399.323	541.27
399.701	522.97
400.08	550.54
400.458	536.3
400.837	562.51
401.215	550.76
401.594	560.25
401.972	576.3
402.351	594.15
402.729	583.98
403.107	562.29
403.486	586.92
403.864	586.92
404.242	597.77
404.62	618.33
404.999	621.27
405.377	647.26
405.755	635.73
406.133	617.2
406.511	617.65
406.889	656.3
407.267	663.98
407.645	668.05
408.023	675.73
408.401	651.78
408.779	640.93
409.156	665.56
409.534	678.22
409.912	710.08
410.29	713.47
410.667	717.31
411.045	741.94
411.422	738.55
411.8	719.57
412.178	745.56
412.555	761.83
412.933	757.76
413.31	759.34
413.687	769.97
414.065	787.59
414.442	783.3
414.819	817.42
415.197	793.92
415.574	821.94
415.951	811.09
416.328	822.17
416.705	815.39
417.082	846.12
417.46	880.25
417.837	864.88
418.214	824.88
418.591	863.75
418.967	868.04
419.344	909.62
419.721	880.25
420.098	898.55
420.475	906.69
420.852	916.4
421.228	909.62
421.605	941.71
421.982	935.16
422.358	957.31
422.735	974.03
423.111	955.5
423.488	1007.93
423.864	985.55
424.241	1000.24
424.617	1003.63
424.994	1013.12
425.37	1004.08
425.746	1033.46
426.123	1035.72
426.499	1044.53
426.875	1072.33
427.251	1074.82
427.627	1086.79
428.003	1102.61
428.379	1109.84
428.756	1142.84
429.132	1157.53
429.507	1144.19
429.883	1176.28
430.259	1184.87
430.635	1160.01
431.011	1196.62
431.387	1226.68
431.763	1256.05
432.138	1244.98
432.514	1306.22
432.89	1278.43
433.265	1302.16
433.641	1305.09
434.016	1315.26
434.392	1340.57
434.767	1372.44
435.143	1365.43
435.518	1404.53
435.894	1415.37
436.269	1428.25
436.644	1446.56
437.02	1473.9
437.395	1458.76
437.77	1457.63
438.145	1507.35
438.52	1514.8
438.895	1515.03
439.271	1502.83
439.646	1575.37
440.021	1576.27
440.395	1586.44
440.77	1591.41
441.145	1603.39
441.52	1638.64
441.895	1621.47
442.27	1684.29
442.645	1627.57
443.019	1702.6
443.394	1655.59
443.769	1678.42
444.143	1684.97
444.518	1703.5
444.892	1710.73
445.267	1732.65
445.641	1738.98
446.016	1755.25
446.39	1732.43
446.764	1782.14
447.139	1768.58
447.513	1809.71
447.887	1790.73
448.262	1840.22
448.636	1807
449.01	1837.96
449.384	1825.98
449.758	1880.44
450.132	1883.16
450.506	1897.39
450.88	1880.44
451.254	1936.49
451.628	1964.51
452.002	1961.35
452.376	2017.62
452.75	2031.63
453.123	2018.29
453.497	2038.63
453.871	2061.68
454.244	2134.9
454.618	2134.45
454.992	2171.96
455.365	2174.67
455.739	2213.32
456.112	2225.52
456.486	2228.46
456.859	2266.2
457.232	2342.81
457.606	2300.77
457.979	2334.67
458.352	2403.14
458.725	2425.29
459.099	2476.36
459.472	2484.95
459.845	2526.3
460.218	2561.33
460.591	2581.44
460.964	2620.76
461.337	2639.52
461.71	2684.49
462.083	2722.46
462.456	2711.84
462.829	2739.41
463.201	2785.96
463.574	2760.65
463.947	2870.7
464.32	2896.92
464.692	2972.17
465.065	2952.73
465.438	2992.73
465.81	3018.27
466.183	3055.1
466.555	3110.7
466.928	3138.26
467.3	3154.08
467.672	3190.47
468.045	3277.92
468.417	3297.13
468.789	3300.52
469.161	3343.68
469.534	3407.86
469.906	3481.08
470.278	3517.69
470.65	3539.38
471.022	3596.11
471.394	3673.39
471.766	3715.2
472.138	3804.01
472.51	3849.21
472.882	3877
473.253	3915.65
473.625	3970.56
473.997	4065.02
474.369	4105.02
474.74	4145.02
475.112	4258.24
475.484	4264.79
475.855	4359.02
476.227	4440.6
476.598	4487.83
476.97	4552.92
477.341	4667.72
477.713	4756.98
478.084	4759.47
478.455	4899.8
478.827	4897.99
479.198	5054.6
479.569	5038.33
479.94	5175.95
480.311	5250.53
480.682	5396.06
481.053	5492.78
481.424	5601.7
481.795	5653.45
482.166	5740
482.537	5802.38
482.908	5904.07
483.279	6006.89
483.65	6084.63
484.021	6178.64
484.391	6222.93
484.762	6346.32
485.133	6396.26
485.503	6488.69
485.874	6625.63
486.244	6616.82
486.615	6825.85
486.985	6945.85
487.356	6999.18
487.726	7095.68
488.097	7250.02
488.467	7225.84
488.837	7378.15
489.207	7454.31
489.578	7591.71
489.948	7683.68
490.318	7756.22
490.688	7815.43
491.058	7959.38
491.428	7956.22
491.798	8057.01
492.168	8273.05
492.538	8347.39
492.908	8408.41
493.278	8483.21
493.648	8566.14
494.017	8662.87
494.387	8733.37
494.757	8819.25
495.126	8910.77
495.496	8947.15
495.866	9034.83
496.235	9048.39
496.605	9198.67
496.974	9266.24
497.344	9359.8
497.713	9345.56
498.082	9517.53
498.452	9571.77
498.821	9595.72
499.19	9684.76
499.559	9786.23
499.928	9885.66
500.298	9979.89
500.667	10081.36
501.036	10035.71
501.405	10169.27
501.774	10153
502.143	10313.9
502.512	10306.44
502.88	10450.39
503.249	10421.24
503.618	10511.4
503.987	10604.51
504.356	10630.05
504.724	10760.66
505.093	10822.36
505.462	10790.27
505.83	10890.6
506.199	10999.98
506.567	11168.11
506.936	11191.84
507.304	11331.72
507.672	11410.59
508.041	11443.13
508.409	11562.22
508.777	11613.3
509.145	11767.42
509.514	11784.14
509.882	11819.17
510.25	11846.74
510.618	12016.68
510.986	12114.07
511.354	12168.08
511.722	12299.61
512.09	12356.78
512.458	12481.97
512.826	12524.68
513.193	12568.75
513.561	12671.12
513.929	12739.37
514.297	12904.56
514.664	12936.2
515.032	13030.43
515.4	13214.61
515.767	13177.77
516.135	13324.44
516.502	13211.45
516.869	13492.79
517.237	13591.78
517.604	13582.06
517.972	13775.73
518.339	13854.82
518.706	13844.42
519.073	14011.65
519.44	14152.89
519.808	14322.83
520.175	14231.98
520.542	14438.76
520.909	14479.66
521.276	14702.03
521.643	14801.69
522.009	14918.97
522.376	14977.73
522.743	15039.87
523.11	15213.65
523.477	15380.43
523.843	15485.96
524.21	15648.22
524.577	15695.9
524.943	15763.7
525.31	15954.2
525.676	16155.1
526.043	16154.65
526.409	16311.93
526.776	16400.29
527.142	16553.28
527.508	16566.61
527.874	16675.08
528.241	16840.96
528.607	16883.44
528.973	17053.15
529.339	17078.92
529.705	17276.42
530.071	17502.41
530.437	17550.77
530.803	17761.38
531.169	17708.96
531.535	17768.61
531.901	17778.11
532.267	17980.81
532.632	18084.99
532.998	18133.12
533.364	18238.66
533.73	18231.43
534.095	18433.46
534.461	18496.96
534.826	18556.16
535.192	18705.99
535.557	18844.52
535.923	18722.26
536.288	18927.23
536.653	19042.71
537.019	19036.6
537.384	19112.53
537.749	19206.54
538.114	19284.06
538.479	19298.52
538.845	19477.95
539.21	19462.58
539.575	19594.56
539.94	19623.48
540.305	19732.63
540.67	19706.19
541.034	19887.66
541.399	20002.91
541.764	20027.54
542.129	20073.86
542.494	20100.08
542.858	20203.58
543.223	20211.94
543.587	20359.28
543.952	20350.47
544.316	20454.42
544.681	20458.94
545.045	20651.02
545.41	20669.78
545.774	20689.89
546.138	20817.8
546.503	20849.89
546.867	21020.28
547.231	21113.61
547.595	21097.34
547.959	21278.13
548.324	21229.09
548.688	21324.68
549.052	21412.59
549.416	21474.28
549.779	21474.73
550.143	21475.64
550.507	21646.48
550.871	21794.95
551.235	21786.81
551.599	21918.79
551.962	22030.65
552.326	22147.93
552.689	22275.39
553.053	22178.89
553.417	22308.83
553.78	22609.17
554.143	22505.67
554.507	22624.76
554.87	22747.01
555.234	22958.31
555.597	22812.32
555.96	23001.7
556.323	22992.21
556.686	23088.7
557.05	23236.27
557.413	23425.64
557.776	23442.14
558.139	23557.62
558.502	23570.95
558.865	23704.05
559.228	23978.39
559.59	24011.39
559.953	23936.81
560.316	24295.9
560.679	24317.14
561.041	24388.55
561.404	24445.95
561.767	24558.72
562.129	24616.34
562.492	24921.42
562.854	24812.5
563.217	24870.12
563.579	24970.69
563.941	25194.18
564.304	25369.32
564.666	25484.34
565.028	25342.2
565.39	25546.94
565.753	25804.56
566.115	25922.07
566.477	25996.87
566.839	26074.61
567.201	26211.78
567.563	26182.18
567.925	26489.74
568.287	26388.28
568.648	26486.35
569.01	26685.22
569.372	26812.9
569.734	26842.5
570.095	26976.96
570.457	27039.78
570.819	27040.91
571.18	27133.11
571.542	27228.25
571.903	27269.61
572.265	27448.59
572.626	27513.22
572.987	27574.23
573.349	27700.1
573.71	27848.58
574.071	27768.35
574.432	27938.52
574.794	28141
575.155	28042.24
575.516	27982.13
575.877	28089.93
576.238	28110.72
576.599	28497.82
576.96	28272.97
577.32	28366.53
577.681	28578.73
578.042	28549.57
578.403	28492.85
578.763	28577.37
579.124	28542.34
579.485	28694.43
579.845	28751.83
580.206	28764.94
580.566	28743.02
580.927	28878.38
581.287	29041.76
581.648	28888.77
582.008	28997.47
582.368	28992.95
582.728	28999.05
583.089	28918.6
583.449	28989.34
583.809	29024.82
584.169	29118.15
584.529	28970.13
584.889	29243.57
585.249	29192.5
585.609	29028.43
585.969	29254.41
586.329	29121.76
586.688	29217.35
587.048	29206.51
587.408	29092.16
587.768	29116.11
588.127	29194.98
588.487	29044.48
588.846	29324.02
589.206	29081.54
589.565	29298.03
589.925	29303.45
590.284	29230.01
590.643	29314.53
591.003	29282.66
591.362	29451.47
591.721	29396.33
592.08	29281.76
592.44	29450.79
592.799	29358.37
593.158	29367.63
593.517	29360.63
593.876	29316.79
594.235	29280.4
594.593	29375.09
594.952	29448.76
595.311	29339.16
595.67	29394.52
596.029	29605.37
596.387	29627.51
596.746	29752.93
597.104	29554.97
597.463	29626.83
597.822	29798.35
598.18	29554.75
598.538	29612.15
598.897	29854.17
599.255	29628.64
599.613	30027.28
599.972	29722.2
600.33	29860.73
600.688	29699.6
601.046	29739.37
601.404	29897.34
601.762	29855.98
602.12	30033.6
602.478	30039.03
602.836	30030.89
603.194	29879.03
603.552	29959.93
603.91	29895.08
604.268	30140.72
604.625	30055.75
604.983	30256.65
605.341	30058.69
605.698	30249.42
606.056	30205.12
606.413	30203.32
606.771	30183.88
607.128	30281.51
607.485	30272.47
607.843	30199.02
608.2	30465
608.557	30543.42
608.914	30408.28
609.272	30590.88
609.629	30632.91
609.986	30761.72
610.343	30603.76
610.7	30721.49
611.057	30849.85
611.414	30813.7
611.771	30829.29
612.127	31042.39
612.484	30810.53
612.841	30878.33
613.198	30834.26
613.554	30816.18
613.911	31000.36
614.267	31078.1
614.624	31099.79
614.98	31096.17
615.337	31279.67
615.693	31176.85
616.05	31124.65
616.406	31374.81
616.762	31365.09
617.118	31237.87
617.475	31222.72
617.831	31483.51
618.187	31339.11
618.543	31398.54
618.899	31625.88
619.255	31536.61
619.611	31392.44
619.967	31563.96
620.323	31716.27
620.678	31495.94
621.034	31509.5
621.39	31540.23
621.746	31416.62
622.101	31815.48
622.457	31471.98
622.812	31577.52
623.168	31725.76
623.523	31768.47
623.879	31679.66
624.234	31635.59
624.589	31551.08
624.945	31736.38
625.3	31778.42
625.655	31647.12
626.01	31648.48
626.365	31743.84
626.72	31659.32
627.075	31597.86
627.43	31761.24
627.785	31622.26
628.14	31608.02
628.495	31660.23
628.85	31661.81
629.205	31600.34
629.559	31819.09
629.914	31542.26
630.269	31698.19
630.623	31437.86
630.978	31394.7
631.332	31576.16
631.687	31531.87
632.041	31471.53
632.396	31447.8
632.75	31295.72
633.104	31299.56
633.459	31194.02
633.813	31202.16
634.167	31213.01
634.521	31224.98
634.875	31300.91
635.229	31310.63
635.583	31103.41
635.937	31090.98
636.291	31079.68
636.645	31116.29
636.999	30935.27
637.352	31119
637.706	30828.84
638.06	31073.35
638.413	30846.01
638.767	30870.42
639.121	30931.21
639.474	30744.54
639.828	30706.13
640.181	30858.44
640.534	30817.54
640.888	30540.48
641.241	30489.41
641.594	30669.52
641.947	30542.29
642.301	30491.22
642.654	30608.28
643.007	30555.17
643.36	30498.22
643.713	30349.3
644.066	30387.94
644.419	30311.34
644.771	30128.74
645.124	29903.89
645.477	29797.22
645.83	29650.56
646.182	29496.67
646.535	29304.58
646.888	29468.87
647.24	29237.01
647.593	29330.12
647.945	29251.7
648.298	29118.6
648.65	29079.73
649.002	29093.29
649.355	29195.88
649.707	29263.91
650.059	29243.57
650.411	29642.88
650.763	29679.04
651.115	29905.47
651.467	29749.77
651.819	29794.97
652.171	29581.41
652.523	29638.13
652.875	29578.47
653.227	29474.3
653.578	29614.18
653.93	29653.95
654.282	29440.17
654.633	29447.4
654.985	29448.53
655.337	29403.34
655.688	29391.59
656.039	29559.94
656.391	29304.13
656.742	29350.91
657.094	29448.76
657.445	29422.77
657.796	29345.49
658.147	29360.63
658.498	29329.67
658.849	29428.2
659.2	29240.18
659.551	29202.21
659.902	29218.26
660.253	29302.32
660.604	29220.97
660.955	29144.59
661.306	29170.35
661.656	29169.44
662.007	29065.27
662.358	29126.51
662.708	29098.26
663.059	29150.24
663.409	28972.61
663.76	29197.69
664.11	29165.15
664.461	29003.12
664.811	28979.17
665.161	29035.44
665.511	28979.17
665.862	29021.65
666.212	29093.51
666.562	29018.04
666.912	28930.13
667.262	28905.95
667.612	28991.6
667.962	29104.14
668.312	28935.55
668.662	28980.52
669.011	28979.62
669.361	28839.06
669.711	28759.74
670.06	28784.82
670.41	28770.13
670.76	28763.13
671.109	28799.96
671.459	28798.83
671.808	28773.98
672.157	28821.66
672.507	28473.64
672.856	28546.64
673.205	28679.97
673.554	28788.44
673.904	28450.59
674.253	28845.39
674.602	28662.57
674.951	28241.11
675.3	28056.48
675.649	28545.73
675.998	28550.93
676.346	28532.4
676.695	28583.92
677.044	28331.27
677.393	28488.56
677.741	28488.33
678.09	28272.07
678.438	28253.08
678.787	28437.94
679.135	28437.94
679.484	28133.99
679.832	28182.8
680.181	28094.44
680.529	28196.36
680.877	28058.29
681.225	28113.43
681.573	28244.5
681.922	28038.63
682.27	27879.31
682.618	27993.66
682.966	27816.49
683.314	27975.13
683.661	27855.36
684.009	27781.91
684.357	27641.58
684.705	27658.52
685.053	27729.48
685.4	27564.74
685.748	27524.74
686.095	27447.91
686.443	27288.14
686.79	27312.77
687.138	27458.08
687.485	27368.59
687.832	27166.33
688.18	27313.67
688.527	27054.92
688.874	27035.26
689.221	27061.25
689.568	26929.28
689.915	26866.23
690.262	26868.49
690.609	26806.8
690.956	26769.51
691.303	26614.48
691.65	26540.59
691.997	26598.67
692.344	26449.74
692.69	26226.25
693.037	26349.18
693.383	26117.77
693.73	26207.26
694.077	26089.75
694.423	26050.88
694.769	25925.46
695.116	25936.54
695.462	25961.39
695.808	25754.62
696.155	25837.1
696.501	25665.36
696.847	25696.32
697.193	25400.05
697.539	25597.56
697.885	25278.7
698.231	25251.36
698.577	25200.28
698.923	25203
699.269	25247.29
699.614	25096.33
699.96	24988.54
700.306	25054.52
700.651	24885.72
700.997	24762.1
701.342	24902.89
701.688	24696.34
702.033	24656.12
702.379	24505.84
702.724	24462.22
703.069	24670.58
703.415	24332.06
703.76	24247.54
704.105	24274.66
704.45	24264.26
704.795	24148.56
705.14	24054.55
705.485	24043.25
705.83	23921.67
706.175	23990.82
706.52	23766.42
706.865	23720.55
707.209	23751.28
707.554	23658.4
707.899	23822.47
708.243	23609.37
708.588	23563.26
708.932	23489.37
709.277	23438.52
709.621	23436.94
709.966	23265.65
710.31	23298.41
710.654	23104.52
710.998	23096.61
711.342	23210.28
711.687	23095.03
712.031	23017.74
712.375	22966.22
712.719	22991.08
713.063	23019.1
713.407	22934.13
713.75	22870.85
714.094	22797.41
714.438	22603.74
714.782	22698.65
715.125	22632.67
715.469	22567.36
715.812	22531.88
716.156	22425.89
716.499	22466.8
716.843	22436.51
717.186	22329.62
717.53	22441.03
717.873	22413.92
718.216	22328.27
718.559	22324.88
718.902	22020.71
719.246	22121.49
719.589	22016.41
719.932	21938
720.275	21829.07
720.617	22021.61
720.96	21874.72
721.303	21971.89
721.646	21949.97
721.989	21777.55
722.331	21824.1
722.674	21733.93
723.016	21696.42
723.359	21707.49
723.701	21604.22
724.044	21508.4
724.386	21438.57
724.729	21461.17
725.071	21524.45
725.413	21414.17
725.755	21414.17
726.097	21305.7
726.439	21326.49
726.782	21231.35
727.124	21379.59
727.465	21139.83
727.807	21133.5
728.149	21202.87
728.491	21064.35
728.833	21112.26
729.175	21042.43
729.516	21041.75
729.858	20988.87
730.199	20950.45
730.541	20917.23
730.882	20856.44
731.224	20959.94
731.565	20791.81
731.906	20809.89
732.248	20778.48
732.589	20689.89
732.93	20651.7
733.271	20601.08
733.612	20614.19
733.953	20670.69
734.294	20491.48
734.635	20514.53
734.976	20542.33
735.317	20530.35
735.658	20490.35
735.999	20486.74
736.339	20324.03
736.68	20422.56
737.021	20310.92
737.361	20236.35
737.702	20370.35
738.042	20259.17
738.383	20265.27
738.723	20273.41
739.063	20168.78
739.404	20221.88
739.744	20047.65
740.084	20100.08
740.424	20051.49
740.764	20047.2
741.104	20050.36
741.444	19839.97
741.784	19858.73
742.124	19931.04
742.464	19962
742.804	19769.92
743.143	19843.81
743.483	19835.45
743.823	19682.91
744.162	19612.63
744.502	19793.87
744.841	19544.39
745.181	19715
745.52	19530.6
745.86	19695.8
746.199	19524.27
746.538	19458.97
746.877	19644.27
747.216	19446.54
747.556	19416.03
747.895	19463.94
748.234	19355.92
748.573	19234.79
748.911	19243.38
749.25	19242.02
749.589	19181.01
749.928	19245.64
750.267	19078.64
750.605	19167.9
750.944	19063.04
751.283	19002.71
751.621	18976.49
751.96	18903.05
752.298	18842.71
752.636	18841.35
752.975	18830.96
753.313	18672.55
753.651	18793.67
753.989	18691.3
754.327	18579.44
754.666	18530.18
