Data from breadboard_black_back_FLMS001491_00020.txt Node
Date: Wed Feb 08 10:50:02 GMT 2017
User: dcchb
Spectrometer: FLMS00149
Trigger mode: 0
Integration Time (sec): 2.000000E-2
Scans to average: 10
Electric dark correction enabled: true
Nonlinearity correction enabled: false
Boxcar width: 0
XAxis mode: Wavelengths
Number of Pixels in Spectrum: 2048
>>>>>Begin Spectral Data<<<<<
341.393	-35.17
341.776	-35.17
342.16	-35.17
342.543	-33.36
342.927	-67.26
343.31	-53.47
343.693	-83.98
344.077	-82.62
344.46	-55.51
344.843	-59.35
345.226	-26.81
345.61	-40.37
345.993	-13.25
346.376	-15.73
346.759	21.33
347.142	15.68
347.525	51.38
347.908	56.35
348.291	83.25
348.674	104.04
349.057	99.07
349.44	129.35
349.823	139.52
350.206	163.02
350.588	199.63
350.971	216.12
351.354	237.59
351.737	254.09
352.119	246.86
352.502	272.62
352.884	283.69
353.267	279.17
353.65	301.77
354.032	298.16
354.414	297.93
354.797	311.71
355.179	343.35
355.562	339.06
355.944	339.74
356.326	348.32
356.709	340.19
357.091	350.13
357.473	358.72
357.855	355.33
358.238	353.3
358.62	347.42
359.002	345.16
359.384	342
359.766	352.62
360.148	344.26
360.53	349
360.912	353.3
361.294	356.01
361.676	358.27
362.057	345.61
362.439	342.67
362.821	337.48
363.203	341.32
363.584	364.37
363.966	342.22
364.348	347.65
364.729	339.51
365.111	339.28
365.493	343.58
365.874	345.39
366.256	335.22
366.637	356.69
367.019	329.12
367.4	347.87
367.781	355.33
368.163	334.77
368.544	358.49
368.925	374.09
369.306	370.02
369.688	344.93
370.069	338.38
370.45	350.81
370.831	349.23
371.212	336.35
371.593	336.57
371.974	349.91
372.355	336.57
372.736	339.96
373.117	351.71
373.498	344.71
373.879	367.08
374.26	355.78
374.641	360.75
375.021	373.41
375.402	383.8
375.783	366.18
376.163	380.19
376.544	368.66
376.925	382.22
377.305	356.91
377.686	353.97
378.066	410.47
378.447	399.17
378.827	393.97
379.208	377.25
379.588	393.52
379.968	387.65
380.349	407.53
380.729	402.11
381.109	387.65
381.489	401.88
381.87	397.36
382.25	403.69
382.63	409.11
383.01	393.97
383.39	400.53
383.77	419.06
384.15	434.42
384.53	409.11
384.91	423.35
385.29	441.43
385.67	450.92
386.049	449.56
386.429	449.56
386.809	441.43
387.189	447.76
387.568	430.13
387.948	460.86
388.328	459.73
388.707	450.69
389.087	443.46
389.466	443.91
389.846	474.42
390.225	490.24
390.605	477.13
390.984	482.78
391.363	502.44
391.743	486.85
392.122	487.76
392.501	503.8
392.881	511.71
393.26	490.69
393.639	495.21
394.018	511.48
394.397	532.05
394.776	546.96
395.155	530.24
395.534	550.58
395.913	540.18
396.292	554.65
396.671	539.96
397.05	554.42
397.429	555.78
397.808	543.35
398.186	549.45
398.565	561.2
398.944	578.83
399.323	564.36
399.701	570.92
400.08	573.85
400.458	562.33
400.837	600.29
401.215	600.75
401.594	589.22
401.972	617.47
402.351	616.79
402.729	600.07
403.107	629.45
403.486	610.92
403.864	617.92
404.242	651.82
404.62	627.86
404.999	659.28
405.377	649.79
405.755	652.95
406.133	651.59
406.511	666.28
406.889	664.02
407.267	674.64
407.645	684.81
408.023	706.73
408.401	718.71
408.779	713.96
409.156	721.87
409.534	737.47
409.912	740.63
410.29	756.68
410.667	768.2
411.045	779.73
411.422	778.14
411.8	800.06
412.178	804.36
412.555	817.46
412.933	840.97
413.31	812.49
413.687	832.38
414.065	837.35
414.442	849.33
414.819	864.92
415.197	846.39
415.574	880.97
415.951	865.6
416.328	865.37
416.705	913.73
417.082	910.12
417.46	923.22
417.837	911.47
418.214	925.71
418.591	932.49
418.967	979.04
419.344	932.26
419.721	968.42
420.098	963.9
420.475	1001.41
420.852	971.36
421.228	1019.04
421.605	1004.8
421.982	1015.65
422.358	1024.24
422.735	1042.54
423.111	1036.89
423.488	1068.53
423.864	1050.9
424.241	1085.03
424.617	1081.19
424.994	1084.58
425.37	1099.04
425.746	1125.48
426.123	1103.78
426.499	1129.32
426.875	1138.81
427.251	1181.75
427.627	1174.07
428.003	1158.25
428.379	1207.51
428.756	1238.92
429.132	1268.98
429.507	1253.39
429.883	1268.98
430.259	1297.68
430.635	1322.76
431.011	1326.38
431.387	1329.77
431.763	1357.34
432.138	1361.63
432.514	1365.7
432.89	1406.6
433.265	1403.21
433.641	1431.91
434.016	1455.87
434.392	1471.01
434.767	1495.64
435.143	1512.59
435.518	1509.42
435.894	1524.56
436.269	1533.15
436.644	1546.71
437.02	1598.91
437.395	1597.33
437.77	1583.55
438.145	1611.12
438.52	1630.1
438.895	1685.69
439.271	1672.36
439.646	1701.73
440.021	1711.9
440.395	1720.72
440.77	1706.03
441.145	1722.07
441.52	1760.04
441.895	1790.55
442.27	1811.56
442.645	1779.92
443.019	1815.63
443.394	1803.2
443.769	1839.58
444.143	1855.86
444.518	1847.95
444.892	1851.56
445.267	1903.09
445.641	1893.37
446.016	1891.79
446.39	1934.95
446.764	1939.24
447.139	1909.19
447.513	1978.11
447.887	1953.71
448.262	1965.68
448.636	2000.94
449.01	2028.73
449.384	2065.79
449.758	2040.71
450.132	2072.35
450.506	2093.14
450.88	2138.33
451.254	2101.95
451.628	2125.45
452.002	2180.37
452.376	2178.56
452.75	2228.73
453.123	2209.52
453.497	2274.15
453.871	2294.04
454.244	2311.89
454.618	2362.28
454.992	2359.57
455.365	2386.69
455.739	2417.87
456.112	2456.07
456.486	2474.6
456.859	2492
457.232	2555.05
457.606	2539.45
457.979	2576.29
458.352	2610.41
458.725	2692.67
459.099	2672.56
459.472	2739.22
459.845	2765.44
460.218	2757.07
460.591	2826.45
460.964	2813.8
461.337	2879.33
461.71	2900.57
462.083	2999.55
462.456	2946.67
462.829	3003.85
463.201	3074.35
463.574	3061.47
463.947	3185.54
464.32	3199.32
464.692	3236.38
465.065	3225.31
465.438	3268.25
465.81	3307.79
466.183	3382.82
466.555	3428.02
466.928	3402.93
467.3	3464.85
467.672	3496.94
468.045	3595.47
468.417	3625.3
468.789	3645.19
469.161	3651.51
469.534	3740.33
469.906	3825.97
470.278	3818.29
470.65	3935.8
471.022	3984.39
471.394	4068.9
471.766	4107.55
472.138	4098.06
472.51	4212.63
472.882	4252.18
473.253	4296.02
473.625	4368.56
473.997	4461.89
474.369	4473.41
474.74	4561.09
475.112	4640.19
475.484	4697.14
475.855	4744.14
476.227	4862.33
476.598	4965.38
476.97	5031.82
477.341	5142.55
477.713	5216.44
478.084	5241.08
478.455	5326.95
478.827	5414.41
479.198	5536.89
479.569	5580.28
479.94	5740.5
480.311	5753.83
480.682	5892.36
481.053	6012.13
481.424	6085.8
481.795	6183.88
482.166	6280.15
482.537	6381.16
482.908	6564.88
483.279	6555.17
483.65	6690.98
484.021	6837.87
484.391	6867.93
484.762	6974.59
485.133	7008.04
485.503	7142.5
485.874	7289.61
486.244	7366.22
486.615	7451.19
486.985	7591.3
487.356	7717.62
487.726	7784.06
488.097	7925.07
488.467	7992.64
488.837	8154.22
489.207	8309.92
489.578	8364.84
489.948	8432.41
490.318	8534.55
490.688	8652.74
491.058	8757.37
491.428	8850.7
491.798	8923.01
492.168	9184.48
492.538	9176.34
492.908	9230.35
493.278	9385.83
493.648	9371.36
494.017	9495.43
494.387	9613.17
494.757	9819.49
495.126	9823.33
495.496	9815.19
495.866	9906.94
496.235	10039.82
496.605	10127.95
496.974	10178.8
497.344	10296.09
497.713	10286.14
498.082	10412.69
498.452	10575.63
498.821	10567.94
499.19	10640.26
499.559	10767.49
499.928	10900.14
500.298	10856.3
500.667	11027.82
501.036	10972
501.405	11139.9
501.774	11188.72
502.143	11329.28
502.512	11376.96
502.88	11560.68
503.249	11508.26
503.618	11601.14
503.987	11635.26
504.356	11747.57
504.724	11795.03
505.093	11764.07
505.462	11909.38
505.83	12040.9
506.199	12142.82
506.567	12321.34
506.936	12263.04
507.304	12388.69
507.672	12453.32
508.041	12515.91
508.409	12673.2
508.777	12808.79
509.145	12897.37
509.514	12844.27
509.882	12965.62
510.25	13005.62
510.618	13142.11
510.986	13232.28
511.354	13366.51
511.722	13482.22
512.09	13566.73
512.458	13588.2
512.826	13687.86
513.193	13813.51
513.561	13852.83
513.929	14086.04
514.297	14162.42
514.664	14275.64
515.032	14352.48
515.4	14415.98
515.767	14546.59
516.135	14625.01
516.502	14530.55
516.869	14764.22
517.237	14831.33
517.604	14868.62
517.972	15091.21
518.339	15196.75
518.706	15189.74
519.073	15322.62
519.44	15457.08
519.808	15646.45
520.175	15672.89
520.542	15937.07
520.909	15958.08
521.276	16029.49
521.643	16151.75
522.009	16258.19
522.376	16402.82
522.743	16507.9
523.11	16681
523.477	16815.91
523.843	16931.39
524.21	17077.6
524.577	17264.04
524.943	17337.26
525.31	17470.59
525.676	17616.34
526.043	17678.04
526.409	17817.7
526.776	17912.61
527.142	18140.17
527.508	18191.24
527.874	18266.05
528.241	18484.57
528.607	18506.72
528.973	18700.84
529.339	18767.05
529.705	18971.34
530.071	19030.54
530.437	19163.87
530.803	19296.75
531.169	19366.58
531.535	19390.76
531.901	19476.18
532.267	19673.47
532.632	19726.8
532.998	19869.84
533.364	19938.32
533.73	19998.43
534.095	20095.83
534.461	20199.78
534.826	20313
535.192	20395.25
535.557	20598.64
535.923	20599.32
536.288	20748.92
536.653	20738.97
537.019	20740.33
537.384	20795.47
537.749	20926.99
538.114	21084.05
538.479	21102.81
538.845	21193.65
539.21	21306.87
539.575	21298.51
539.94	21481.55
540.305	21559.74
540.67	21493.08
541.034	21688.55
541.399	21759.51
541.764	21849
542.129	21878.83
542.494	21930.13
542.858	22031.14
543.223	22056.23
543.587	22201.31
543.952	22305.71
544.316	22345.49
544.681	22368.99
545.045	22511.13
545.41	22592.49
545.774	22644.91
546.138	22653.73
546.503	22775.98
546.867	22784.12
547.231	23006.94
547.595	23008.29
547.959	23087.84
548.324	23192.92
548.688	23205.12
549.052	23453.03
549.416	23400.15
549.779	23442.41
550.143	23518.11
550.507	23695.96
550.871	23757.2
551.235	23815.73
551.599	23992.67
551.962	23920.13
552.326	24120.13
552.689	24207.36
553.053	24165.1
553.417	24222.5
553.78	24630.62
554.143	24506.33
554.507	24647.12
554.87	24808.47
555.234	24942.03
555.597	24765.54
555.96	24916.94
556.323	25045.08
556.686	25202.36
557.05	25444.39
557.413	25368.68
557.776	25402.35
558.139	25669.01
558.502	25648
558.865	25699.97
559.228	25986.97
559.59	26043.92
559.953	26127.53
560.316	26386.06
560.679	26365.95
561.041	26501.08
561.404	26652.72
561.767	26757.57
562.129	26815.2
562.492	27017.91
562.854	27025.59
563.217	27060.16
563.579	27207.05
563.941	27452.92
564.304	27600.71
564.666	27698.11
565.028	27718.68
565.39	27788.73
565.753	28103.53
566.115	28021.95
566.477	28289.06
566.839	28268.04
567.201	28570.86
567.563	28576.51
567.925	28676.84
568.287	28755.03
568.648	28818.08
569.01	28878.2
569.372	29134.23
569.734	29118.64
570.095	29281.57
570.457	29385.53
570.819	29429.82
571.18	29601.57
571.542	29661.9
571.903	29627.55
572.265	29843.37
572.626	29916.81
572.987	29950.94
573.349	30050.82
573.71	30110.03
574.071	30250.59
574.432	30322
574.794	30453.07
575.155	30544.59
575.516	30483.8
575.877	30623.69
576.238	30696
576.599	30771.93
576.96	30899.84
577.32	30899.61
577.681	30964.69
578.042	31141.64
578.403	31085.37
578.763	31012.83
579.124	31189.77
579.485	31323.33
579.845	31336.44
580.206	31294.18
580.566	31248.98
580.927	31340.5
581.287	31526.04
581.648	31378.47
582.008	31517.9
582.368	31415.76
582.728	31493.04
583.089	31480.16
583.449	31479.48
583.809	31503.21
584.169	31467.73
584.529	31480.61
584.889	31677.44
585.249	31550.67
585.609	31535.3
585.969	31739.36
586.329	31568.52
586.688	31685.81
587.048	31615.75
587.408	31616.65
587.768	31624.56
588.127	31625.47
588.487	31591.8
588.846	31751.11
589.206	31559.03
589.565	31581.85
589.925	31826.37
590.284	31681.06
590.643	31663.66
591.003	31795.63
591.362	31917.89
591.721	31773.03
592.08	31730.55
592.44	31905.46
592.799	31902.3
593.158	31847.61
593.517	31896.65
593.876	32006.47
594.235	31812.81
594.593	32015.97
594.952	31892.81
595.311	31882.86
595.67	32032.46
596.029	32050.54
596.387	32159.69
596.746	32250.54
597.104	32069.75
597.463	32021.39
597.822	32229.52
598.18	32119.01
598.538	31984.33
598.897	32307.03
599.255	31979.81
599.613	32453.02
599.972	32198.11
600.33	32366.47
600.688	32166.92
601.046	32280.82
601.404	32433.36
601.762	32347.48
602.12	32541.6
602.478	32476.52
602.836	32500.7
603.194	32355.84
603.552	32436.52
603.91	32442.17
604.268	32554.48
604.625	32498.44
604.983	32605.1
605.341	32559.68
605.698	32807.13
606.056	32662.73
606.413	32719.22
606.771	32750.18
607.128	32933.46
607.485	32654.14
607.843	32799.22
608.2	32886.68
608.557	32953.79
608.914	32893.68
609.272	33092.1
609.629	33270.4
609.986	33152.21
610.343	33088.71
610.7	33396.27
611.057	33263.84
611.414	33253.22
611.771	33311.07
612.127	33322.82
612.484	33409.38
612.841	33414.12
613.198	33382.48
613.554	33360.11
613.911	33616.15
614.267	33598.3
614.624	33582.48
614.98	33591.52
615.337	33788.12
615.693	33637.84
616.05	33671.74
616.406	33820.66
616.762	33869.48
617.118	33631.97
617.475	33745.86
617.831	33700.89
618.187	33838.52
618.543	33824.96
618.899	34133.42
619.255	34035.8
619.611	33914.9
619.967	34255.68
620.323	34139.98
620.678	33932.3
621.034	34066.99
621.39	33951.73
621.746	33829.7
622.101	34373.64
622.457	33986.99
622.812	34156.7
623.168	34140.2
623.523	34102.46
623.879	34262.01
624.234	34029.47
624.589	34045.97
624.945	34204.84
625.3	34283.25
625.655	34130.26
626.01	34196.25
626.365	34018.63
626.72	34192.18
627.075	33978.63
627.43	34161.45
627.785	34191.5
628.14	34205.06
628.495	34029.7
628.85	34087.1
629.205	34027.44
629.559	34151.96
629.914	34145.85
630.269	34040.32
630.623	33816.82
630.978	33896.37
631.332	33987.21
631.687	33897.5
632.041	33837.84
632.396	33952.64
632.75	33870.61
633.104	33866.54
633.459	33607.56
633.813	33683.27
634.167	33688.01
634.521	33668.8
634.875	33629.26
635.229	33547.23
635.583	33328.25
635.937	33488.92
636.291	33495.48
636.645	33399.43
636.999	33311.75
637.352	33433.1
637.706	33168.93
638.06	33382.03
638.413	33376.61
638.767	33086.22
639.121	33280.34
639.474	32922.83
639.828	33081.02
640.181	33001.02
640.534	33002.38
640.888	32994.7
641.241	32845.55
641.594	32761.03
641.947	32870.63
642.301	32794.02
642.654	32911.54
643.007	32735.27
643.36	32661.15
643.713	32618.66
644.066	32857.75
644.419	32480.81
644.771	32503.64
645.124	32102.74
645.477	32146.13
645.83	31872.92
646.182	31742.53
646.535	31555.41
646.888	31570.78
647.24	31418.02
647.593	31596.32
647.945	31557.67
648.298	31262.99
648.65	31297.34
649.002	31195.65
649.355	31271.13
649.707	31313.84
650.059	31436.09
650.411	31803.54
650.763	31844.45
651.115	32248.73
651.467	31983.42
651.819	32017.32
652.171	31950.43
652.523	31872.92
652.875	31857.1
653.227	31729.19
653.578	31886.93
653.93	31738.91
654.282	31673.83
654.633	31516.32
654.985	31643.09
655.337	31787.95
655.688	31567.62
656.039	31697.33
656.391	31531.23
656.742	31451.46
657.094	31504.79
657.445	31673.6
657.796	31506.6
658.147	31394.97
658.498	31411.24
658.849	31484.91
659.2	31461.4
659.551	31404.23
659.902	31426.6
660.253	31457.11
660.604	31394.74
660.955	31304.8
661.306	31471.35
661.656	31278.13
662.007	31275.42
662.358	31279.71
662.708	31159.94
663.059	31245.59
663.409	31025.48
663.76	31310.9
664.11	31275.65
664.461	31183.45
664.811	31197.46
665.161	31277
665.511	31012.6
665.862	31142.77
666.212	31253.27
666.562	31159.04
666.912	31208.76
667.262	31070.68
667.612	31012.15
667.962	31053.05
668.312	30948.42
668.662	31098.7
669.011	31036.33
669.361	30924.02
669.711	30965.15
670.06	30892.38
670.41	30904.81
670.76	30887.41
671.109	30917.01
671.459	30876.11
671.808	30858.26
672.157	30966.28
672.507	30642.44
672.856	30658.71
673.205	30745.04
673.554	30743.68
673.904	30743.01
674.253	30769.45
674.602	30860.74
674.951	30279.97
675.3	30119.07
675.649	30649.45
675.998	30550.92
676.346	30509.34
676.695	30518.15
677.044	30461.2
677.393	30439.74
677.741	30588.88
678.09	30412.62
678.438	30305.73
678.787	30399.06
679.135	30450.58
679.484	30235.45
679.832	30345.5
680.181	30253.75
680.529	30204.71
680.877	30190.25
681.225	30140.76
681.573	30293.3
681.922	29978.96
682.27	29983.93
682.618	29905.51
682.966	29901.22
683.314	29967.43
683.661	29905.51
684.009	29749.59
684.357	29647.89
684.705	29607.22
685.053	29722.24
685.4	29516.82
685.748	29459.88
686.095	29384.4
686.443	29251.29
686.79	29278.41
687.138	29246.55
687.485	29354.57
687.832	29179.2
688.18	29188.02
688.527	29009.27
688.874	28959.32
689.221	28999.55
689.568	28952.77
689.915	28915.93
690.262	28869.83
690.609	28865.77
690.956	28611.08
691.303	28568.37
691.65	28486.34
691.997	28427.36
692.344	28378.1
692.69	28304.65
693.037	28330.19
693.383	28084.77
693.73	28165.9
694.077	28051.1
694.423	27988.28
694.769	27846.58
695.116	27777.21
695.462	27843.19
695.808	27688.17
696.155	27715.97
696.501	27457.22
696.847	27474.62
697.193	27322.3
697.539	27372.02
697.885	27123.89
698.231	27061.75
698.577	27151.24
698.923	27171.35
699.269	26970
699.614	26825.82
699.96	26626.73
700.306	26787.18
700.651	26628.99
700.997	26617.69
701.342	26580.63
701.688	26427.19
702.033	26350.8
702.379	26384.25
702.724	26321.2
703.069	26396.23
703.415	25932.28
703.76	26005.5
704.105	25910.82
704.45	25860.87
704.795	25843.47
705.14	25718.05
705.485	25830.37
705.83	25621.78
706.175	25682.35
706.52	25556.93
706.865	25473.77
707.209	25479.19
707.554	25446.65
707.899	25421.11
708.243	25347.44
708.588	25308.35
708.932	25223.83
709.277	25115.58
709.621	25139.08
709.966	24982.7
710.31	25032.42
710.654	24810.05
710.998	24766.44
711.342	24777.06
711.687	24723.95
712.031	24615.48
712.375	24510.4
712.719	24576.39
713.063	24564.18
713.407	24621.58
713.75	24409.39
714.094	24408.93
714.438	24288.49
714.782	24263.63
715.125	24181.6
715.469	24202.61
715.812	24026.35
716.156	23917.65
716.499	23977.99
716.843	24044.2
717.186	23855.5
717.53	23983.41
717.873	23899.12
718.216	23805.56
718.559	23770.99
718.902	23640.59
719.246	23584.32
719.589	23550.2
719.932	23409.64
720.275	23514.27
720.617	23507.49
720.96	23445.34
721.303	23380.03
721.646	23398.11
721.989	23270.43
722.331	23346.59
722.674	23246.93
723.016	23180.94
723.359	23150.21
723.701	23180.04
724.044	23094.62
724.386	22930.78
724.729	23046.48
725.071	22929.2
725.413	22995.64
725.755	22958.8
726.097	22957.22
726.439	22732.14
726.782	22773.95
727.124	22903.66
727.465	22653.05
727.807	22588.87
728.149	22638.81
728.491	22542.77
728.833	22566.27
729.175	22399.95
729.516	22475.88
729.858	22480.85
730.199	22519.04
730.541	22361.53
730.882	22294.87
731.224	22364.69
731.565	22254.87
731.906	22212.61
732.248	22283.57
732.589	22136.9
732.93	22092.84
733.271	22153.63
733.612	22083.57
733.953	22100.29
734.294	21950.69
734.635	21988.43
734.976	21980.52
735.317	21814.88
735.658	21882.9
735.999	21838.61
736.339	21769.91
736.68	21812.62
737.021	21593.19
737.361	21670.02
737.702	21696.92
738.042	21639.29
738.383	21616.01
738.723	21606.07
739.063	21612.17
739.404	21517.26
739.744	21528.33
740.084	21451.72
740.424	21380.77
740.764	21334.89
741.104	21456.7
741.444	21327.66
741.784	21217.61
742.124	21313.65
742.464	21226.19
742.804	21240.88
743.143	21121.56
743.483	21269.58
743.823	20909.59
744.162	20985.52
744.502	21025.97
744.841	20876.82
745.181	21002.02
745.52	20899.42
745.86	20896.94
746.199	20867.78
746.538	20808.13
746.877	20894.68
747.216	20748.01
747.556	20777.84
747.895	20726.32
748.234	20613.78
748.573	20638.19
748.911	20591.41
749.25	20610.39
749.589	20454.91
749.928	20498.75
750.267	20544.86
750.605	20378.31
750.944	20386.44
751.283	20188.48
751.621	20389.15
751.96	20173.57
752.298	20174.7
752.636	20141.7
752.975	19947.13
753.313	19875.04
753.651	20018.09
753.989	19897.41
754.327	19840.47
