Data from breadboard_black_back_FLMS001491_00047.txt Node
Date: Wed Feb 08 10:50:27 GMT 2017
User: dcchb
Spectrometer: FLMS00149
Trigger mode: 0
Integration Time (sec): 2.000000E-2
Scans to average: 10
Electric dark correction enabled: true
Nonlinearity correction enabled: false
Boxcar width: 0
XAxis mode: Wavelengths
Number of Pixels in Spectrum: 2048
>>>>>Begin Spectral Data<<<<<
341.393	-2.13
341.776	-2.13
342.16	-2.13
342.543	-80.55
342.927	-55.46
343.31	-78.51
343.693	-61.79
344.077	-73.32
344.46	-56.37
344.843	-63.6
345.226	-45.52
345.61	-14.56
345.993	8.71
346.376	2.39
346.759	15.04
347.142	-20.66
347.525	54.14
347.908	68.83
348.291	76.51
348.674	92.55
349.057	96.17
349.44	114.47
349.823	125.77
350.206	168.26
350.588	191.08
350.971	221.59
351.354	234.47
351.737	250.06
352.119	253.68
352.502	255.04
352.884	276.5
353.267	278.76
353.65	299.33
354.032	302.49
354.414	303.62
354.797	301.81
355.179	320.57
355.562	343.39
355.944	325.09
356.326	332.55
356.709	333.9
357.091	337.07
357.473	351.76
357.855	354.24
358.238	335.49
358.62	334.58
359.002	353.11
359.384	356.95
359.766	330.06
360.148	375.71
360.53	344.3
360.912	354.47
361.294	338.2
361.676	358.99
362.057	337.97
362.439	333.68
362.821	340.23
363.203	339.55
363.584	345.2
363.966	330.29
364.348	341.81
364.729	336.39
365.111	338.42
365.493	331.87
365.874	338.2
366.256	354.24
366.637	349.04
367.019	326.67
367.4	344.52
367.781	321.02
368.163	317.18
368.544	328.03
368.925	334.81
369.306	350.17
369.688	325.32
370.069	322.83
370.45	338.65
370.831	346.11
371.212	359.89
371.593	345.43
371.974	347.69
372.355	338.88
372.736	358.31
373.117	346.33
373.498	360.12
373.879	354.24
374.26	363.73
374.641	351.08
375.021	354.69
375.402	341.81
375.783	370.29
376.163	369.61
376.544	370.06
376.925	371.64
377.305	358.99
377.686	359.21
378.066	384.98
378.447	375.71
378.827	379.33
379.208	388.59
379.588	376.84
379.968	390.4
380.349	385.2
380.729	406.44
381.109	380.23
381.489	394.47
381.87	381.81
382.25	400.34
382.63	381.59
383.01	391.76
383.39	400.34
383.77	386.11
384.15	417.29
384.53	422.04
384.91	418.2
385.29	413.45
385.67	435.37
386.049	438.76
386.429	459.32
386.809	439.66
387.189	441.7
387.568	435.6
387.948	450.28
388.328	457.97
388.707	468.82
389.087	471.08
389.466	457.52
389.846	459.32
390.225	469.27
390.605	462.49
390.984	481.02
391.363	476.27
391.743	494.8
392.122	484.41
392.501	471.08
392.881	498.87
393.26	494.8
393.639	500.9
394.018	518.98
394.397	509.04
394.776	508.59
395.155	493.67
395.534	513.56
395.913	523.96
396.292	524.41
396.671	536.84
397.05	530.28
397.429	550.85
397.808	541.81
398.186	530.51
398.565	549.04
398.944	541.36
399.323	553.11
399.701	559.66
400.08	575.93
400.458	573.22
400.837	561.47
401.215	565.76
401.594	570.28
401.972	595.14
402.351	578.19
402.729	578.64
403.107	584.29
403.486	608.7
403.864	608.7
404.242	596.5
404.62	652.09
404.999	615.7
405.377	627.68
405.755	643.27
406.133	656.16
406.511	662.26
406.889	658.87
407.267	669.71
407.645	679.66
408.023	664.52
408.401	704.29
408.779	682.6
409.156	698.64
409.534	714.23
409.912	701.13
410.29	721.46
410.667	749.03
411.045	749.49
411.422	764.17
411.8	734.12
412.178	775.25
412.555	761.46
412.933	774.12
413.31	802.82
413.687	822.03
414.065	817.28
414.442	800.11
414.819	827.22
415.197	840.78
415.574	837.85
415.951	851.18
416.328	862.03
416.705	880.56
417.082	868.8
417.46	895.92
417.837	905.64
418.214	896.15
418.591	916.26
418.967	923.72
419.344	919.2
419.721	916.71
420.098	931.4
420.475	938.63
420.852	957.16
421.228	967.79
421.605	951.74
421.982	975.24
422.358	994.9
422.735	987.45
423.111	994.9
423.488	1027.22
423.864	1015.24
424.241	1004.62
424.617	1040.78
424.994	1064.51
425.37	1050.72
425.746	1048.91
426.123	1095.24
426.499	1100.66
426.875	1120.78
427.251	1137.95
427.627	1148.8
428.003	1150.15
428.379	1165.97
428.756	1156.48
429.132	1191.96
429.507	1195.12
429.883	1220.66
430.259	1239.64
430.635	1256.82
431.011	1249.59
431.387	1308.57
431.763	1303.14
432.138	1298.62
432.514	1310.83
432.89	1308.79
433.265	1393.76
433.641	1360.77
434.016	1398.28
434.392	1413.65
434.767	1436.93
435.143	1409.13
435.518	1447.77
435.894	1444.61
436.269	1504.04
436.644	1499.07
437.02	1509.92
437.395	1498.39
437.77	1545.85
438.145	1566.41
438.52	1590.59
438.895	1596.02
439.271	1585.85
439.646	1610.93
440.021	1622.23
440.395	1655.22
440.77	1638.73
441.145	1675.11
441.52	1653.87
441.895	1707.65
442.27	1730.93
442.645	1716.47
443.019	1733.87
443.394	1734.09
443.769	1727.99
444.143	1788.33
444.518	1783.81
444.892	1784.94
445.267	1798.95
445.641	1804.83
446.016	1814.32
446.39	1842.11
446.764	1869.23
447.139	1887.76
447.513	1869.23
447.887	1855.22
448.262	1905.39
448.636	1916.01
449.01	1935.9
449.384	1920.75
449.758	1942
450.132	2011.83
450.506	1980.64
450.88	1998.72
451.254	2006.63
451.628	2040.98
452.002	2029
452.376	2071.49
452.75	2080.3
453.123	2105.61
453.497	2142.44
453.871	2130.24
454.244	2202.33
454.618	2261.76
454.992	2225.15
455.365	2271.25
455.739	2344.25
456.112	2325.26
456.486	2355.55
456.859	2369.78
457.232	2433.06
457.606	2441.42
457.979	2520.29
458.352	2498.82
458.725	2528.42
459.099	2582.66
459.472	2617.46
459.845	2648.65
460.218	2646.61
460.591	2666.27
460.964	2675.09
461.337	2788.75
461.71	2840.96
462.083	2839.37
462.456	2842.31
462.829	2853.16
463.201	2867.17
463.574	2940.61
463.947	2966.38
464.32	3010.67
464.692	3082.08
465.065	3061.74
465.438	3136.77
465.81	3175.86
466.183	3201.62
466.555	3249.76
466.928	3281.4
467.3	3302.41
467.672	3346.48
468.045	3399.13
468.417	3480.71
468.789	3501.73
469.161	3504.22
469.534	3588.73
469.906	3600.03
470.278	3659.24
470.65	3705.34
471.022	3779.69
471.394	3873.02
471.766	3875.73
472.138	3955.28
472.51	3986.91
472.882	4045.9
473.253	4115.5
473.625	4173.35
473.997	4232.78
474.369	4231.43
474.74	4308.49
475.112	4390.52
475.484	4503.74
475.855	4522.72
476.227	4634.58
476.598	4714.58
476.97	4737.63
477.341	4868.25
477.713	4946.21
478.084	4974.91
478.455	5082.25
478.827	5120.67
479.198	5292.64
479.569	5319.99
479.94	5440.21
480.311	5510.94
480.682	5621.9
481.053	5716.59
481.424	5853.53
481.795	5893.31
482.166	5990.03
482.537	6108.89
482.908	6242.9
483.279	6227.99
483.65	6365.61
484.021	6517.24
484.391	6572.38
484.762	6646.73
485.133	6721.76
485.503	6759.5
485.874	6950
486.244	6976.89
486.615	7189.54
486.985	7210.56
487.356	7355.19
487.726	7391.35
488.097	7569.87
488.467	7594.28
488.837	7741.62
489.207	7822.75
489.578	7877.21
489.948	8009.41
490.318	8142.06
490.688	8155.62
491.058	8290.53
491.428	8423.41
491.798	8510.86
492.168	8687.13
492.538	8711.08
492.908	8789.73
493.278	8946.78
493.648	8901.81
494.017	9101.58
494.387	9123.5
494.757	9236.04
495.126	9384.74
495.496	9337.51
495.866	9479.65
496.235	9587.9
496.605	9662.47
496.974	9726.2
497.344	9824.05
497.713	9840.55
498.082	9958.28
498.452	10113.31
498.821	10071.05
499.19	10212.06
499.559	10284.6
499.928	10281.21
500.298	10422
500.667	10456.8
501.036	10501.77
501.405	10661.54
501.774	10671.26
502.143	10701.54
502.512	10837.13
502.88	10928.65
503.249	10967.97
503.618	10996.45
503.987	11086.16
504.356	11206.16
504.724	11218.59
505.093	11308.76
505.462	11347.63
505.83	11477.57
506.199	11532.48
506.567	11741.06
506.936	11718.01
507.304	11838.46
507.672	11926.82
508.041	11961.62
508.409	12107.38
508.777	12127.49
509.145	12227.38
509.514	12269.86
509.882	12407.48
510.25	12442.06
510.618	12524.09
510.986	12618.1
511.354	12719.79
511.722	12828.26
512.09	12891.09
512.458	12997.98
512.826	13068.71
513.193	13149.16
513.561	13198.2
513.929	13363.62
514.297	13387.12
514.664	13632.31
515.032	13679.54
515.4	13727
515.767	13828.69
516.135	13921.79
516.502	13934.45
516.869	14074.11
517.237	14186.65
517.604	14166.99
517.972	14363.14
518.339	14516.13
518.706	14529.46
519.073	14668.89
519.44	14703.47
519.808	14873.18
520.175	14920.19
520.542	15244.92
520.909	15218.94
521.276	15238.82
521.643	15362.66
522.009	15570.34
522.376	15658.02
522.743	15771.92
523.11	15879.26
523.477	16113.38
523.843	16154.28
524.21	16351.56
524.577	16463.65
524.943	16551.78
525.31	16657.99
525.676	16885.11
526.043	16818.22
526.409	16971.66
526.776	17115.38
527.142	17255.72
527.508	17361.03
527.874	17515.6
528.241	17565.09
528.607	17618.87
528.973	17842.6
529.339	17922.14
529.705	18057.05
530.071	18264.05
530.437	18281.23
530.803	18320.55
531.169	18578.62
531.535	18565.06
531.901	18667.43
532.267	18821.55
532.632	18925.96
532.998	18804.6
533.364	19009.57
533.73	19097.48
534.095	19284.14
534.461	19378.37
534.826	19480.29
535.192	19454.76
535.557	19649.33
535.923	19699.95
536.288	19810.68
536.653	19863.11
537.019	19879.83
537.384	19903.56
537.749	20134.74
538.114	20198.47
538.479	20104.46
538.845	20259.26
539.21	20252.48
539.575	20481.62
539.94	20387.39
540.305	20644.56
540.67	20613.37
541.034	20738.56
541.399	20678.23
541.764	20843.42
542.129	20891.56
542.494	20898.33
542.858	21161.83
543.223	21179.23
543.587	21323.41
543.952	21279.34
544.316	21348.27
544.681	21289.74
545.045	21547.81
545.41	21660.12
545.774	21659.9
546.138	21717.3
546.503	21749.16
546.867	21886.11
547.231	22001.36
547.595	22116.61
547.959	22136.49
548.324	22153.67
548.688	22172.2
549.052	22377.17
549.416	22372.87
549.779	22444.51
550.143	22512.53
550.507	22614
550.871	22664.39
551.235	22697.84
551.599	22963.14
551.962	23051.5
552.326	23059.63
552.689	23218.5
553.053	23115.68
553.417	23142.8
553.78	23514.76
554.143	23418.95
554.507	23653.52
554.87	23636.57
555.234	23879.27
555.597	23660.3
555.96	23908.43
556.323	24056.22
556.686	24037.24
557.05	24322.65
557.413	24244.24
557.776	24318.13
558.139	24567.16
558.502	24675.64
558.865	24562.19
559.228	24840.38
559.59	24943.65
559.953	25052.58
560.316	25227.94
560.679	25178.9
561.041	25406.24
561.404	25510.64
561.767	25616.63
562.129	25628.61
562.492	25953.12
562.854	25946.11
563.217	25969.61
563.579	26028.14
563.941	26286.44
564.304	26384.07
564.666	26457.51
565.028	26545.42
565.39	26695.24
565.753	26846.43
566.115	26887.78
566.477	27027.21
566.839	27210.03
567.201	27325.06
567.563	27343.36
567.925	27524.15
568.287	27495.9
568.648	27630.59
569.01	27643.69
569.372	27931.6
569.734	27887.3
570.095	28157.35
570.457	28128.88
570.819	28226.96
571.18	28155.77
571.542	28542.43
571.903	28467.85
572.265	28612.48
572.626	28652.71
572.987	28702.88
573.349	28718.47
573.71	28859.93
574.071	28975.18
574.432	29000.04
574.794	29150.55
575.155	29284.33
575.516	29194.39
575.877	29369.07
576.238	29254.73
576.599	29591.21
576.96	29442.52
577.32	29468.96
577.681	29650.65
578.042	29713.7
578.403	29773.81
578.763	29750.76
579.124	29838.89
579.485	29854.48
579.845	29945.78
580.206	29946.91
580.566	29975.61
580.927	29920.47
581.287	30221.71
581.648	30020.13
582.008	30190.97
582.368	30223.29
582.728	30211.08
583.089	30186.68
583.449	30126.57
583.809	30204.08
584.169	30342.83
584.529	30246.34
584.889	30407.92
585.249	30205.66
585.609	30230.29
585.969	30266.22
586.329	30313
586.688	30392.55
587.048	30384.19
587.408	30237.07
587.768	30307.13
588.127	30302.83
588.487	30239.11
588.846	30556.84
589.206	30284.75
589.565	30431.42
589.925	30590.96
590.284	30414.69
590.643	30440
591.003	30569.27
591.362	30672.99
591.721	30522.71
592.08	30546.67
592.44	30604.75
592.799	30660.34
593.158	30435.94
593.517	30584.63
593.876	30511.87
594.235	30510.06
594.593	30535.6
594.952	30700.11
595.311	30478.65
595.67	30620.56
596.029	30810.39
596.387	30805.19
596.746	30873.89
597.104	30802.26
597.463	30694.01
597.822	31003.15
598.18	30816.94
598.538	30763.39
598.897	30973.1
599.255	30799.32
599.613	31138.52
599.972	30934.23
600.33	31091.06
600.688	30950.73
601.046	31121.79
601.404	31240.44
601.762	31155.47
602.12	31246.09
602.478	31282.02
602.836	31312.75
603.194	31032.53
603.552	31209.93
603.91	31204.05
604.268	31310.04
604.625	31162.7
604.983	31432.29
605.341	31280.89
605.698	31408.34
606.056	31395.46
606.413	31469.58
606.771	31657.15
607.128	31610.82
607.485	31385.29
607.843	31520.88
608.2	31634.1
608.557	31803.58
608.914	31571.05
609.272	31830.25
609.629	31924.94
609.986	31973.75
610.343	31857.59
610.7	31961.09
611.057	32064.37
611.414	31959.06
611.771	31859.18
612.127	31992.73
612.484	32084.26
612.841	32234.08
613.198	32100.98
613.554	32058.95
613.911	32319.73
614.267	32325.15
614.624	32143.46
614.98	32222.1
615.337	32449.44
615.693	32489.67
616.05	32427.3
616.406	32588.65
616.762	32355.66
617.118	32442.44
617.475	32434.08
617.831	32499.84
618.187	32509.55
618.543	32544.13
618.899	32771.69
619.255	32698.48
619.611	32650.57
619.967	32834.07
620.323	32856.44
620.678	32620.29
621.034	32681.3
621.39	32735.31
621.746	32684.47
622.101	33002.42
622.457	32720.85
622.812	32794.97
623.168	32996.1
623.523	32948.64
623.879	32914.74
624.234	32760.17
624.589	32965.59
624.945	32891.47
625.3	32925.14
625.655	33042.2
626.01	32891.92
626.365	33020.28
626.72	32733.73
627.075	32824.35
627.43	32850.34
627.785	32719.94
628.14	32920.39
628.495	32766.5
628.85	32798.59
629.205	32648.53
629.559	32861.86
629.914	32708.87
630.269	32759.72
630.623	32645.14
630.978	32623.68
631.332	32700.96
631.687	32691.02
632.041	32674.3
632.396	32707.06
632.75	32534.86
633.104	32555.43
633.459	32483.34
633.813	32438.82
634.167	32471.59
634.521	32500.97
634.875	32505.49
635.229	32437.92
635.583	32244.25
635.937	32300.75
636.291	32184.59
636.645	32127.87
636.999	32041.32
637.352	32161.32
637.706	32114.08
638.06	32078.61
638.413	32157.93
638.767	32006.07
639.121	32094.88
639.474	31835.22
639.828	31878.38
640.181	32001.55
640.534	31853.75
640.888	31806.97
641.241	31617.15
641.594	31693.31
641.947	31681.55
642.301	31550.71
642.654	31773.3
643.007	31679.75
643.36	31628
643.713	31500.99
644.066	31545.51
644.419	31420.77
644.771	31193.66
645.124	30944.85
645.477	30990.95
645.83	30831.86
646.182	30576.95
646.535	30379.67
646.888	30460.57
647.24	30327.69
647.593	30424.19
647.945	30321.14
648.298	30201.59
648.65	30102.16
649.002	29946.46
649.355	30289.73
649.707	30235.72
650.059	30498.99
650.411	30619.21
650.763	30705.08
651.115	30978.52
651.467	30947.56
651.819	30918.41
652.171	30733.78
652.523	30842.03
652.875	30636.84
653.227	30625.08
653.578	30779.88
653.93	30766.1
654.282	30483.39
654.633	30579.21
654.985	30548.48
655.337	30594.12
655.688	30529.49
656.039	30695.14
656.391	30354.13
656.742	30353
657.094	30356.17
657.445	30558.87
657.796	30462.15
658.147	30383.28
658.498	30287.24
658.849	30373.34
659.2	30446.78
659.551	30305.54
659.902	30307.58
660.253	30322.49
660.604	30369.27
660.955	30336.96
661.306	30301.7
661.656	30251.76
662.007	30316.62
662.358	30071.88
662.708	30109.62
663.059	30138.77
663.409	30090.41
663.76	30265.09
664.11	30221.93
664.461	30273.68
664.811	30174.47
665.161	30101.26
665.511	30187.81
665.862	30052.44
666.212	30158.66
666.562	30180.12
666.912	30020.13
667.262	29951.43
667.612	29957.76
667.962	30003.63
668.312	29946.23
668.662	30100.8
669.011	29876.63
669.361	29932.67
669.711	29900.13
670.06	29843.41
670.41	29880.02
670.76	29778.33
671.109	29862.62
671.459	29775.39
671.808	29736.52
672.157	29807.25
672.507	29552.34
672.856	29681.83
673.205	29725.67
673.554	29804.77
673.904	29578.78
674.253	29877.99
674.602	29743.98
674.951	29330.88
675.3	29041.4
675.649	29608.39
675.998	29585.34
676.346	29556.86
676.695	29559.8
677.044	29355.51
677.393	29382.63
677.741	29537.43
678.09	29350.32
678.438	29271.67
678.787	29432.57
679.135	29440.26
679.484	29207.04
679.832	29254.5
680.181	29085.46
680.529	29162.98
680.877	29143.32
681.225	29018.12
681.573	29286.81
681.922	28972.25
682.27	28857.22
682.618	28973.83
682.966	28851.12
683.314	28927.95
683.661	28838.92
684.009	28739.71
684.357	28591.92
684.705	28602.76
685.053	28787.17
685.4	28604.57
685.748	28318.48
686.095	28445.48
686.443	28303.34
686.79	28318.7
687.138	28298.37
687.485	28326.84
687.832	28169.56
688.18	28108.77
688.527	28215.66
688.874	28052.5
689.221	27875.33
689.568	27941.54
689.915	27819.73
690.262	27819.51
690.609	27741.54
690.956	27682.11
691.303	27650.47
691.65	27391.95
691.997	27449.8
692.344	27305.17
692.69	27313.53
693.037	27344.27
693.383	27047.33
693.73	27285.06
694.077	27154.22
694.423	26980.66
694.769	26925.97
695.116	26779.76
695.462	26770.72
695.808	26773.21
696.155	26805.52
696.501	26580.45
696.847	26566.66
697.193	26346.55
697.539	26460.67
697.885	26303.16
698.231	26225.88
698.577	26147.24
698.923	26128.48
699.269	25967.81
699.614	25896.17
699.96	25849.62
700.306	25863.4
700.651	25736.85
700.997	25596.29
701.342	25696.85
701.688	25546.12
702.033	25443.98
702.379	25497.76
702.724	25378.89
703.069	25359.91
703.415	25170.31
703.76	25168.5
704.105	25211.44
704.45	25086.25
704.795	24877.21
705.14	24839.47
705.485	24925.35
705.83	24777.1
706.175	24742.53
706.52	24705.47
706.865	24594.51
707.209	24544.57
707.554	24575.98
707.899	24531.69
708.243	24344.8
708.588	24333.05
708.932	24280.17
709.277	24236.1
709.621	24230.22
709.966	24056.44
710.31	24136.67
710.654	23918.82
710.998	23956.11
711.342	23935.77
711.687	23843.12
712.031	23759.28
712.375	23709.33
712.719	23649.45
713.063	23717.7
713.407	23724.25
713.75	23519.51
714.094	23552.95
714.438	23526.51
714.782	23416.23
715.125	23399.29
715.469	23368.78
715.812	23201.1
716.156	23166.52
716.499	23306.63
716.843	23241.1
717.186	23069.8
717.53	23192.51
717.873	23237.71
718.216	23192.06
718.559	23024.38
718.902	22762.92
719.246	22822.58
719.589	22746.65
719.932	22734.67
720.275	22812.63
720.617	22675.01
720.96	22622.58
721.303	22709.13
721.646	22619.65
721.989	22391.4
722.331	22571.74
722.674	22458.07
723.016	22505.98
723.359	22382.14
723.701	22449.93
724.044	22320.44
724.386	22220.56
724.729	22318.41
725.071	22290.16
725.413	22212.42
725.755	22171.3
726.097	22047.68
726.439	21948.48
726.782	22103.5
727.124	22103.5
727.465	21988.7
727.807	21869.16
728.149	21816.95
728.491	21941.92
728.833	21743.51
729.175	21731.08
729.516	21768.59
729.858	21775.6
730.199	21748.71
730.541	21678.65
730.882	21589.16
731.224	21651.31
731.565	21508.71
731.906	21505.55
732.248	21431.65
732.589	21367.02
732.93	21299.23
733.271	21281.38
733.612	21360.02
733.953	21342.62
734.294	21250.42
734.635	21156.18
734.976	21213.81
735.317	21216.29
735.658	21146.01
735.999	21054.94
736.339	21098.1
736.68	21077.76
737.021	21031.89
737.361	20988.73
737.702	21049.74
738.042	20963.87
738.383	20893.14
738.723	20939.69
739.063	20718.9
739.404	20818.34
739.744	20752.8
740.084	20677.1
740.424	20783.31
740.764	20678.45
741.104	20693.82
741.444	20556.2
741.784	20495.86
742.124	20523.2
742.464	20531.79
742.804	20485.46
743.143	20405.92
743.483	20465.13
743.823	20286.15
744.162	20302.19
744.502	20434.62
744.841	20231.69
745.181	20282.31
745.52	20224.68
745.86	20300.61
746.199	20281.18
746.538	20184.68
746.877	20177.22
747.216	20164.57
747.556	20054.74
747.895	20109.88
748.234	19983.78
748.573	19937.46
748.911	19868.08
749.25	19894.97
749.589	19854.07
749.928	19808.19
750.267	19809.1
750.605	19726.61
750.944	19769.1
751.283	19551.48
751.621	19615.43
751.96	19511.48
752.298	19500.63
752.636	19456.11
752.975	19328.43
753.313	19375.89
753.651	19376.34
753.989	19244.37
754.327	19229.68
