Data from breadboard_white_FLMS001491_00082.txt Node
Date: Wed Feb 08 10:48:23 GMT 2017
User: dcchb
Spectrometer: FLMS00149
Trigger mode: 0
Integration Time (sec): 2.000000E-2
Scans to average: 10
Electric dark correction enabled: true
Nonlinearity correction enabled: false
Boxcar width: 0
XAxis mode: Wavelengths
Number of Pixels in Spectrum: 2048
>>>>>Begin Spectral Data<<<<<
341.393	-6.92
341.776	-6.92
342.16	-6.92
342.543	-45.79
342.927	-51.21
343.31	-74.04
343.693	-70.65
344.077	-53.7
344.46	-45.79
344.843	-55.96
345.226	-52.57
345.61	-47.6
345.993	-31.33
346.376	-6.47
346.759	0.99
347.142	32.85
347.525	55.45
347.908	72.85
348.291	85.96
348.674	84.15
349.057	105.84
349.44	143.81
349.823	115.79
350.206	165.96
350.588	213.19
350.971	221.1
351.354	232.17
351.737	263.58
352.119	294.77
352.502	281.43
352.884	291.83
353.267	292.73
353.65	308.55
354.032	317.36
354.414	324.37
354.797	326.86
355.179	325.27
355.562	350.36
355.944	363.47
356.326	353.07
356.709	341.54
357.091	353.75
357.473	365.27
357.855	353.07
358.238	366.63
358.62	343.13
359.002	361.43
359.384	361.21
359.766	378.61
360.148	374.54
360.53	377.93
360.912	373.86
361.294	365.05
361.676	358.72
362.057	352.62
362.439	343.35
362.821	331.38
363.203	361.43
363.584	354.2
363.966	351.04
364.348	353.52
364.729	342
365.111	358.27
365.493	356.91
365.874	360.3
366.256	340.64
366.637	356.01
367.019	344.48
367.4	362.79
367.781	345.39
368.163	358.27
368.544	349.91
368.925	355.78
369.306	339.74
369.688	346.29
370.069	362.79
370.45	349
370.831	353.07
371.212	353.75
371.593	350.13
371.974	349.45
372.355	356.91
372.736	363.24
373.117	352.62
373.498	339.06
373.879	346.52
374.26	360.53
374.641	372.96
375.021	366.63
375.402	369.79
375.783	376.12
376.163	401.2
376.544	381.77
376.925	366.85
377.305	391.94
377.686	380.64
378.066	364.82
378.447	374.99
378.827	391.71
379.208	396.46
379.588	406.4
379.968	391.71
380.349	416.8
380.729	400.53
381.109	392.39
381.489	395.55
381.87	436.01
382.25	400.53
382.63	441.43
383.01	421.32
383.39	421.54
383.77	412.05
384.15	433.07
384.53	435.55
384.91	439.17
385.29	449.56
385.67	433.29
386.049	420.19
386.429	451.82
386.809	438.72
387.189	451.37
387.568	448.43
387.948	452.28
388.328	458.38
388.707	465.61
389.087	468.77
389.466	458.6
389.846	492.28
390.225	488.89
390.605	498.6
390.984	507.42
391.363	485.27
391.743	512.84
392.122	513.07
392.501	513.07
392.881	530.69
393.26	516.23
393.639	530.92
394.018	555.55
394.397	549.67
394.776	556
395.155	560.07
395.534	556
395.913	563.01
396.292	554.19
396.671	588.77
397.05	562.78
397.429	612.72
397.808	619.05
398.186	602.1
398.565	623.12
398.944	627.64
399.323	621.31
399.701	645.04
400.08	633.51
400.458	626.28
400.837	684.13
401.215	656.56
401.594	679.84
401.972	690.46
402.351	729.56
402.729	735.43
403.107	717.58
403.486	723.23
403.864	750.8
404.242	742.89
404.62	734.08
404.999	759.16
405.377	803.91
405.755	814.3
406.133	814.98
406.511	829.44
406.889	857.92
407.267	865.6
407.645	853.62
408.023	883
408.401	887.75
408.779	913.51
409.156	967.52
409.534	953.28
409.912	972.94
410.29	974.97
410.667	989.21
411.045	1020.62
411.422	1032.83
411.8	1032.37
412.178	1089.32
412.555	1088.42
412.933	1104.69
413.31	1152.37
413.687	1129.09
414.065	1159.15
414.442	1178.13
414.819	1205.7
415.197	1243.22
415.574	1247.51
415.951	1262.2
416.328	1298.81
416.705	1296.77
417.082	1332.25
417.46	1304.46
417.837	1353.72
418.214	1381.52
418.591	1375.19
418.967	1412.7
419.344	1433.04
419.721	1410.67
420.098	1466.49
420.475	1482.53
420.852	1502.42
421.228	1528.63
421.605	1562.3
421.982	1525.47
422.358	1598.01
422.735	1613.15
423.111	1611.57
423.488	1605.47
423.864	1640.49
424.241	1685.92
424.617	1666.03
424.994	1674.17
425.37	1726.14
425.746	1701.96
426.123	1720.72
426.499	1763.65
426.875	1755.29
427.251	1835.74
427.627	1890.66
428.003	1911.22
428.379	1901.5
428.756	1948.73
429.132	1959.36
429.507	1992.12
429.883	2012.91
430.259	2030.31
430.635	2054.04
431.011	2073.02
431.387	2154.38
431.763	2163.42
432.138	2198.67
432.514	2210.87
432.89	2233.25
433.265	2261.04
433.641	2350.76
434.016	2334.71
434.392	2354.83
434.767	2400.02
435.143	2424.88
435.518	2413.81
435.894	2499.45
436.269	2494.03
436.644	2549.85
437.02	2561.15
437.395	2547.14
437.77	2631.2
438.145	2640.47
438.52	2679.79
438.895	2698.77
439.271	2728.15
439.646	2816.96
440.021	2786.45
440.395	2809.05
440.77	2821.71
441.145	2871.65
441.52	2922.95
441.895	2922.72
442.27	2929.05
442.645	2933.11
443.019	2998.88
443.394	2975.6
443.769	3000.01
444.143	3008.82
444.518	3101.47
444.892	3027.35
445.267	3098.53
445.641	3122.94
446.016	3119.1
446.39	3169.04
446.764	3210.62
447.139	3244.52
447.513	3217.63
447.887	3301.92
448.262	3322.48
448.636	3295.82
449.01	3341.69
449.384	3360.22
449.758	3396.15
450.132	3454.23
450.506	3474.34
450.88	3512.08
451.254	3476.83
451.628	3586.88
452.002	3609.03
452.376	3637.05
452.75	3658.97
453.123	3681.57
453.497	3774.67
453.871	3817.61
454.244	3829.14
454.618	3901.9
454.992	3924.05
455.365	3992.97
455.739	4088.34
456.112	4093.99
456.486	4119.07
456.859	4145.51
457.232	4263.48
457.606	4249.24
457.979	4332.17
458.352	4427.99
458.725	4412.4
459.099	4473.87
459.472	4560.42
459.845	4594.77
460.218	4689.9
460.591	4689.45
460.964	4717.47
461.337	4845.38
461.71	4919.05
462.083	4919.73
462.456	5010.8
462.829	5018.94
463.201	5112.49
463.574	5177.58
463.947	5231.81
464.32	5344.13
464.692	5367.63
465.065	5425.7
465.438	5528.07
465.81	5571.01
466.183	5646.49
466.555	5761.74
466.928	5762.65
467.3	5808.52
467.672	5897.78
468.045	6055.29
468.417	6035.18
468.789	6127.61
469.161	6242.86
469.534	6300.03
469.906	6481.72
470.278	6514.49
470.65	6584.32
471.022	6692.79
471.394	6825.89
471.766	6870.86
472.138	6951.77
472.51	7134.59
472.882	7236.73
473.253	7294.81
473.625	7415.48
473.997	7606.66
474.369	7659.32
474.74	7780.22
475.112	7880.1
475.484	8023.15
475.855	8140.89
476.227	8232.41
476.598	8504.95
476.97	8583.14
477.341	8732.06
477.713	8876.24
478.084	8891.83
478.455	9118.94
478.827	9216.11
479.198	9463.34
479.569	9489.1
479.94	9802.31
480.311	9852.48
480.682	10078.92
481.053	10299.25
481.424	10426.93
481.795	10581.28
482.166	10666.7
482.537	10866.92
482.908	11066.91
483.279	11202.5
483.65	11431.65
484.021	11658.99
484.391	11802.49
484.762	11898.53
485.133	12057.85
485.503	12229.14
485.874	12467.33
486.244	12625.29
486.615	12867.54
486.985	12986.41
487.356	13261.43
487.726	13328.1
488.097	13691.48
488.467	13676.56
488.837	14017.8
489.207	14177.11
489.578	14430.44
489.948	14502.98
490.318	14661.39
490.688	14669.3
491.058	15001.95
491.428	15184.54
491.798	15330.08
492.168	15657.53
492.538	15704.76
492.908	15896.62
493.278	16103.84
493.648	16152.88
494.017	16281.01
494.387	16423.83
494.757	16699.98
495.126	16850.94
495.496	16950.83
495.866	17098.39
496.235	17303.13
496.605	17491.83
496.974	17537.7
497.344	17737.7
497.713	17704.93
498.082	18020.63
498.452	18205.93
498.821	18278.7
499.19	18413.16
499.559	18572.48
499.928	18648.63
500.298	18708.52
500.667	19000.26
501.036	19018.12
501.405	19128.85
501.774	19152.35
502.143	19477.31
502.512	19525.45
502.88	19766.57
503.249	19733.35
503.618	19950.75
503.987	20001.14
504.356	20233
504.724	20328.14
505.093	20393.67
505.462	20467.12
505.83	20686.32
506.199	20899.2
506.567	21272.75
506.936	21001.79
507.304	21378.28
507.672	21399.75
508.041	21624.15
508.409	21709.12
508.777	21917.47
509.145	22081.99
509.514	22226.84
509.882	22345.94
510.25	22493.96
510.618	22731.92
510.986	22806.26
511.354	22942.98
511.722	23182.75
512.09	23454.38
512.458	23268.85
512.826	23645.11
513.193	23782.28
513.561	23806.46
513.929	24115.38
514.297	24311.54
514.664	24533.9
515.032	24607.8
515.4	24803.05
515.767	24854.12
516.135	25043.95
516.502	24967.56
516.869	25467.21
517.237	25551.96
517.604	25679.18
517.972	25952.85
518.339	26076.01
518.706	26160.53
519.073	26292.05
519.44	26535.21
519.808	26767.06
520.175	26839.15
520.542	27179.03
520.909	27292.02
521.276	27442.3
521.643	27725.68
522.009	27916.41
522.376	28124.09
522.743	28369.73
523.11	28609.28
523.477	28866.44
523.843	29044.52
524.21	29330.39
524.577	29632.3
524.943	29739.19
525.31	29873.65
525.676	30187.54
526.043	30326.29
526.409	30463.24
526.776	30914.98
527.142	30954.07
527.508	31075.88
527.874	31415.3
528.241	31597.67
528.607	31760.38
528.973	32173.02
529.339	32178
529.705	32359.23
530.071	32674.25
530.437	32766
530.803	32928.94
531.169	33160.79
531.535	33150.63
531.901	33300.9
532.267	33560.56
532.632	33672.19
532.998	33845.52
533.364	34069.25
533.73	34186.98
534.095	34410.03
534.461	34558.05
534.826	34714.88
535.192	34965.49
535.557	35222.89
535.923	35134.08
536.288	35320.74
536.653	35350.79
537.019	35473.28
537.384	35655.19
537.749	35770.9
538.114	36085.46
538.479	35926.82
538.845	36165.24
539.21	36190.55
539.575	36432.12
539.94	36493.14
540.305	36768.16
540.67	36775.16
541.034	36968.15
541.399	37119.33
541.764	37162.05
542.129	37283.17
542.494	37410.4
542.858	37672.31
543.223	37552.09
543.587	37990.5
543.952	37786.44
544.316	38080.44
544.681	38185.75
545.045	38279.53
545.41	38512.07
545.774	38460.77
546.138	38682.23
546.503	38641.33
546.867	38785.73
547.231	39212.39
547.595	39128.1
547.959	39310.01
548.324	39502.77
548.688	39538.93
549.052	39644.69
549.416	39737.8
549.779	39769.43
550.143	39974.17
550.507	40253.94
550.871	40412.58
551.235	40385.01
551.599	40657.32
551.962	40664.55
552.326	40854.15
552.689	41023.19
553.053	40900.7
553.417	41090.53
553.78	41723.51
554.143	41425.44
554.507	41710.63
554.87	41862.03
555.234	42230.39
555.597	42147.23
555.96	42258.86
556.323	42394.22
556.686	42508.8
557.05	42805.51
557.413	42963.93
557.776	43016.81
558.139	43336.8
558.502	43372.96
558.865	43529.34
559.228	43883.22
559.59	43903.79
559.953	43967.97
560.316	44417.45
560.679	44538.8
561.041	44681.62
561.404	44785.8
561.767	45101.95
562.129	45023.08
562.492	45468.27
562.854	45383.52
563.217	45589.39
563.579	45677.98
563.941	46038.2
564.304	46191.19
564.666	46472.99
565.028	46433.89
565.39	46590.27
565.753	46814.22
566.115	47040.43
566.477	47127.89
566.839	47397.71
567.201	47482.68
567.563	47600.42
567.925	47710.24
568.287	47786.85
568.648	47810.81
569.01	48247.4
569.372	48403.78
569.734	48355.42
570.095	48597
570.457	48745.47
570.819	48762.64
571.18	48736.88
571.542	49052.35
571.903	49021.85
572.265	49187.27
572.626	49302.29
572.987	49391.55
573.349	49500.7
573.71	49599.68
574.071	49622.73
574.432	49900.92
574.794	50018.66
575.155	50136.85
575.516	50019.79
575.877	50074.02
576.238	50184.98
576.599	50395.82
576.96	50346.11
577.32	50406.89
577.681	50546.55
578.042	50590.17
578.403	50547.46
578.763	50623.84
579.124	50732.99
579.485	50806.43
579.845	50902.93
580.206	50917.84
580.566	50882.81
580.927	50858.41
581.287	51125.29
581.648	50960.1
582.008	51092.75
582.368	51075.58
582.728	51130.04
583.089	51112.64
583.449	51080.78
583.809	51070.15
584.169	51139.76
584.529	51073.09
584.889	51359.64
585.249	51181.56
585.609	51095.01
585.969	51221.34
586.329	51095.69
586.688	51195.12
587.048	51158.06
587.408	51201
587.768	51089.59
588.127	51180.21
588.487	51055.92
588.846	51477.83
589.206	51303.59
589.565	51217.27
589.925	51363.93
590.284	51307.21
590.643	51313.09
591.003	51355.12
591.362	51497.71
591.721	51459.3
592.08	51417.49
592.44	51444.16
592.799	51429.47
593.158	51415.91
593.517	51527.09
593.876	51522.35
594.235	51477.15
594.593	51481.44
594.952	51565.28
595.311	51390.37
595.67	51503.14
596.029	51769.57
596.387	51666.52
596.746	51711.72
597.104	51528.22
597.463	51548.56
597.822	51704.49
598.18	51605.96
598.538	51573.87
598.897	51774.32
599.255	51477.38
599.613	51899.06
599.972	51753.3
600.33	51918.95
600.688	51737.03
601.046	51864.26
601.404	51958.72
601.762	51938.83
602.12	52018.38
602.478	52038.94
602.836	52057.02
603.194	51921.43
603.552	52093.18
603.91	51970.24
604.268	52109.9
604.625	52025.16
604.983	52183.12
605.341	52012.73
605.698	52224.7
606.056	52233.29
606.413	52249.11
606.771	52325.71
607.128	52298.14
607.485	52285.94
607.843	52299.95
608.2	52460.63
608.557	52552.6
608.914	52352.83
609.272	52584.46
609.629	52624.46
609.986	52646.84
610.343	52551.7
610.7	52759.15
611.057	52705.37
611.414	52718.7
611.771	52818.58
612.127	52900.84
612.484	52862.2
612.841	52891.35
613.198	52825.81
613.554	52894.29
613.911	52991.23
614.267	52960.05
614.624	53055.64
614.98	53058.8
615.337	53190.78
615.693	53045.47
616.05	53076.88
616.406	53216.76
616.762	53120.5
617.118	53113.72
617.475	53265.12
617.831	53284.79
618.187	53310.1
618.543	53351.45
618.899	53441.17
619.255	53467.83
619.611	53394.16
619.967	53456.53
620.323	53527.04
620.678	53423.31
621.034	53341.06
621.39	53381.28
621.746	53294.95
622.101	53736.98
622.457	53374.95
622.812	53540.15
623.168	53602.97
623.523	53595.74
623.879	53638
624.234	53397.32
624.589	53527.26
624.945	53542.86
625.3	53569.75
625.655	53556.87
626.01	53538.34
626.365	53539.47
626.72	53490.2
627.075	53503.31
627.43	53515.74
627.785	53411.11
628.14	53474.38
628.495	53430.77
628.85	53412.24
629.205	53268.51
629.559	53515.06
629.914	53318
630.269	53412.92
630.623	53174.51
630.978	53215.63
631.332	53348.06
631.687	53438.91
632.041	53229.87
632.396	53364.78
632.75	53205.24
633.104	53190.78
633.459	53099.03
633.813	53131.8
634.167	53007.5
634.521	53060.16
634.875	53088.18
635.229	52945.81
635.583	52806.83
635.937	52854.74
636.291	52866.94
636.645	52878.47
636.999	52817
637.352	52793.95
637.706	52640.28
638.06	52795.76
638.413	52631.7
638.767	52578.82
639.121	52667.85
639.474	52490
639.828	52571.13
640.181	52442.55
640.534	52523.9
640.888	52372.72
641.241	52257.24
641.594	52342.44
641.947	52391.25
642.301	52337.24
642.654	52327.52
643.007	52276.45
643.36	52221.76
643.713	52191.48
644.066	52188.32
644.419	52054.54
644.771	51845.28
645.124	51515.79
645.477	51531.39
645.83	51235.35
646.182	51048.23
646.535	50980.89
646.888	50982.7
647.24	50965.3
647.593	51088.91
647.945	51026.31
648.298	50779.77
648.65	50630.17
649.002	50593.1
649.355	50616.38
649.707	50636.95
650.059	50873.32
650.411	51246.65
650.763	51249.81
651.115	51490.93
651.467	51447.32
651.819	51354.67
652.171	51395.8
652.523	51178.85
652.875	51269.25
653.227	51082.81
653.578	51291.17
653.93	51203.94
654.282	51043.71
654.633	50924.85
654.985	51025.41
655.337	51065.86
655.688	51065.18
656.039	51143.82
656.391	50814.57
656.742	50897.05
657.094	50838.3
657.445	50969.59
657.796	50962.36
658.147	50807.11
658.498	50857.5
658.849	50793.55
659.2	50826.32
659.551	50719.2
659.902	50783.16
660.253	50743.16
660.604	50861.12
660.955	50614.57
661.306	50791.74
661.656	50694.57
662.007	50644.4
662.358	50626.78
662.708	50622.93
663.059	50596.27
663.409	50408.48
663.76	50569.15
664.11	50591.3
664.461	50500.45
664.811	50631.52
665.161	50583.61
665.511	50389.95
665.862	50588.13
666.212	50618.41
666.562	50461.81
666.912	50422.04
667.262	50384.3
667.612	50382.04
667.962	50394.24
668.312	50319.21
668.662	50590.84
669.011	50417.06
669.361	50313.11
669.711	50251.42
670.06	50305.2
670.41	50168.94
670.76	50212.32
671.109	50402.83
671.459	50234.7
671.808	50177.75
672.157	50269.72
672.507	49926
672.856	49955.83
673.205	50063.63
673.554	50165.55
673.904	49967.13
674.253	50176.39
674.602	50036.06
674.951	49618.22
675.3	49255.96
675.649	49925.78
675.998	49786.35
676.346	49900.24
676.695	50006.68
677.044	49568.72
677.393	49731.21
677.741	49736.86
678.09	49783.18
678.438	49613.02
678.787	49669.74
679.135	49613.47
679.484	49425.9
679.832	49539.35
680.181	49347.49
680.529	49425.23
680.877	49350.65
681.225	49347.04
681.573	49446.47
681.922	49324.21
682.27	49008.74
682.618	49210.09
682.966	48980.27
683.314	49059.13
683.661	48954.28
684.009	48804
684.357	48774.4
684.705	48605.59
685.053	48726.49
685.4	48674.96
685.748	48392.26
686.095	48375.99
686.443	48252.15
686.79	48144.58
687.138	48284.92
687.485	48237.69
687.832	48137.8
688.18	48053.74
688.527	47911.37
688.874	47788.66
689.221	47810.35
689.568	47757.7
689.915	47575.56
690.262	47686.06
690.609	47452.85
690.956	47388.44
691.303	47315.45
691.65	47135.12
691.997	47176.25
692.344	46892.64
692.69	46799.98
693.037	46922.24
693.383	46558.41
693.73	46737.61
694.077	46374.68
694.423	46430.95
694.769	46265.31
695.116	46372.2
695.462	46189.15
695.808	45899.22
696.155	46060.34
696.501	45640.69
696.847	45733.35
697.193	45477.31
697.539	45612.22
697.885	45288.39
698.231	45124.55
698.577	45266.24
698.923	45071.89
699.269	44955.74
699.614	44780.6
699.96	44601.17
700.306	44697.89
700.651	44487.05
700.997	44398.24
701.342	44394.85
701.688	44214.74
702.033	44063.56
702.379	44220.39
702.724	43975.65
703.069	44026.95
703.415	43624.25
703.76	43553.74
704.105	43448.21
704.45	43459.28
704.795	43186.75
705.14	43201.21
705.485	43055.9
705.83	42891.84
706.175	43010.25
706.52	42703.14
706.865	42618.85
707.209	42609.81
707.554	42507.67
707.899	42590.83
708.243	42301.12
708.588	42411.17
708.932	42099.54
709.277	41911.53
709.621	42081.01
709.966	41704.3
710.31	41822.71
710.654	41486.45
710.998	41591.31
711.342	41619.1
711.687	41461.82
712.031	41270.41
712.375	41189.51
712.719	41051.89
713.063	40990.42
713.407	41184.76
713.75	40838.56
714.094	40963.75
714.438	40784.55
714.782	40734.83
715.125	40537.1
715.469	40608.73
715.812	40309.08
716.156	40224.34
716.499	40343.88
716.843	40273.83
717.186	39975.3
717.53	40243.32
717.873	40070.22
718.216	40023.21
718.559	39991.8
718.902	39710.91
719.246	39675.65
719.589	39454.87
719.932	39363.34
720.275	39496
720.617	39364.25
720.96	39244.48
721.303	39281.31
721.646	39175.1
721.989	39023.47
722.331	39245.38
722.674	38906.18
723.016	38834.77
723.359	38678.39
723.701	38890.36
724.044	38647.66
724.386	38437.04
724.729	38732.63
725.071	38448.11
725.413	38392.52
725.755	38434.33
726.097	38284.05
726.439	38007.67
726.782	38117.05
727.124	38257.61
727.465	37902.82
727.807	38030.95
728.149	37952.76
728.491	37787.11
728.833	37855.36
729.175	37679.77
729.516	37584.18
729.858	37496.73
730.199	37589.6
730.541	37492.21
730.882	37348.48
731.224	37468.03
731.565	37124.53
731.906	37259.22
732.248	37228.94
732.589	37115.72
732.93	36998.66
733.271	36986.23
733.612	37004.76
733.953	36970.19
734.294	36815.39
734.635	36854.48
734.976	36831.21
735.317	36718.89
735.658	36567.94
735.999	36465.57
736.339	36508.28
736.68	36555.51
737.021	36376.53
737.361	36217.66
737.702	36372.69
738.042	36265.12
738.383	36112.13
738.723	36222.86
739.063	36191.9
739.404	36092.47
739.744	35959.37
740.084	35933.38
740.424	35831.23
740.764	35841.4
741.104	35955.07
741.444	35720.28
741.784	35605.48
742.124	35642.76
742.464	35532.48
742.804	35435.76
743.143	35304.02
743.483	35517.34
743.823	35251.59
744.162	35192.15
744.502	35210.91
744.841	35022.44
745.181	35112.61
745.52	34897.92
745.86	34917.81
746.199	34784.03
746.538	34814.08
746.877	34888.88
747.216	34799.62
747.556	34767.98
747.895	34555.56
748.234	34480.53
748.573	34382.01
748.911	34371.38
749.25	34415
749.589	34146.98
749.928	34237.6
750.267	34152.18
750.605	34066.76
750.944	33956.03
751.283	33877.39
751.621	33825.86
751.96	33738.41
752.298	33761.91
752.636	33788.57
752.975	33541.58
753.313	33411.86
