Data from breadboard_white_FLMS001491_00015.txt Node
Date: Wed Feb 08 10:47:20 GMT 2017
User: dcchb
Spectrometer: FLMS00149
Trigger mode: 0
Integration Time (sec): 2.000000E-2
Scans to average: 10
Electric dark correction enabled: true
Nonlinearity correction enabled: false
Boxcar width: 0
XAxis mode: Wavelengths
Number of Pixels in Spectrum: 2048
>>>>>Begin Spectral Data<<<<<
341.393	-9.15
341.776	-9.15
342.16	-9.15
342.543	-79.21
342.927	-64.52
343.31	-69.94
343.693	-62.94
344.077	-54.12
344.46	-62.26
344.843	-60
345.226	-54.35
345.61	-34.69
345.993	-16.84
346.376	-17.06
346.759	15.71
347.142	25.2
347.525	29.72
347.908	60.68
348.291	67.68
348.674	113.56
349.057	119.66
349.44	131.63
349.823	125.99
350.206	163.27
350.588	202.14
350.971	221.58
351.354	260.22
351.737	271.29
352.119	267.22
352.502	274.91
352.884	296.15
353.267	289.14
353.65	308.58
354.032	315.13
354.414	330.27
354.797	335.25
355.179	351.97
355.562	333.21
355.944	345.19
356.326	359.65
356.709	357.17
357.091	361.01
357.473	375.02
357.855	379.99
358.238	353.32
358.62	375.02
359.002	372.08
359.384	382.25
359.766	350.61
360.148	377.5
360.53	366.66
360.912	392.19
361.294	371.18
361.676	365.53
362.057	359.2
362.439	360.78
362.821	355.81
363.203	352.19
363.584	361.46
363.966	379.09
364.348	354.45
364.729	345.41
365.111	337.73
365.493	344.51
365.874	357.17
366.256	346.09
366.637	351.74
367.019	350.39
367.4	344.74
367.781	364.4
368.163	332.31
368.544	370.72
368.925	351.97
369.306	351.74
369.688	372.53
370.069	369.59
370.45	359.43
370.831	348.58
371.212	366.88
371.593	367.33
371.974	351.97
372.355	347
372.736	361.69
373.117	364.17
373.498	351.06
373.879	368.92
374.26	361.69
374.641	392.19
375.021	364.4
375.402	375.7
375.783	371.63
376.163	385.64
376.544	405.07
376.925	381.8
377.305	398.07
377.686	403.72
378.066	415.02
378.447	390.16
378.827	387.9
379.208	401.91
379.588	399.2
379.968	409.82
380.349	414.79
380.729	416.83
381.109	426.09
381.489	412.76
381.87	430.84
382.25	418.63
382.63	408.01
383.01	448.91
383.39	449.37
383.77	433.1
384.15	450.5
384.53	434.9
384.91	452.08
385.29	464.96
385.67	451.85
386.049	448.91
386.429	466.77
386.809	484.85
387.189	475.13
387.568	488.24
387.948	460.67
388.328	487.11
388.707	482.13
389.087	492.76
389.466	501.79
389.846	503.83
390.225	526.2
390.605	521.91
390.984	546.77
391.363	530.27
391.743	546.99
392.122	544.05
392.501	540.44
392.881	552.87
393.26	551.51
393.639	572.75
394.018	572.98
394.397	580.44
394.776	582.24
395.155	599.42
395.534	608.46
395.913	609.14
396.292	606.42
396.671	633.99
397.05	627.67
397.429	633.77
397.808	660.21
398.186	645.07
398.565	660.43
398.944	680.1
399.323	659.98
399.701	725.52
400.08	702.24
400.458	711.96
400.837	735.69
401.215	729.59
401.594	737.95
401.972	775.91
402.351	780.43
402.729	782.92
403.107	786.08
403.486	833.76
403.864	818.62
404.242	811.62
404.62	843.25
404.999	863.14
405.377	884.16
405.755	886.19
406.133	899.07
406.511	909.24
406.889	944.72
407.267	979.97
407.645	998.05
408.023	983.14
408.401	1027.88
408.779	1030.14
409.156	1072.85
409.534	1028.11
409.912	1071.5
410.29	1124.15
410.667	1123.47
411.045	1176.81
411.422	1171.83
411.8	1200.99
412.178	1229.46
412.555	1244.6
412.933	1280.98
413.31	1297.03
413.687	1287.99
414.065	1332.96
414.442	1379.29
414.819	1365.73
415.197	1393.75
415.574	1439.17
415.951	1425.39
416.328	1489.34
416.705	1474.42
417.082	1522.78
417.46	1527.08
417.837	1538.38
418.214	1565.5
418.591	1590.35
418.967	1604.59
419.344	1598.72
419.721	1667.19
420.098	1662.22
420.475	1694.31
420.852	1729.33
421.228	1726.17
421.605	1770.24
421.982	1784.92
422.358	1776.34
422.735	1807.52
423.111	1818.37
423.488	1863.34
423.864	1883.23
424.241	1914.64
424.617	1914.86
424.994	1958.93
425.37	1957.8
425.746	1964.13
426.123	2022.88
426.499	2012.49
426.875	2044.35
427.251	2111.02
427.627	2167.97
428.003	2188.08
428.379	2203.67
428.756	2189.21
429.132	2254.29
429.507	2283.22
429.883	2287.06
430.259	2336.77
430.635	2362.99
431.011	2384.46
431.387	2493.61
431.763	2497
432.138	2532.7
432.514	2578.58
432.89	2583.55
433.265	2642.53
433.641	2672.36
434.016	2673.49
434.392	2759.59
434.767	2801.85
435.143	2790.77
435.518	2826.71
435.894	2893.6
436.269	2961.84
436.644	2969.98
437.02	2967.72
437.395	3033.48
437.77	3067.6
438.145	3076.87
438.52	3091.78
438.895	3159.58
439.271	3190.31
439.646	3239.8
440.021	3301.04
440.395	3281.83
440.77	3312.12
441.145	3285.68
441.52	3361.83
441.895	3415.84
442.27	3420.14
442.645	3433.7
443.019	3488.16
443.394	3482.28
443.769	3546.46
444.143	3488.83
444.518	3608.83
444.892	3595.95
445.267	3656.51
445.641	3654.93
446.016	3702.16
446.39	3696.96
446.764	3737.87
447.139	3728.6
447.513	3780.8
447.887	3820.35
448.262	3848.6
448.636	3858.77
449.01	3905.55
449.384	3965.21
449.758	4005.88
450.132	4016.05
450.506	4105.09
450.88	4086.79
451.254	4085.43
451.628	4185.09
452.002	4194.58
452.376	4261.02
452.75	4272.99
453.123	4324.29
453.497	4415.82
453.871	4397.29
454.244	4541.46
454.618	4536.26
454.992	4612.2
455.365	4583.27
455.739	4742.81
456.112	4833.21
456.486	4832.75
456.859	4882.47
457.232	4982.81
457.606	4980.32
457.979	5018.51
458.352	5160.43
458.725	5222.8
459.099	5273.65
459.472	5359.75
459.845	5437.71
460.218	5448.78
460.591	5504.83
460.964	5567.2
461.337	5670.47
461.71	5754.76
462.083	5854.87
462.456	5842.9
462.829	5870.47
463.201	5975.78
463.574	6067.52
463.947	6164.02
464.32	6288.31
464.692	6361.08
465.065	6364.69
465.438	6405.82
465.81	6546.16
466.183	6615.08
466.555	6776.43
466.928	6842.64
467.3	6791.12
467.672	6947.73
468.045	7127.38
468.417	7135.07
468.789	7255.97
469.161	7367.38
469.534	7376.42
469.906	7592.68
470.278	7633.13
470.65	7803.98
471.022	7951.99
471.394	8104.08
471.766	8135.04
472.138	8216.62
472.51	8371.64
472.882	8534.8
473.253	8593.79
473.625	8731.18
473.997	8982.25
474.369	9004.17
474.74	9140.21
475.112	9295.69
475.484	9420.66
475.855	9609.8
476.227	9729.12
476.598	9997.14
476.97	10093.86
477.341	10256.57
477.713	10386.28
478.084	10549.44
478.455	10845.93
478.827	10935.42
479.198	11221.96
479.569	11238.69
479.94	11563.42
480.311	11674.16
480.682	11967.26
481.053	12292.45
481.424	12413.57
481.795	12493.12
482.166	12707.12
482.537	12921.81
482.908	13208.81
483.279	13280.44
483.65	13610.83
484.021	13798.62
484.391	13950.48
484.762	14054.66
485.133	14272.73
485.503	14392.5
485.874	14750.01
486.244	14918.14
486.615	15143.22
486.985	15432.48
487.356	15651.68
487.726	15820.26
488.097	16033.82
488.467	16186.58
488.837	16486.01
489.207	16678.09
489.578	16949.72
489.948	17129.83
490.318	17443.5
490.688	17467
491.058	17771.17
491.428	17871.06
491.798	18141.78
492.168	18489.12
492.538	18548.1
492.908	18779.73
493.278	19073.06
493.648	19125.49
494.017	19340.4
494.387	19594.17
494.757	19681.86
495.126	19962.07
495.496	20094.05
495.866	20273.93
496.235	20410.2
496.605	20503.75
496.974	20722.73
497.344	21056.96
497.713	21070.07
498.082	21212.89
498.452	21433.45
498.821	21524.29
499.19	21610.84
499.559	21822.82
499.928	21998.63
500.298	22133.54
500.667	22366.08
501.036	22420.99
501.405	22663.92
501.774	22788.44
502.143	22924.48
502.512	23023.24
502.88	23188.66
503.249	23266.17
503.618	23512.72
503.987	23740.05
504.356	23676.1
504.724	24025.47
505.093	24038.35
505.462	24152.25
505.83	24371.45
506.199	24529.86
506.567	24838.78
506.936	24786.35
507.304	25213.24
507.672	25301.82
508.041	25442.38
508.409	25634.47
508.777	25825.87
509.145	26060.22
509.514	26129.82
509.882	26200.33
510.25	26342.92
510.618	26665.17
510.986	26773.87
511.354	27041.66
511.722	27214.31
512.09	27342.22
512.458	27382.44
512.826	27686.39
513.193	27995.76
513.561	28027.17
513.929	28225.59
514.297	28391.46
514.664	28744.67
515.032	28849.07
515.4	29041.61
515.767	29323.41
516.135	29363.18
516.502	29325.44
516.869	29962.49
517.237	29900.34
517.604	29978.53
517.972	30280.67
518.339	30501.23
518.706	30593.88
519.073	30819.64
519.44	31033.42
519.808	31372.4
520.175	31425.05
520.542	31842.44
520.909	31968.76
521.276	32018.25
521.643	32535.98
522.009	32689.42
522.376	32885.8
522.743	33094.16
523.11	33300.71
523.477	33692.56
523.843	34050.97
524.21	34288.7
524.577	34534.8
524.943	34732.76
525.31	34819.31
525.676	35330.71
526.043	35462.23
526.409	35594.43
526.776	36014.76
527.142	36060.86
527.508	36244.81
527.874	36680.05
528.241	36794.85
528.607	36988.52
528.973	37175.41
529.339	37184.45
529.705	37694.72
530.071	37926.57
530.437	38081.15
530.803	38308.26
531.169	38613.11
531.535	38529.72
531.901	38639.1
532.267	38928.81
532.632	39258.52
532.998	39255.35
533.364	39585.51
533.73	39684.04
534.095	39911.83
534.461	40054.2
534.826	40304.82
535.192	40464.81
535.557	40601.53
535.923	40676.11
536.288	40900.28
536.653	41137.34
537.019	41051.69
537.384	41287.16
537.749	41400.83
538.114	41636.08
538.479	41689.86
538.845	41866.81
539.21	41800.6
539.575	42039.91
539.94	42189.29
540.305	42476.51
540.67	42437.64
541.034	42685.77
541.399	42893.45
541.764	42798.31
542.129	43018.42
542.494	43114.46
542.858	43285.98
543.223	43390.38
543.587	43631.96
543.952	43529.14
544.316	43830.15
544.681	43908.79
545.045	44076.24
545.41	44252.06
545.774	44377.7
546.138	44388.1
546.503	44461.32
546.867	44514.2
547.231	45015.43
547.595	44974.07
547.959	45090.23
548.324	45101.07
548.688	45232.82
549.052	45448.64
549.416	45493.83
549.779	45520.27
550.143	45750.77
550.507	46023.31
550.871	46012.46
551.235	46141.27
551.599	46393.92
551.962	46525.9
552.326	46674.14
552.689	46868.71
553.053	46768.37
553.417	46861.93
553.78	47432.31
554.143	47201.58
554.507	47405.87
554.87	47503.95
555.234	47820.78
555.597	47729.25
555.96	48011.28
556.323	48114.33
556.686	48267.09
557.05	48449.91
557.413	48487.43
557.776	48669.12
558.139	48836.12
558.502	49038.6
558.865	49070.46
559.228	49362.88
559.59	49521.97
559.953	49478.13
560.316	49931.91
560.679	49907.73
561.041	50177.55
561.404	50238.57
561.767	50467.49
562.129	50253.48
562.492	50820.25
562.854	50855.95
563.217	50788.83
563.579	51083.29
563.941	51185.43
564.304	51351.76
564.666	51554.46
565.028	51561.92
565.39	51673.56
565.753	51853.44
566.115	51983.15
566.477	52055.02
566.839	52167.78
567.201	52393.09
567.563	52470.37
567.925	52640.54
568.287	52630.14
568.648	52710.37
569.01	52860.87
569.372	53201.2
569.734	52875.33
570.095	53234.42
570.457	53379.5
570.819	53409.56
571.18	53345.83
571.542	53624.47
571.903	53673.73
572.265	53794.63
572.626	53799.6
572.987	53879.37
573.349	53974.74
573.71	54048.64
574.071	54179.03
574.432	54193.04
574.794	54468.06
575.155	54395.52
575.516	54371.11
575.877	54477.78
576.238	54496.53
576.599	54620.6
576.96	54689.07
577.32	54596.42
577.681	54796.86
578.042	54816.98
578.403	54774.94
578.763	54847.03
579.124	54889.74
579.485	55030.08
579.845	55005.9
580.206	55050.87
580.566	55011.32
580.927	55016.97
581.287	55132.9
581.648	55114.14
582.008	55270.52
582.368	55102.39
582.728	55232.56
583.089	55172.9
583.449	55165.67
583.809	55255.84
584.169	55279.79
584.529	55223.07
584.889	55318.66
585.249	55196.85
585.609	55153.92
585.969	55330.18
586.329	55228.94
586.688	55327.92
587.048	55281.82
587.408	55184.42
587.768	55227.81
588.127	55161.83
588.487	55143.75
588.846	55320.01
589.206	55189.4
589.565	55202.5
589.925	55397.07
590.284	55276.63
590.643	55280.47
591.003	55308.49
591.362	55377.19
591.721	55345.78
592.08	55333.57
592.44	55411.99
592.799	55411.09
593.158	55310.52
593.517	55266.46
593.876	55421.71
594.235	55358.66
594.593	55415.61
594.952	55371.31
595.311	55301.03
595.67	55337.64
596.029	55534.7
596.387	55550.29
596.746	55585.09
597.104	55499.22
597.463	55514.59
597.822	55574.02
598.18	55453.12
598.538	55498.99
598.897	55593.68
599.255	55401.82
599.613	55761.13
599.972	55532.44
600.33	55617.18
600.688	55515.72
601.046	55605.88
601.404	55802.49
601.762	55652.66
602.12	55770.62
602.478	55868.93
602.836	55758.42
603.194	55675.26
603.552	55785.54
603.91	55660.34
604.268	55865.54
604.625	55804.52
604.983	55894.01
605.341	55809.72
605.698	55928.36
606.056	55981.92
606.413	55979.88
606.771	56008.81
607.128	56052.2
607.485	55937.63
607.843	56019.21
608.2	56170.61
608.557	56243.15
608.914	56176.94
609.272	56187.56
609.629	56266.66
609.986	56382.59
610.343	56220.56
610.7	56406.77
611.057	56348.46
611.414	56263.27
611.771	56259.88
612.127	56391.85
612.484	56420.32
612.841	56473.66
613.198	56364.96
613.554	56423.49
613.911	56593.65
614.267	56515.01
614.624	56591.62
614.98	56567.44
615.337	56629.36
615.693	56608.79
616.05	56538.74
616.406	56711.84
616.762	56607.89
617.118	56627.1
617.475	56649.92
617.831	56758.85
618.187	56760.2
618.543	56842.46
618.899	56896.02
619.255	56812.4
619.611	56832.06
619.967	56904.38
620.323	56952.51
620.678	56876.81
621.034	56804.72
621.39	56835.68
621.746	56827.77
622.101	57083.81
622.457	56809.01
622.812	56898.5
623.168	57015.56
623.523	57012.85
623.879	57027.99
624.234	56792.97
624.589	56917.94
624.945	57031.16
625.3	57056.69
625.655	56883.14
626.01	56932.18
626.365	56969.01
626.72	56915.9
627.075	56896.02
627.43	56904.83
627.785	56875.68
628.14	56819.41
628.495	56939.18
628.85	56853.08
629.205	56781.22
629.559	56847.21
629.914	56753.2
630.269	56749.81
630.623	56682.24
630.978	56591.62
631.332	56720.88
631.687	56716.14
632.041	56585.07
632.396	56621.9
632.75	56483.15
633.104	56496.48
633.459	56396.37
633.813	56391.4
634.167	56423.49
634.521	56420.1
634.875	56460.1
635.229	56376.48
635.583	56230.5
635.937	56232.08
636.291	56195.25
636.645	56205.19
636.999	56206.77
637.352	56211.29
637.706	55994.57
638.06	56140.33
638.413	56061.92
638.767	56003.84
639.121	55986.89
639.474	55864.86
639.828	55874.58
640.181	55889.72
640.534	55839.32
640.888	55771.3
641.241	55649.72
641.594	55747.8
641.947	55848.81
642.301	55638.65
642.654	55720.68
643.007	55685.88
643.36	55649.05
643.713	55583.51
644.066	55577.86
644.419	55533.12
644.771	55307.59
645.124	55073.69
645.477	55043.19
645.83	54769.75
646.182	54725.23
646.535	54535.85
646.888	54617.66
647.24	54381.06
647.593	54613.82
647.945	54517.55
648.298	54376.31
648.65	54350.1
649.002	54253.6
649.355	54337.89
649.707	54301.28
650.059	54374.95
650.411	54713.25
650.763	54847.26
651.115	55019.23
651.467	54977.42
651.819	54858.78
652.171	54759.58
652.523	54764.55
652.875	54686.36
653.227	54628.28
653.578	54809.97
653.93	54746.7
654.282	54701.73
654.633	54516.42
654.985	54644.78
655.337	54620.37
655.688	54574.27
656.039	54685.45
656.391	54350.55
656.742	54455.18
657.094	54358.01
657.445	54552.8
657.796	54443.65
658.147	54359.14
658.498	54354.39
658.849	54392.58
659.2	54383.09
659.551	54243.88
659.902	54442.3
660.253	54347.16
660.604	54366.82
660.955	54212.7
661.306	54334.28
661.656	54262.42
662.007	54263.77
662.358	54118.69
662.708	54187.84
663.059	54178.58
663.409	53978.81
663.76	54043.89
664.11	54087.28
664.461	54119.59
664.811	54081.18
665.161	54085.7
665.511	53988.52
665.862	53895.87
666.212	54038.92
666.562	54037.11
666.912	53942.2
667.262	53992.59
667.612	53985.59
667.962	53899.49
668.312	53824.23
668.662	53997.79
669.011	53915.76
669.361	53879.37
669.711	53802.09
670.06	53750.56
670.41	53710.79
670.76	53715.99
671.109	53823.1
671.459	53806.83
671.808	53571.59
672.157	53759.83
672.507	53542.89
672.856	53503.11
673.205	53594.64
673.554	53611.36
673.904	53434.87
674.253	53585.82
674.602	53472.83
674.951	53090.92
675.3	52907.2
675.649	53490.91
675.998	53417.24
676.346	53342.89
676.695	53452.27
677.044	53087.53
677.393	53206.85
677.741	53372.95
678.09	53185.61
678.438	53171.82
678.787	53226.96
679.135	53201.65
679.484	53001.88
679.832	53204.59
680.181	52890.47
680.529	52991.04
680.877	52911.94
681.225	52959.4
681.573	53081.66
681.922	52696.35
682.27	52743.36
682.618	52709.69
682.966	52626.3
683.314	52693.87
683.661	52580.88
684.009	52376.14
684.357	52374.56
684.705	52331.62
685.053	52303.37
685.4	52295.91
685.748	52066.54
686.095	52108.8
686.443	51960.78
686.79	51824.51
687.138	51954.91
687.485	51955.58
687.832	51801.01
688.18	51893.44
688.527	51673.56
688.874	51589.49
689.221	51496.39
689.568	51437.86
689.915	51382.72
690.262	51390.4
690.609	51219.11
690.956	51069.28
691.303	51050.07
691.65	50855.95
691.997	50860.02
692.344	50700.02
692.69	50645.56
693.037	50636.52
693.383	50334.83
693.73	50518.33
694.077	50217.78
694.423	50304.55
694.769	50063.66
695.116	50105.24
695.462	49967.16
695.808	49895.3
696.155	49987.05
696.501	49707.73
696.847	49751.35
697.193	49338.7
697.539	49479.72
697.885	49344.58
698.231	49093.96
698.577	49075.66
698.923	48975.1
699.269	48920.18
699.614	48661.43
699.96	48698.72
700.306	48710.47
700.651	48456.01
700.997	48390.25
701.342	48340.76
701.688	48166.76
702.033	48090.15
702.379	47984.84
702.724	47952.3
703.069	48046.99
703.415	47531.29
703.76	47459.88
704.105	47456.49
704.45	47463.5
704.795	47158.42
705.14	47054.02
705.485	47033.9
705.83	46783.29
706.175	46945.77
706.52	46688.83
706.865	46512.56
707.209	46562.73
707.554	46407.71
707.899	46458.55
708.243	46151.89
708.588	46185.34
708.932	45796.87
709.277	45848.85
709.621	46054.5
709.966	45510.55
710.31	45707.61
710.654	45500.61
710.998	45391.24
711.342	45310.33
711.687	45195.08
712.031	45075.54
712.375	45086.84
712.719	45158.02
713.063	44942.89
713.407	45008.65
713.75	44814.53
714.094	44748.99
714.438	44426.06
714.782	44554.2
715.125	44429.68
715.469	44377.93
715.812	44192.4
716.156	44016.13
716.499	44080.31
716.843	44127.99
717.186	43745.18
717.53	43917.38
717.873	43952.18
718.216	43836.93
718.559	43575.92
718.902	43483.26
719.246	43469.7
719.589	43305.42
719.932	43170.28
720.275	43192.2
720.617	43101.13
720.96	42935.48
721.303	43013.67
721.646	43129.37
721.989	42772.77
722.331	42871.75
722.674	42627.01
723.016	42567.36
723.359	42665.88
723.701	42581.14
724.044	42254.6
724.386	42134.37
724.729	42387.93
725.071	42156.97
725.413	42137.31
725.755	41968.73
726.097	41724.89
726.439	41672.01
726.782	41712.24
727.124	41890.76
727.465	41623.2
727.807	41548.85
728.149	41387.95
728.491	41291
728.833	41304.34
729.175	41206.49
729.516	41065.7
729.858	41079.26
730.199	41225.47
730.541	40934.86
730.882	40791.58
731.224	40862.09
731.565	40681.98
731.906	40781.87
732.248	40818.25
732.589	40493.96
732.93	40438.15
733.271	40444.47
733.612	40433.85
733.953	40506.39
734.294	40141.2
734.635	39959.74
734.976	40233.18
735.317	40010.13
735.658	39988.44
735.999	39850.82
736.339	39792.51
736.68	39880.87
737.021	39642.23
737.361	39602.24
737.702	39840.87
738.042	39502.13
738.383	39432.07
738.723	39591.84
739.063	39378.29
739.404	39498.96
739.744	39286.76
740.084	39209.93
740.424	39305.07
740.764	39018.75
741.104	39205.41
741.444	38873.67
741.784	38882.71
742.124	38814.01
742.464	38822.82
742.804	38741.24
743.143	38563.39
743.483	38744.86
743.823	38382.15
744.162	38452.44
744.502	38419.67
744.841	38254.47
745.181	38396.62
745.52	38226.9
745.86	38200.92
746.199	38079.11
746.538	37970.19
746.877	38060.58
747.216	38002.73
747.556	37891.77
747.895	37910.98
748.234	37651.1
748.573	37447.72
748.911	37566.81
749.25	37476.64
749.589	37407.49
749.928	37390.99
750.267	37265.12
750.605	37241.39
750.944	37193.94
751.283	36899.71
751.621	37148.29
751.96	36808.41
752.298	36812.03
