Data from breadboard_black_back_FLMS001491_00038.txt Node
Date: Wed Feb 08 10:50:18 GMT 2017
User: dcchb
Spectrometer: FLMS00149
Trigger mode: 0
Integration Time (sec): 2.000000E-2
Scans to average: 10
Electric dark correction enabled: true
Nonlinearity correction enabled: false
Boxcar width: 0
XAxis mode: Wavelengths
Number of Pixels in Spectrum: 2048
>>>>>Begin Spectral Data<<<<<
341.393	14.59
341.776	14.59
342.16	14.59
342.543	-69.02
342.927	-54.79
343.31	-68.57
343.693	-72.41
344.077	-53.2
344.46	-61.79
344.843	-48.01
345.226	-39.87
345.61	-31.06
345.993	-27.89
346.376	3.97
346.759	8.26
347.142	8.94
347.525	38.32
347.908	58.66
348.291	84.19
348.674	99.56
349.057	100.92
349.44	118.09
349.823	147.02
350.206	166.68
350.588	189.27
350.971	227.69
351.354	242.61
351.737	234.25
352.119	263.17
352.502	271.76
352.884	286
353.267	300.01
353.65	309.27
354.032	295.03
354.414	332.77
354.797	302.27
355.179	316.28
355.562	312.89
355.944	355.15
356.326	334.13
356.709	348.59
357.091	342.27
357.473	349.04
357.855	344.75
358.238	352.89
358.62	336.84
359.002	350.85
359.384	349.04
359.766	342.49
360.148	354.47
360.53	341.81
360.912	358.99
361.294	346.78
361.676	337.75
362.057	361.02
362.439	346.56
362.821	359.89
363.203	344.07
363.584	366.45
363.966	332.1
364.348	357.41
364.729	343.62
365.111	353.79
365.493	331.87
365.874	355.15
366.256	336.39
366.637	351.3
367.019	327.58
367.4	345.43
367.781	357.18
368.163	347.24
368.544	325.32
368.925	370.06
369.306	340.01
369.688	335.71
370.069	337.52
370.45	340.46
370.831	353.11
371.212	349.72
371.593	337.29
371.974	348.82
372.355	357.63
372.736	344.98
373.117	346.78
373.498	336.62
373.879	352.21
374.26	361.7
374.641	345.43
375.021	363.73
375.402	358.76
375.783	377.74
376.163	399.89
376.544	371.64
376.925	374.81
377.305	387.01
377.686	366.9
378.066	383.62
378.447	382.26
378.827	353.79
379.208	389.27
379.588	382.26
379.968	389.95
380.349	396.95
380.729	390.63
381.109	397.63
381.489	389.72
381.87	411.87
382.25	394.47
382.63	412.55
383.01	419.55
383.39	391.08
383.77	426.78
384.15	415.94
384.53	425.2
384.91	448.48
385.29	432.66
385.67	429.95
386.049	436.73
386.429	450.28
386.809	437.63
387.189	422.94
387.568	448.02
387.948	459.1
388.328	456.39
388.707	471.75
389.087	456.61
389.466	474.92
389.846	468.14
390.225	455.48
390.605	463.17
390.984	476.95
391.363	474.92
391.743	490.96
392.122	500.9
392.501	470.85
392.881	507.68
393.26	519.21
393.639	498.87
394.018	517.63
394.397	504.29
394.776	508.36
395.155	525.54
395.534	536.16
395.913	531.86
396.292	536.61
396.671	544.52
397.05	543.39
397.429	549.27
397.808	543.16
398.186	552.2
398.565	564.63
398.944	558.98
399.323	557.4
399.701	570.28
400.08	550.17
400.458	580.68
400.837	591.07
401.215	587
401.594	593.56
401.972	594.69
402.351	618.64
402.729	614.12
403.107	605.53
403.486	646.44
403.864	646.44
404.242	614.12
404.62	620.68
404.999	630.62
405.377	654.57
405.755	655.25
406.133	637.17
406.511	663.16
406.889	672.88
407.267	679.21
407.645	681.24
408.023	676.72
408.401	696.15
408.779	708.36
409.156	694.12
409.534	711.52
409.912	712.42
410.29	746.1
410.667	742.48
411.045	757.62
411.422	761.01
411.8	761.69
412.178	773.89
412.555	798.07
412.933	794.91
413.31	802.14
413.687	816.83
414.065	830.39
414.442	829.94
414.819	827.45
415.197	832.87
415.574	844.62
415.951	853.66
416.328	850.27
416.705	899.09
417.082	874
417.46	891.4
417.837	903.83
418.214	908.8
418.591	911.97
418.967	916.26
419.344	940.44
419.721	934.11
420.098	916.71
420.475	953.1
420.852	953.55
421.228	972.76
421.605	990.38
421.982	997.16
422.358	979.99
422.735	1000.78
423.111	1022.02
423.488	1023.38
423.864	1026.99
424.241	1057.05
424.617	1073.55
424.994	1083.94
425.37	1065.18
425.746	1080.55
426.123	1110.15
426.499	1130.27
426.875	1120.1
427.251	1136.82
427.627	1143.37
428.003	1144.73
428.379	1175.92
428.756	1182.69
429.132	1213.43
429.507	1244.16
429.883	1258.85
430.259	1251.62
430.635	1272.64
431.011	1259.98
431.387	1289.81
431.763	1301.11
432.138	1336.36
432.514	1332.97
432.89	1364.39
433.265	1387.44
433.641	1401.45
434.016	1381.79
434.392	1415.46
434.767	1438.51
435.143	1440.09
435.518	1467.43
435.894	1499.52
436.269	1494.78
436.644	1551.72
437.02	1550.59
437.395	1533.87
437.77	1585.4
438.145	1602.34
438.52	1596.02
438.895	1622.46
439.271	1602.8
439.646	1657.94
440.021	1653.19
440.395	1676.69
440.77	1673.76
441.145	1677.6
441.52	1718.27
441.895	1737.03
442.27	1695
442.645	1749.01
443.019	1780.19
443.394	1789.68
443.769	1772.06
444.143	1767.09
444.518	1803.7
444.892	1777.71
445.267	1836.24
445.641	1838.72
446.016	1822
446.39	1844.15
446.764	1864.03
447.139	1874.65
447.513	1904.03
447.887	1928.44
448.262	1919.4
448.636	1940.87
449.01	1960.98
449.384	1970.47
449.758	2005.72
450.132	1985.84
450.506	2039.4
450.88	2044.14
451.254	2039.4
451.628	2069.68
452.002	2074.87
452.376	2107.42
452.75	2133.63
453.123	2138.38
453.497	2161.65
453.871	2223.35
454.244	2222.67
454.618	2242.33
454.992	2295.43
455.365	2295.21
455.739	2341.31
456.112	2358.48
456.486	2404.81
456.859	2426.28
457.232	2450.91
457.606	2482.55
457.979	2534.3
458.352	2504.24
458.725	2586.27
459.099	2603.67
459.472	2657.23
459.845	2647.06
460.218	2687.29
460.591	2713.73
460.964	2738.13
461.337	2771.13
461.71	2845.48
462.083	2871.01
462.456	2874.18
462.829	2906.27
463.201	2976.32
463.574	2967.73
463.947	2987.85
464.32	3020.16
464.692	3079.82
465.065	3143.32
465.438	3135.41
465.81	3221.06
466.183	3240.95
466.555	3322.75
466.928	3344.67
467.3	3325.24
467.672	3398.46
468.045	3474.39
468.417	3457.44
468.789	3506.25
469.161	3547.15
469.534	3613.59
469.906	3692.69
470.278	3708.73
470.65	3762.06
471.022	3824.66
471.394	3894.94
471.766	3915.28
472.138	3977.88
472.51	4024.65
472.882	4130.41
473.253	4137.19
473.625	4209.96
473.997	4288.38
474.369	4356.85
474.74	4352.56
475.112	4471.87
475.484	4499.44
475.855	4590.74
476.227	4661.02
476.598	4805.42
476.97	4832.99
477.341	4887.46
477.713	4994.35
478.084	5056.27
478.455	5136.72
478.827	5238.41
479.198	5327.67
479.569	5386.43
479.94	5493.09
480.311	5555.01
480.682	5667.1
481.053	5815.34
481.424	5881.55
481.795	5970.82
482.166	6079.52
482.537	6138.5
482.908	6280.64
483.279	6359.96
483.65	6374.2
484.021	6511.37
484.391	6605.15
484.762	6680.86
485.133	6776.67
485.503	6894.18
485.874	6964.24
486.244	7030.68
486.615	7248.3
486.985	7319.03
487.356	7498.69
487.726	7500.49
488.097	7703.88
488.467	7644.9
488.837	7791.79
489.207	7956.3
489.578	8062.74
489.948	8134.83
490.318	8281.04
490.688	8205.11
491.058	8432.45
491.428	8521.94
491.798	8582.05
492.168	8728.94
492.538	8807.58
492.908	8842.38
493.278	9043.73
493.648	9038.08
494.017	9115.59
494.387	9290.96
494.757	9316.04
495.126	9448.24
495.496	9464.29
495.866	9480.33
496.235	9642.81
496.605	9793.77
496.974	9753.99
497.344	9939.3
497.713	9984.95
498.082	10033.99
498.452	10177.94
498.821	10202.12
499.19	10280.53
499.559	10310.14
499.928	10345.84
500.298	10488.21
500.667	10644.14
501.036	10574.99
501.405	10685.5
501.774	10749.45
502.143	10850.46
502.512	10891.82
502.88	10970.46
503.249	11043.23
503.618	11044.81
503.987	11197.57
504.356	11259.49
504.724	11305.37
505.093	11372.94
505.462	11438.7
505.83	11517.79
506.199	11641.85
506.567	11809.76
506.936	11834.39
507.304	11933.37
507.672	12077.55
508.041	12103.99
508.409	12203.2
508.777	12304.66
509.145	12372.46
509.514	12362.29
509.882	12536.52
510.25	12603.19
510.618	12652.9
510.986	12587.14
511.354	12883.4
511.722	12982.84
512.09	13046.56
512.458	13060.57
512.826	13181.7
513.193	13256.5
513.561	13323.17
513.929	13456.72
514.297	13600.9
514.664	13682.71
515.032	13789.14
515.4	13838.63
515.767	13906.65
516.135	14030.04
516.502	13988.69
516.869	14220.32
517.237	14259.41
517.604	14288.79
517.972	14475
518.339	14610.36
518.706	14621.44
519.073	14719.51
519.44	14806.74
519.808	15085.15
520.175	14993.18
520.542	15191.37
520.909	15317.01
521.276	15282.89
521.643	15547.06
522.009	15635.42
522.376	15724.23
522.743	15860.05
523.11	16050.78
523.477	16121.96
523.843	16230.21
524.21	16435.63
524.577	16596.07
524.943	16681.95
525.31	16726.47
525.676	16973.01
526.043	17014.37
526.409	17140.47
526.776	17319.22
527.142	17359.44
527.508	17483.96
527.874	17652.77
528.241	17734.8
528.607	17778.42
528.973	17993.1
529.339	17903.61
529.705	18238.97
530.071	18349.02
530.437	18378.4
530.803	18571.84
531.169	18794.89
531.535	18674.66
531.901	18652.97
532.267	18761.22
532.632	18980.19
532.998	19016.58
533.364	19232.62
533.73	19174.99
534.095	19419.73
534.461	19499.95
534.826	19505.38
535.192	19663.79
535.557	19759.38
535.923	19775.2
536.288	19878.47
536.653	19985.14
537.019	19866.05
537.384	20093.61
537.749	20186.49
538.114	20327.73
538.479	20265.81
538.845	20427.61
539.21	20361.17
539.575	20519.36
539.94	20577.21
540.305	20735.85
540.67	20619.02
541.034	20842.52
541.399	20863.08
541.764	21049.74
542.129	21047.48
542.494	21143.53
542.858	21274.37
543.223	21162.73
543.587	21363.86
543.952	21327.25
544.316	21497.64
544.681	21481.14
545.045	21564.53
545.41	21767.92
545.774	21849.95
546.138	21722.95
546.503	21921.13
546.867	21924.52
547.231	22106.44
547.595	22155.25
547.959	22263.72
548.324	22245.19
548.688	22324.06
549.052	22435.02
549.416	22489.48
549.779	22449.03
550.143	22586.65
550.507	22741.22
550.871	22868
551.235	22813.31
551.599	23094.21
551.962	23094.89
552.326	23188.9
552.689	23295.79
553.053	23231.38
553.417	23286.52
553.78	23678.37
554.143	23557.47
554.507	23677.02
554.87	23747.07
555.234	24016.67
555.597	23860.06
555.96	23963.79
556.323	24142.54
556.686	24215.99
557.05	24361.29
557.413	24479.03
557.776	24448.75
558.139	24564.45
558.502	24718.35
558.865	24733.26
559.228	24863.2
559.59	25024.78
559.953	25082.18
560.316	25324.43
560.679	25308.61
561.041	25327.14
561.404	25502.06
561.767	25728.72
562.129	25638.32
562.492	25965.77
562.854	25909.73
563.217	26007.35
563.579	26097.75
563.941	26398.53
564.304	26459.09
564.666	26563.95
565.028	26689.59
565.39	26694.11
565.753	26856.14
566.115	27106.31
566.477	27191.28
566.839	27163.71
567.201	27464.94
567.563	27349.24
567.925	27657.03
568.287	27576.8
568.648	27729.34
569.01	27877.13
569.372	27985.61
569.734	27930.69
570.095	28157.58
570.457	28277.58
570.819	28376.33
571.18	28365.03
571.542	28497.23
571.903	28503.78
572.265	28638.47
572.626	28747.39
572.987	28752.14
573.349	28931.12
573.71	29005.92
574.071	29054.5
574.432	29171.56
574.794	29273.93
575.155	29276.65
575.516	29316.42
575.877	29366.13
576.238	29391.44
576.599	29480.71
576.96	29546.69
577.32	29650.87
577.681	29668.05
578.042	29729.51
578.403	29868.95
578.763	29731.1
579.124	29786.69
579.485	29978.32
579.845	30086.34
580.206	29994.14
580.566	30053.12
580.927	30008.38
581.287	30246.56
581.648	30050.18
582.008	30178.54
582.368	30178.54
582.728	30220.58
583.089	30177.86
583.449	30237.07
583.809	30204.3
584.169	30273
584.529	30350.97
584.889	30525.88
585.249	30378.76
585.609	30337.86
585.969	30414.24
586.329	30407.92
586.688	30524.07
587.048	30364.53
587.408	30343.51
587.768	30465.09
588.127	30313.68
588.487	30345.09
588.846	30542.6
589.206	30392.1
589.565	30435.49
589.925	30694.01
590.284	30426.45
590.643	30532.43
591.003	30528.59
591.362	30569.27
591.721	30650.85
592.08	30674.57
592.44	30620.11
592.799	30616.72
593.158	30653.11
593.517	30630.96
593.876	30587.57
594.235	30566.1
594.593	30654.01
594.952	30799.09
595.311	30544.41
595.67	30766.32
596.029	30902.82
596.387	30944.4
596.746	30928.13
597.104	30677.74
597.463	30872.31
597.822	30876.83
598.18	30724.97
598.538	30874.8
598.897	30941.46
599.255	30702.82
599.613	31169.25
599.972	31034.11
600.33	30986.43
600.688	30933.1
601.046	31035.24
601.404	31187.78
601.762	30989.59
602.12	31263.03
602.478	31164.73
602.836	31209.48
603.194	31232.53
603.552	31150.49
603.91	31199.31
604.268	31331.96
604.625	31327.44
604.983	31277.27
605.341	31212.41
605.698	31379.19
606.056	31443.82
606.413	31425.29
606.771	31571.5
607.128	31599.97
607.485	31436.14
607.843	31454.44
608.2	31610.6
608.557	31745.73
608.914	31557.26
609.272	31737.15
609.629	31918.61
609.986	31977.82
610.343	31573.76
610.7	32024.14
611.057	32016.91
611.414	31918.38
611.771	31939.17
612.127	31980.53
612.484	32114.08
612.841	32297.58
613.198	32089.68
613.554	32036.8
613.911	32237.02
614.267	32248.09
614.624	32301.2
614.98	32296.68
615.337	32500.29
615.693	32452.83
616.05	32323.35
616.406	32464.13
616.762	32410.12
617.118	32412.61
617.475	32352.27
617.831	32541.19
618.187	32528.99
618.543	32582.77
618.899	32828.19
619.255	32569.21
619.611	32530.57
619.967	32760.4
620.323	32824.35
620.678	32688.76
621.034	32564.69
621.39	32539.61
621.746	32677.01
622.101	33000.39
622.457	32604.69
622.812	32705.93
623.168	32854.63
623.523	32854.4
623.879	32939.6
624.234	32835.2
624.589	32755.42
624.945	32942.54
625.3	32863.44
625.655	32855.99
626.01	32770.79
626.365	32856.89
626.72	32738.48
627.075	32733.96
627.43	32835.87
627.785	32819.38
628.14	32684.01
628.495	32822.09
628.85	32809.89
629.205	32584.81
629.559	32819.38
629.914	32663.45
630.269	32758.81
630.623	32596.11
630.978	32637.01
631.332	32694.86
631.687	32704.58
632.041	32601.53
632.396	32637.24
632.75	32507.75
633.104	32554.3
633.459	32364.93
633.813	32394.08
634.167	32249.67
634.521	32326.28
634.875	32417.35
635.229	32182.33
635.583	32024.82
635.937	32197.25
636.291	32103.24
636.645	32154.08
636.999	32101.88
637.352	32098.49
637.706	31886.97
638.06	32104.37
638.413	31974.65
638.767	32007.42
639.121	32081.54
639.474	31812.4
639.828	31762.91
640.181	31790.93
640.534	31799.52
640.888	31551.84
641.241	31481.79
641.594	31596.58
641.947	31669.58
642.301	31521.11
642.654	31603.82
643.007	31575.12
643.36	31483.82
643.713	31363.14
644.066	31513.65
644.419	31413.31
644.771	31209.48
645.124	30869.37
645.477	30926.09
645.83	30491.53
646.182	30481.81
646.535	30328.82
646.888	30374.02
647.24	30141.48
647.593	30287.92
647.945	30247.69
648.298	30187.81
648.65	29981.03
649.002	29962.05
649.355	30192.1
649.707	30063.97
650.059	30287.47
650.411	30498.53
650.763	30567.23
651.115	30789.83
651.467	30742.82
651.819	30671.19
652.171	30673.9
652.523	30503.05
652.875	30497.4
653.227	30408.59
653.578	30723.39
653.93	30554.8
654.282	30516.39
654.633	30350.74
654.985	30469.61
655.337	30405.66
655.688	30414.24
656.039	30491.08
656.391	30174.93
656.742	30270.74
657.094	30273.68
657.445	30265.55
657.796	30308.26
658.147	30248.6
658.498	30255.6
658.849	30275.94
659.2	30274.59
659.551	30177.64
659.902	30274.59
660.253	30116.85
660.604	30211.76
660.955	30086.79
661.306	30178.32
661.656	30048.38
662.007	29986.68
662.358	30041.82
662.708	30003.41
663.059	29998.66
663.409	29951.88
663.76	30112.33
664.11	30077.98
664.461	29996.63
664.811	29967.02
665.161	29888.15
665.511	29746.92
665.862	29994.82
666.212	29950.3
666.562	30049.51
666.912	29875.5
667.262	29831.21
667.612	29832.34
667.962	29840.02
668.312	29829.4
668.662	29879.12
669.011	29882.96
669.361	29735.39
669.711	29723.64
670.06	29678.67
670.41	29710.08
670.76	29544.66
671.109	29753.24
671.459	29677.76
671.808	29609.74
672.157	29681.38
672.507	29371.56
672.856	29443.65
673.205	29486.36
673.554	29645
673.904	29394.61
674.253	29677.09
674.602	29473.93
674.951	29073.26
675.3	28924.56
675.649	29265.35
675.998	29337.89
676.346	29303.31
676.695	29493.81
677.044	29189.19
677.393	29198.23
677.741	29302.18
678.09	29236.65
678.438	29046.82
678.787	29129.08
679.135	29248.62
679.484	28967.73
679.832	29083.43
680.181	28827.39
680.529	29061.96
680.877	28920.95
681.225	28903.55
681.573	29095.41
681.922	28834.4
682.27	28840.5
682.618	28743.1
682.966	28646.38
683.314	28716.21
683.661	28616.32
684.009	28508.98
684.357	28484.35
684.705	28484.12
685.053	28506.5
685.4	28475.99
685.748	28255.43
686.095	28206.17
686.443	28070.12
686.79	28051.82
687.138	28204.81
687.485	28123
687.832	28036.68
688.18	28011.14
688.527	27937.02
688.874	27846.17
689.221	27837.36
689.568	27670.81
689.915	27571.38
690.262	27640.53
690.609	27585.62
690.956	27396.24
691.303	27503.13
691.65	27315.34
691.997	27252.52
692.344	27139.3
692.69	27062.01
693.037	27126.19
693.383	26902.24
693.73	27061.11
694.077	26837.61
694.423	26848.69
694.769	26768.91
695.116	26552.88
695.462	26682.82
695.808	26530.5
696.155	26554.46
696.501	26434.69
696.847	26420.68
697.193	26112.66
697.539	26332.77
697.885	26108.82
698.231	26058.65
698.577	25971.42
698.923	26046.22
699.269	25895.72
699.614	25639.9
699.96	25709.96
700.306	25743.63
700.651	25630.64
700.997	25536.18
701.342	25432
701.688	25367.14
702.033	25420.48
702.379	25398.78
702.724	25242.63
703.069	25270.2
703.415	24978
703.76	24967.61
704.105	25007.15
704.45	24866.14
704.795	24826.59
705.14	24697.78
705.485	24602.19
705.83	24517.9
706.175	24582.08
706.52	24599.25
706.865	24431.12
707.209	24361.07
707.554	24346.83
707.899	24328.98
708.243	24126.5
708.588	24168.98
708.932	23978.71
709.277	24151.58
709.621	24048.08
709.966	23847.18
710.31	23957.92
710.654	23790.24
710.998	23773.29
711.342	23871.59
711.687	23711.82
712.031	23609
712.375	23527.87
712.719	23537.59
713.063	23476.8
713.407	23547.76
713.75	23431.6
714.094	23323.81
714.438	23246.75
714.782	23319.06
715.125	23198.16
715.469	23273.41
715.812	23025.28
716.156	22959.98
716.499	23120.65
716.843	22945.96
717.186	22884.95
717.53	22980.54
717.873	22959.07
718.216	22928.34
718.559	22785.97
718.902	22660.55
719.246	22687.89
719.589	22556.37
719.932	22609.7
720.275	22544.17
720.617	22472.76
720.96	22482.47
721.303	22515.69
721.646	22364.28
721.989	22325.19
722.331	22420.1
722.674	22279.99
723.016	22246.55
723.359	22214.01
723.701	22234.34
724.044	22129.94
724.386	21949.38
724.729	21953.67
725.071	21968.14
725.413	22019.21
725.755	21950.96
726.097	21893.34
726.439	21828.25
726.782	21814.47
727.124	21933.34
727.465	21683.17
727.807	21708.26
728.149	21574.48
728.491	21570.63
728.833	21630.52
729.175	21568.6
729.516	21443.86
729.858	21418.77
730.199	21519.11
730.541	21422.61
730.882	21416.29
731.224	21439.79
731.565	21259.46
731.906	21201.83
732.248	21312.34
732.589	21125.67
732.93	21240.7
733.271	21127.48
733.612	21175.16
733.953	21112.79
734.294	21054.26
734.635	20950.54
734.976	21059.69
735.317	20974.72
735.658	20950.31
735.999	20911.89
736.339	20856.75
736.68	20894.27
737.021	20865.12
737.361	20745.34
737.702	20780.6
738.042	20621.73
738.383	20621.96
738.723	20677.1
739.063	20537.21
739.404	20608.85
739.744	20520.94
740.084	20561.17
740.424	20507.84
740.764	20477.1
741.104	20573.6
741.444	20314.85
741.784	20358.24
742.124	20291.34
742.464	20353.49
742.804	20323.43
743.143	20286.6
743.483	20287.28
743.823	20166.6
744.162	20191.01
744.502	20087.28
744.841	20025.82
745.181	20038.92
745.52	20066.04
745.86	20044.57
746.199	20035.53
746.538	20022.43
746.877	19912.15
747.216	19979.26
747.556	19869.66
747.895	19958.02
748.234	19668.99
748.573	19775.88
748.911	19725.03
749.25	19781.98
749.589	19586.96
749.928	19586.05
750.267	19613.85
750.605	19500.63
750.944	19594.19
751.283	19466.51
751.621	19388.09
751.96	19356
752.298	19246.17
752.636	19346.51
752.975	19174.99
753.313	19082.11
753.651	19123.69
753.989	19055.45
754.327	18992.4
754.666	18959.18
