Data from breadboard_black_back_FLMS001491_00092.txt Node
Date: Wed Feb 08 10:51:11 GMT 2017
User: dcchb
Spectrometer: FLMS00149
Trigger mode: 0
Integration Time (sec): 2.000000E-2
Scans to average: 10
Electric dark correction enabled: true
Nonlinearity correction enabled: false
Boxcar width: 0
XAxis mode: Wavelengths
Number of Pixels in Spectrum: 2048
>>>>>Begin Spectral Data<<<<<
341.393	-5.1
341.776	-5.1
342.16	-5.1
342.543	-67.47
342.927	-50.75
343.31	-72.22
343.693	-74.48
344.077	-62.72
344.46	-47.58
344.843	-37.87
345.226	-40.13
345.61	-18.66
345.993	-28.83
346.376	-19.11
346.759	5.52
347.142	23.6
347.525	62.02
347.908	41
348.291	61.57
348.674	91.62
349.057	116.25
349.44	144.28
349.823	146.08
350.206	154.22
350.588	191.05
350.971	213.65
351.354	231.28
351.737	243.48
352.119	271.28
352.502	272.63
352.884	281.22
353.267	289.58
353.65	311.28
354.032	301.79
354.414	314.89
354.797	331.84
355.179	314.21
355.562	337.49
355.944	316.47
356.326	336.36
356.709	318.51
357.091	334.55
357.473	341.33
357.855	336.59
358.238	337.72
358.62	330.71
359.002	349.02
359.384	346.76
359.766	354.89
360.148	346.98
360.53	352.18
360.912	349.47
361.294	336.81
361.676	368.45
362.057	344.04
362.439	344.5
362.821	349.69
363.203	353.99
363.584	356.25
363.966	313.54
364.348	343.82
364.729	327.55
365.111	351.05
365.493	327.55
365.874	318.51
366.256	335.68
366.637	347.89
367.019	339.07
367.4	313.76
367.781	336.59
368.163	320.54
368.544	353.99
368.925	326.64
369.306	356.93
369.688	325.51
370.069	339.3
370.45	314.44
370.831	340.65
371.212	337.72
371.593	301.33
371.974	348.79
372.355	339.75
372.736	358.06
373.117	344.5
373.498	341.56
373.879	325.74
374.26	350.15
374.641	324.38
375.021	322.12
375.402	330.49
375.783	340.43
376.163	367.77
376.544	359.19
376.925	354.67
377.305	358.73
377.686	353.99
378.066	364.16
378.447	360.09
378.827	372.29
379.208	368
379.588	365.74
379.968	360.54
380.349	388.11
380.729	373.42
381.109	367.09
381.489	363.48
381.87	377.26
382.25	391.95
382.63	377.94
383.01	388.11
383.39	397.15
383.77	396.47
384.15	390.6
384.53	388.56
384.91	411.39
385.29	390.15
385.67	405.29
386.049	421.33
386.429	422.91
386.809	409.81
387.189	435.79
387.568	413.65
387.948	429.01
388.328	436.02
388.707	430.37
389.087	442.35
389.466	422.69
389.846	429.01
390.225	449.8
390.605	452.29
390.984	460.43
391.363	469.92
391.743	446.64
392.122	468.56
392.501	459.3
392.881	452.29
393.26	456.36
393.639	468.11
394.018	478.05
394.397	453.19
394.776	499.97
395.155	464.95
395.534	500.2
395.913	495.45
396.292	472.4
396.671	477.37
397.05	500.2
397.429	510.82
397.808	503.14
398.186	501.55
398.565	539.75
398.944	522.12
399.323	529.8
399.701	523.02
400.08	537.49
400.458	529.58
400.837	533.42
401.215	560.54
401.594	539.07
401.972	546.07
402.351	524.6
402.729	558.05
403.107	561.89
403.486	569.35
403.864	562.12
404.242	590.59
404.62	597.6
404.999	599.86
405.377	585.85
405.755	603.7
406.133	605.96
406.511	596.92
406.889	616.81
407.267	627.65
407.645	618.39
408.023	634.43
408.401	628.56
408.779	637.82
409.156	665.17
409.534	638.5
409.912	659.29
410.29	687.31
410.667	665.84
411.045	689.12
411.422	687.76
411.8	721.21
412.178	690.48
412.555	713.3
412.933	697.93
413.31	735.45
413.687	720.98
414.065	742.68
414.442	722.79
414.819	766.63
415.197	721.66
415.574	779.06
415.951	774.77
416.328	765.05
416.705	783.58
417.082	791.72
417.46	801.66
417.837	786.74
418.214	819.51
418.591	798.04
418.967	842.56
419.344	826.52
419.721	845.95
420.098	844.82
420.475	850.47
420.852	848.44
421.228	863.8
421.605	872.84
421.982	883.01
422.358	907.42
422.735	915.56
423.111	903.8
423.488	919.85
423.864	952.84
424.241	933.63
424.617	959.85
424.994	956.23
425.37	949.68
425.746	970.24
426.123	991.94
426.499	965.05
426.875	1004.14
427.251	1026.96
427.627	1053.18
428.003	1046.17
428.379	1056.57
428.756	1052.5
429.132	1082.56
429.507	1071.03
429.883	1074.87
430.259	1119.17
430.635	1091.6
431.011	1125.49
431.387	1150.13
431.763	1151.71
432.138	1178.82
432.514	1165.49
432.89	1204.14
433.265	1219.05
433.641	1254.3
434.016	1235.55
434.392	1257.69
434.767	1262.21
435.143	1259.5
435.518	1287.75
435.894	1288.43
436.269	1334.08
436.644	1350.57
437.02	1360.97
437.395	1370.01
437.77	1359.39
438.145	1404.81
438.52	1399.61
438.895	1434.19
439.271	1452.04
439.646	1447.29
440.021	1461.98
440.395	1477.35
440.77	1473.73
441.145	1486.39
441.52	1497.23
441.895	1478.03
442.27	1550.79
442.645	1519.61
443.019	1568.42
443.394	1559.61
443.769	1591.47
444.143	1559.15
444.518	1591.7
444.892	1587.63
445.267	1578.81
445.641	1629.43
446.016	1623.56
446.39	1641.86
446.764	1646.16
447.139	1651.13
447.513	1658.36
447.887	1679.15
448.262	1685.48
448.636	1700.62
449.01	1718.02
449.384	1730.9
449.758	1786.04
450.132	1784.01
450.506	1780.84
450.88	1825.59
451.254	1796.89
451.628	1844.12
452.002	1829.88
452.376	1863.1
452.75	1908.07
453.123	1884.8
453.497	1927.28
453.871	1951.69
454.244	1970.67
454.618	1981.97
454.992	1998.46
455.365	2036.43
455.739	2072.81
456.112	2080.72
456.486	2085.69
456.859	2127.05
457.232	2154.84
457.606	2140.61
457.979	2192.81
458.352	2224.45
458.725	2241.85
459.099	2286.59
459.472	2306.93
459.845	2335.18
460.218	2343.54
460.591	2388.74
460.964	2391.9
461.337	2443.88
461.71	2496.53
462.083	2507.6
462.456	2492.01
462.829	2536.3
463.201	2605.23
463.574	2568.62
463.947	2645.23
464.32	2672.8
464.692	2719.8
465.065	2743.3
465.438	2730.65
465.81	2808.16
466.183	2846.13
466.555	2885.22
466.928	2931.32
467.3	2932.45
467.672	2950.08
468.045	3050.87
468.417	3053.35
468.789	3087.7
469.161	3101.03
469.534	3154.59
469.906	3219
470.278	3213.35
470.65	3271.88
471.022	3354.81
471.394	3404.08
471.766	3432.78
472.138	3490.85
472.51	3562.94
472.882	3610.85
473.253	3647.69
473.625	3682.04
473.997	3777.17
474.369	3805.2
474.74	3826.66
475.112	3897.85
475.484	3969.94
475.855	4036.15
476.227	4061.01
476.598	4182.14
476.97	4225.98
477.341	4304.84
477.713	4389.36
478.084	4455.12
478.455	4528.79
478.827	4554.56
479.198	4722.23
479.569	4699.86
479.94	4820.09
480.311	4832.74
480.682	4964.49
481.053	5074.99
481.424	5170.36
481.795	5236.12
482.166	5248.1
482.537	5391.14
482.908	5474.98
483.279	5526.06
483.65	5608.09
484.021	5709.33
484.391	5804.01
484.762	5855.76
485.133	5915.65
485.503	6019.38
485.874	6165.81
486.244	6220.73
486.615	6317.22
486.985	6338.46
487.356	6491
487.726	6507.05
488.097	6651.22
488.467	6690.09
488.837	6846.92
489.207	6933.48
489.578	7027.48
489.948	7110.19
490.318	7220.02
490.688	7180.02
491.058	7316.52
491.428	7439.68
491.798	7553.12
492.168	7670.86
492.538	7691.42
492.908	7776.84
493.278	7916.27
493.648	7911.76
494.017	7983.39
494.387	8120.34
494.757	8120.79
495.126	8243.27
495.496	8304.74
495.866	8371.18
496.235	8434.91
496.605	8556.71
496.974	8651.85
497.344	8664.73
497.713	8718.97
498.082	8798.06
498.452	8846.19
498.821	8968
499.19	8955.34
499.559	9035.57
499.928	9168.22
500.298	9170.25
500.667	9287.76
501.036	9292.74
501.405	9412.05
501.774	9386.07
502.143	9520.98
502.512	9539.28
502.88	9639.17
503.249	9664.25
503.618	9819.73
503.987	9845.04
504.356	9900.18
504.724	10032.83
505.093	10049.33
505.462	10091.13
505.83	10111.7
506.199	10259.26
506.567	10335.19
506.936	10296.55
507.304	10571.8
507.672	10543.78
508.041	10608.41
508.409	10754.62
508.777	10791
509.145	10853.15
509.514	10861.06
509.882	10976.53
510.25	11004.33
510.618	11136.08
510.986	11105.12
511.354	11314.38
511.722	11367.48
512.09	11481.83
512.458	11484.77
512.826	11603.86
513.193	11701.71
513.561	11653.13
513.929	11806.79
514.297	11904.42
514.664	12025.32
515.032	12123.4
515.4	12267.35
515.767	12323.39
516.135	12328.14
516.502	12325.65
516.869	12589.37
517.237	12644.74
517.604	12630.73
517.972	12792.08
518.339	12831.4
518.706	12847.22
519.073	13026.65
519.44	13008.8
519.808	13269.13
520.175	13269.81
520.542	13497.37
520.909	13541.66
521.276	13559.06
521.643	13734.88
522.009	13721.55
522.376	13907.08
522.743	13996.12
523.11	14210.35
523.477	14312.72
523.843	14365.37
524.21	14524.24
524.577	14595.2
524.943	14707.96
525.31	14807.39
525.676	14957.22
526.043	14954.28
526.409	15105.46
526.776	15316.98
527.142	15337.32
527.508	15436.98
527.874	15517.43
528.241	15663.19
528.607	15697.09
528.973	15914.03
529.339	15903.64
529.705	16070.64
530.071	16156.28
530.437	16226.34
530.803	16307.24
531.169	16487.35
531.535	16445.77
531.901	16534.58
532.267	16702.03
532.632	16771.41
532.998	16900.22
533.364	17016.15
533.73	17037.17
534.095	17112.19
534.461	17138.63
534.826	17227.89
535.192	17463.59
535.557	17514.67
535.923	17500.2
536.288	17561.9
536.653	17711.72
537.019	17649.8
537.384	17870.14
537.749	17924.15
538.114	17903.13
538.479	17960.08
538.845	18109.91
539.21	18064.26
539.575	18170.47
539.94	18245.72
540.305	18417.92
540.67	18439.39
541.034	18378.6
541.399	18567.52
541.764	18608.2
542.129	18556.67
542.494	18692.26
542.858	18784.46
543.223	18866.04
543.587	19036.66
543.952	18890
544.316	19080.73
544.681	19156.43
545.045	19166.83
545.41	19308.74
545.774	19475.07
546.138	19386.26
546.503	19479.59
546.867	19564.1
547.231	19694.04
547.595	19702.18
547.959	19783.53
548.324	19801.61
548.688	19879.12
549.052	19974.94
549.416	20125.45
549.779	20019.46
550.143	20052.23
550.507	20406.12
550.871	20374.48
551.235	20326.34
551.599	20557.52
551.962	20574.47
552.326	20608.14
552.689	20808.37
553.053	20631.42
553.417	20762.94
553.78	20984.18
554.143	21059.43
554.507	21132.42
554.87	21222.37
555.234	21310.05
555.597	21297.17
555.96	21354.11
556.323	21470.95
556.686	21577.84
557.05	21743.26
557.413	21750.49
557.776	21794.33
558.139	21903.93
558.502	21999.75
558.865	22015.34
559.228	22361.54
559.59	22425.5
559.953	22463.69
560.316	22685.6
560.679	22748.65
561.041	22739.16
561.404	22894.41
561.767	22982.77
562.129	23013.51
562.492	23278.13
562.854	23298.24
563.217	23369.43
563.579	23378.92
563.941	23571.46
564.304	23649.87
564.666	23784.11
565.028	23835.18
565.39	23962.86
565.753	24067.04
566.115	24122.4
566.477	24172.57
566.839	24343.19
567.201	24437.42
567.563	24429.06
567.925	24702.05
568.287	24756.28
568.648	24725.1
569.01	25003.28
569.372	25078.99
569.734	25102.94
570.095	25263.84
570.457	25349.71
570.819	25307.23
571.18	25453.44
571.542	25534.57
571.903	25610.72
572.265	25751.74
572.626	25786.09
572.987	25822.7
573.349	25880.55
573.71	26063.82
574.071	26015.23
574.432	26112.63
574.794	26382.46
575.155	26320.08
575.516	26263.82
575.877	26390.59
576.238	26414.32
576.599	26519.4
576.96	26649.34
577.32	26645.05
577.681	26730.92
578.042	26800.75
578.403	26756.23
578.763	26836.68
579.124	26849.56
579.485	26998.49
579.845	27013.17
580.206	26980.86
580.566	26970.69
580.927	27064.02
581.287	27097.01
581.648	27094.53
582.008	27333.84
582.368	27221.08
582.728	27216.33
583.089	27194.86
583.449	27223.79
583.809	27256.56
584.169	27241.42
584.529	27167.75
584.889	27471.47
585.249	27330.45
585.609	27269.66
585.969	27337.46
586.329	27391.24
586.688	27348.76
587.048	27308.08
587.408	27379.49
587.768	27406.84
588.127	27362.54
588.487	27324.58
588.846	27657.68
589.206	27355.99
589.565	27561.63
589.925	27429.66
590.284	27488.19
590.643	27502.2
591.003	27582.65
591.362	27638.92
591.721	27556.66
592.08	27546.72
592.44	27668.75
592.799	27622.42
593.158	27637.56
593.517	27672.59
593.876	27696.55
594.235	27621.97
594.593	27730.22
594.952	27706.71
595.311	27691.35
595.67	27800.5
596.029	27930.21
596.387	27808.63
596.746	27890.21
597.104	27801.4
597.463	27762.08
597.822	27873.72
598.18	27743.55
598.538	27760.72
598.897	28068.97
599.255	27813.6
599.613	28073.03
599.972	27891.34
600.33	28143.77
600.688	27915.3
601.046	28106.25
601.404	28097.44
601.762	28030.32
602.12	28268.73
602.478	28336.53
602.836	28281.84
603.194	28139.47
603.552	28273.71
603.91	28234.38
604.268	28329.3
604.625	28271.9
604.983	28393.25
605.341	28274.84
605.698	28465.79
606.056	28512.57
606.413	28391.44
606.771	28519.8
607.128	28616.07
607.485	28502.17
607.843	28579.01
608.2	28764.09
608.557	28752.11
608.914	28674.15
609.272	28838.66
609.629	28891.09
609.986	28960.24
610.343	28837.98
610.7	29052.89
611.057	28941.03
611.414	28897.19
611.771	29073.01
612.127	29007.92
612.484	29120.46
612.841	29127.47
613.198	29158.2
613.554	29084.76
613.911	29282.72
614.267	29270.52
614.624	29270.74
614.98	29384.41
615.337	29406.11
615.693	29440.91
616.05	29374.24
616.406	29476.16
616.762	29367.01
617.118	29452.21
617.475	29438.87
617.831	29563.84
618.187	29548.7
618.543	29597.74
618.899	29696.49
619.255	29781.24
619.611	29671.64
619.967	29715.25
620.323	29788.92
620.678	29705.98
621.034	29725.87
621.39	29804.74
621.746	29688.81
622.101	29951.85
622.457	29652.65
622.812	29794.8
623.168	29891.06
623.523	29796.83
623.879	29943.27
624.234	29860.33
624.589	29869.14
624.945	29848.35
625.3	30019.65
625.655	29869.6
626.01	29793.67
626.365	29931.97
626.72	29788.24
627.075	29840.67
627.43	29762.48
627.785	29715.93
628.14	29827.79
628.495	29874.34
628.85	29821.69
629.205	29731.52
629.559	29863.49
629.914	29788.47
630.269	29825.3
630.623	29696.95
630.978	29682.48
631.332	29764.51
631.687	29769.26
632.041	29601.81
632.396	29732.88
632.75	29619.43
633.104	29669.38
633.459	29556.61
633.813	29545.31
634.167	29502.37
634.521	29407.46
634.875	29527.23
635.229	29341.93
635.583	29265.09
635.937	29273.45
636.291	29430.74
636.645	29265.54
636.999	29191.87
637.352	29303.06
637.706	29070.97
638.06	29268.93
638.413	29286.56
638.767	29281.59
639.121	29229.16
639.474	29060.8
639.828	29028.94
640.181	29039.56
640.534	29065.1
640.888	28802.51
641.241	28840.24
641.594	28847.02
641.947	28987.81
642.301	28905.33
642.654	28862.39
643.007	28761.6
643.36	28687.03
643.713	28675.05
644.066	28835.05
644.419	28674.83
644.771	28591.89
645.124	28283.65
645.477	28253.37
645.83	28126.36
646.182	27881.4
646.535	27723.89
646.888	27871.68
647.24	27662.2
647.593	27807.96
647.945	27749.88
648.298	27570
648.65	27479.38
649.002	27462.2
649.355	27669.88
649.707	27487.51
650.059	27675.53
650.411	27968.4
650.763	28047.72
651.115	28240.03
651.467	28226.25
651.819	28288.17
652.171	28055.63
652.523	28006.82
652.875	28045.24
653.227	27938.8
653.578	28085.46
653.93	28012.24
654.282	27826.26
654.633	27973.15
654.985	27963.88
655.337	27873.49
655.688	27922.53
656.039	27976.09
656.391	27693.61
656.742	27826.71
657.094	27827.84
657.445	27908.74
657.796	27799.37
658.147	27749.88
658.498	27707.39
658.849	27740.16
659.2	27805.92
659.551	27661.07
659.902	27703.55
660.253	27653.16
660.604	27735.41
660.955	27549.21
661.306	27621.75
661.656	27559.83
662.007	27645.7
662.358	27532.03
662.708	27544.01
663.059	27435.31
663.409	27450.45
663.76	27680.5
664.11	27550.33
664.461	27636.21
664.811	27630.78
665.161	27624.01
665.511	27457.46
665.862	27505.82
666.212	27531.58
666.562	27551.24
666.912	27435.54
667.262	27272.6
667.612	27427.85
667.962	27421.52
668.312	27490.9
668.662	27548.3
669.011	27420.85
669.361	27419.94
669.711	27500.84
670.06	27318.25
670.41	27335.65
670.76	27313.28
671.109	27391.92
671.459	27260.17
671.808	27253.62
672.157	27277.35
672.507	27203.68
672.856	27078.93
673.205	27237.35
673.554	27290.23
673.904	27202.55
674.253	27410.45
674.602	27244.58
674.951	26715.55
675.3	26670.81
675.649	27196.45
675.998	27037.35
676.346	27002.33
676.695	27126.62
677.044	26826.74
677.393	26981.31
677.741	27093.85
678.09	27012.27
678.438	26813.63
678.787	26918.94
679.135	26945.15
679.484	26725.95
679.832	26829.68
680.181	26668.55
680.529	26796.23
680.877	26744.71
681.225	26590.13
681.573	26766.4
681.922	26557.37
682.27	26533.41
682.618	26497.48
682.966	26392.17
683.314	26548.1
683.661	26534.32
684.009	26316.7
684.357	26263.36
684.705	26303.36
685.053	26294.1
685.4	26297.71
685.748	26099.3
686.095	26059.3
686.443	25973.88
686.79	25915.8
687.138	25967.1
687.485	26064.95
687.832	25855.46
688.18	25824.5
688.527	25729.37
688.874	25702.93
689.221	25586.54
689.568	25526.21
689.915	25650.5
690.262	25474.46
690.609	25387.91
690.956	25383.39
691.303	25443.95
691.65	25211.87
691.997	25214.13
692.344	25086.67
692.69	25141.81
693.037	25115.14
693.383	24921.03
693.73	25036.28
694.077	24787.7
694.423	24736.4
694.769	24730.52
695.116	24560.36
695.462	24590.19
695.808	24538.21
696.155	24543.63
696.501	24406.69
696.847	24385.9
697.193	24137.32
697.539	24249.18
697.885	24176.86
698.231	23954.05
698.577	24044.44
698.923	23959.24
699.269	23918.57
699.614	23848.96
699.96	23782.98
700.306	23773.26
700.651	23638.57
700.997	23566.48
701.342	23520.38
701.688	23531.68
702.033	23438.13
702.379	23454.4
702.724	23328.53
703.069	23520.84
703.415	23079.72
703.76	23030.68
704.105	23118.36
704.45	23102.09
704.795	22938.93
705.14	22902.1
705.485	22874.98
705.83	22769.22
706.175	22781.65
706.52	22691.48
706.865	22571.26
707.209	22742.55
707.554	22600.41
707.899	22506.63
708.243	22371.94
708.588	22410.58
708.932	22298.27
709.277	22205.16
709.621	22352.73
709.966	22105.05
710.31	22168.56
710.654	22006.07
710.998	22117.71
711.342	22074.77
711.687	21929.92
712.031	21884.72
712.375	21825.74
712.719	21941.22
713.063	21844.5
713.407	21941.22
713.75	21751.84
714.094	21650.38
714.438	21692.41
714.782	21606.76
715.125	21423.26
715.469	21624.16
715.812	21421.68
716.156	21296.04
716.499	21326.77
716.843	21293.78
717.186	21232.31
717.53	21303.04
717.873	21299.65
718.216	21216.04
718.559	21069.6
718.902	21029.15
719.246	21102.82
719.589	20953.22
719.932	20868.93
720.275	20840
720.617	20862.15
720.96	20786.44
721.303	20772.21
721.646	20854.69
721.989	20760.68
722.331	20705.77
722.674	20647.69
723.016	20660.12
723.359	20598.43
723.701	20660.35
724.044	20451.31
724.386	20401.6
724.729	20457.64
725.071	20388.72
725.413	20398.43
725.755	20347.81
726.097	20336.74
726.439	20276.63
726.782	20176.74
727.124	20228.72
727.465	20226.91
727.807	20166.35
728.149	20058.33
728.491	20014.04
728.833	20101.94
729.175	19971.55
729.516	20009.29
729.858	19975.84
730.199	20010.19
730.541	19862.63
730.882	19886.13
731.224	20016.52
731.565	19749.86
731.906	19793.93
732.248	19847.26
732.589	19682.29
732.93	19739.92
733.271	19754.38
733.612	19711.9
733.953	19665.57
734.294	19664.21
734.635	19541.05
734.976	19582.63
735.317	19494.05
735.658	19593.48
735.999	19433.03
736.339	19391.68
736.68	19513.03
737.021	19425.58
737.361	19329.08
737.702	19332.92
738.042	19291.34
738.383	19228.07
738.723	19311.46
739.063	19263.32
739.404	19302.42
739.744	19069.43
740.084	19094.29
740.424	19144
740.764	19134.06
741.104	19131.8
741.444	18996.21
741.784	18881.86
742.124	19010.9
742.464	18965.93
742.804	18977.23
743.143	18882.09
743.483	18995.08
743.823	18763
744.162	18809.32
744.502	18767.97
744.841	18681.64
745.181	18745.82
745.52	18681.42
745.86	18744.46
746.199	18672.15
746.538	18588.76
746.877	18632.38
747.216	18742.66
747.556	18543.57
747.895	18572.27
748.234	18534.07
748.573	18422.44
748.911	18398.49
749.25	18417.02
749.589	18310.58
749.928	18277.81
750.267	18311.71
750.605	18220.41
750.944	18203.01
751.283	18148.1
751.621	18164.82
751.96	18078.27
752.298	18073.07
752.636	17993.3
752.975	18029
753.313	17829.46
753.651	18032.85
753.989	17856.13
754.327	17845.28
754.666	17773.87
755.004	17715.11
