Data from breadboard_white_FLMS001491_00042.txt Node
Date: Wed Feb 08 10:47:46 GMT 2017
User: dcchb
Spectrometer: FLMS00149
Trigger mode: 0
Integration Time (sec): 2.000000E-2
Scans to average: 10
Electric dark correction enabled: true
Nonlinearity correction enabled: false
Boxcar width: 0
XAxis mode: Wavelengths
Number of Pixels in Spectrum: 2048
>>>>>Begin Spectral Data<<<<<
341.393	-10.58
341.776	-10.58
342.16	-10.58
342.543	-60.52
342.927	-72.95
343.31	-43.35
343.693	-74.08
344.077	-77.7
344.46	-55.78
344.843	-59.39
345.226	-48.32
345.61	-33.86
345.993	-20.3
346.376	-17.36
346.759	16.77
347.142	39.14
347.525	37.78
347.908	66.48
348.291	85.92
348.674	76.2
349.057	107.84
349.44	115.29
349.823	154.61
350.206	160.26
350.588	217.66
350.971	218.57
351.354	230.54
351.737	249.3
352.119	257.21
352.502	288.17
352.884	275.52
353.267	298.11
353.65	298.79
354.032	311.67
354.414	316.64
354.797	314.38
355.179	331.79
355.562	344.21
355.944	347.15
356.326	359.35
356.709	358.68
357.091	343.08
357.473	360.94
357.855	346.7
358.238	373.59
358.62	356.64
359.002	333.82
359.384	350.54
359.766	376.76
360.148	350.77
360.53	353.25
360.912	366.36
361.294	346.25
361.676	345.57
362.057	360.03
362.439	354.84
362.821	355.29
363.203	334.72
363.584	349.64
363.966	362.07
364.348	354.61
364.729	336.3
365.111	325.91
365.493	362.07
365.874	370.88
366.256	336.98
366.637	320.71
367.019	350.99
367.4	342.41
367.781	340.82
368.163	341.5
368.544	326.14
368.925	350.32
369.306	361.61
369.688	336.76
370.069	339.92
370.45	347.15
370.831	358.45
371.212	338.34
371.593	354.38
371.974	341.95
372.355	333.14
372.736	339.47
373.117	343.76
373.498	366.13
373.879	360.48
374.26	360.94
374.641	322.52
375.021	334.27
375.402	376.08
375.783	352.12
376.163	365
376.544	376.98
376.925	394.61
377.305	353.03
377.686	371.33
378.066	357.77
378.447	370.65
378.827	386.47
379.208	360.71
379.588	371.33
379.968	383.31
380.349	379.02
380.729	380.37
381.109	370.65
381.489	414.04
381.87	389.18
382.25	383.99
382.63	392.35
383.01	403.87
383.39	397.77
383.77	431.9
384.15	417.43
384.53	406.81
384.91	398.68
385.29	424.44
385.67	420.14
386.049	440.93
386.429	430.99
386.809	416.75
387.189	429.18
387.568	452.23
387.948	434.61
388.328	428.51
388.707	437.77
389.087	442.52
389.466	485
389.846	458.11
390.225	485.23
390.605	469.86
390.984	470.09
391.363	495.62
391.743	496.07
392.122	493.81
392.501	479.13
392.881	507.15
393.26	511.89
393.639	506.02
394.018	520.93
394.397	543.08
394.776	543.08
395.155	537.2
395.534	558.22
395.913	555.96
396.292	536.75
396.671	576.07
397.05	578.11
397.429	593.25
397.808	564.1
398.186	587.6
398.565	590.99
398.944	605
399.323	608.61
399.701	612.91
400.08	633.25
400.458	651.55
400.837	651.55
401.215	668.73
401.594	652.23
401.972	682.74
402.351	669.63
402.729	689.74
403.107	685.22
403.486	721.83
403.864	732.9
404.242	733.36
404.62	754.37
404.999	758.21
405.377	788.27
405.755	779.68
406.133	821.49
406.511	804.09
406.889	823.07
407.267	841.83
407.645	870.3
408.023	872.11
408.401	911.43
408.779	909.4
409.156	932.22
409.534	939.9
409.912	961.6
410.29	981.26
410.667	1018.77
411.045	1023.29
411.422	1037.53
411.8	1053.8
412.178	1079.11
412.555	1087.7
412.933	1102.39
413.31	1152.1
413.687	1174.47
414.065	1159.79
414.442	1219.45
414.819	1233
415.197	1218.09
415.574	1264.64
415.951	1295.6
416.328	1315.94
416.705	1304.41
417.082	1302.38
417.46	1344.19
417.837	1362.72
418.214	1390.51
418.591	1396.84
418.967	1437.07
419.344	1417.18
419.721	1452.89
420.098	1462.83
420.475	1475.03
420.852	1500.12
421.228	1537.4
421.605	1545.09
421.982	1582.37
422.358	1582.37
422.735	1602.71
423.111	1636.84
423.488	1618.98
423.864	1631.19
424.241	1663.5
424.617	1690.62
424.994	1684.97
425.37	1744.63
425.746	1711.41
426.123	1756.83
426.499	1739.21
426.875	1827.56
427.251	1823.05
427.627	1882.03
428.003	1917.73
428.379	1927.22
428.756	1943.04
429.132	1945.53
429.507	2021.68
429.883	2063.72
430.259	2079.99
430.635	2089.25
431.011	2094.68
431.387	2170.15
431.763	2201.11
432.138	2190.72
432.514	2260.77
432.89	2251.06
433.265	2281.56
433.641	2344.16
434.016	2372.86
434.392	2423.93
434.767	2452.86
435.143	2457.38
435.518	2510.94
435.894	2521.11
436.269	2570.6
436.644	2605.4
437.02	2596.13
437.395	2658.73
437.77	2667.54
438.145	2691.5
438.52	2745.51
438.895	2742.34
439.271	2787.99
439.646	2800.65
440.021	2870.7
440.395	2872.96
440.77	2866.18
441.145	2899.63
441.52	2942.34
441.895	2929.46
442.27	2996.35
442.645	2988.44
443.019	3048.32
443.394	3034.99
443.769	3112.5
444.143	3050.81
444.518	3168.09
444.892	3127.64
445.267	3142.56
445.641	3161.54
446.016	3202.9
446.39	3268.66
446.764	3232.5
447.139	3280.18
447.513	3312.27
447.887	3316.11
448.262	3316.11
448.636	3368.99
449.01	3418.71
449.384	3437.69
449.758	3485.83
450.132	3510.91
450.506	3528.99
450.88	3567.41
451.254	3594.52
451.628	3624.13
452.002	3659.38
452.376	3677.46
452.75	3747.06
453.123	3764.69
453.497	3872.03
453.871	3880.39
454.244	3933.27
454.618	3964.68
454.992	4013.95
455.365	4034.29
455.739	4132.14
456.112	4183.89
456.486	4252.36
456.859	4272.7
457.232	4328.52
457.606	4331.23
457.979	4393.37
458.352	4500.71
458.725	4515.63
459.099	4576.87
459.472	4681.05
459.845	4734.16
460.218	4743.19
460.591	4791.55
460.964	4801.72
461.337	4909.29
461.71	4970.53
462.083	5117.2
462.456	5103.19
462.829	5154.26
463.201	5261.15
463.574	5225.44
463.947	5318.55
464.32	5487.36
464.692	5541.82
465.065	5555.6
465.438	5629.72
465.81	5704.98
466.183	5787.91
466.555	5919.43
466.928	5908.14
467.3	5943.84
467.672	6014.8
468.045	6205.75
468.417	6240.33
468.789	6259.09
469.161	6369.37
469.534	6542.92
469.906	6617.72
470.278	6633.99
470.65	6714.44
471.022	6829.02
471.394	6991.72
471.766	7074.43
472.138	7121.89
472.51	7361.88
472.882	7446.17
473.253	7548.09
473.625	7622.44
473.997	7793.28
474.369	7819.05
474.74	7918.03
475.112	8097.68
475.484	8220.84
475.855	8369.09
476.227	8449.76
476.598	8625.35
476.97	8724.56
477.341	8956.19
477.713	9112.35
478.084	9147.15
478.455	9432.79
478.827	9457.19
479.198	9755.49
479.569	9787.58
479.94	9991.42
480.311	10130.85
480.682	10388.92
481.053	10600.67
481.424	10778.52
481.795	10887.21
482.166	11097.6
482.537	11168.34
482.908	11464.15
483.279	11529.91
483.65	11739.85
484.021	12041.31
484.391	12077.46
484.762	12279.95
485.133	12345.71
485.503	12682.87
485.874	12839.25
486.244	12997.67
486.615	13164.67
486.985	13298.68
487.356	13646.24
487.726	13670.64
488.097	14043.97
488.467	14093.91
488.837	14419.78
489.207	14610.28
489.578	14683.05
489.948	14873.55
490.318	15123.94
490.688	15156.48
491.058	15548.33
491.428	15544.72
491.798	15676.69
492.168	16094.53
492.538	16162.1
492.908	16383.34
493.278	16551.7
493.648	16591.47
494.017	16894.74
494.387	16975.64
494.757	17223.54
495.126	17363.43
495.496	17391.22
495.866	17562.74
496.235	17802.06
496.605	17900.81
496.974	18010.64
497.344	18239.11
497.713	18329.28
498.082	18481.36
498.452	18644.3
498.821	18872.99
499.19	18815.37
499.559	19069.82
499.928	19244.28
500.298	19403.15
500.667	19562.92
501.036	19583.48
501.405	19730.37
501.774	19785.28
502.143	19992.51
502.512	20081.32
502.88	20239.74
503.249	20371.03
503.618	20558.37
503.987	20571.48
504.356	20843.11
504.724	20932.15
505.093	21028.19
505.462	21175.98
505.83	21259.6
506.199	21478.12
506.567	21750.66
506.936	21711.11
507.304	21905.91
507.672	22088.28
508.041	22253.69
508.409	22433.12
508.777	22616.4
509.145	22638.32
509.514	22759.22
509.882	22961.25
510.25	23131.64
510.618	23243.95
510.986	23388.58
511.354	23568.91
511.722	23903.82
512.09	24073.53
512.458	24065.17
512.826	24287.77
513.193	24385.62
513.561	24561.43
513.929	24729.11
514.297	25057.69
514.664	25209.1
515.032	25251.36
515.4	25524.57
515.767	25622.87
516.135	25903.77
516.502	25717.11
516.869	26236.41
517.237	26288.62
517.604	26208.39
517.972	26604.54
518.339	26795.5
518.706	27015.15
519.073	27068.48
519.44	27334.24
519.808	27583.5
520.175	27666.89
520.542	28004.28
520.909	28151.39
521.276	28209.24
521.643	28590.48
522.009	28772.85
522.376	28963.8
522.743	29108.88
523.11	29241.08
523.477	29731.69
523.843	29875.64
524.21	30270.21
524.577	30525.79
524.943	30561.72
525.31	30733.92
525.676	31044.2
526.043	31181.37
526.409	31254.14
526.776	31829.26
527.142	31912.65
527.508	32045.75
527.874	32364.16
528.241	32422.24
528.607	32497.94
528.973	32882.57
529.339	32842.57
529.705	33250.24
530.071	33563
530.437	33645.03
530.803	33980.62
531.169	34026.27
531.535	34032.59
531.901	34303.1
532.267	34539.7
532.632	34729.52
532.998	34817.66
533.364	35003.87
533.73	35101.94
534.095	35424.2
534.461	35527.24
534.826	35833.22
535.192	35791.64
535.557	36083.39
535.923	36029.15
536.288	36252.42
536.653	36372.65
537.019	36343.49
537.384	36477.28
537.749	36842.24
538.114	36832.75
538.479	37099.41
538.845	37066.64
539.21	37115
539.575	37359.74
539.94	37436.12
540.305	37761.31
540.67	37693.97
541.034	37811.7
541.399	37979.16
541.764	38124.69
542.129	38209.66
542.494	38286.49
542.858	38633.6
543.223	38496.21
543.587	38891.45
543.952	38794.73
544.316	39118.79
544.681	38972.12
545.045	39280.14
545.41	39425.22
545.774	39492.34
546.138	39389.06
546.503	39787.24
546.867	39753.35
547.231	40188.14
547.595	40027.46
547.959	40245.54
548.324	40242.6
548.688	40393.78
549.052	40603.27
549.416	40637.62
549.779	40812.08
550.143	40882.81
550.507	41172.75
550.871	41345.4
551.235	41305.62
551.599	41585.16
551.962	41671.04
552.326	41879.85
552.689	42032.61
553.053	41940.63
553.417	42205.03
553.78	42644.34
554.143	42446.38
554.507	42752.82
554.87	42831.68
555.234	43217.89
555.597	42992.13
555.96	43224.22
556.323	43432.35
556.686	43438.67
557.05	43709.85
557.413	43843.41
557.776	43967.47
558.139	44216.96
558.502	44410.17
558.865	44523.62
559.228	44793.67
559.59	44942.36
559.953	45089.25
560.316	45318.4
560.679	45328.57
561.041	45615.79
561.404	45725.17
561.767	46132.39
562.129	45979.85
562.492	46447.18
562.854	46433.4
563.217	46341.42
563.579	46703.22
563.941	46949.54
564.304	47098.69
564.666	47334.84
565.028	47307.95
565.39	47357.22
565.753	47638.56
566.115	47807.15
566.477	48106.8
566.839	48191.09
567.201	48379.79
567.563	48452.33
567.925	48664.75
568.287	48618.43
568.648	48783.17
569.01	49017.96
569.372	49234
569.734	49124.85
570.095	49415.47
570.457	49495.92
570.819	49555.8
571.18	49738.85
571.542	49891.39
571.903	49873.99
572.265	50045.05
572.626	50163.92
572.987	50209.8
573.349	50224.26
573.71	50437.59
574.071	50572.05
574.432	50555.78
574.794	50883.9
575.155	50748.09
575.516	50834.19
575.877	50953.28
576.238	51016.1
576.599	50961.41
576.96	51057.46
577.32	51225.81
577.681	51324.34
578.042	51366.15
578.403	51360.73
578.763	51289.77
579.124	51444.79
579.485	51638.01
579.845	51687.27
580.206	51629.65
580.566	51679.59
580.927	51633.04
581.287	51786.93
581.648	51722.75
582.008	51843.42
582.368	51689.76
582.728	51871.45
583.089	51796.42
583.449	51805.23
583.809	51855.18
584.169	51897.43
584.529	51784.22
584.889	52096.07
585.249	51852.69
585.609	51840.94
585.969	52043.87
586.329	51879.58
586.688	51950.99
587.048	52039.35
587.408	51914.38
587.768	51979.01
588.127	51915.51
588.487	51884.78
588.846	52122.06
589.206	51916.87
589.565	51936.53
589.925	52077.54
590.284	52031.67
590.643	52018.56
591.003	52127.94
591.362	52148.5
591.721	52129.29
592.08	52080.71
592.44	52210.87
592.799	52210.65
593.158	52159.57
593.517	52113.7
593.876	52185.56
594.235	52101.05
594.593	52153.47
594.952	52222.85
595.311	52209.74
595.67	52259.01
596.029	52476.85
596.387	52429.62
596.746	52435.95
597.104	52334.03
597.463	52352.34
597.822	52364.54
598.18	52301.49
598.538	52198.67
598.897	52439.12
599.255	52248.39
599.613	52746.23
599.972	52344.65
600.33	52509.85
600.688	52457.87
601.046	52576.51
601.404	52706.45
601.762	52626.23
602.12	52655.16
602.478	52699.22
602.836	52745.55
603.194	52525.44
603.552	52744.64
603.91	52615.61
604.268	52799.33
604.625	52645.66
604.983	52825.32
605.341	52675.27
605.698	52887.24
606.056	53027.35
606.413	52905.77
606.771	52958.65
607.128	53028.93
607.485	52899.67
607.843	52859.22
608.2	53128.81
608.557	53180.11
608.914	53080.68
609.272	53164.29
609.629	53315.02
609.986	53397.51
610.343	53184.63
610.7	53431.41
611.057	53353.67
611.414	53391.86
611.771	53307.79
612.127	53403.84
612.484	53456.72
612.841	53482.03
613.198	53368.36
613.554	53493.55
613.911	53588.69
614.267	53620.33
614.624	53653.77
614.98	53743.04
615.337	53747.1
615.693	53792.07
616.05	53807.89
616.406	54010.6
616.762	53782.58
617.118	53680.21
617.475	53801.34
617.831	53818.29
618.187	53915.91
618.543	53983.93
618.899	54051.5
619.255	53988.91
619.611	53936.03
619.967	54107.55
620.323	54056.25
620.678	54017.83
621.034	54013.76
621.39	53978.06
621.746	54027.55
622.101	54201.33
622.457	54068.45
622.812	54072.97
623.168	54245.17
623.523	54219.63
623.879	54331.95
624.234	54183.93
624.589	54213.76
624.945	54237.49
625.3	54205.62
625.655	54235
626.01	54137.15
626.365	54194.32
626.72	54185.74
627.075	54115.46
627.43	54125.62
627.785	54064.16
628.14	54106.64
628.495	54114.33
628.85	54041.79
629.205	53952.07
629.559	54141.67
629.914	53884.28
630.269	53981
630.623	53874.11
630.978	53822.81
631.332	53979.41
631.687	54018.06
632.041	53870.49
632.396	53921.34
632.75	53753.66
633.104	53893.77
633.459	53673.66
633.813	53654.22
634.167	53687.67
634.521	53682.7
634.875	53720.66
635.229	53575.13
635.583	53534
635.937	53511.63
636.291	53467.56
636.645	53404.97
636.999	53320.67
637.352	53411.75
637.706	53242.71
638.06	53336.95
638.413	53238.87
638.767	53237.96
639.121	53178.08
639.474	53008.14
639.828	53105.31
640.181	53056.95
640.534	53039.55
640.888	53018.08
641.241	52830.74
641.594	52898.99
641.947	52954.13
642.301	52908.03
642.654	52922.94
643.007	52805.43
643.36	52793.68
643.713	52782.61
644.066	52860.57
644.419	52758.2
644.771	52519.57
645.124	52188.73
645.477	52244.09
645.83	51859.47
646.182	51668.06
646.535	51706.93
646.888	51681.62
647.24	51473.27
647.593	51607.5
647.945	51597.78
648.298	51247.28
648.65	51366.38
649.002	51280.28
649.355	51416.09
649.707	51328.18
650.059	51431.01
650.411	51906.02
650.763	51835.97
651.115	52175.85
651.467	52056.3
651.819	51996.42
652.171	51903.54
652.523	51898.34
652.875	51850.66
653.227	51706.03
653.578	52007.04
653.93	51798.45
654.282	51634.16
654.633	51563.66
654.985	51579.7
655.337	51714.39
655.688	51584
656.039	51774.05
656.391	51574.05
656.742	51631.45
657.094	51574.96
657.445	51626.03
657.796	51548.29
658.147	51486.15
658.498	51498.12
658.849	51537.22
659.2	51601.17
659.551	51425.58
659.902	51487.73
660.253	51409.09
660.604	51533.83
660.955	51331.57
661.306	51272.59
661.656	51393.27
662.007	51422.42
662.358	51233.5
662.708	51213.16
663.059	51213.39
663.409	51027.4
663.76	51272.82
664.11	51254.06
664.461	51284.12
664.811	51271.69
665.161	51167.51
665.511	51080.28
665.862	51125.7
666.212	51190.11
666.562	51127.96
666.912	51142.43
667.262	51081.86
667.612	51149.21
667.962	50989.89
668.312	50984.24
668.662	51126.61
669.011	51002.09
669.361	50959.61
669.711	50971.36
670.06	50959.38
670.41	50796.22
670.76	50825.6
671.109	50961.87
671.459	50928.42
671.808	50828.08
672.157	50890.46
672.507	50605.94
672.856	50684.59
673.205	50699.73
673.554	50810.91
673.904	50690.69
674.253	50905.14
674.602	50743.11
674.951	50210.47
675.3	50017.71
675.649	50516
675.998	50510.35
676.346	50479.17
676.695	50592.61
677.044	50357.36
677.393	50417.47
677.741	50571.59
678.09	50337.48
678.438	50325.72
678.787	50383.58
679.135	50293.18
679.484	50003.93
679.832	50227.42
680.181	50062.68
680.529	50104.26
680.877	49988.33
681.225	50023.36
681.573	50175.22
681.922	49833.99
682.27	49726.19
682.618	49764.38
682.966	49717.38
683.314	49836.25
683.661	49706.08
684.009	49562.13
684.357	49419.53
684.705	49368.91
685.053	49324.17
685.4	49400.1
685.748	49086.66
686.095	49118.3
686.443	48851.19
686.79	48880.11
687.138	48991.75
687.485	48981.58
687.832	48829.94
688.18	48819.55
688.527	48513.57
688.874	48666.33
689.221	48463.4
689.568	48368.26
689.915	48290.52
690.262	48299.79
690.609	48184.54
690.956	47920.82
691.303	48047.14
691.65	47835.39
691.997	47823.87
692.344	47561.73
692.69	47447.61
693.037	47488.51
693.383	47225.69
693.73	47360.83
694.077	47121.29
694.423	47114.28
694.769	46930.79
695.116	46808.53
695.462	46752.71
695.808	46759.04
696.155	46785.48
696.501	46418.26
696.847	46487.86
697.193	46140.52
697.539	46152.28
697.885	45965.84
698.231	45760.87
698.577	45903.02
698.923	45761.1
699.269	45505.51
699.614	45397.94
699.96	45303.26
700.306	45301
700.651	45172.19
700.997	45031.4
701.342	44938.52
701.688	44924.74
702.033	44749.83
702.379	44807.68
702.724	44612.65
703.069	44659.66
703.415	44205.43
703.76	44367.24
704.105	44223.51
704.45	44171.54
704.795	43850.19
705.14	43787.59
705.485	43788.72
705.83	43522.51
706.175	43561.16
706.52	43378.34
706.865	43348.96
707.209	43303.99
707.554	43054.73
707.899	43152.13
708.243	42909.87
708.588	42901.74
708.932	42645.7
709.277	42834.4
709.621	42699.03
709.966	42425.37
710.31	42406.38
710.654	42180.4
710.998	42202.1
711.342	42141.76
711.687	41992.61
712.031	42003.46
712.375	41640.53
712.719	41714.88
713.063	41558.72
713.407	41663.13
713.75	41563.7
714.094	41461.55
714.438	41232.4
714.782	41339.07
715.125	41128.9
715.469	41207.32
715.812	40894.79
716.156	40625.19
716.499	40861.57
716.843	40762.81
717.186	40713.77
717.53	40645.98
717.873	40773.21
718.216	40597.17
718.559	40493.44
718.902	40154.69
719.246	40310.17
719.589	40148.37
719.932	40186.56
720.275	40088.71
720.617	40012.1
720.96	39888.26
721.303	39926.9
721.646	39775.27
721.989	39677.64
722.331	39804.19
722.674	39474.71
723.016	39494.37
723.359	39410.53
723.701	39551.77
724.044	39161.05
724.386	39078.79
724.729	39189.07
725.071	39091.9
725.413	38923.76
725.755	38919.7
726.097	38834.05
726.439	38669.99
726.782	38619.14
727.124	38704.34
727.465	38705.69
727.807	38627.28
728.149	38392.93
728.491	38384.12
728.833	38423.44
729.175	38274.74
729.516	38151.36
729.858	38153.84
730.199	38147.29
730.541	38081.07
730.882	38070.45
731.224	38043.11
731.565	37813.51
731.906	37973.28
732.248	37864.58
732.589	37681.31
732.93	37518.15
733.271	37602.67
733.612	37451.94
733.953	37487.64
734.294	37255.56
734.635	37295.78
734.976	37329.23
735.317	37156.58
735.658	37073.87
735.999	37008.11
736.339	36973.53
736.68	37021.67
737.021	36884.04
737.361	36765.4
737.702	36969.47
738.042	36656.03
738.383	36691.28
738.723	36806.53
739.063	36615.12
739.404	36563.15
739.744	36543.71
740.084	36401.57
740.424	36417.16
740.764	36398.41
741.104	36415.58
741.444	36082.03
741.784	36055.14
742.124	36078.42
742.464	36069.38
742.804	35972.88
743.143	35859.89
743.483	35883.17
743.823	35775.82
744.162	35626
744.502	35731.31
744.841	35426.23
745.181	35604.76
745.52	35467.81
745.86	35507.81
746.199	35396.85
746.538	35386.91
746.877	35484.99
747.216	35331.77
747.556	35103.53
747.895	35355.04
748.234	35000.93
748.573	34979.91
748.911	34901.05
749.25	34792.12
749.589	34796.87
749.928	34792.35
750.267	34738.11
750.605	34541.28
750.944	34507.16
751.283	34317.78
751.621	34455.41
751.96	34259.03
752.298	34130.44
752.636	34243.66
752.975	33927.74
