Data from breadboard_black_back_FLMS001491_00012.txt Node
Date: Wed Feb 08 10:50:00 GMT 2017
User: dcchb
Spectrometer: FLMS00149
Trigger mode: 0
Integration Time (sec): 2.000000E-2
Scans to average: 10
Electric dark correction enabled: true
Nonlinearity correction enabled: false
Boxcar width: 0
XAxis mode: Wavelengths
Number of Pixels in Spectrum: 2048
>>>>>Begin Spectral Data<<<<<
341.393	-6.54
341.776	-6.54
342.16	-6.54
342.543	-51.96
342.927	-65.97
343.31	-48.35
343.693	-57.16
344.077	-70.27
344.46	-54
344.843	-50.61
345.226	-40.89
345.61	-43.15
345.993	-29.59
346.376	-6.09
346.759	8.83
347.142	22.39
347.525	35.72
347.908	60.13
348.291	65.32
348.674	89.28
349.057	118.43
349.44	132.44
349.823	133.12
350.206	157.07
350.588	202.95
350.971	234.36
351.354	232.78
351.737	237.75
352.119	243.4
352.502	268.26
352.884	292.21
353.267	285.88
353.65	299.67
354.032	291.53
354.414	325.66
354.797	306.9
355.179	336.73
355.562	310.51
355.944	344.19
356.326	348.25
356.709	351.64
357.091	340.12
357.473	322.27
357.855	342.38
358.238	353.45
358.62	360.91
359.002	324.53
359.384	340.8
359.766	348.71
360.148	353
360.53	363.39
360.912	364.07
361.294	336.5
361.676	350.74
362.057	349.61
362.439	339.67
362.821	334.02
363.203	342.15
363.584	338.99
363.966	332.43
364.348	344.19
364.729	352.32
365.111	357.52
365.493	344.86
365.874	335.15
366.256	336.95
366.637	351.87
367.019	354.58
367.4	346.45
367.781	340.8
368.163	323.17
368.544	350.29
368.925	359.78
369.306	349.84
369.688	345.54
370.069	347.12
370.45	362.04
370.831	333.11
371.212	343.96
371.593	356.39
371.974	358.65
372.355	365.43
372.736	357.74
373.117	364.07
373.498	355.94
373.879	364.52
374.26	353
374.641	340.57
375.021	327.46
375.402	357.97
375.783	346.22
376.163	382.15
376.544	398.87
376.925	400.23
377.305	370.63
377.686	388.7
378.066	398.87
378.447	374.69
378.827	387.35
379.208	379.44
379.588	396.84
379.968	369.04
380.349	407.91
380.729	420.57
381.109	401.81
381.489	410.4
381.87	406.78
382.25	398.2
382.63	418.31
383.01	400.46
383.39	433
383.77	414.01
384.15	435.93
384.53	439.78
384.91	436.39
385.29	421.92
385.67	432.77
386.049	437.29
386.429	463.73
386.809	424.86
387.189	443.39
387.568	461.92
387.948	462.37
388.328	449.95
388.707	456.5
389.087	461.7
389.466	469.83
389.846	467.12
390.225	471.19
390.605	482.71
390.984	499.66
391.363	498.08
391.743	495.37
392.122	496.5
392.501	503.28
392.881	518.87
393.26	519.55
393.639	520.23
394.018	536.27
394.397	535.59
394.776	534.46
395.155	514.12
395.534	517.29
395.913	531.53
396.292	549.6
396.671	534.46
397.05	536.05
397.429	562.94
397.808	553.67
398.186	557.51
398.565	560
398.944	544.86
399.323	556.84
399.701	568.81
400.08	572.65
400.458	569.49
400.837	573.33
401.215	590.73
401.594	588.47
401.972	620.34
402.351	617.63
402.729	596.38
403.107	620.79
403.486	629.6
403.864	628.02
404.242	640.68
404.62	633.9
404.999	643.61
405.377	668.92
405.755	645.65
406.133	643.84
406.511	679.54
406.889	682.26
407.267	678.19
407.645	725.64
408.023	685.87
408.401	716.15
408.779	705.98
409.156	725.42
409.534	767.45
409.912	744.85
410.29	761.58
410.667	765.87
411.045	768.13
411.422	772.88
411.8	805.64
412.178	773.33
412.555	809.03
412.933	836.38
413.31	849.48
413.687	819.65
414.065	851.07
414.442	839.99
414.819	866.21
415.197	875.47
415.574	880.89
415.951	864.17
416.328	913.89
416.705	897.62
417.082	883.83
417.46	922.7
417.837	917.73
418.214	914.34
418.591	943.27
418.967	947.11
419.344	962.02
419.721	972.64
420.098	958.63
420.475	985.07
420.852	993.89
421.228	1006.09
421.605	997.28
421.982	1041.12
422.358	1040.66
422.735	1031.85
423.111	1052.64
423.488	1073.88
423.864	1049.25
424.241	1091.74
424.617	1085.64
424.994	1119.53
425.37	1122.02
425.746	1122.02
426.123	1125.63
426.499	1126.54
426.875	1163.15
427.251	1160.21
427.627	1188.46
428.003	1203.15
428.379	1181.23
428.756	1216.71
429.132	1248.79
429.507	1279.98
429.883	1265.52
430.259	1298.29
430.635	1314.56
431.011	1293.31
431.387	1319.53
431.763	1386.42
432.138	1389.58
432.514	1374.22
432.89	1394.33
433.265	1417.15
433.641	1429.13
434.016	1449.24
434.392	1443.82
434.767	1507.32
435.143	1518.62
435.518	1515.68
435.894	1537.6
436.269	1566.3
436.644	1598.39
437.02	1576.24
437.395	1576.47
437.77	1630.03
438.145	1615.79
438.52	1646.3
438.895	1658.95
439.271	1664.38
439.646	1709.8
440.021	1722.45
440.395	1742.34
440.77	1698.95
441.145	1725.84
441.52	1751.83
441.895	1794.09
442.27	1759.29
442.645	1810.14
443.019	1812.4
443.394	1827.08
443.769	1853.98
444.143	1869.34
444.518	1864.15
444.892	1865.73
445.267	1877.25
445.641	1893.98
446.016	1894.2
446.39	1932.84
446.764	1944.14
447.139	1929.91
447.513	1956.8
447.887	1970.81
448.262	1946.86
448.636	1988.89
449.01	2021.2
449.384	2058.04
449.758	2059.62
450.132	2048.55
450.506	2090.81
450.88	2096.68
451.254	2114.99
451.628	2157.25
452.002	2170.8
452.376	2182.1
452.75	2200.63
453.123	2263.91
453.497	2259.62
453.871	2287.86
454.244	2323.57
454.618	2312.72
454.992	2358.37
455.365	2366.96
455.739	2449.22
456.112	2465.49
456.486	2477.92
456.859	2504.36
457.232	2551.59
457.606	2539.61
457.979	2580.51
458.352	2616.22
458.725	2634.75
459.099	2671.13
459.472	2741.18
459.845	2760.17
460.218	2790.9
460.591	2801.07
460.964	2815.76
461.337	2907.06
461.71	2983.21
462.083	2978.92
462.456	2955.42
462.829	3035.19
463.201	3058.46
463.574	3043.55
463.947	3114.96
464.32	3205.35
464.692	3192.92
465.065	3227.05
465.438	3237.67
465.81	3345.24
466.183	3338.91
466.555	3425.91
466.928	3498.45
467.3	3441.51
467.672	3504.78
468.045	3620.03
468.417	3594.04
468.789	3639.92
469.161	3674.95
469.534	3742.29
469.906	3830.87
470.278	3838.56
470.65	3914.04
471.022	3965.56
471.394	4028.38
471.766	4072.22
472.138	4108.61
472.51	4212.33
472.882	4306.12
473.253	4286.91
473.625	4390.18
473.997	4478.99
474.369	4498.65
474.74	4574.13
475.112	4579.78
475.484	4727.57
475.855	4777.06
476.227	4865.42
476.598	4970.05
476.97	5024.06
477.341	5131.4
477.713	5235.13
478.084	5211.85
478.455	5364.84
478.827	5394.22
479.198	5576.36
479.569	5579.08
479.94	5730.48
480.311	5831.95
480.682	5969.57
481.053	6041.21
481.424	6127.99
481.795	6184.94
482.166	6299.28
482.537	6378.38
482.908	6512.84
483.279	6534.98
483.65	6682.1
484.021	6833.73
484.391	6931.81
484.762	6998.93
485.133	7017.46
485.503	7150.79
485.874	7266.94
486.244	7345.58
486.615	7505.58
486.985	7565.01
487.356	7713.48
487.726	7759.36
488.097	7933.82
488.467	8004.1
488.837	8149.4
489.207	8209.29
489.578	8371.77
489.948	8471.43
490.318	8543.07
490.688	8670.07
491.058	8744.42
491.428	8888.14
491.798	8885.2
492.168	9122.03
492.538	9230.51
492.908	9203.39
493.278	9370.39
493.648	9477.05
494.017	9494.91
494.387	9610.16
494.757	9688.35
495.126	9794.78
495.496	9909.36
495.866	9913.2
496.235	10041.78
496.605	10190.03
496.974	10221.21
497.344	10257.15
497.713	10370.59
498.082	10424.82
498.452	10535.1
498.821	10641.54
499.19	10639.73
499.559	10804.93
499.928	10896.45
500.298	10881.76
500.667	10949.1
501.036	10994.08
501.405	11108.65
501.774	11186.84
502.143	11274.29
502.512	11314.29
502.88	11448.53
503.249	11445.81
503.618	11615.53
503.987	11646.49
504.356	11737.33
504.724	11728.07
505.093	11837.22
505.462	11827.73
505.83	11992.24
506.199	12096.19
506.567	12360.82
506.936	12274.27
507.304	12430.2
507.672	12469.74
508.041	12504.09
508.409	12680.13
508.777	12798.32
509.145	12869.28
509.514	12843.07
509.882	12947.02
510.25	13098.88
510.618	13210.97
510.986	13234.47
511.354	13383.84
511.722	13511.75
512.09	13575.25
512.458	13659.77
512.826	13614.12
513.193	13847.33
513.561	13883.49
513.929	13981.34
514.297	14183.6
514.664	14177.04
515.032	14273.99
515.4	14468.79
515.767	14467.88
516.135	14639.86
516.502	14547.43
516.869	14840.75
517.237	14884.59
517.604	14840.53
517.972	15067.64
518.339	15197.81
518.706	15152.61
519.073	15303.57
519.44	15457.91
519.808	15645.93
520.175	15685.48
520.542	15868.3
520.909	15991.68
521.276	15929.54
521.643	16129.31
522.009	16239.36
522.376	16447.04
522.743	16529.52
523.11	16714.83
523.477	16846.58
523.843	16994.14
524.21	17126.57
524.577	17205.44
524.943	17292.21
525.31	17379.22
525.676	17582.15
526.043	17667.8
526.409	17766.33
526.776	17974.91
527.142	18042.03
527.508	18225.75
527.874	18318.4
528.241	18385.52
528.607	18437.5
528.973	18625.97
529.339	18704.16
529.705	18957.03
530.071	19144.82
530.437	19184.59
530.803	19245.84
531.169	19384.82
531.535	19298.49
531.901	19557.47
532.267	19592.27
532.632	19721.08
532.998	19782.32
533.364	19939.38
533.73	19960.85
534.095	20116.1
534.461	20242.87
534.826	20399.48
535.192	20395.41
535.557	20633.37
535.923	20517.89
536.288	20701.84
536.653	20813.7
537.019	20782.07
537.384	20901.61
537.749	21019.35
538.114	21044.43
538.479	21000.14
538.845	21337.31
539.21	21246.46
539.575	21444.42
539.94	21467.7
540.305	21558.32
540.67	21521.71
541.034	21662.5
541.399	21685.77
541.764	21864.98
542.129	21931.41
542.494	21923.28
542.858	22093.22
543.223	22080.79
543.587	22344.74
543.952	22340.22
544.316	22338.41
544.681	22284.17
545.045	22594
545.41	22592.87
545.774	22677.38
546.138	22760.77
546.503	22827.89
546.867	22845.74
547.231	23030.82
547.595	23023.14
547.959	23027.88
548.324	23147.43
548.688	23302.9
549.052	23395.56
549.416	23372.05
549.779	23528.21
550.143	23542.45
550.507	23710.35
550.871	23774.76
551.235	23878.48
551.599	23953.51
551.962	24038.48
552.326	24152.6
552.689	24192.82
553.053	24128.42
553.417	24236.21
553.78	24587.84
554.143	24528.18
554.507	24627.62
554.87	24622.42
555.234	25010.66
555.597	24863.99
555.96	24970.21
556.323	25124.33
556.686	25087.26
557.05	25396.63
557.413	25376.97
557.776	25450.87
558.139	25616.97
558.502	25710.75
558.865	25834.59
559.228	25912.33
559.59	26120.46
559.953	26155.03
560.316	26344.41
560.679	26382.82
561.041	26522.71
561.404	26617.17
561.767	26797.95
562.129	26743.49
562.492	27035.24
562.854	27049.02
563.217	27080.66
563.579	27173.99
563.941	27409.69
564.304	27528.1
564.666	27634.09
565.028	27636.12
565.39	27860.98
565.753	27939.84
566.115	28086.73
566.477	28239.95
566.839	28346.84
567.201	28559.94
567.563	28607.4
567.925	28794.74
568.287	28653.27
568.648	28912.02
569.01	28858.24
569.372	29306.59
569.734	28997.9
570.095	29300.71
570.457	29445.12
570.819	29460.26
571.18	29461.39
571.542	29623.64
571.903	29754.71
572.265	29838.33
572.626	29824.31
572.987	29967.59
573.349	30167.58
573.71	29971.43
574.071	30333.68
574.432	30445.09
574.794	30632.66
575.155	30512.21
575.516	30488.25
575.877	30536.61
576.238	30671.52
576.599	30805.08
576.96	30888.02
577.32	30824.74
577.681	30933.89
578.042	30961.01
578.403	30991.97
578.763	31048.24
579.124	31104.51
579.485	31169.82
579.845	31338.17
580.206	31220.44
580.566	31339.76
580.927	31329.81
581.287	31415.91
581.648	31333.2
582.008	31603.25
582.368	31442.8
582.728	31536.36
583.089	31435.12
583.449	31479.19
583.809	31541.11
584.169	31582.23
584.529	31464.95
584.889	31789.23
585.249	31632.63
585.609	31514.67
585.969	31858.84
586.329	31549.02
586.688	31716.69
587.048	31514.89
587.408	31537.04
587.768	31630.14
588.127	31523.48
588.487	31662.01
588.846	31789.69
589.206	31664.49
589.565	31650.93
589.925	31783.59
590.284	31628.34
590.643	31750.82
591.003	31769.57
591.362	31787.43
591.721	31740.87
592.08	31778.84
592.44	31806.41
592.799	31870.81
593.158	31857.48
593.517	31813.87
593.876	31936.8
594.235	31809.8
594.593	31956.69
594.952	32007.76
595.311	31800.53
595.67	31900.87
596.029	32075.55
596.387	32189.22
596.746	32161.43
597.104	31938.16
597.463	32051.83
597.822	32124.14
598.18	32179.51
598.538	32134.76
598.897	32322.78
599.255	32032.17
599.613	32463.79
599.972	32244.82
600.33	32296.11
600.688	32164.37
601.046	32334.53
601.404	32492.04
601.762	32329.56
602.12	32404.36
602.478	32487.75
602.836	32524.36
603.194	32351.48
603.552	32513.28
603.91	32531.14
604.268	32571.81
604.625	32542.21
604.983	32599.38
605.341	32475.54
605.698	32687.29
606.056	32783.78
606.413	32599.61
606.771	32827.85
607.128	32856.55
607.485	32686.16
607.843	32831.02
608.2	32993.5
608.557	33008.64
608.914	32866.72
609.272	33146.49
609.629	33071.46
609.986	33263.09
610.343	33020.84
610.7	33333.37
611.057	33183.32
611.414	33180.84
611.771	33202.76
612.127	33380.15
612.484	33318.46
612.841	33421.96
613.198	33306.26
613.554	33492.01
613.911	33646.14
614.267	33538.34
614.624	33488.85
614.98	33630.32
615.337	33662.63
615.693	33722.52
616.05	33738.34
616.406	33781.95
616.762	33790.31
617.118	33689.75
617.475	33798
617.831	33820.59
618.187	33914.6
618.543	33874.6
618.899	34063.53
619.255	34009.52
619.611	33963.41
619.967	34242.05
620.323	34162.96
620.678	33967.93
621.034	34045.45
621.39	34042.51
621.746	33934.94
622.101	34425.55
622.457	34091.77
622.812	34126.57
623.168	34083.19
623.523	34033.47
623.879	34246.35
624.234	34056.07
624.589	34106.69
624.945	34216.29
625.3	34120.92
625.655	34257.19
626.01	34284.08
626.365	34163.86
626.72	34067.14
627.075	34131.09
627.43	34155.73
627.785	34084.99
628.14	34045.45
628.495	34046.12
628.85	34053.81
629.205	33941.49
629.559	34149.62
629.914	33918.67
630.269	33920.03
630.623	33841.38
630.978	33870.99
631.332	33992.79
631.687	34000.02
632.041	33757.77
632.396	33994.6
632.75	33901.27
633.104	33821.72
633.459	33768.62
633.813	33638.45
634.167	33615.85
634.521	33586.25
634.875	33706.92
635.229	33551.22
635.583	33496.31
635.937	33401.85
636.291	33479.59
636.645	33327.5
636.999	33206.37
637.352	33417.44
637.706	33191.01
638.06	33335.86
638.413	33238.46
638.767	33150.1
639.121	33205.02
639.474	33055.87
639.828	33036.21
640.181	33171.12
640.534	33114.4
640.888	33072.82
641.241	32761.64
641.594	32846.83
641.947	32882.09
642.301	32863.1
642.654	32844.57
643.007	32921.63
643.36	32738.59
643.713	32673.05
644.066	32848.19
644.419	32540.85
644.771	32435.09
645.124	32224.93
645.477	32047.53
645.83	31941.55
646.182	31749.69
646.535	31626.53
646.888	31609.35
647.24	31372.3
647.593	31543.59
647.945	31483.93
648.298	31304.28
648.65	31335.24
649.002	31253.88
649.355	31313.99
649.707	31289.13
650.059	31501.33
650.411	31816.58
650.763	31814.09
651.115	32065.39
651.467	31993.07
651.819	31986.74
652.171	31913.07
652.523	31853.41
652.875	31883.02
653.227	31760.31
653.578	31960.76
653.93	31798.27
654.282	31622.01
654.633	31551.27
654.985	31573.42
655.337	31671.72
655.688	31640.09
656.039	31656.36
656.391	31463.59
656.742	31497.04
657.094	31515.8
657.445	31647.09
657.796	31502.69
658.147	31471.28
658.498	31391.51
658.849	31563.93
659.2	31374.78
659.551	31309.93
659.902	31532.74
660.253	31400.32
660.604	31443.48
660.955	31281.45
661.306	31353.99
661.656	31306.54
662.007	31350.15
662.358	31221.79
662.708	31240.1
663.059	31193.77
663.409	31040.33
663.76	31298.4
664.11	31265.41
664.461	31235.13
664.811	31292.75
665.161	31059.08
665.511	31112.64
665.862	31142.47
666.212	31161
666.562	31154.68
666.912	31063.38
667.262	31078.74
667.612	30997.62
667.962	31039.42
668.312	30979.76
668.662	31153.55
669.011	30990.61
669.361	31045.53
669.711	31050.5
670.06	30967.11
670.41	30952.87
670.76	30909.03
671.109	31050.27
671.459	31014.34
671.808	30813.89
672.157	30933.44
672.507	30702.26
672.856	30681.02
673.205	30763.05
673.554	30757.85
673.904	30634.46
674.253	30909.94
674.602	30632.43
674.951	30325.09
675.3	30093.01
675.649	30634.69
675.998	30507.69
676.346	30533.45
676.695	30598.53
677.044	30480.79
677.393	30464.3
677.741	30449.38
678.09	30500.91
678.438	30478.31
678.787	30517.63
679.135	30473.79
679.484	30123.74
679.832	30236.28
680.181	30133.69
680.529	30310.18
680.877	30131.65
681.225	30028.6
681.573	30307.01
681.922	30042.61
682.27	29747.71
682.618	30045.1
682.966	29864.31
683.314	29860.92
683.661	29809.4
684.009	29785.22
684.357	29551.33
684.705	29519.46
685.053	29567.15
685.4	29582.06
685.748	29399.24
686.095	29305.01
686.443	29248.96
686.79	29282.86
687.138	29280.37
687.485	29309.3
687.832	29142.07
688.18	29225.69
688.527	29053.04
688.874	29017.33
689.221	28945.24
689.568	28809.65
689.915	28796.77
690.262	28822.99
690.609	28609.66
690.956	28532.37
691.303	28691.46
691.65	28548.87
691.997	28479.72
692.344	28172.61
692.69	28205.15
693.037	28279.95
693.383	28094.19
693.73	28271.81
694.077	27983.46
694.423	27947.98
694.769	27903.69
695.116	27892.84
695.462	27794.31
695.808	27758.83
696.155	27722.22
696.501	27495.34
696.847	27546.18
697.193	27303.93
697.539	27390.48
697.885	27112.75
698.231	27020.09
698.577	27183.48
698.923	27063.26
699.269	26994.33
699.614	26880.44
699.96	26741.01
700.306	26870.04
700.651	26646.55
700.997	26604.74
701.342	26544.63
701.688	26490.17
702.033	26494.91
702.379	26398.19
702.724	26301.92
703.069	26461.69
703.415	26037.07
703.76	26101.25
704.105	26196.16
704.45	25987.81
704.795	25841.82
705.14	25664.88
705.485	25763.4
705.83	25680.69
706.175	25615.16
706.52	25534.94
706.865	25559.57
707.209	25511.43
707.554	25406.35
707.899	25457.88
708.243	25175.17
708.588	25285.45
708.932	25106.25
709.277	25049.3
709.621	25067.38
709.966	24901.05
710.31	25054.5
710.654	24664.45
710.998	24869.87
711.342	24743.77
711.687	24760.72
712.031	24662.87
712.375	24556.66
712.719	24568.63
713.063	24464.23
713.407	24632.36
713.75	24465.36
714.094	24343.1
714.438	24239.83
714.782	24303.33
715.125	24196.21
715.469	24199.6
715.812	24158.47
716.156	24007.74
716.499	23931.59
716.843	24019.95
717.186	23868.99
717.53	23962.32
717.873	23943.57
718.216	23897.01
718.559	23828.09
718.902	23534.08
719.246	23593.52
719.589	23555.55
719.932	23535.21
720.275	23471.94
720.617	23436.91
720.96	23349.23
721.303	23499.74
721.646	23390.59
721.989	23213.64
722.331	23404.82
722.674	23229.23
723.016	23302.9
723.359	23194.21
723.701	23141.55
724.044	22961.67
724.386	22909.02
724.729	22902.91
725.071	22976.59
725.413	22919.64
725.755	22952.63
726.097	22817.49
726.439	22674.67
726.782	22783.82
727.124	22806.19
727.465	22723.71
727.807	22653.88
728.149	22569.14
728.491	22636.48
728.833	22590.38
729.175	22486.88
729.516	22508.8
729.858	22449.59
730.199	22448.69
730.541	22418.63
730.882	22312.2
731.224	22387.22
731.565	22177.51
731.906	22182.93
732.248	22223.61
732.589	22160.34
732.93	22077.85
733.271	22031.53
733.612	22067.68
733.953	21963.28
734.294	21868.59
734.635	22000.34
734.976	21974.8
735.317	21822.94
735.658	21828.37
735.999	21855.26
736.339	21772.77
736.68	21795.15
737.021	21711.76
737.361	21593.34
737.702	21695.49
738.042	21627.24
738.383	21581.37
738.723	21668.6
739.063	21478.55
739.404	21566.45
739.744	21511.76
740.084	21438.55
740.424	21436.96
740.764	21403.29
741.104	21515.83
741.444	21313.58
741.784	21247.14
742.124	21225.22
742.464	21215.95
742.804	21149.74
743.143	21168.5
743.483	21126.92
743.823	21026.35
744.162	20952.01
744.502	21044.66
744.841	20947.71
745.181	21043.75
745.52	20807.6
745.86	20928.05
746.199	20839.01
746.538	20838.79
746.877	20917.88
747.216	20826.59
747.556	20741.84
747.895	20675.4
748.234	20488.51
748.573	20507.95
748.911	20577.55
749.25	20561.06
749.589	20397.67
749.928	20486.26
750.267	20489.19
750.605	20416.88
750.944	20411.68
751.283	20312.7
751.621	20278.35
751.96	20187.05
752.298	20141.41
752.636	20209.2
752.975	20036.32
753.313	19973.95
753.651	20055.08
