Data from brown_tile_FLMS001491_070.txt Node
Date: Tue Feb 07 10:37:51 GMT 2017
User: dcchb
Spectrometer: FLMS00149
Trigger mode: 0
Integration Time (sec): 2.000000E-2
Scans to average: 10
Electric dark correction enabled: true
Nonlinearity correction enabled: false
Boxcar width: 0
XAxis mode: Wavelengths
Number of Pixels in Spectrum: 2048
>>>>>Begin Spectral Data<<<<<
341.393	-24.96
341.776	-24.96
342.16	-24.96
342.543	-65.86
342.927	-68.57
343.31	-46.43
343.693	-60.66
344.077	-88.68
344.46	-48.46
344.843	-66.99
345.226	-45.3
345.61	-29.7
345.993	-39.65
346.376	-7.78
346.759	5.32
347.142	28.37
347.525	36.51
347.908	72.22
348.291	101.59
348.674	85.55
349.057	104.08
349.44	128.03
349.823	135.72
350.206	141.37
350.588	177.52
350.971	197.86
351.354	204.42
351.737	241.25
352.119	235.83
352.502	257.52
352.884	256.62
353.267	269.5
353.65	253.23
354.032	278.31
354.414	296.84
354.797	293
355.179	297.75
355.562	314.02
355.944	305.2
356.326	321.02
356.709	318.31
357.091	292.77
357.473	307.24
357.855	331.64
358.238	327.35
358.62	316.28
359.002	342.04
359.384	320.8
359.766	318.99
360.148	300.68
360.53	303.4
360.912	326.67
361.294	325.99
361.676	314.47
362.057	321.25
362.439	320.12
362.821	315.37
363.203	288.93
363.584	316.5
363.966	312.89
364.348	307.01
364.729	328.93
365.111	308.59
365.493	309.95
365.874	311.76
366.256	319.44
366.637	297.75
367.019	301.59
367.4	308.37
367.781	300.91
368.163	284.41
368.544	290.97
368.925	292.77
369.306	295.26
369.688	299.33
370.069	303.17
370.45	302.04
370.831	307.46
371.212	301.59
371.593	290.06
371.974	297.52
372.355	301.81
372.736	309.27
373.117	305.43
373.498	273.79
373.879	309.05
374.26	307.01
374.641	311.08
375.021	280.8
375.402	303.17
375.783	305.88
376.163	318.31
376.544	310.18
376.925	305.88
377.305	291.64
377.686	296.62
378.066	310.4
378.447	307.46
378.827	294.81
379.208	316.05
379.588	307.69
379.968	331.19
380.349	327.35
380.729	324.86
381.109	309.95
381.489	324.86
381.87	310.63
382.25	327.58
382.63	315.83
383.01	328.93
383.39	317.63
383.77	318.54
384.15	320.8
384.53	333.68
384.91	318.08
385.29	326.9
385.67	313.79
386.049	337.29
386.429	337.29
386.809	331.87
387.189	339.55
387.568	346.11
387.948	353.79
388.328	352.43
388.707	344.98
389.087	363.96
389.466	329.16
389.846	367.35
390.225	347.46
390.605	338.65
390.984	344.98
391.363	339.33
391.743	343.17
392.122	346.33
392.501	344.52
392.881	347.91
393.26	353.56
393.639	355.6
394.018	371.64
394.397	358.76
394.776	355.37
395.155	347.69
395.534	345.88
395.913	344.75
396.292	381.81
396.671	359.67
397.05	365.09
397.429	367.8
397.808	373.22
398.186	372.32
398.565	370.06
398.944	364.41
399.323	365.99
399.701	363.06
400.08	375.26
400.458	388.82
400.837	388.59
401.215	378.65
401.594	367.58
401.972	363.28
402.351	376.84
402.729	365.99
403.107	379.55
403.486	373
403.864	358.31
404.242	380.46
404.62	389.5
404.999	399.44
405.377	393.79
405.755	377.97
406.133	399.66
406.511	404.18
406.889	381.59
407.267	389.04
407.645	394.69
408.023	398.08
408.401	383.39
408.779	386.78
409.156	405.31
409.534	413.45
409.912	412.32
410.29	420.91
410.667	415.94
411.045	404.86
411.422	418.65
411.8	433.34
412.178	447.12
412.555	440.34
412.933	398.53
413.31	425.88
413.687	415.26
414.065	439.66
414.442	438.76
414.819	423.62
415.197	434.01
415.574	440.12
415.951	458.42
416.328	458.19
416.705	442.38
417.082	436.5
417.46	453
417.837	435.14
418.214	467.23
418.591	458.19
418.967	459.55
419.344	469.49
419.721	461.58
420.098	474.46
420.475	483.5
420.852	470.17
421.228	475.59
421.605	486.89
421.982	464.97
422.358	473.79
422.735	452.32
423.111	511.53
423.488	500.23
423.864	513.56
424.241	488.25
424.617	502.94
424.994	488.7
425.37	518.76
425.746	494.35
426.123	492.32
426.499	497.74
426.875	525.09
427.251	516.27
427.627	516.27
428.003	556.72
428.379	519.89
428.756	545.65
429.132	528.47
429.507	530.96
429.883	541.81
430.259	559.43
430.635	551.98
431.011	575.71
431.387	559.21
431.763	575.71
432.138	566.21
432.514	575.25
432.89	580.45
433.265	594.01
433.641	556.72
434.016	563.28
434.392	593.56
434.767	607.34
435.143	594.46
435.518	619.77
435.894	595.82
436.269	608.92
436.644	611.64
437.02	633.78
437.395	643.5
437.77	623.16
438.145	651.18
438.52	634.91
438.895	646.66
439.271	628.81
439.646	641.24
440.021	667.91
440.395	661.8
440.77	640.79
441.145	671.97
441.52	663.39
441.895	671.3
442.27	658.19
442.645	691.18
443.019	696.61
443.394	686.66
443.769	686.21
444.143	676.49
444.518	683.95
444.892	682.6
445.267	689.83
445.641	717.17
446.016	714.91
446.39	688.24
446.764	714.68
447.139	737.28
447.513	719.88
447.887	720.11
448.262	737.73
448.636	693.89
449.01	740.45
449.384	729.15
449.758	736.15
450.132	735.25
450.506	751.07
450.88	760.56
451.254	776.6
451.628	764.85
452.002	767.56
452.376	764.63
452.75	768.92
453.123	763.04
453.497	775.47
453.871	802.59
454.244	781.35
454.618	806.21
454.992	836.49
455.365	813.89
455.739	821.8
456.112	858.86
456.486	867.9
456.859	820.22
457.232	858.86
457.606	847.11
457.979	845.53
458.352	871.29
458.725	867.22
459.099	899.54
459.472	889.82
459.845	905.64
460.218	912.87
460.591	934.11
460.964	945.64
461.337	932.53
461.71	948.8
462.083	965.3
462.456	942.7
462.829	962.36
463.201	956.94
463.574	960.55
463.947	970.27
464.32	1030.83
464.692	1004.62
465.065	999.2
465.438	1028.35
465.81	1037.84
466.183	1069.03
466.555	1078.74
466.928	1080.55
467.3	1085.97
467.672	1100.21
468.045	1134.11
468.417	1125.75
468.789	1116.48
469.161	1132.98
469.534	1153.77
469.906	1162.81
470.278	1165.97
470.65	1172.3
471.022	1196.48
471.394	1224.28
471.766	1230.15
472.138	1231.96
472.51	1231.96
472.882	1267.21
473.253	1285.07
473.625	1288
473.997	1339.53
474.369	1322.35
474.74	1353.54
475.112	1358.51
475.484	1384.72
475.855	1382.46
476.227	1371.16
476.598	1428.34
476.97	1458.62
477.341	1443.93
477.713	1483.93
478.084	1527.54
478.455	1513.31
478.827	1539.52
479.198	1576.81
479.569	1582.01
479.94	1591.05
480.311	1605.28
480.682	1644.83
481.053	1671.95
481.424	1710.59
481.795	1723.02
482.166	1751.95
482.537	1755.79
482.908	1794.43
483.279	1762.79
483.65	1826.52
484.021	1869
484.391	1887.99
484.762	1924.82
485.133	1904.94
485.503	1940.87
485.874	1965.73
486.244	1994.42
486.615	2025.16
486.985	2037.14
487.356	2098.15
487.726	2107.19
488.097	2125.72
488.467	2134.76
488.837	2200.3
489.207	2178.15
489.578	2209.79
489.948	2231.93
490.318	2271.71
490.688	2270.8
491.058	2298.37
491.428	2317.81
491.798	2354.64
492.168	2396.45
492.538	2384.7
492.908	2416.11
493.278	2483.9
493.648	2478.71
494.017	2494.3
494.387	2521.64
494.757	2528.2
495.126	2569.55
495.496	2556.67
495.866	2572.94
496.235	2623.79
496.605	2689.77
496.974	2657.68
497.344	2690.68
497.713	2665.37
498.082	2716.89
498.452	2762.99
498.821	2766.16
499.19	2768.42
499.559	2810.45
499.928	2791.69
500.298	2800.05
500.667	2847.96
501.036	2850.22
501.405	2887.51
501.774	2889.54
502.143	2913.95
502.512	2922.76
502.88	2947.17
503.249	2962.08
503.618	3024.45
503.987	3002.53
504.356	3026.94
504.724	3033.95
505.093	3100.38
505.462	3069.88
505.83	3099.25
506.199	3137.67
506.567	3180.61
506.936	3152.59
507.304	3226.26
507.672	3216.31
508.041	3226.48
508.409	3234.39
508.777	3330.66
509.145	3320.94
509.514	3348.06
509.882	3345.12
510.25	3362.3
510.618	3367.72
510.986	3385.57
511.354	3419.47
511.722	3416.53
512.09	3457.44
512.458	3453.37
512.826	3471.22
513.193	3512.58
513.561	3544.89
513.929	3579.92
514.297	3589.41
514.664	3673.25
515.032	3676.87
515.4	3680.48
515.767	3712.12
516.135	3686.13
516.502	3709.86
516.869	3773.59
517.237	3769.07
517.604	3809.97
517.972	3816.98
518.339	3841.16
518.706	3885.9
519.073	3884.09
519.44	3921.61
519.808	3963.86
520.175	3985.56
520.542	4041.6
520.909	4068.27
521.276	4083.18
521.643	4132.67
522.009	4163.41
522.376	4164.99
522.743	4224.2
523.11	4269.62
523.477	4288.15
523.843	4293.8
524.21	4382.61
524.577	4409.05
524.943	4429.84
525.31	4483.85
525.676	4478.43
526.043	4509.84
526.409	4575.15
526.776	4612.89
527.142	4617.18
527.508	4662.6
527.874	4730.17
528.241	4736.5
528.607	4785.76
528.973	4832.99
529.339	4798.19
529.705	4846.33
530.071	4880.22
530.437	4927.46
530.803	4934.01
531.169	4965.87
531.535	5018.53
531.901	5030.05
532.267	5053.55
532.632	5091.29
532.998	5126.77
533.364	5190.05
533.73	5159.09
534.095	5234.79
534.461	5292.19
534.826	5268.01
535.192	5284.28
535.557	5357.5
535.923	5353.43
536.288	5348.69
536.653	5460.55
537.019	5455.12
537.384	5481.34
537.749	5533.99
538.114	5550.04
538.479	5516.37
538.845	5560.21
539.21	5548.68
539.575	5651.73
539.94	5625.97
540.305	5685.85
540.67	5710.71
541.034	5716.14
541.399	5757.26
541.764	5822.35
542.129	5848.11
542.494	5872.06
542.858	5898.73
543.223	5936.02
543.587	5924.27
543.952	6008.1
544.316	6037.71
544.681	6006.3
545.045	6129.68
545.41	6126.75
545.774	6116.8
546.138	6169.46
546.503	6206.29
546.867	6242.67
547.231	6298.27
547.595	6325.61
547.959	6361.77
548.324	6417.36
548.688	6406.51
549.052	6478.83
549.416	6447.42
549.779	6534.64
550.143	6557.24
550.507	6616.45
550.871	6602.89
551.235	6707.97
551.599	6723.34
551.962	6795.43
552.326	6829.78
552.689	6898.7
553.053	6914.75
553.417	6968.53
553.78	7001.75
554.143	7038.13
554.507	7087.4
554.87	7129.66
555.234	7238.81
555.597	7241.97
555.96	7345.24
556.323	7337.56
556.686	7434.06
557.05	7456.2
557.413	7589.31
557.776	7575.3
558.139	7671.11
558.502	7705.24
558.865	7765.8
559.228	7916.98
559.59	7972.57
559.953	7964.21
560.316	8068.39
560.679	8108.84
561.041	8154.04
561.404	8287.37
561.767	8393.58
562.129	8330.3
562.492	8473.58
562.854	8525.1
563.217	8599.68
563.579	8698.66
563.941	8712.21
564.304	8820.91
564.666	8862.72
565.028	8959.67
565.39	9030.4
565.753	9102.94
566.115	9156.27
566.477	9280.11
566.839	9286.44
567.201	9440.33
567.563	9441.46
567.925	9662.7
568.287	9640.55
568.648	9717.61
569.01	9796.48
569.372	9939.98
569.734	9870.15
570.095	10051.84
570.457	10163.48
570.819	10190.59
571.18	10190.14
571.542	10357.37
571.903	10390.36
572.265	10436.69
572.626	10529.57
572.987	10628.77
573.349	10659.06
573.71	10740.41
574.071	10822.44
574.432	10933.4
574.794	11107.63
575.155	11064.47
575.516	11137.46
575.877	11238.02
576.238	11249.55
576.599	11364.35
576.96	11468.3
577.32	11479.37
577.681	11478.92
578.042	11679.37
578.403	11706.26
578.763	11765.24
579.124	11859.7
579.485	11908.97
579.845	11985.8
580.206	12012.69
580.566	12114.61
580.927	12145.57
581.287	12185.12
581.648	12251.33
582.008	12419.01
582.368	12329.29
582.728	12438.44
583.089	12405
583.449	12577.2
583.809	12541.04
584.169	12681.15
584.529	12631.21
584.889	12797.3
585.249	12785.55
585.609	12759.34
585.969	12860.35
586.329	12920.92
586.688	12997.07
587.048	13003.63
587.408	13021.93
587.768	13125.66
588.127	13071.65
588.487	13138.76
588.846	13325.65
589.206	13159.78
589.565	13289.5
589.925	13345.76
590.284	13370.17
590.643	13447.01
591.003	13495.82
591.362	13597.28
591.721	13552.31
592.08	13586.66
592.44	13706.66
592.799	13705.53
593.158	13727.22
593.517	13829.14
593.876	13801.57
594.235	13815.58
594.593	13841.57
594.952	13839.76
595.311	13951.62
595.67	13960.66
596.029	14061.9
596.387	14085.86
596.746	14103.03
597.104	14092.86
597.463	14165.4
597.822	14197.95
598.18	14158.62
598.538	14264.38
598.897	14373.53
599.255	14208.34
599.613	14483.36
599.972	14430.93
600.33	14583.25
600.688	14513.19
601.046	14477.49
601.404	14567.43
601.762	14579.4
602.12	14717.71
602.478	14629.12
602.836	14753.41
603.194	14693.98
603.552	14761.55
603.91	14696.92
604.268	14827.31
604.625	14778.5
604.983	14879.96
605.341	14816.91
605.698	14943.91
606.056	14942.79
606.413	14926.29
606.771	15005.61
607.128	15110.24
607.485	15080.18
607.843	15043.35
608.2	15164.7
608.557	15114.76
608.914	15157.69
609.272	15224.13
609.629	15204.02
609.986	15333.74
610.343	15255.55
610.7	15402.21
611.057	15342.32
611.414	15319.05
611.771	15413.06
612.127	15499.38
612.484	15514.97
612.841	15582.09
613.198	15465.94
613.554	15545.93
613.911	15634.52
614.267	15589.77
614.624	15505.03
614.98	15630.22
615.337	15698.47
615.693	15798.36
616.05	15694.4
616.406	15877.9
616.762	15720.84
617.118	15809.65
617.475	15825.02
617.831	15895.98
618.187	15886.04
618.543	15909.99
618.899	15882.65
619.255	15924
619.611	15960.39
619.967	16078.12
620.323	16163.09
620.678	16019.14
621.034	15924.68
621.39	16000.84
621.746	16011.91
622.101	16169.65
622.457	16068.63
622.812	16090.78
623.168	16127.84
623.523	16142.08
623.879	16214.84
624.234	16108.18
624.589	16168.52
624.945	16201.28
625.3	16289.42
625.655	16260.26
626.01	16285.8
626.365	16245.12
626.72	16281.05
627.075	16142.08
627.43	16187.05
627.785	16146.37
628.14	16236.54
628.495	16212.13
628.85	16251.68
629.205	16245.12
629.559	16236.08
629.914	16199.48
630.269	16156.09
630.623	16232.24
630.978	16179.36
631.332	16197.44
631.687	16225.01
632.041	16092.59
632.396	16188.85
632.75	16066.15
633.104	16169.65
633.459	16145.24
633.813	16151.11
634.167	16079.25
634.521	16113.15
634.875	16051.23
635.229	16083.09
635.583	15987.05
635.937	16011.91
636.291	15971.46
636.645	15981.18
636.999	15954.51
637.352	16030.89
637.706	15901.86
638.06	15990.22
638.413	15917.67
638.767	15892.82
639.121	15946.15
639.474	15833.84
639.828	15923.78
640.181	15864.12
640.534	15934.4
640.888	15860.28
641.241	15778.02
641.594	15946.83
641.947	15929.2
642.301	15804.01
642.654	15761.07
643.007	15895.98
643.36	15894.4
643.713	15842.87
644.066	15877.22
644.419	15707.28
644.771	15719.04
645.124	15567.85
645.477	15544.35
645.83	15455.09
646.182	15386.16
646.535	15365.15
646.888	15339.61
647.24	15267.75
647.593	15374.86
647.945	15307.07
648.298	15263.68
648.65	15244.25
649.002	15201.76
649.355	15254.19
649.707	15204.47
650.059	15298.48
650.411	15501.64
650.763	15540.74
651.115	15707.74
651.467	15682.88
651.819	15585.03
652.171	15623.22
652.523	15572.15
652.875	15536.67
653.227	15511.81
653.578	15696.89
653.93	15634.52
654.282	15544.35
654.633	15521.3
654.985	15523.79
655.337	15499.61
655.688	15599.72
656.039	15529.66
656.391	15500.28
656.742	15509.78
657.094	15449.21
657.445	15630.9
657.796	15523.33
658.147	15474.3
658.498	15563.56
658.849	15641.07
659.2	15487.63
659.551	15513.84
659.902	15628.64
660.253	15567.18
660.604	15547.74
660.955	15490.12
661.306	15607.85
661.656	15541.19
662.007	15541.41
662.358	15578.7
662.708	15527.4
663.059	15526.05
663.409	15521.3
663.76	15567.18
664.11	15545.26
664.461	15528.76
664.811	15574.86
665.161	15598.36
665.511	15565.37
665.862	15504.13
666.212	15655.31
666.562	15621.64
666.912	15620.73
667.262	15587.06
667.612	15635.2
667.962	15612.82
668.312	15567.63
668.662	15636.1
669.011	15654.4
669.361	15590.45
669.711	15724.23
670.06	15615.76
670.41	15643.33
670.76	15641.75
671.109	15682.43
671.459	15585.25
671.808	15626.61
672.157	15714.74
672.507	15600.17
672.856	15548.87
673.205	15658.47
673.554	15772.59
673.904	15617.8
674.253	15705.7
674.602	15586.16
674.951	15461.87
675.3	15390.91
675.649	15536.67
675.998	15560.4
676.346	15658.92
676.695	15714.97
677.044	15600.85
677.393	15669.32
677.741	15687.17
678.09	15655.31
678.438	15580.06
678.787	15621.19
679.135	15702.99
679.484	15555.65
679.832	15695.76
680.181	15582.99
680.529	15639.49
680.877	15623.9
681.225	15580.06
681.573	15725.59
681.922	15548.42
682.27	15549.32
682.618	15627.29
682.966	15520.85
683.314	15580.51
683.661	15568.08
684.009	15564.46
684.357	15518.59
684.705	15436.78
685.053	15489.89
685.4	15475.2
685.748	15453.96
686.095	15464.35
686.443	15348.42
686.79	15429.1
687.138	15340.74
687.485	15392.26
687.832	15436.33
688.18	15412.83
688.527	15346.62
688.874	15357.24
689.221	15235.66
689.568	15244.02
689.915	15204.25
690.262	15290.8
690.609	15177.13
690.956	15182.55
691.303	15097.58
691.65	15161.99
691.997	15088.54
692.344	15014.2
692.69	14941.2
693.037	14997.7
693.383	14954.76
693.73	15032.27
694.077	14989.79
694.423	14898.27
694.769	14908.89
695.116	14903.24
695.462	14820.08
695.808	14790.92
696.155	14739.63
696.501	14783.02
696.847	14689.46
697.193	14606.3
697.539	14770.13
697.885	14636.58
698.231	14507.77
698.577	14644.26
698.923	14588.44
699.269	14609.69
699.614	14445.4
699.96	14479.97
700.306	14412.63
700.651	14416.47
700.997	14490.37
701.342	14350.71
701.688	14423.02
702.033	14316.59
702.379	14318.39
702.724	14339.86
703.069	14349.58
703.415	14308.45
703.76	14166.08
704.105	14255.12
704.45	14207.44
704.795	14072.98
705.14	14190.71
705.485	14092.41
705.83	14056.25
706.175	13959.31
706.52	14038.85
706.865	13989.59
707.209	14011.51
707.554	13952.75
707.899	13960.89
708.243	13937.84
708.588	13971.74
708.932	13812.19
709.277	13841.35
709.621	13904.62
709.966	13778.07
710.31	13821.23
710.654	13741.69
710.998	13720.9
711.342	13778.52
711.687	13746.66
712.031	13664.63
712.375	13717.73
712.719	13741.91
713.063	13667.79
713.407	13738.07
713.75	13675.7
714.094	13639.32
714.438	13544.4
714.782	13607.23
715.125	13557.51
715.469	13632.54
715.812	13590.73
716.156	13461.92
716.499	13584.85
716.843	13531.75
717.186	13506.44
717.53	13548.02
717.873	13521.81
718.216	13422.37
718.559	13369.04
718.902	13393.45
719.246	13432.54
719.589	13411.53
719.932	13324.75
720.275	13327.01
720.617	13326.33
720.96	13307.35
721.303	13396.61
721.646	13368.82
721.989	13288.59
722.331	13236.62
722.674	13332.66
723.016	13364.75
723.359	13301.25
723.701	13290.85
724.044	13093.79
724.386	13169.27
724.729	13213.56
725.071	13250.17
725.413	13108.03
725.755	13266.67
726.097	13141.02
726.439	13184.41
726.782	13134.47
727.124	13168.59
727.465	13084.98
727.807	13158.43
728.149	13057.18
728.491	13095.6
728.833	13086.34
729.175	13064.64
729.516	13026.45
729.858	13016.73
730.199	12994.14
730.541	12992.1
730.882	12981.03
731.224	12981.71
731.565	12874.14
731.906	12927.7
732.248	13003.18
732.589	12888.83
732.93	12922.5
733.271	12841.6
733.612	12874.59
733.953	12954.81
734.294	12823.07
734.635	12805.21
734.976	12783.97
735.317	12742.84
735.658	12793.69
735.999	12795.95
736.339	12808.15
736.68	12872.78
737.021	12796.17
737.361	12722.96
737.702	12801.15
738.042	12722.05
738.383	12706.69
738.723	12808.15
739.063	12722.96
739.404	12633.02
739.744	12722.28
740.084	12635.05
740.424	12614.71
740.764	12615.16
741.104	12631.43
741.444	12542.4
741.784	12520.48
742.124	12574.03
742.464	12544.88
742.804	12520.25
743.143	12483.19
743.483	12409.97
743.823	12409.52
744.162	12344.66
744.502	12478.67
744.841	12338.11
745.181	12460.14
745.52	12433.7
745.86	12412.46
746.199	12426.24
746.538	12323.87
746.877	12346.92
747.216	12369.97
747.556	12245.91
747.895	12273.02
748.234	12184.67
748.573	12176.98
748.911	12198.22
749.25	12230.54
749.589	12098.34
749.928	12242.74
750.267	12153.25
750.605	12143.08
750.944	12063.76
751.283	12064.44
751.621	12072.35
751.96	11970.89
752.298	12038.68
752.636	12044.33
752.975	11966.14
753.313	11836.88
753.651	12016.99
753.989	11832.58
754.327	11828.52
754.666	11751
755.004	11901.06
755.342	11822.42
755.679	11746.26
756.017	11671.46
756.355	11764.11
756.693	11639.82
757.031	11638.69
757.368	11638.47
757.706	11593.49
758.044	11431.24
758.381	11522.08
758.719	11459.03
759.056	11515.98
759.394	11440.5
759.731	11309.21
760.068	11362.54
760.405	11324.8
