Data from brown_tile_FLMS001491_075.txt Node
Date: Tue Feb 07 10:37:58 GMT 2017
User: dcchb
Spectrometer: FLMS00149
Trigger mode: 0
Integration Time (sec): 2.000000E-2
Scans to average: 10
Electric dark correction enabled: true
Nonlinearity correction enabled: false
Boxcar width: 0
XAxis mode: Wavelengths
Number of Pixels in Spectrum: 2048
>>>>>Begin Spectral Data<<<<<
341.393	-17.19
341.776	-17.19
342.16	-17.19
342.543	-61.71
342.927	-53.57
343.31	-61.26
343.693	-54.25
344.077	-68.03
344.46	-74.81
344.843	-53.57
345.226	-38.43
345.61	-46.11
345.993	-13.57
346.376	4.51
346.759	17.61
347.142	35.92
347.525	43.6
347.908	49.93
348.291	64.16
348.674	82.92
349.057	111.4
349.44	139.87
349.823	148
350.206	156.14
350.588	178.96
350.971	191.85
351.354	218.74
351.737	228
352.119	228
352.502	259.87
352.884	246.76
353.267	265.06
353.65	304.38
354.032	314.33
354.414	275.01
354.797	305.97
355.179	313.65
355.562	316.14
355.944	317.04
356.326	310.71
356.709	334.67
357.091	324.95
357.473	307.77
357.855	298.96
358.238	329.02
358.62	314.1
359.002	324.72
359.384	315.91
359.766	315.23
360.148	318.85
360.53	333.08
360.912	315.01
361.294	339.19
361.676	340.32
362.057	311.62
362.439	337.38
362.821	307.32
363.203	322.46
363.584	317.04
363.966	313.2
364.348	315.68
364.729	322.46
365.111	307.77
365.493	308.45
365.874	316.59
366.256	312.75
366.637	305.06
367.019	277.04
367.4	285.63
367.781	305.06
368.163	297.15
368.544	289.7
368.925	302.8
369.306	321.11
369.688	307.32
370.069	289.7
370.45	304.84
370.831	294.67
371.212	280.2
371.593	316.36
371.974	313.65
372.355	308.68
372.736	305.51
373.117	306.87
373.498	283.37
373.879	304.61
374.26	323.59
374.641	305.51
375.021	317.94
375.402	322.01
375.783	317.72
376.163	312.75
376.544	308.9
376.925	324.95
377.305	325.85
377.686	327.66
378.066	315.46
378.447	320.43
378.827	302.35
379.208	316.36
379.588	312.75
379.968	325.18
380.349	320.88
380.729	316.81
381.109	334.89
381.489	328.11
381.87	316.81
382.25	322.24
382.63	335.8
383.01	319.07
383.39	340.09
383.77	327.43
384.15	321.79
384.53	321.11
384.91	339.41
385.29	345.74
385.67	327.66
386.049	349.58
386.429	328.11
386.809	341.22
387.189	356.59
387.568	335.34
387.948	321.79
388.328	377.6
388.707	350.71
389.087	356.13
389.466	335.12
389.846	353.87
390.225	343.93
390.605	331.73
390.984	344.38
391.363	349.81
391.743	353.2
392.122	356.36
392.501	338.06
392.881	364.27
393.26	355.46
393.639	357.94
394.018	366.3
394.397	362.24
394.776	357.94
395.155	366.98
395.534	358.17
395.913	375.12
396.292	367.89
396.671	355.46
397.05	347.55
397.429	377.38
397.808	363.37
398.186	387.77
398.565	384.61
398.944	373.54
399.323	367.43
399.701	399.07
400.08	377.6
400.458	387.09
400.837	403.59
401.215	388.45
401.594	377.38
401.972	382.8
402.351	373.08
402.729	373.31
403.107	369.69
403.486	377.15
403.864	398.17
404.242	392.29
404.62	409.92
404.999	399.98
405.377	390.48
405.755	403.14
406.133	408.79
406.511	407.21
406.889	423.48
407.267	422.8
407.645	423.93
408.023	415.79
408.401	418.51
408.779	437.71
409.156	417.6
409.534	437.49
409.912	430.48
410.29	417.15
410.667	434.32
411.045	441.1
411.422	448.79
411.8	449.24
412.178	424.83
412.555	434.32
412.933	456.7
413.31	467.32
413.687	435.23
414.065	458.73
414.442	448.56
414.819	454.21
415.197	449.69
415.574	464.15
415.951	478.17
416.328	455.57
416.705	490.14
417.082	470.71
417.46	467.77
417.837	487.2
418.214	480.43
418.591	475
418.967	481.33
419.344	488.33
419.721	486.3
420.098	484.49
420.475	495.79
420.852	487.66
421.228	491.05
421.605	499.41
421.982	511.61
422.358	524.04
422.735	518.16
423.111	515.23
423.488	501.22
423.864	524.04
424.241	521.55
424.617	517.49
424.994	545.73
425.37	518.16
425.746	539.63
426.123	538.95
426.499	523.59
426.875	535.57
427.251	556.36
427.627	548.45
428.003	536.47
428.379	551.84
428.756	540.31
429.132	569.91
429.507	547.99
429.883	564.04
430.259	551.38
430.635	565.85
431.011	580.08
431.387	562.68
431.763	571.04
432.138	609.69
432.514	599.29
432.89	593.42
433.265	622.79
433.641	626.64
434.016	629.12
434.392	615.56
434.767	602
435.143	621.89
435.518	646.97
435.894	625.96
436.269	625.96
436.644	658.05
437.02	642.68
437.395	670.7
437.77	668.67
438.145	662.79
438.52	659.4
438.895	693.98
439.271	683.58
439.646	684.26
440.021	704.83
440.395	709.8
440.77	708.67
441.145	683.58
441.52	680.65
441.895	710.25
442.27	715.9
442.645	713.64
443.019	703.92
443.394	731.27
443.769	735.11
444.143	724.94
444.518	736.69
444.892	701.66
445.267	740.31
445.641	715.45
446.016	727.88
446.39	727.42
446.764	745.28
447.139	722.68
447.513	731.72
447.887	736.24
448.262	733.98
448.636	764.26
449.01	759.74
449.384	773.75
449.758	777.59
450.132	786.63
450.506	777.59
450.88	779.17
451.254	775.56
451.628	775.56
452.002	838.61
452.376	825.95
452.75	839.74
453.123	828.44
453.497	836.57
453.871	856.91
454.244	845.61
454.618	852.17
454.992	868.66
455.365	859.4
455.739	887.87
456.112	894.43
456.486	901.21
456.859	889.91
457.232	907.08
457.606	890.36
457.979	906.85
458.352	919.96
458.725	935.33
459.099	928.1
459.472	949.34
459.845	941.2
460.218	966.51
460.591	962.45
460.964	993.41
461.337	975.1
461.71	1000.41
462.083	1014.65
462.456	1013.74
462.829	1014.87
463.201	1037.7
463.574	1037.92
463.947	1035.44
464.32	1091.93
464.692	1075.44
465.065	1074.99
465.438	1077.92
465.81	1062.1
466.183	1117.47
466.555	1121.99
466.928	1099.84
467.3	1134.42
467.672	1129.9
468.045	1152.5
468.417	1178.71
468.789	1173.74
469.161	1190.69
469.534	1203.12
469.906	1229.78
470.278	1229.78
470.65	1248.99
471.022	1254.19
471.394	1298.03
471.766	1263.46
472.138	1320.86
472.51	1348.65
472.882	1325.6
473.253	1366.96
473.625	1360.85
473.997	1387.75
474.369	1386.16
474.74	1385.94
475.112	1454.64
475.484	1454.18
475.855	1465.48
476.227	1481.3
476.598	1493.73
476.97	1532.15
477.341	1560.4
477.713	1603.56
478.084	1591.36
478.455	1634.52
478.827	1638.13
479.198	1672.71
479.569	1669.55
479.94	1683.56
480.311	1749.77
480.682	1758.13
481.053	1792.71
481.424	1805.59
481.795	1804.68
482.166	1827.96
482.537	1869.54
482.908	1888.98
483.279	1879.71
483.65	1958.13
484.021	1952.02
484.391	1982.76
484.762	2023.66
485.133	2042.64
485.503	2065.47
485.874	2116.09
486.244	2090.78
486.615	2169.87
486.985	2140.72
487.356	2200.61
487.726	2166.03
488.097	2275.86
488.467	2267.27
488.837	2323.09
489.207	2325.57
489.578	2359.92
489.948	2366.03
490.318	2401.73
490.688	2390.66
491.058	2442.63
491.428	2478.34
491.798	2503.87
492.168	2531.22
492.538	2581.61
492.908	2595.17
493.278	2617.09
493.648	2634.94
494.017	2626.13
494.387	2665
494.757	2714.04
495.126	2729.18
495.496	2750.2
495.866	2772.12
496.235	2782.29
496.605	2805.56
496.974	2820.93
497.344	2839.69
497.713	2850.98
498.082	2883.98
498.452	2887.37
498.821	2894.37
499.19	2907.25
499.559	2950.19
499.928	2968.72
500.298	3004.65
500.667	3060.02
501.036	3015.95
501.405	3060.7
501.774	3050.75
502.143	3060.92
502.512	3128.04
502.88	3138.89
503.249	3153.8
503.618	3167.13
503.987	3182.05
504.356	3252.1
504.724	3244.87
505.093	3240.13
505.462	3251.88
505.83	3271.09
506.199	3311.31
506.567	3351.99
506.936	3363.06
507.304	3348.82
507.672	3439.44
508.041	3424.3
508.409	3473.11
508.777	3518.09
509.145	3485.32
509.514	3491.87
509.882	3530.06
510.25	3549.5
510.618	3560.12
510.986	3561.93
511.354	3631.3
511.722	3674.24
512.09	3699.55
512.458	3690.51
512.826	3719.21
513.193	3765.99
513.561	3750.62
513.929	3782.03
514.297	3814.35
514.664	3830.17
515.032	3862.71
515.4	3900.45
515.767	3923.72
516.135	3981.12
516.502	3955.14
516.869	4012.08
517.237	4002.59
517.604	3974.8
517.972	4091.4
518.339	4133.66
518.706	4139.09
519.073	4148.35
519.44	4172.08
519.808	4244.17
520.175	4209.82
520.542	4276.03
520.909	4302.47
521.276	4286.88
521.643	4348.35
522.009	4375.46
522.376	4469.92
522.743	4471.28
523.11	4500.43
523.477	4534.33
523.843	4557.61
524.21	4585.18
524.577	4679.18
524.943	4681.67
525.31	4717.38
525.676	4745.85
526.043	4790.14
526.409	4799.41
526.776	4870.14
527.142	4850.03
527.508	4921.89
527.874	4984.49
528.241	5003.7
528.607	4940.87
528.973	5052.51
529.339	5061.32
529.705	5129.34
530.071	5192.84
530.437	5204.37
530.803	5205.72
531.169	5236.23
531.535	5219.96
531.901	5298.38
532.267	5317.59
532.632	5371.82
532.998	5399.84
533.364	5448.66
533.73	5471.71
534.095	5528.88
534.461	5520.07
534.826	5563.23
535.192	5574.3
535.557	5606.62
535.923	5607.97
536.288	5708.76
536.653	5736.78
537.019	5703.56
537.384	5767.74
537.749	5829.44
538.114	5863.11
538.479	5825.6
538.845	5861.07
539.21	5922.99
539.575	5977.46
539.94	5966.83
540.305	6032.82
540.67	6002.99
541.034	6045.7
541.399	6105.59
541.764	6148.98
542.129	6200.27
542.494	6181.97
542.858	6233.72
543.223	6264.45
543.587	6329.99
543.952	6335.64
544.316	6360.27
544.681	6375.86
545.045	6428.52
545.41	6437.56
545.774	6504.22
546.138	6559.36
546.503	6546.25
546.867	6593.71
547.231	6667.61
547.595	6689.53
547.959	6746.48
548.324	6747.83
548.688	6763.88
549.052	6804.1
549.416	6845.91
549.779	6887.94
550.143	6951.67
550.507	6997.32
550.871	7048.16
551.235	7063.3
551.599	7116.41
551.962	7148.05
552.326	7190.31
552.689	7275.95
553.053	7250.64
553.417	7323.64
553.78	7510.3
554.143	7404.76
554.507	7530.41
554.87	7555.49
555.234	7727.92
555.597	7693.79
555.96	7691.08
556.323	7767.24
556.686	7836.84
557.05	7948.48
557.413	7992.09
557.776	8032.09
558.139	8079.1
558.502	8128.13
558.865	8230.5
559.228	8246.1
559.59	8325.42
559.953	8323.83
560.316	8487.9
560.679	8566.09
561.041	8696.71
561.404	8735.58
561.767	8857.83
562.129	8844.5
562.492	8934.21
562.854	9011.27
563.217	9072.29
563.579	9163.81
563.941	9267.54
564.304	9291.94
564.666	9401.55
565.028	9421.89
565.39	9475.67
565.753	9658.04
566.115	9663.01
566.477	9836.11
566.839	9830.69
567.201	9973.28
567.563	10026.61
567.925	10149.55
568.287	10119.04
568.648	10237.68
569.01	10310.68
569.372	10462.08
569.734	10505.25
570.095	10614.85
570.457	10711.34
570.819	10767.39
571.18	10796.09
571.542	10891.9
571.903	10945.69
572.265	11125.12
572.626	11121.95
572.987	11155.17
573.349	11238.79
573.71	11318.33
574.071	11400.59
574.432	11504.54
574.794	11604.2
575.155	11720.13
575.516	11725.1
575.877	11923.51
576.238	11900.92
576.599	12019.56
576.96	12047.35
577.32	12188.59
577.681	12259.55
578.042	12316.5
578.403	12327.57
578.763	12401.47
579.124	12534.8
579.485	12543.16
579.845	12649.82
580.206	12738.18
580.566	12714.23
580.927	12834.68
581.287	12950.38
581.648	12904.73
582.008	13053.65
582.368	13024.73
582.728	13158.74
583.089	13099.3
583.449	13191.5
583.809	13159.64
584.169	13256.13
584.529	13345.85
584.889	13456.81
585.249	13480.08
585.609	13391.72
585.969	13544.71
586.329	13572.74
586.688	13664.26
587.048	13654.32
587.408	13659.29
587.768	13769.34
588.127	13739.29
588.487	13824.03
588.846	13958.04
589.206	13859.73
589.565	14020.63
589.925	14028.77
590.284	14133.63
590.643	14155.55
591.003	14157.35
591.362	14256.79
591.721	14234.64
592.08	14336.78
592.44	14402.09
592.799	14387.63
593.158	14388.53
593.517	14483.9
593.876	14481.19
594.235	14473.73
594.593	14553.73
594.952	14631.69
595.311	14653.84
595.67	14647.51
596.029	14788.75
596.387	14856.32
596.746	14924.57
597.104	14812.03
597.463	14828.52
597.822	14914.17
598.18	14875.98
598.538	15023.55
598.897	14994.17
599.255	14934.06
599.613	15202.3
599.972	15172.92
600.33	15119.81
600.688	15206.14
601.046	15222.86
601.404	15307.15
601.762	15373.59
602.12	15445.23
602.478	15413.59
602.836	15435.51
603.194	15284.78
603.552	15442.52
603.91	15349.41
604.268	15487.04
604.625	15540.82
604.983	15557.32
605.341	15552.35
605.698	15716.18
606.056	15731.78
606.413	15682.51
606.771	15702.62
607.128	15829.4
607.485	15723.64
607.843	15762.51
608.2	15990.53
608.557	15934.26
608.914	15895.84
609.272	15946.01
609.629	15964.99
609.986	16115.72
610.343	16049.51
610.7	16173.57
611.057	16103.52
611.414	16165.89
611.771	16207.7
612.127	16344.64
612.484	16314.81
612.841	16341.7
613.198	16334.25
613.554	16321.36
613.911	16475.03
614.267	16383.28
614.624	16442.94
614.98	16470.97
615.337	16494.92
615.693	16464.86
616.05	16482.04
616.406	16626.89
616.762	16583.05
617.118	16501.02
617.475	16649.04
617.831	16643.84
618.187	16679.77
618.543	16797.06
618.899	16758.87
619.255	16815.14
619.611	16713.9
619.967	16906.43
620.323	16854.46
620.678	16775.82
621.034	16828.47
621.39	16796.61
621.746	16767.91
622.101	16983.72
622.457	16828.02
622.812	16944.63
623.168	16994.34
623.523	17036.6
623.879	17016.71
624.234	16899.88
624.589	17031.63
624.945	16926.55
625.3	16951.4
625.655	16957.05
626.01	17050.16
626.365	17018.97
626.72	17015.81
627.075	17023.49
627.43	17031.4
627.785	16956.6
628.14	16946.88
628.495	17070.72
628.85	17014.45
629.205	16990.27
629.559	17040.22
629.914	16995.92
630.269	16989.6
630.623	16908.02
630.978	16976.04
631.332	16984.17
631.687	17084.51
632.041	17080.67
632.396	17011.06
632.75	16930.84
633.104	16923.38
633.459	16864.63
633.813	16835.93
634.167	16894.23
634.521	16879.99
634.875	16994.79
635.229	16887
635.583	16856.94
635.937	16804.29
636.291	16794.57
636.645	16846.55
636.999	16790.96
637.352	16741.92
637.706	16724.97
638.06	16815.14
638.413	16802.03
638.767	16748.47
639.121	16685.65
639.474	16712.09
639.828	16785.31
640.181	16743.27
640.534	16732.2
640.888	16714.57
641.241	16600.68
641.594	16663.05
641.947	16663.73
642.301	16630.96
642.654	16674.12
643.007	16640.9
643.36	16634.58
643.713	16605.42
644.066	16683.61
644.419	16544.18
644.771	16401.14
645.124	16303.96
645.477	16184.42
645.83	16181.48
646.182	16136.51
646.535	16130.64
646.888	16096.06
647.24	16023.97
647.593	16102.84
647.945	16061.71
648.298	15996.63
648.65	15898.1
649.002	15852.9
649.355	15986.01
649.707	15969.06
650.059	16086.79
650.411	16234.81
650.763	16327.92
651.115	16380.57
651.467	16344.41
651.819	16240.24
652.171	16379.22
652.523	16294.25
652.875	16300.57
653.227	16270.74
653.578	16447.46
653.93	16290.4
654.282	16230.52
654.633	16279.33
654.985	16287.92
655.337	16272.33
655.688	16269.84
656.039	16411.53
656.391	16228.71
656.742	16267.58
657.094	16193.68
657.445	16371.98
657.796	16293.57
658.147	16204.53
658.498	16226
658.849	16270.29
659.2	16234.36
659.551	16214.7
659.902	16299.22
660.253	16203.85
660.604	16213.57
660.955	16285.21
661.306	16323.62
661.656	16324.75
662.007	16237.75
662.358	16336.73
662.708	16304.87
663.059	16344.64
663.409	16175.38
663.76	16331.08
664.11	16308.03
664.461	16378.31
664.811	16334.92
665.161	16320.91
665.511	16232.55
665.862	16361.59
666.212	16376.5
666.562	16395.26
666.912	16361.59
667.262	16255.83
667.612	16269.84
667.962	16382.15
668.312	16435.03
668.662	16423.06
669.011	16442.04
669.361	16312.78
669.711	16391.87
670.06	16296.05
670.41	16314.59
670.76	16284.08
671.109	16391.42
671.459	16409.05
671.808	16395.94
672.157	16428.03
672.507	16290.86
672.856	16367.69
673.205	16278.65
673.554	16405.88
673.904	16362.49
674.253	16497.63
674.602	16489.95
674.951	16227.81
675.3	16097.87
675.649	16360.91
675.998	16296.73
676.346	16365.66
676.695	16522.72
677.044	16294.47
677.393	16448.37
677.741	16475.48
678.09	16424.86
678.438	16364.98
678.787	16406.79
679.135	16366.56
679.484	16352.78
679.832	16319.1
680.181	16254.25
680.529	16479.33
680.877	16285.89
681.225	16221.71
681.573	16376.73
681.922	16211.76
682.27	16275.72
682.618	16184.42
682.966	16195.49
683.314	16358.2
683.661	16253.8
684.009	16197.3
684.357	16158.66
684.705	16104.42
685.053	16129.73
685.4	16145.32
685.748	16117.75
686.095	16098.32
686.443	16047.02
686.79	16025.78
687.138	16067.81
687.485	16030.3
687.832	16056.74
688.18	16104.42
688.527	15965.44
688.874	15935.84
689.221	16000.02
689.568	15901.49
689.915	15881.83
690.262	15896.74
690.609	15908.27
690.956	15852.45
691.303	15810.42
691.65	15728.39
691.997	15816.75
692.344	15713.25
692.69	15722.74
693.037	15692
693.383	15608.39
693.73	15721.83
694.077	15597.99
694.423	15657.2
694.769	15479.13
695.116	15490.65
695.462	15390.54
695.808	15412.91
696.155	15573.14
696.501	15348.51
696.847	15410.65
697.193	15250.43
697.539	15404.55
697.885	15334.05
698.231	15228.51
698.577	15239.81
698.923	15143.54
699.269	15213.6
699.614	15031
699.96	14955.07
700.306	15185.35
700.651	15005.69
700.997	14992.13
701.342	14996.65
701.688	14975.41
702.033	14953.72
702.379	15050.44
702.724	14958.01
703.069	14988.52
703.415	14794.4
703.76	14773.61
704.105	14813.16
704.45	14795.08
704.795	14739.94
705.14	14648.19
705.485	14673.72
705.83	14647.51
706.175	14749.2
706.52	14642.99
706.865	14571.35
707.209	14607.06
707.554	14525.25
707.899	14555.76
708.243	14457.91
708.588	14547.85
708.932	14470.79
709.277	14449.32
709.621	14463.79
709.966	14350.34
710.31	14401.19
710.654	14324.58
710.998	14339.72
711.342	14338.59
711.687	14246.84
712.031	14214.08
712.375	14191.03
712.719	14317.8
713.063	14218.14
713.407	14294.53
713.75	14214.98
714.094	14184.47
714.438	14160.29
714.782	14219.5
715.125	14181.53
715.469	14181.08
715.812	14117.58
716.156	14016.34
716.499	14107.19
716.843	14048.88
717.186	13996.91
717.53	14083.46
717.873	14031.48
718.216	13961.2
718.559	13960.97
718.902	13881.43
719.246	13971.6
719.589	13984.7
719.932	13942.9
720.275	13887.98
720.617	13940.86
720.96	13821.54
721.303	13815.44
721.646	13942.44
721.989	13791.71
722.331	13826.06
722.674	13797.36
723.016	13864.48
723.359	13856.57
723.701	13810.92
724.044	13700.19
724.386	13644.37
724.729	13797.59
725.071	13709.23
725.413	13791.04
725.755	13692.28
726.097	13632.62
726.439	13637.59
726.782	13627.65
727.124	13663.13
727.465	13651.6
727.807	13642.11
728.149	13517.37
728.491	13623.81
728.833	13597.59
729.175	13547.43
729.516	13532.74
729.858	13597.14
730.199	13525.51
730.541	13538.16
730.882	13475.56
731.224	13567.54
731.565	13414.1
731.906	13473.76
732.248	13457.03
732.589	13482.57
732.93	13336.81
733.271	13411.16
733.612	13435.79
733.953	13428.56
734.294	13418.84
734.635	13346.75
734.976	13385.85
735.317	13290.94
735.658	13284.38
735.999	13348.56
736.339	13301.11
736.68	13320.09
737.021	13310.6
737.361	13301.33
737.702	13346.75
738.042	13248.45
738.383	13237.6
738.723	13259.75
739.063	13185.85
739.404	13248.45
739.744	13150.6
740.084	13193.09
740.424	13094.33
740.764	13140.21
741.104	13142.92
741.444	13055.91
741.784	13075.35
742.124	13040.55
742.464	13064.73
742.804	13087.1
743.143	13042.81
743.483	12977.95
743.823	12926.43
744.162	12965.97
744.502	12970.04
744.841	12857.73
745.181	13029.25
745.52	13006.42
745.86	12946.54
746.199	12893.88
746.538	12856.82
746.877	12890.04
747.216	12823.83
747.556	12881.91
747.895	12777.95
748.234	12760.78
748.573	12702.02
748.911	12744.96
749.25	12684.62
749.589	12609.15
749.928	12686.43
750.267	12654.57
750.605	12664.06
750.944	12555.14
751.283	12543.61
751.621	12551.52
751.96	12486.66
752.298	12417.74
752.636	12439.88
752.975	12413.44
753.313	12386.33
753.651	12425.65
753.989	12394.69
754.327	12297.06
754.666	12298.42
755.004	12321.24
755.342	12321.92
755.679	12349.27
756.017	12222.94
756.355	12202.6
756.693	12203.73
757.031	12191.98
757.368	12093.45
757.706	12114.7
758.044	12054.13
758.381	12108.82
758.719	12061.82
759.056	11954.47
759.394	11988.15
759.731	11901.37
760.068	11867.24
