Data from brown_tile_FLMS001491_033.txt Node
Date: Tue Feb 07 10:37:25 GMT 2017
User: dcchb
Spectrometer: FLMS00149
Trigger mode: 0
Integration Time (sec): 2.000000E-2
Scans to average: 10
Electric dark correction enabled: true
Nonlinearity correction enabled: false
Boxcar width: 0
XAxis mode: Wavelengths
Number of Pixels in Spectrum: 2048
>>>>>Begin Spectral Data<<<<<
341.393	-13.43
341.776	-13.43
342.16	-13.43
342.543	-59.08
342.927	-50.27
343.31	-75.35
343.693	-53.43
344.077	-72.19
344.46	-36.48
344.843	-55.92
345.226	-68.35
345.61	-21.57
345.993	-26.31
346.376	0.35
346.759	19.34
347.142	24.08
347.525	32.67
347.908	54.14
348.291	79.22
348.674	86.9
349.057	112.89
349.44	154.47
349.823	149.28
350.206	152.67
350.588	178.88
350.971	191.53
351.354	217.07
351.737	226.56
352.119	223.85
352.502	241.93
352.884	274.7
353.267	273.57
353.65	286.67
354.032	274.7
354.414	291.64
354.797	300.46
355.179	299.78
355.562	303.4
355.944	307.92
356.326	311.31
356.709	310.4
357.091	328.93
357.473	331.19
357.855	349.95
358.238	311.76
358.62	345.65
359.002	318.99
359.384	330.06
359.766	316.5
360.148	326.45
360.53	324.19
360.912	330.74
361.294	317.41
361.676	327.12
362.057	321.7
362.439	304.07
362.821	318.54
363.203	321.93
363.584	310.18
363.966	319.44
364.348	288.48
364.729	323.28
365.111	294.36
365.493	326.45
365.874	306.79
366.256	308.82
366.637	300.91
367.019	298.65
367.4	323.28
367.781	307.46
368.163	300.23
368.544	300.23
368.925	304.07
369.306	309.72
369.688	300.01
370.069	305.66
370.45	303.62
370.831	293
371.212	306.79
371.593	302.94
371.974	311.08
372.355	318.08
372.736	321.25
373.117	313.11
373.498	307.46
373.879	301.36
374.26	288.48
374.641	293.23
375.021	300.23
375.402	298.2
375.783	304.53
376.163	298.42
376.544	320.12
376.925	313.11
377.305	326.9
377.686	315.83
378.066	333.68
378.447	303.85
378.827	314.7
379.208	311.98
379.588	307.92
379.968	298.42
380.349	314.02
380.729	295.49
381.109	322.38
381.489	328.25
381.87	347.69
382.25	307.24
382.63	325.99
383.01	310.18
383.39	298.88
383.77	327.35
384.15	320.34
384.53	343.39
384.91	324.19
385.29	334.36
385.67	338.42
386.049	330.51
386.429	346.78
386.809	340.23
387.189	337.75
387.568	335.71
387.948	337.97
388.328	340.23
388.707	340.46
389.087	330.06
389.466	326.67
389.846	335.94
390.225	336.84
390.605	328.71
390.984	364.64
391.363	347.46
391.743	349.95
392.122	356.5
392.501	362.6
392.881	344.98
393.26	357.41
393.639	354.24
394.018	339.33
394.397	365.99
394.776	354.92
395.155	348.37
395.534	356.95
395.913	377.97
396.292	377.29
396.671	346.78
397.05	341.81
397.429	365.32
397.808	370.06
398.186	382.26
398.565	358.76
398.944	365.32
399.323	377.07
399.701	380.23
400.08	401.25
400.458	384.98
400.837	376.61
401.215	388.14
401.594	344.75
401.972	368.03
402.351	381.59
402.729	386.33
403.107	374.35
403.486	384.52
403.864	400.34
404.242	398.08
404.62	387.24
404.999	394.69
405.377	394.02
405.755	396.05
406.133	407.35
406.511	386.56
406.889	399.66
407.267	388.37
407.645	408.7
408.023	401.92
408.401	419.55
408.779	396.05
409.156	426.56
409.534	416.16
409.912	414.35
410.29	409.38
410.667	415.94
411.045	440.12
411.422	423.84
411.8	430.4
412.178	416.61
412.555	425.43
412.933	427.46
413.31	448.93
413.687	437.86
414.065	434.01
414.442	460.45
414.819	448.48
415.197	447.35
415.574	449.15
415.951	441.47
416.328	459.55
416.705	462.26
417.082	464.97
417.46	455.26
417.837	476.95
418.214	472.43
418.591	460.45
418.967	463.84
419.344	461.81
419.721	456.84
420.098	476.27
420.475	472.66
420.852	467.46
421.228	467.46
421.605	485.54
421.982	505.42
422.358	498.65
422.735	509.04
423.111	503.16
423.488	491.41
423.864	488.02
424.241	496.39
424.617	484.86
424.994	511.98
425.37	504.29
425.746	510.4
426.123	517.18
426.499	506.78
426.875	517.63
427.251	520.11
427.627	524.86
428.003	510.62
428.379	527.12
428.756	544.52
429.132	548.81
429.507	548.81
429.883	549.72
430.259	545.42
430.635	534.58
431.011	539.55
431.387	559.89
431.763	550.85
432.138	579.55
432.514	560.34
432.89	583.16
433.265	586.1
433.641	579.09
434.016	595.37
434.392	584.07
434.767	594.01
435.143	603.28
435.518	622.03
435.894	616.83
436.269	615.25
436.644	621.13
437.02	614.8
437.395	620.22
437.77	607.34
438.145	616.16
438.52	636.49
438.895	627
439.271	641.47
439.646	657.96
440.021	650.73
440.395	657.74
440.77	663.39
441.145	636.04
441.52	664.97
441.895	652.31
442.27	683.72
442.645	684.85
443.019	685.53
443.394	708.36
443.769	666.1
444.143	688.92
444.518	701.13
444.892	703.16
445.267	690.28
445.641	710.84
446.016	701.58
446.39	695.48
446.764	717.17
447.139	691.18
447.513	722.14
447.887	709.26
448.262	705.19
448.636	714.46
449.01	726.66
449.384	722.37
449.758	724.4
450.132	740.9
450.506	755.36
450.88	733.89
451.254	762.14
451.628	756.27
452.002	785.64
452.376	742.25
452.75	767.34
453.123	761.46
453.497	773.67
453.871	790.16
454.244	805.98
454.618	787.45
454.992	793.55
455.365	810.28
455.739	807.11
456.112	832.2
456.486	845.08
456.859	850.05
457.232	848.47
457.606	858.64
457.979	837.85
458.352	878.75
458.725	874
459.099	894.34
459.472	881.23
459.845	899.76
460.218	932.98
460.591	900.22
460.964	928.92
461.337	917.62
461.71	954.23
462.083	951.51
462.456	925.75
462.829	956.94
463.201	978.63
463.574	970.05
463.947	968.69
464.32	1008.01
464.692	1034.45
465.065	1012.3
465.438	1029.48
465.81	1037.61
466.183	1045.75
466.555	1043.94
466.928	1072.87
467.3	1070.61
467.672	1077.61
468.045	1099.08
468.417	1094.34
468.789	1112.19
469.161	1148.12
469.534	1108.57
469.906	1149.93
470.278	1158.74
470.65	1163.71
471.022	1207.1
471.394	1183.6
471.766	1195.8
472.138	1217.95
472.51	1253.2
472.882	1237.61
473.253	1271.96
473.625	1265.63
473.997	1304.73
474.369	1297.04
474.74	1328.68
475.112	1326.42
475.484	1361.22
475.855	1344.72
476.227	1363.48
476.598	1421.56
476.97	1413.42
477.341	1447.32
477.713	1447.32
478.084	1480.77
478.455	1482.12
478.827	1536.13
479.198	1537.71
479.569	1524.38
479.94	1565.96
480.311	1608.45
480.682	1597.15
481.053	1644.83
481.424	1699.97
481.795	1654.32
482.166	1726.64
482.537	1723.47
482.908	1711.72
483.279	1759.85
483.65	1805.96
484.021	1833.75
484.391	1863.35
484.762	1866.29
485.133	1881.43
485.503	1925.05
485.874	1963.69
486.244	1941.09
486.615	1993.07
486.985	1995.1
487.356	2004.82
487.726	2052.95
488.097	2083.46
488.467	2107.19
488.837	2144.03
489.207	2145.61
489.578	2188.54
489.948	2210.69
490.318	2236.68
490.688	2220.41
491.058	2269.67
491.428	2306.96
491.798	2301.54
492.168	2388.99
492.538	2360.52
492.908	2426.73
493.278	2438.03
493.648	2403.68
494.017	2477.8
494.387	2489.78
494.757	2516.22
495.126	2511.7
495.496	2567.52
495.866	2546.05
496.235	2600.74
496.605	2591.7
496.974	2587.63
497.344	2648.65
497.713	2661.98
498.082	2706.5
498.452	2696.1
498.821	2703.78
499.19	2682.54
499.559	2763.44
499.928	2786.95
500.298	2789.43
500.667	2820.39
501.036	2790.79
501.405	2852.03
501.774	2814.06
502.143	2829.66
502.512	2863.33
502.88	2929.99
503.249	2931.35
503.618	2925.93
503.987	2949.88
504.356	2963.44
504.724	2998.47
505.093	2966.15
505.462	3045.24
505.83	3022.87
506.199	3058.35
506.567	3109.42
506.936	3084.79
507.304	3186.26
507.672	3168.63
508.041	3151
508.409	3209.08
508.777	3230.1
509.145	3266.03
509.514	3262.41
509.882	3271.23
510.25	3254.05
510.618	3303.77
510.986	3313.03
511.354	3362.98
511.722	3416.53
512.09	3429.42
512.458	3397.78
512.826	3442.75
513.193	3486.82
513.561	3475.97
513.929	3529.3
514.297	3567.26
514.664	3589.86
515.032	3579.02
515.4	3624.21
515.767	3621.05
516.135	3678.22
516.502	3632.57
516.869	3721.39
517.237	3751.89
517.604	3720.93
517.972	3783.76
518.339	3812.91
518.706	3826.92
519.073	3878.9
519.44	3849.29
519.808	3888.39
520.175	3915.96
520.542	3952.34
520.909	3993.02
521.276	4013.35
521.643	4042.73
522.009	4067.36
522.376	4084.77
522.743	4123.63
523.11	4138.1
523.477	4208.15
523.843	4272.78
524.21	4288.83
524.577	4315.95
524.943	4350.52
525.31	4343.29
525.676	4409.95
526.043	4475.26
526.409	4534.02
526.776	4525.66
527.142	4523.85
527.508	4586.22
527.874	4634.36
528.241	4658.76
528.607	4628.93
528.973	4688.37
529.339	4674.81
529.705	4782.6
530.071	4827.12
530.437	4827.34
530.803	4869.83
531.169	4882.26
531.535	4911.86
531.901	4911.86
532.267	4957.28
532.632	5020.11
532.998	5007.23
533.364	5095.59
533.73	5030.28
534.095	5158.18
534.461	5162.7
534.826	5167.22
535.192	5198.63
535.557	5279.99
535.923	5241.57
536.288	5276.37
536.653	5312.08
537.019	5302.59
537.384	5366.31
537.749	5376.93
538.114	5412.64
538.479	5455.35
538.845	5470.49
539.21	5456.48
539.575	5518.4
539.94	5508.91
540.305	5595.23
540.67	5609.02
541.034	5635.91
541.399	5657.15
541.764	5703.03
542.129	5723.59
542.494	5731.5
542.858	5757.94
543.223	5857.15
543.587	5869.35
543.952	5915.45
544.316	5889.01
544.681	5926.98
545.045	6007.43
545.41	6022.79
545.774	6065.96
546.138	6082.68
546.503	6069.8
546.867	6114.09
547.231	6204.03
547.595	6207.42
547.959	6246.06
548.324	6318.38
548.688	6347.98
549.052	6334.2
549.416	6418.72
549.779	6431.82
550.143	6472.5
550.507	6494.42
550.871	6595.66
551.235	6590.69
551.599	6696.22
551.962	6727.63
552.326	6744.36
552.689	6769.67
553.053	6823
553.417	6823.22
553.78	6953.62
554.143	6935.99
554.507	7041.52
554.87	7078.36
555.234	7161.52
555.597	7132.59
555.96	7171.69
556.323	7283.78
556.686	7357.9
557.05	7385.02
557.413	7390.89
557.776	7514.05
558.139	7548.63
558.502	7616.65
558.865	7712.47
559.228	7793.82
559.59	7861.62
559.953	7841.05
560.316	8001.95
560.679	8046.47
561.041	8128.05
561.404	8254.37
561.767	8192.23
562.129	8277.65
562.492	8383.41
562.854	8467.02
563.217	8466.57
563.579	8586.57
563.941	8692.78
564.304	8726.23
564.666	8806.68
565.028	8832.66
565.39	8937.52
565.753	9071.98
566.115	9104.75
566.477	9213.9
566.839	9228.59
567.201	9335.93
567.563	9409.82
567.925	9498.63
568.287	9516.71
568.648	9655.24
569.01	9735.24
569.372	9819.08
569.734	9834.44
570.095	9935.01
570.457	10011.62
570.819	10146.98
571.18	10139.75
571.542	10312.17
571.903	10332.06
572.265	10460.42
572.626	10501.32
572.987	10605.5
573.349	10686.4
573.71	10725.49
574.071	10885.04
574.432	10904.7
574.794	10965.71
575.155	11055.66
575.516	11054.75
575.877	11217.91
576.238	11276.44
576.599	11352.37
576.96	11391.92
577.32	11452.71
577.681	11644.11
578.042	11678.69
578.403	11742.42
578.763	11734.06
579.124	11772.7
579.485	11916.42
579.845	12055.4
580.206	11981.73
580.566	12059.92
580.927	12185.34
581.287	12255.4
581.648	12240.48
582.008	12331.55
582.368	12465.56
582.728	12456.75
583.089	12503.75
583.449	12621.04
583.809	12569.06
584.169	12643.41
584.529	12727.48
584.889	12864.65
585.249	12805.44
585.609	12814.71
585.969	12922.27
586.329	12983.51
586.688	13051.76
587.048	13081.59
587.408	13083.85
587.768	13115.49
588.127	13222.38
588.487	13196.16
588.846	13361.58
589.206	13314.58
589.565	13296.05
589.925	13423.95
590.284	13482.94
590.643	13544.63
591.003	13599.54
591.362	13622.14
591.721	13613.33
592.08	13643.38
592.44	13748.47
592.799	13732.42
593.158	13858.75
593.517	13822.36
593.876	13938.74
594.235	13835.92
594.593	14023.26
594.952	13999.76
595.311	14002.24
595.67	13995.92
596.029	14194.56
596.387	14143.03
596.746	14265.06
597.104	14225.52
597.463	14268.9
597.822	14288.79
598.18	14281.33
598.538	14344.83
598.897	14419.63
599.255	14256.7
599.613	14580.76
599.972	14464.61
600.33	14569.24
600.688	14532.17
601.046	14546.19
601.404	14612.17
601.762	14665.5
602.12	14726.07
602.478	14740.98
602.836	14799.51
603.194	14733.07
603.552	14824.14
603.91	14781.43
604.268	14826.4
604.625	14888.32
604.983	14893.75
605.341	14835.9
605.698	14983.69
606.056	15068.21
606.413	15043.12
606.771	15064.14
607.128	15093.52
607.485	15068.88
607.843	15147.75
608.2	15258.03
608.557	15263
608.914	15204.25
609.272	15299.39
609.629	15373.51
609.986	15495.09
610.343	15385.71
610.7	15528.31
611.057	15485.37
611.414	15465.26
611.771	15590
612.127	15602.43
612.484	15581.86
612.841	15604.69
613.198	15658.25
613.554	15667.74
613.911	15682.2
614.267	15774.63
614.624	15786.15
614.98	15796.1
615.337	15846.72
615.693	15777.57
616.05	15958.35
616.406	15949.09
616.762	15825.93
617.118	15899.82
617.475	15976.66
617.831	16055.75
618.187	15970.55
618.543	16067.95
618.899	16106.82
619.255	16075.86
619.611	16034.96
619.967	16074.05
620.323	16131
620.678	16144.34
621.034	16121.29
621.39	16149.53
621.746	16166.48
622.101	16227.05
622.457	16165.8
622.812	16228.17
623.168	16333.26
623.523	16302.75
623.879	16314.95
624.234	16348.17
624.589	16304.56
624.945	16335.97
625.3	16338.91
625.655	16362.63
626.01	16369.41
626.365	16274.28
626.72	16344.78
627.075	16331.68
627.43	16340.71
627.785	16290.32
628.14	16380.94
628.495	16397.66
628.85	16429.07
629.205	16423.42
629.559	16427.04
629.914	16408.51
630.269	16369.64
630.623	16286.7
630.978	16316.31
631.332	16325.35
631.687	16447.83
632.041	16269.3
632.396	16310.88
632.75	16273.15
633.104	16346.82
633.459	16227.05
633.813	16297.78
634.167	16266.14
634.521	16226.14
634.875	16274.05
635.229	16278.34
635.583	16166.93
635.937	16149.08
636.291	16168.06
636.645	16196.54
636.999	16127.39
637.352	16247.16
637.706	16096.43
638.06	16173.94
638.413	16178.68
638.767	16184.33
639.121	16126.48
639.474	16044
639.828	16078.12
640.181	16067.28
640.534	16169.65
640.888	15966.71
641.241	16030.44
641.594	16040.84
641.947	16007.84
642.301	15970.1
642.654	16020.95
643.007	16050.1
643.36	15924
643.713	16005.13
644.066	15992.25
644.419	15941.4
644.771	15777.57
645.124	15684.46
645.477	15628.64
645.83	15602.65
646.182	15505.71
646.535	15455.99
646.888	15518.14
647.24	15372.6
647.593	15510.91
647.945	15479.27
648.298	15322.44
648.65	15389.1
649.002	15332.15
649.355	15430.91
649.707	15462.55
650.059	15505.26
650.411	15668.19
650.763	15669.32
651.115	15885.13
651.467	15768.98
651.819	15781.63
652.171	15779.6
652.523	15785.02
652.875	15690.34
653.227	15741.41
653.578	15782.09
653.93	15822.54
654.282	15658.7
654.633	15651.92
654.985	15751.13
655.337	15747.51
655.688	15717.45
656.039	15728.75
656.391	15682.88
656.742	15756.55
657.094	15671.81
657.445	15771.46
657.796	15750.9
658.147	15600.39
658.498	15693.27
658.849	15613.73
659.2	15665.03
659.551	15712.71
659.902	15767.85
660.253	15752.93
660.604	15787.06
660.955	15641.3
661.306	15666.16
661.656	15705.02
662.007	15729.21
662.358	15689.88
662.708	15806.49
663.059	15732.14
663.409	15610.34
663.76	15806.27
664.11	15666.38
664.461	15766.94
664.811	15766.72
665.161	15678.13
665.511	15713.61
665.862	15740.96
666.212	15754.97
666.562	15848.3
666.912	15773.95
667.262	15813.72
667.612	15854.4
667.962	15847.85
668.312	15735.31
668.662	15966.49
669.011	15782.09
669.361	15796.77
669.711	15872.7
670.06	15815.76
670.41	15812.14
670.76	15803.1
671.109	15936.21
671.459	15801.75
671.808	15790.9
672.157	15843.78
672.507	15736.66
672.856	15789.32
673.205	15747.74
673.554	15862.08
673.904	15771.69
674.253	15961.06
674.602	15792.03
674.951	15684.46
675.3	15500.74
675.649	15813.04
675.998	15780.05
676.346	15802.42
676.695	15887.17
677.044	15680.84
677.393	15808.07
677.741	15720.84
678.09	15827.28
678.438	15812.82
678.787	15855.08
679.135	15861.18
679.484	15738.7
679.832	15795.42
680.181	15736.89
680.529	15788.64
680.877	15681.07
681.225	15805.36
681.573	15864.79
681.922	15784.8
682.27	15670.45
682.618	15748.19
682.966	15757.45
683.314	15750.67
683.661	15679.26
684.009	15653.5
684.357	15557.91
684.705	15567.63
685.053	15652.14
685.4	15632.94
685.748	15588.19
686.095	15607.85
686.443	15420.96
686.79	15572.82
687.138	15577.8
687.485	15520.85
687.832	15484.69
688.18	15538.7
688.527	15454.86
688.874	15437.91
689.221	15449.66
689.568	15396.33
689.915	15355.2
690.262	15424.13
690.609	15362.89
690.956	15360.63
691.303	15237.69
691.65	15227.98
691.997	15224.59
692.344	15163.8
692.69	15161.54
693.037	15207.64
693.383	15016.68
693.73	15190.46
694.077	15081.54
694.423	15027.3
694.769	15130.12
695.116	15013.29
695.462	14956.34
695.808	14997.7
696.155	15015.55
696.501	14856.23
696.847	14933.29
697.193	14851.26
697.539	14928.77
697.885	14813.3
698.231	14767.42
698.577	14863.24
698.923	14786.63
699.269	14702.57
699.614	14595.22
699.96	14693.53
700.306	14686.07
700.651	14574.66
700.997	14623.92
701.342	14514.32
701.688	14553.64
702.033	14535.79
702.379	14534.89
702.724	14462.8
703.069	14541.89
703.415	14428.9
703.76	14311.84
704.105	14448.11
704.45	14404.27
704.795	14344.61
705.14	14290.37
705.485	14310.26
705.83	14155.69
706.175	14265.29
706.52	14242.69
706.865	14167.44
707.209	14173.09
707.554	14168.12
707.899	14205.86
708.243	14120.89
708.588	13994.56
708.932	13981.91
709.277	13988.91
709.621	14142.35
709.966	13940.55
710.31	13968.35
710.654	13922.47
710.998	14003.83
711.342	13998.18
711.687	14004.73
712.031	13893.55
712.375	13820.33
712.719	13944.85
713.063	13839.09
713.407	13894.23
713.75	13817.62
714.094	13858.75
714.438	13834.57
714.782	13850.38
715.125	13774.45
715.469	13800.22
715.812	13701.01
716.156	13646.1
716.499	13699.65
716.843	13716.6
717.186	13582.82
717.53	13711.41
717.873	13635.93
718.216	13609.71
718.559	13560.67
718.902	13518.19
719.246	13587.34
719.589	13504.18
719.932	13458.3
720.275	13497.63
720.617	13494.91
720.96	13506.21
721.303	13517.06
721.646	13508.92
721.989	13363.62
722.331	13470.96
722.674	13415.37
723.016	13439.1
723.359	13345.31
723.701	13428.7
724.044	13418.53
724.386	13187.13
724.729	13453.11
725.071	13311.19
725.413	13242.72
725.755	13337.63
726.097	13279.78
726.439	13214.69
726.782	13230.51
727.124	13340.12
727.465	13260.8
727.807	13152.78
728.149	13236.84
728.491	13155.71
728.833	13223.06
729.175	13174.7
729.516	13185.32
729.858	13209.95
730.199	13143.06
730.541	13106
730.882	13087.47
731.224	13159.56
731.565	13138.76
731.906	13054.47
732.248	13164.75
732.589	13059.67
732.93	13029.16
733.271	13042.95
733.612	13005.43
733.953	13117.75
734.294	13047.24
734.635	12967.02
734.976	13040.01
735.317	12932.89
735.658	12947.13
735.999	12969.28
736.339	12921.37
736.68	12957.07
737.021	12894.7
737.361	12870.07
737.702	13007.47
738.042	12911.43
738.383	12821.71
738.723	12943.52
739.063	12853.57
739.404	12808.15
739.744	12870.75
740.084	12711.88
740.424	12778.77
740.764	12811.99
741.104	12774.71
741.444	12659
741.784	12652
742.124	12758.89
742.464	12682.05
742.804	12701.04
743.143	12593.92
743.483	12661.94
743.823	12588.72
744.162	12559.57
744.502	12564.09
744.841	12528.16
745.181	12588.72
745.52	12587.14
745.86	12545.56
746.199	12508.27
746.538	12467.82
746.877	12521.61
747.216	12475.96
747.556	12413.36
747.895	12436.64
748.234	12431.66
748.573	12362.51
748.911	12356.64
749.25	12363.87
749.589	12342.63
749.928	12297.88
750.267	12243.42
750.605	12295.17
750.944	12276.41
751.283	12200.94
751.621	12259.01
751.96	12114.61
752.298	12122.97
752.636	12216.3
752.975	12084.1
753.313	12040.49
753.651	12146.02
753.989	12018.12
754.327	12044.78
754.666	11985.35
755.004	11885.92
755.342	12038.91
755.679	11943.99
756.017	11866.48
756.355	11886.14
756.693	11814.28
757.031	11948.06
757.368	11787.16
757.706	11733.15
758.044	11772.25
758.381	11704.23
758.719	11667.39
759.056	11683.21
759.394	11641.63
759.731	11517.11
760.068	11541.97
760.405	11548.75
