Data from brown_tile_FLMS001491_047.txt Node
Date: Tue Feb 07 10:37:34 GMT 2017
User: dcchb
Spectrometer: FLMS00149
Trigger mode: 0
Integration Time (sec): 2.000000E-2
Scans to average: 10
Electric dark correction enabled: true
Nonlinearity correction enabled: false
Boxcar width: 0
XAxis mode: Wavelengths
Number of Pixels in Spectrum: 2048
>>>>>Begin Spectral Data<<<<<
341.393	-14.38
341.776	-14.38
342.16	-14.38
342.543	-66.81
342.927	-59.35
343.31	-70.42
343.693	-68.39
344.077	-48.28
344.46	-72.68
344.843	-46.24
345.226	-45.34
345.61	-28.39
345.993	-18.9
346.376	-3.98
346.759	10.03
347.142	27.88
347.525	37.37
347.908	45.96
348.291	79.63
348.674	87.31
349.057	114.43
349.44	116.01
349.823	139.52
350.206	167.54
350.588	165.96
350.971	193.98
351.354	222.68
351.737	205.28
352.119	222.23
352.502	263.35
352.884	284.82
353.267	269
353.65	281.89
354.032	290.7
354.414	289.12
354.797	285.95
355.179	301.55
355.562	303.13
355.944	282.34
356.326	304.48
356.709	313.97
357.091	289.57
357.473	344.26
357.855	305.84
358.238	328.89
358.62	333.86
359.002	324.37
359.384	322.11
359.766	323.24
360.148	326.4
360.53	341.09
360.912	348.1
361.294	328.66
361.676	321.21
362.057	327.31
362.439	328.66
362.821	307.2
363.203	315.56
363.584	309.23
363.966	310.13
364.348	316.91
364.729	308.55
365.111	323.69
365.493	309.68
365.874	297.03
366.256	291.6
366.637	302
367.019	287.08
367.4	297.48
367.781	290.25
368.163	292.73
368.544	300.42
368.925	290.7
369.306	292.96
369.688	296.12
370.069	292.96
370.45	325.05
370.831	312.84
371.212	304.71
371.593	292.05
371.974	300.64
372.355	286.4
372.736	308.78
373.117	322.11
373.498	335.9
373.879	315.56
374.26	302.68
374.641	292.96
375.021	290.7
375.402	302.45
375.783	324.14
376.163	314.2
376.544	302.68
376.925	315.78
377.305	305.16
377.686	289.12
378.066	305.84
378.447	301.09
378.827	323.24
379.208	302
379.588	306.07
379.968	312.84
380.349	313.3
380.729	328.89
381.109	319.62
381.489	325.27
381.87	318.95
382.25	334.54
382.63	315.56
383.01	348.55
383.39	333.18
383.77	335.22
384.15	317.36
384.53	321.43
384.91	329.34
385.29	334.31
385.67	325.05
386.049	340.41
386.429	325.5
386.809	330.02
387.189	319.85
387.568	326.18
387.948	331.83
388.328	344.03
388.707	323.24
389.087	337.03
389.466	340.87
389.846	342.45
390.225	339.96
390.605	364.37
390.984	329.79
391.363	346.06
391.743	340.41
392.122	348.32
392.501	360.75
392.881	353.97
393.26	348.1
393.639	362.34
394.018	357.14
394.397	339.74
394.776	356.46
395.155	352.62
395.534	365.05
395.913	377.7
396.292	360.3
396.671	347.87
397.05	373.63
397.429	363.24
397.808	359.4
398.186	363.69
398.565	347.42
398.944	364.37
399.323	371.6
399.701	384.93
400.08	382.9
400.458	382.9
400.837	390.81
401.215	372.96
401.594	378.15
401.972	379.06
402.351	382.9
402.729	384.93
403.107	386.52
403.486	388.78
403.864	400.98
404.242	380.64
404.62	385.61
404.999	391.94
405.377	376.12
405.755	395.33
406.133	405.27
406.511	390.13
406.889	370.7
407.267	398.72
407.645	413.41
408.023	399.62
408.401	405.5
408.779	406.4
409.156	417.25
409.534	419.06
409.912	410.7
410.29	414.99
410.667	443.01
411.045	424.93
411.422	428.32
411.8	420.41
412.178	399.85
412.555	412.28
412.933	411.83
413.31	441.2
413.687	431.26
414.065	450.47
414.442	441.43
414.819	434.88
415.197	439.17
415.574	455.44
415.951	444.59
416.328	464.25
416.705	456.57
417.082	450.92
417.46	473.74
417.837	503.12
418.214	460.41
418.591	456.57
418.967	457.02
419.344	459.51
419.721	455.44
420.098	465.16
420.475	483.46
420.852	489.79
421.228	490.02
421.605	477.59
421.982	479.17
422.358	481.2
422.735	498.38
423.111	511.71
423.488	488.66
423.864	497.25
424.241	513.29
424.617	505.61
424.994	488.43
425.37	508.09
425.746	495.89
426.123	513.97
426.499	505.38
426.875	518.49
427.251	511.26
427.627	528.88
428.003	534.99
428.379	517.59
428.756	551.03
429.132	537.47
429.507	560.07
429.883	559.62
430.259	539.05
430.635	537.7
431.011	539.28
431.387	556.45
431.763	578.37
432.138	611.37
432.514	584.7
432.89	577.92
433.265	590.13
433.641	596
434.016	600.52
434.392	599.62
434.767	619.73
435.143	611.59
435.518	610.24
435.894	618.83
436.269	648.43
436.644	620.63
437.02	621.09
437.395	628.54
437.77	612.5
438.145	662.67
438.52	637.13
438.895	654.3
439.271	662.21
439.646	636.68
440.021	646.85
440.395	671.03
440.77	655.66
441.145	657.69
441.52	671.71
441.895	671.71
442.27	690.24
442.645	680.74
443.019	683.68
443.394	704.02
443.769	685.49
444.143	692.95
444.518	690.01
444.892	700.18
445.267	720.52
445.641	689.78
446.016	711.03
446.39	718.26
446.764	716.9
447.139	714.87
447.513	726.39
447.887	738.14
448.262	745.15
448.636	732.04
449.01	736.34
449.384	742.66
449.758	731.59
450.132	755.55
450.506	745.38
450.88	774.75
451.254	743.79
451.628	750.12
452.002	781.76
452.376	790.8
452.75	781.99
453.123	781.31
453.497	792.83
453.871	780.4
454.244	824.92
454.618	804.13
454.992	811.36
455.365	820.63
455.739	838.93
456.112	841.64
456.486	843.9
456.859	839.16
457.232	866.5
457.606	863.11
457.979	876.45
458.352	890.68
458.725	900.4
459.099	912.83
459.472	910.34
459.845	898.82
460.218	925.48
460.591	952.38
460.964	941.3
461.337	962.77
461.71	971.58
462.083	943.56
462.456	951.7
462.829	987.18
463.201	986.05
463.574	973.84
463.947	1001.64
464.32	1031.47
464.692	1030.79
465.065	1051.13
465.438	1051.81
465.81	1050.68
466.183	1058.36
466.555	1042.54
466.928	1097.68
467.3	1073.28
467.672	1079.6
468.045	1134.29
468.417	1152.6
468.789	1128.19
469.161	1148.08
469.534	1166.38
469.906	1162.31
470.278	1166.16
470.65	1212.93
471.022	1196.66
471.394	1232.59
471.766	1247.96
472.138	1243.44
472.51	1278.02
472.882	1274.18
473.253	1317.79
473.625	1304.46
473.997	1330.22
474.369	1332.03
474.74	1354.4
475.112	1362.31
475.484	1387.62
475.855	1420.16
476.227	1410.67
476.598	1433.49
476.97	1450.67
477.341	1500.38
477.713	1498.12
478.084	1507.16
478.455	1544.45
478.827	1578.35
479.198	1570.66
479.569	1581.96
479.94	1623.32
480.311	1646.37
480.682	1673.04
481.053	1690.44
481.424	1705.58
481.795	1745.8
482.166	1755.07
482.537	1767.5
482.908	1816.76
483.279	1827.38
483.65	1845.46
484.021	1894.05
484.391	1893.37
484.762	1939.24
485.133	1907.15
485.503	1936.08
485.874	2001.84
486.244	1998.68
486.615	2028.28
486.985	2044.55
487.356	2103.76
487.726	2078.67
488.097	2155.73
488.467	2184.66
488.837	2199.12
489.207	2184.21
489.578	2247.71
489.948	2273.92
490.318	2312.34
490.688	2323.64
491.058	2327.26
491.428	2376.07
491.798	2359.12
492.168	2438.89
492.538	2447.03
492.908	2460.36
493.278	2485.44
493.648	2491.09
494.017	2490.64
494.387	2515.05
494.757	2568.15
495.126	2575.61
495.496	2613.12
495.866	2624.42
496.235	2630.98
496.605	2682.95
496.974	2690.86
497.344	2694.7
497.713	2762.72
498.082	2740.13
498.452	2780.8
498.821	2792.33
499.19	2767.47
499.559	2828.03
499.928	2812.44
500.298	2858.77
500.667	2898.54
501.036	2866.9
501.405	2898.54
501.774	2929.5
502.143	2948.26
502.512	2928.14
502.88	2958.43
503.249	3015.15
503.618	3004.3
503.987	3026.22
504.356	3054.69
504.724	3042.49
505.093	3092.88
505.462	3093.79
505.83	3144.18
506.199	3136.73
506.567	3213.33
506.936	3219.66
507.304	3226.44
507.672	3248.13
508.041	3247.23
508.409	3314.8
508.777	3331.52
509.145	3307.79
509.514	3330.17
509.882	3392.76
510.25	3382.14
510.618	3416.72
510.986	3446.77
511.354	3449.03
511.722	3513.89
512.09	3506.89
512.458	3522.93
512.826	3564.06
513.193	3561.8
513.561	3591.18
513.929	3621.68
514.297	3644.73
514.664	3668.46
515.032	3700.33
515.4	3744.85
515.767	3728.35
516.135	3764.96
516.502	3734.9
516.869	3816.26
517.237	3855.35
517.604	3893.32
517.972	3884.95
518.339	3950.04
518.706	3962.69
519.073	3956.36
519.44	4016.25
519.808	4043.37
520.175	4048.79
520.542	4065.74
520.909	4093.08
521.276	4091.5
521.643	4175.34
522.009	4173.31
522.376	4231.61
522.743	4287.43
523.11	4329.46
523.477	4318.39
523.843	4420.08
524.21	4402.68
524.577	4437.93
524.943	4501.89
525.31	4470.48
525.676	4522.23
526.043	4541.43
526.409	4630.7
526.776	4654.65
527.142	4685.16
527.508	4677.25
527.874	4743.24
528.241	4749.56
528.607	4764.93
528.973	4820.75
529.339	4881.54
529.705	4906.85
530.071	4947.53
530.437	4955.43
530.803	4994.76
531.169	5016.68
531.535	5053.96
531.901	5113.4
532.267	5122.21
532.632	5129.67
532.998	5132.15
533.364	5204.47
533.73	5210.57
534.095	5278.82
534.461	5279.27
534.826	5293.5
535.192	5366.72
535.557	5374.41
535.923	5367.63
536.288	5441.98
536.653	5502.76
537.019	5465.03
537.384	5518.58
537.749	5546.15
538.114	5615.98
538.479	5659.37
538.845	5644.91
539.21	5618.02
539.575	5685.81
539.94	5672.93
540.305	5732.14
540.67	5720.84
541.034	5813.04
541.399	5854.39
541.764	5850.33
542.129	5885.81
542.494	5943.21
542.858	5972.13
543.223	5963.54
543.587	6072.02
543.952	6047.38
544.316	6130.77
544.681	6098.46
545.045	6182.75
545.41	6220.26
545.774	6236.3
546.138	6201.96
546.503	6293.93
546.867	6306.59
547.231	6363.08
547.595	6391.1
547.959	6432.01
548.324	6430.88
548.688	6530.31
549.052	6570.31
549.416	6571.89
549.779	6610.76
550.143	6648.05
550.507	6702.96
550.871	6773.92
551.235	6816.18
551.599	6884.88
551.962	6895.04
552.326	6885.78
552.689	6984.08
553.053	7022.5
553.417	7079.67
553.78	7123.97
554.143	7106.56
554.507	7221.14
554.87	7264.75
555.234	7402.6
555.597	7379.78
555.96	7400.34
556.323	7475.14
556.686	7542.03
557.05	7603.95
557.413	7723.27
557.776	7619.32
558.139	7817.28
558.502	7776.6
558.865	7813.21
559.228	7919.88
559.59	8015.92
559.953	8050.04
560.316	8195.12
560.679	8244.16
561.041	8262.92
561.404	8438.73
561.767	8411.84
562.129	8418.85
562.492	8516.02
562.854	8619.29
563.217	8699.52
563.579	8682.34
563.941	8899.74
564.304	8874.2
564.666	9002.33
565.028	8998.94
565.39	9139.73
565.753	9284.36
566.115	9269.9
566.477	9404.13
566.839	9430.8
567.201	9499.95
567.563	9632.15
567.925	9650.9
568.287	9767.96
568.648	9808.64
569.01	9899.03
569.372	9925.25
569.734	10058.13
570.095	10095.19
570.457	10209.53
570.819	10306.71
571.18	10307.16
571.542	10450.43
571.903	10471.9
572.265	10650.88
572.626	10683.65
572.987	10722.29
573.349	10811.33
573.71	10909.63
574.071	10896.3
574.432	11000.02
574.794	11167.25
575.155	11221.48
575.516	11229.85
575.877	11367.47
576.238	11389.16
576.599	11487.01
576.96	11489.95
577.32	11628.71
577.681	11702.38
578.042	11824.86
578.403	11856.5
578.763	11929.71
579.124	11900.34
579.485	12038.64
579.845	12126.55
580.206	12158.64
580.566	12243.83
580.927	12313.43
581.287	12374
581.648	12303.49
582.008	12497.84
582.368	12469.14
582.728	12538.96
583.089	12537.83
583.449	12600.21
583.809	12654.22
584.169	12717.49
584.529	12728.79
584.889	12966.98
585.249	12906.41
585.609	12933.3
585.969	13000.87
586.329	13005.84
586.688	13162.22
587.048	13093.07
587.408	13173.98
587.768	13147.54
588.127	13239.28
588.487	13196.57
588.846	13349.56
589.206	13323.8
589.565	13374.2
589.925	13451.93
590.284	13406.06
590.643	13469.11
591.003	13569.67
591.362	13592.04
591.721	13606.51
592.08	13632.95
592.44	13681.76
592.799	13755.2
593.158	13782.32
593.517	13833.62
593.876	13857.35
594.235	13879.04
594.593	13903.22
594.952	14015.54
595.311	13948.64
595.67	14012.6
596.029	14036.1
596.387	14196.32
596.746	14137.57
597.104	14073.84
597.463	14151.58
597.822	14253.95
598.18	14248.75
598.538	14321.52
598.897	14397.22
599.255	14272.03
599.613	14500.49
599.972	14436.32
600.33	14528.74
600.688	14462.98
601.046	14549.08
601.404	14621.62
601.762	14614.39
602.12	14783.42
602.478	14806.02
602.836	14667.72
603.194	14642.86
603.552	14785.23
603.91	14731.67
604.268	14899.13
604.625	14844.21
604.983	14918.34
605.341	14885.57
605.698	15023.64
606.056	15018.45
606.413	14916.3
606.771	15127.82
607.128	15180.48
607.485	15082.63
607.843	15093.25
608.2	15189.74
608.557	15198.78
608.914	15209.85
609.272	15341.83
609.629	15317.65
609.986	15416.85
610.343	15340.7
610.7	15426.57
611.057	15474.93
611.414	15456.85
611.771	15527.59
612.127	15494.82
612.484	15498.66
612.841	15652.55
613.198	15559.9
613.554	15632.22
613.911	15704.3
614.267	15704.53
614.624	15704.76
614.98	15765.77
615.337	15775.94
615.693	15733.68
616.05	15805.54
616.406	15894.36
616.762	15879.89
617.118	15916.28
617.475	15893.45
617.831	15908.37
618.187	15932.55
618.543	15994.24
618.899	16087.57
619.255	16081.92
619.611	16047.35
619.967	16205.31
620.323	16271.97
620.678	16060.45
621.034	16061.13
621.39	16075.37
621.746	16143.62
622.101	16200.34
622.457	16222.26
622.812	16200.79
623.168	16209.83
623.523	16241.92
623.879	16228.36
624.234	16284.4
624.589	16228.58
624.945	16255.02
625.3	16245.08
625.655	16222.94
626.01	16222.94
626.365	16297.51
626.72	16290.96
627.075	16220.45
627.43	16259.77
627.785	16209.15
628.14	16257.06
628.495	16254.12
628.85	16234.23
629.205	16264.97
629.559	16316.04
629.914	16344.97
630.269	16348.58
630.623	16128.7
630.978	16199.43
631.332	16365.08
631.687	16364.85
632.041	16268.13
632.396	16362.37
632.75	16199.43
633.104	16320.11
633.459	16207.79
633.813	16136.61
634.167	16222.48
634.521	16176.61
634.875	16218.64
635.229	16168.02
635.583	16167.34
635.937	16077.4
636.291	16077.18
636.645	16074.01
636.999	16030.62
637.352	16152.88
637.706	16071.98
638.06	16031.3
638.413	15975.03
638.767	15944.07
639.121	16109.72
639.474	15956.95
639.828	15941.81
640.181	16026.78
640.534	16037.63
640.888	16005.09
641.241	15881.7
641.594	15997.86
641.947	15934.58
642.301	15953.11
642.654	15898.65
643.007	16036.05
643.36	15945.2
643.713	15964.18
644.066	15987.01
644.419	15849.39
644.771	15763.06
645.124	15644.65
645.477	15560.13
645.83	15605.78
646.182	15456.18
646.535	15443.75
646.888	15573.69
647.24	15358.78
647.593	15534.14
647.945	15427.25
648.298	15407.82
648.65	15309.96
649.002	15320.36
649.355	15375.05
649.707	15415.72
650.059	15427.48
650.411	15585.89
650.763	15575.49
651.115	15815.04
651.467	15677.41
651.819	15740.46
652.171	15636.74
652.523	15621.37
652.875	15677.19
653.227	15542.27
653.578	15613.23
653.93	15708.15
654.282	15582.73
654.633	15580.69
654.985	15674.02
655.337	15619.56
655.688	15584.76
656.039	15651.42
656.391	15507.47
656.742	15590.41
657.094	15575.95
657.445	15643.97
657.796	15576.17
658.147	15599.9
658.498	15626.57
658.849	15634.25
659.2	15574.14
659.551	15516.06
659.902	15663.63
660.253	15522.39
660.604	15610.97
660.955	15603.74
661.306	15615.49
661.656	15658.2
662.007	15634.25
662.358	15574.36
662.708	15615.27
663.059	15595.83
663.409	15529.17
663.76	15676.96
664.11	15605.1
664.461	15722.38
664.811	15645.32
665.161	15705.89
665.511	15547.47
665.862	15587.92
666.212	15660.46
666.562	15751.31
666.912	15731.2
667.262	15641.03
667.612	15601.93
667.962	15637.87
668.312	15734.36
668.662	15712.44
669.011	15688.26
669.361	15694.36
669.711	15758.99
670.06	15613.23
670.41	15685.55
670.76	15608.71
671.109	15706.79
671.459	15696.17
671.808	15641.93
672.157	15613.01
672.507	15618.66
672.856	15708.15
673.205	15690.52
673.554	15724.42
673.904	15630.18
674.253	15770.07
674.602	15628.15
674.951	15465.44
675.3	15422.73
675.649	15684.42
675.998	15681.71
676.346	15712.44
676.695	15763.51
677.044	15587.7
677.393	15635.83
677.741	15666.57
678.09	15653.23
678.438	15682.61
678.787	15673.8
679.135	15596.28
679.484	15539.79
679.832	15668.15
680.181	15571.43
680.529	15605.78
680.877	15519.9
681.225	15522.84
681.573	15701.59
681.922	15584.31
682.27	15538.21
682.618	15530.75
682.966	15510.86
683.314	15592.67
683.661	15474.71
684.009	15466.8
684.357	15455.95
684.705	15431.09
685.053	15437.64
685.4	15474.71
685.748	15323.98
686.095	15334.14
686.443	15344.77
686.79	15374.14
687.138	15484.42
687.485	15400.58
687.832	15378.21
688.18	15427.48
688.527	15296.86
688.874	15250.53
689.221	15230.87
689.568	15267.71
689.915	15228.16
690.262	15258.44
690.609	15142.96
690.956	15125.34
691.303	15187.48
691.65	15071.55
691.997	15166.01
692.344	15012.35
692.69	14999.69
693.037	15104.55
693.383	14857.55
693.73	14930.77
694.077	14888.05
694.423	14970.09
694.769	14875.85
695.116	14848.73
695.462	14834.04
695.808	14699.81
696.155	14867.72
696.501	14770.54
696.847	14736.87
697.193	14669.3
697.539	14740.71
697.885	14644.22
698.231	14574.16
698.577	14681.96
698.923	14623.88
699.269	14570.55
699.614	14443.55
699.96	14404.45
700.306	14523.54
700.651	14396.09
700.997	14422.08
701.342	14460.95
701.688	14304.34
702.033	14336.43
702.379	14412.59
702.724	14304.34
703.069	14391.12
703.415	14203.33
703.76	14233.83
704.105	14296.88
704.45	14171.92
704.795	14162.42
705.14	14106.38
705.485	14114.06
705.83	14056.89
706.175	14077
706.52	14039.94
706.865	13990.68
707.209	14086.72
707.554	13960.62
707.899	14070.68
708.243	13907.97
708.588	13919.72
708.932	13808.76
709.277	13798.14
709.621	13814.64
709.966	13844.24
710.31	13929.21
710.654	13731.25
710.998	13883.56
711.342	13818.03
711.687	13758.59
712.031	13776.67
712.375	13679.27
712.719	13764.92
713.063	13698.71
713.407	13696.67
713.75	13692.38
714.094	13605.15
714.438	13598.6
714.782	13662.32
715.125	13607.18
715.469	13627.75
715.812	13519.05
716.156	13469.79
716.499	13557.02
716.843	13521.54
717.186	13451.26
717.53	13463.91
717.873	13515.21
718.216	13444.03
718.559	13434.76
718.902	13382.78
719.246	13473.85
719.589	13400.64
719.932	13350.69
720.275	13338.49
720.617	13284.48
720.96	13261.43
721.303	13392.95
721.646	13376.46
721.989	13208.33
722.331	13323.35
722.674	13280.41
723.016	13350.92
723.359	13191.15
723.701	13258.95
724.044	13213.07
724.386	13200.42
724.729	13278.38
725.071	13260.75
725.413	13275.67
725.755	13192.05
726.097	13048.1
726.439	13027.54
726.782	13013.53
727.124	13079.29
727.465	13090.36
727.807	13103.24
728.149	13035.22
728.491	13035
728.833	13045.39
729.175	13001.1
729.516	12956.81
729.858	12951.16
730.199	13006.97
730.541	12925.17
730.882	12990.7
731.224	13036.35
731.565	12856.24
731.906	12861.89
732.248	12940.31
732.589	12919.75
732.93	12801.33
733.271	12812.4
733.612	12847.88
733.953	12829.13
734.294	12829.13
734.635	12834.55
734.976	12838.62
735.317	12692.41
735.658	12802.23
735.999	12761.11
736.339	12690.37
736.68	12765.62
737.021	12693.99
737.361	12672.52
737.702	12896.02
738.042	12707.1
738.383	12667.55
738.723	12735.12
739.063	12674.78
739.404	12666.42
739.744	12664.38
740.084	12585.29
740.424	12612.18
740.764	12540.32
741.104	12582.35
741.444	12499.87
741.784	12496.03
742.124	12525.18
742.464	12459.42
742.804	12454.67
743.143	12472.3
743.483	12430.27
743.823	12380.55
744.162	12366.31
744.502	12454.22
744.841	12364.28
745.181	12330.38
745.52	12323.83
745.86	12350.49
746.199	12297.61
746.538	12290.16
746.877	12289.25
747.216	12314.11
747.556	12240.67
747.895	12257.84
748.234	12218.75
748.573	12173.55
748.911	12269.37
749.25	12200.89
749.589	12097.17
749.928	12147.34
750.267	12102.14
750.605	12081.57
750.944	12130.16
751.283	12008.81
751.621	12041.58
751.96	11954.12
752.298	12004.29
752.636	12023.5
752.975	11918.64
753.313	11858.53
753.651	12003.16
753.989	11881.13
754.327	11779.44
754.666	11770.85
755.004	11745.54
755.342	11789.83
755.679	11708.7
756.017	11683.62
756.355	11694.92
756.693	11619.44
757.031	11636.39
757.368	11542.83
757.706	11477.52
758.044	11430.07
758.381	11502.61
758.719	11477.98
759.056	11435.49
759.394	11420.12
759.731	11290.64
760.068	11268.94
