Data from brown_tile_FLMS001491_089.txt Node
Date: Tue Feb 07 10:38:08 GMT 2017
User: dcchb
Spectrometer: FLMS00149
Trigger mode: 0
Integration Time (sec): 2.000000E-2
Scans to average: 10
Electric dark correction enabled: true
Nonlinearity correction enabled: false
Boxcar width: 0
XAxis mode: Wavelengths
Number of Pixels in Spectrum: 2048
>>>>>Begin Spectral Data<<<<<
341.393	-8.97
341.776	-8.97
342.16	-8.97
342.543	-49.65
342.927	-46.26
343.31	-72.02
343.693	-80.83
344.077	-67.05
344.46	-71.34
344.843	-45.58
345.226	-53.49
345.61	-36.09
345.993	-5.58
346.376	7.3
346.759	10.92
347.142	30.58
347.525	50.92
347.908	50.69
348.291	77.58
348.674	84.59
349.057	119.39
349.44	123.46
349.823	140.18
350.206	160.29
350.588	193.96
350.971	218.6
351.354	195.09
351.737	240.06
352.119	234.87
352.502	245.26
352.884	251.36
353.267	259.72
353.65	270.57
354.032	286.39
354.414	303.79
354.797	297.92
355.179	306.73
355.562	290.01
355.944	318.25
356.326	327.97
356.709	313.96
357.091	339.04
357.473	328.42
357.855	329.1
358.238	312.6
358.62	325.03
359.002	315.32
359.384	318.25
359.766	323.9
360.148	316.22
360.53	331.59
360.912	338.82
361.294	332.94
361.676	317.58
362.057	324.36
362.439	323.23
362.821	325.03
363.203	313.73
363.584	313.06
363.966	322.77
364.348	318.03
364.729	310.34
365.111	322.55
365.493	306.73
365.874	318.03
366.256	306.96
366.637	287.07
367.019	323.23
367.4	291.14
367.781	298.82
368.163	305.15
368.544	311.7
368.925	293.4
369.306	303.11
369.688	309.44
370.069	298.14
370.45	287.29
370.831	294.3
371.212	301.08
371.593	284.81
371.974	274.41
372.355	303.11
372.736	296.11
373.117	305.83
373.498	290.68
373.879	297.24
374.26	286.84
374.641	306.05
375.021	326.84
375.402	312.83
375.783	294.98
376.163	321.19
376.544	306.28
376.925	313.73
377.305	322.1
377.686	304.7
378.066	300.85
378.447	320.97
378.827	326.62
379.208	306.96
379.588	339.04
379.968	299.27
380.349	310.34
380.729	325.49
381.109	320.74
381.489	315.99
381.87	324.13
382.25	312.83
382.63	330.23
383.01	318.93
383.39	321.87
383.77	329.1
384.15	333.17
384.53	336.78
384.91	321.42
385.29	321.42
385.67	337.91
386.049	325.94
386.429	337.69
386.809	334.53
387.189	321.87
387.568	361.64
387.948	326.62
388.328	340.4
388.707	331.81
389.087	337.01
389.466	336.33
389.846	326.84
390.225	344.24
390.605	347.18
390.984	355.77
391.363	349.44
391.743	346.05
392.122	353.06
392.501	354.41
392.881	353.73
393.26	341.53
393.639	344.69
394.018	337.69
394.397	335.66
394.776	352.83
395.155	346.28
395.534	361.87
395.913	358.25
396.292	359.84
396.671	351.93
397.05	364.13
397.429	364.58
397.808	352.83
398.186	376.78
398.565	368.2
398.944	378.14
399.323	379.5
399.701	363
400.08	374.75
400.458	371.36
400.837	379.04
401.215	369.1
401.594	367.97
401.972	393.73
402.351	402.77
402.729	376.33
403.107	365.03
403.486	384.92
403.864	387.18
404.242	379.5
404.62	385.37
404.999	384.92
405.377	382.21
405.755	386.95
406.133	394.41
406.511	393.96
406.889	392.6
407.267	391.7
407.645	401.64
408.023	414.07
408.401	386.5
408.779	410.23
409.156	408.2
409.534	405.03
409.912	412.26
410.29	410
410.667	406.84
411.045	418.59
411.422	440.74
411.8	433.05
412.178	416.1
412.555	413.39
412.933	420.62
413.31	421.53
413.687	435.54
414.065	416.78
414.442	425.14
414.819	451.81
415.197	435.31
415.574	448.65
415.951	431.47
416.328	441.64
416.705	447.97
417.082	445.48
417.46	463.56
417.837	467.63
418.214	480.96
418.591	451.36
418.967	470.34
419.344	462.21
419.721	447.74
420.098	458.14
420.475	466.95
420.852	454.3
421.228	474.63
421.605	463.11
421.982	454.07
422.358	477.8
422.735	477.12
423.111	495.2
423.488	465.82
423.864	469.44
424.241	476.67
424.617	520.51
424.994	500.4
425.37	476.67
425.746	489.1
426.123	513.5
426.499	506.72
426.875	498.81
427.251	521.86
427.627	533.84
428.003	539.49
428.379	504.24
428.756	506.72
429.132	537.91
429.507	526.16
429.883	524.35
430.259	546.5
430.635	553.05
431.011	546.72
431.387	538.59
431.763	557.8
432.138	572.03
432.514	561.19
432.89	578.36
433.265	580.85
433.641	572.94
434.016	564.12
434.392	592.37
434.767	589.43
435.143	585.82
435.518	575.87
435.894	588.76
436.269	604.57
436.644	614.52
437.02	581.52
437.395	612.03
437.77	604.8
438.145	616.78
438.52	624.91
438.895	631.01
439.271	612.03
439.646	645.48
440.021	636.44
440.395	640.28
440.77	606.83
441.145	644.57
441.52	612.94
441.895	632.6
442.27	665.82
442.645	657.68
443.019	662.2
443.394	669.21
443.769	670.34
444.143	652.71
444.518	672.6
444.892	648.64
445.267	691.8
445.641	679.37
446.016	678.02
446.39	673.73
446.764	687.96
447.139	682.76
447.513	696.1
447.887	689.32
448.262	680.05
448.636	700.17
449.01	728.19
449.384	706.72
449.758	729.09
450.132	715.31
450.506	721.63
450.88	711.69
451.254	716.44
451.628	729.09
452.002	750.11
452.376	753.72
452.75	741.29
453.123	764.12
453.497	752.14
453.871	755.08
454.244	788.07
454.618	791.24
454.992	779.94
455.365	808.64
455.739	808.64
456.112	812.48
456.486	803.89
456.859	824.68
457.232	824.23
457.606	833.27
457.979	852.25
458.352	838.01
458.725	850.9
459.099	825.81
459.472	859.71
459.845	872.36
460.218	878.92
460.591	873.27
460.964	877.56
461.337	905.13
461.71	908.97
462.083	917.11
462.456	926.37
462.829	909.43
463.201	935.87
463.574	928.41
463.947	963.66
464.32	952.14
464.692	941.06
465.065	979.03
465.438	969.31
465.81	1002.3
466.183	999.59
466.555	998.46
466.928	1019.93
467.3	1026.03
467.672	1050.66
468.045	1075.75
468.417	1043.66
468.789	1053.83
469.161	1044.11
469.534	1113.49
469.906	1127.05
470.278	1101.06
470.65	1104
471.022	1121.62
471.394	1176.99
471.766	1171.57
472.138	1189.87
472.51	1209.76
472.882	1203.88
473.253	1225.58
473.625	1219.7
473.997	1233.48
474.369	1254.73
474.74	1278.68
475.112	1260.83
475.484	1306.7
475.855	1301.73
476.227	1322.97
476.598	1366.14
476.97	1364.33
477.341	1398.68
477.713	1397.1
478.084	1419.02
478.455	1441.61
478.827	1451.56
479.198	1492.23
479.569	1482.29
479.94	1522.74
480.311	1522.52
480.682	1576.98
481.053	1588.28
481.424	1598.45
481.795	1618.33
482.166	1635.28
482.537	1643.42
482.908	1704.88
483.279	1706.69
483.65	1692.46
484.021	1753.47
484.391	1759.12
484.762	1779.46
485.133	1817.42
485.503	1829.18
485.874	1863.98
486.244	1846.58
486.615	1911.21
486.985	1903.75
487.356	1947.36
487.726	1987.14
488.097	2007.7
488.467	2005.22
488.837	2032.11
489.207	2092.9
489.578	2065.33
489.948	2069.62
490.318	2110.52
490.688	2102.16
491.058	2146.45
491.428	2166.57
491.798	2223.74
492.168	2246.34
492.538	2266.45
492.908	2288.82
493.278	2328.6
493.648	2326.11
494.017	2341.48
494.387	2358.43
494.757	2389.16
495.126	2406.11
495.496	2421.02
495.866	2417.86
496.235	2424.64
496.605	2472.55
496.974	2507.58
497.344	2542.83
497.713	2539.44
498.082	2510.06
498.452	2558.87
498.821	2556.39
499.19	2595.48
499.559	2603.62
499.928	2614.47
500.298	2625.31
500.667	2636.16
501.036	2652.88
501.405	2702.6
501.774	2684.97
502.143	2742.15
502.512	2752.77
502.88	2748.02
503.249	2739.66
503.618	2790.96
503.987	2824.86
504.356	2849.04
504.724	2859.88
505.093	2911.63
505.462	2871.41
505.83	2893.33
506.199	2953.21
506.567	2942.37
506.936	2964.96
507.304	2984.62
507.672	2994.57
508.041	2997.51
508.409	3012.65
508.777	3061.91
509.145	3090.84
509.514	3054.23
509.882	3142.81
510.25	3123.15
510.618	3136.03
510.986	3144.39
511.354	3218.52
511.722	3246.09
512.09	3281.11
512.458	3299.64
512.826	3272.75
513.193	3285.18
513.561	3301.23
513.929	3347.55
514.297	3377.83
514.664	3387.33
515.032	3375.8
515.4	3430.04
515.767	3425.97
516.135	3454.22
516.502	3475.46
516.869	3501.22
517.237	3564.27
517.604	3546.42
517.972	3584.38
518.339	3594.1
518.706	3626.87
519.073	3625.29
519.44	3701.89
519.808	3738.28
520.175	3712.06
520.542	3798.39
520.909	3826.18
521.276	3803.59
521.643	3866.64
522.009	3819.18
522.376	3911.61
522.743	3924.94
523.11	3963.36
523.477	4023.92
523.843	4051.49
524.21	4086.74
524.577	4126.06
524.943	4159.51
525.31	4140.53
525.676	4233.86
526.043	4241.09
526.409	4212.62
526.776	4280.86
527.142	4285.16
527.508	4319.96
527.874	4349.79
528.241	4389.79
528.607	4441.08
528.973	4473.63
529.339	4451.03
529.705	4510.91
530.071	4572.15
530.437	4521.31
530.803	4627.52
531.169	4670.46
531.535	4659.38
531.901	4669.1
532.267	4678.14
532.632	4735.54
532.998	4828.64
533.364	4803.33
533.73	4835.65
534.095	4897.12
534.461	4894.41
534.826	4906.38
535.192	4921.07
535.557	5016.44
535.923	5010.11
536.288	5053.95
536.653	5073.61
537.019	5052.82
537.384	5094.63
537.749	5113.61
538.114	5140.95
538.479	5146.15
538.845	5210.1
539.21	5167.39
539.575	5199.93
539.94	5268.41
540.305	5333.94
540.67	5342.3
541.034	5363.77
541.399	5405.35
541.764	5430.89
542.129	5501.39
542.494	5534.84
542.858	5509.53
543.223	5560.83
543.587	5574.84
543.952	5594.05
544.316	5620.04
544.681	5632.92
545.045	5668.62
545.41	5740.26
545.774	5791.1
546.138	5749.3
546.503	5801.73
546.867	5804.21
547.231	5903.64
547.595	5869.97
547.959	5939.58
548.324	5980.93
548.688	5992.91
549.052	6035.39
549.416	6098.67
549.779	6123.98
550.143	6151.32
550.507	6175.28
550.871	6256.86
551.235	6290.98
551.599	6299.11
551.962	6352.67
552.326	6421.82
552.689	6464.08
553.053	6434.93
553.417	6513.12
553.78	6615.72
554.143	6639.9
554.507	6670.4
554.87	6646.9
555.234	6827.91
555.597	6791.98
555.96	6914.24
556.323	6892.32
556.686	6936.16
557.05	7030.17
557.413	7105.87
557.776	7106.55
558.139	7174.12
558.502	7245.53
558.865	7287.34
559.228	7382.7
559.59	7478.97
559.953	7556.26
560.316	7545.63
560.679	7621.79
561.041	7768.68
561.404	7798.06
561.767	7875.57
562.129	7926.19
562.492	8054.77
562.854	7984.72
563.217	8069.69
563.579	8147.88
563.941	8191.04
564.304	8337.03
564.666	8367.53
565.028	8456.35
565.39	8566.63
565.753	8626.96
566.115	8622.67
566.477	8785.6
566.839	8860.63
567.201	8939.95
567.563	8961.64
567.925	9039.61
568.287	9101.75
568.648	9146.72
569.01	9211.81
569.372	9362.08
569.734	9337.68
570.095	9518.01
570.457	9557.11
570.819	9646.82
571.18	9657.22
571.542	9873.94
571.903	9848.4
572.265	9942.41
572.626	10056.08
572.987	10103.08
573.349	10225.56
573.71	10274.83
574.071	10381.94
574.432	10431.43
574.794	10547.82
575.155	10527.48
575.516	10602.28
575.877	10668.04
576.238	10778.32
576.599	10932.21
576.96	10852.44
577.32	10993.45
577.681	11125.65
578.042	11084.98
578.403	11166.33
578.763	11253.33
579.124	11367.23
579.485	11463.05
579.845	11426.89
580.206	11457.62
580.566	11567.45
580.927	11613.32
581.287	11708.24
581.648	11712.08
582.008	11824.17
582.368	11857.39
582.728	11950.72
583.089	11977.38
583.449	11977.83
583.809	12003.14
584.169	12163.59
584.529	12104.39
584.889	12275.23
585.249	12288.34
585.609	12322.23
585.969	12343.25
586.329	12346.41
586.688	12401.1
587.048	12463.47
587.408	12462.12
587.768	12577.59
588.127	12592.06
588.487	12560.87
588.846	12632.51
589.206	12668.21
589.565	12738.04
589.925	12772.16
590.284	12773.75
590.643	12916.57
591.003	12949.11
591.362	12950.24
591.721	13021.88
592.08	13059.84
592.44	13053.96
592.799	13159.27
593.158	13166.5
593.517	13196.33
593.876	13251.7
594.235	13177.58
594.593	13265.71
594.952	13314.3
595.311	13297.12
595.67	13417.12
596.029	13465.93
596.387	13515.65
596.746	13518.36
597.104	13535.99
597.463	13539.83
597.822	13670.45
598.18	13629.54
598.538	13582.31
598.897	13715.42
599.255	13622.31
599.613	13858.92
599.972	13839.03
600.33	13859.59
600.688	13797.9
601.046	13964.22
601.404	14042.87
601.762	13969.42
602.12	14094.62
602.478	14058.01
602.836	14102.3
603.194	14108.17
603.552	14141.85
603.91	14093.26
604.268	14147.95
604.625	14202.86
604.983	14323.99
605.341	14233.37
605.698	14308.85
606.056	14429.75
606.413	14456.87
606.771	14469.75
607.128	14439.69
607.485	14451.89
607.843	14519.91
608.2	14640.82
608.557	14570.31
608.914	14604.66
609.272	14621.61
609.629	14706.12
609.986	14765.33
610.343	14739.57
610.7	14865.44
611.057	14797.2
611.414	14804.2
611.771	14888.04
612.127	14942.73
612.484	14987.93
612.841	15048.71
613.198	15000.58
613.554	15043.74
613.911	15050.3
614.267	15090.75
614.624	15207.13
614.98	15142.95
615.337	15190.41
615.693	15301.14
616.05	15223.85
616.406	15335.49
616.762	15314.92
617.118	15244.87
617.475	15298.2
617.831	15390.4
618.187	15490.96
618.543	15397.63
618.899	15501.58
619.255	15458.87
619.611	15415.48
619.967	15506.78
620.323	15521.92
620.678	15437.86
621.034	15540.68
621.39	15436.05
621.746	15534.58
622.101	15658.42
622.457	15501.58
622.812	15628.81
623.168	15622.26
623.523	15653.22
623.879	15696.16
624.234	15542.49
624.589	15662.48
624.945	15679.66
625.3	15674.69
625.655	15646.44
626.01	15654.8
626.365	15627.91
626.72	15622.03
627.075	15612.99
627.43	15612.77
627.785	15602.82
628.14	15582.03
628.495	15637.17
628.85	15588.59
629.205	15575.03
629.559	15756.27
629.914	15645.31
630.269	15575.03
630.623	15638.08
630.978	15609.38
631.332	15697.28
631.687	15669.04
632.041	15594.69
632.396	15657.06
632.75	15533.67
633.104	15591.53
633.459	15521.02
633.813	15453.45
634.167	15468.14
634.521	15483.73
634.875	15554.92
635.229	15626.78
635.583	15513.79
635.937	15476.73
636.291	15521.7
636.645	15462.26
636.999	15505.65
637.352	15444.64
637.706	15430.63
638.06	15444.41
638.413	15447.8
638.767	15446.44
639.121	15407.12
639.474	15334.81
639.828	15404.41
640.181	15424.07
640.534	15375.94
640.888	15318.31
641.241	15295.26
641.594	15350.18
641.947	15325.54
642.301	15381.36
642.654	15339.78
643.007	15359.44
643.36	15308.59
643.713	15327.35
644.066	15317.18
644.419	15293
644.771	15143.85
645.124	15046
645.477	14973.46
645.83	14954.25
646.182	14939.11
646.535	14869.06
646.888	14765.78
647.24	14722.17
647.593	14857.31
647.945	14827.7
648.298	14728.95
648.65	14789.29
649.002	14766.01
649.355	14695.96
649.707	14714.03
650.059	14745.9
650.411	15062.95
650.763	15072.44
651.115	15159.22
651.467	15111.99
651.819	15107.47
652.171	15078.09
652.523	15036.29
652.875	15119
653.227	15009.62
653.578	15144.98
653.93	15138.2
654.282	15067.92
654.633	14959.45
654.985	14985.21
655.337	15028.15
655.688	15003.29
656.039	15073.8
656.391	14999.45
656.742	15022.5
657.094	14984.31
657.445	15122.38
657.796	15031.09
658.147	15040.81
658.498	15011.88
658.849	15003.07
659.2	15112.89
659.551	15035.16
659.902	15133.68
660.253	15013.46
660.604	15069.96
660.955	14994.93
661.306	15091.2
661.656	15057.75
662.007	15105.89
662.358	15008.49
662.708	15119.22
663.059	15071.54
663.409	14997.87
663.76	14992.9
664.11	15128.26
664.461	15142.72
664.811	15205.32
665.161	15043.06
665.511	15069.73
665.862	15043.06
666.212	15148.6
666.562	15169.62
666.912	15063.63
667.262	15073.57
667.612	15046.68
667.962	15144.76
668.312	15203.51
668.662	15188.6
669.011	15169.16
669.361	15107.24
669.711	15095.72
670.06	15129.84
670.41	15103.18
670.76	15075.61
671.109	15217.3
671.459	15038.77
671.808	15047.81
672.157	15152.21
672.507	15015.95
672.856	15069.5
673.205	15052.33
673.554	15153.8
673.904	15177.07
674.253	15244.64
674.602	15081.26
674.951	14952.67
675.3	14888.04
675.649	15135.49
675.998	15093.01
676.346	15142.95
676.695	15264.53
677.044	15088.26
677.393	15146.79
677.741	15201.25
678.09	15128.49
678.438	15095.72
678.787	15087.58
679.135	15173.46
679.484	15064.99
679.832	15167.81
680.181	15017.08
680.529	15109.96
680.877	15140.69
681.225	15091.88
681.573	15201.25
681.922	15062.73
682.27	15097.98
682.618	15039.68
682.966	14993.35
683.314	15107.24
683.661	15088.94
684.009	14998.32
684.357	15009.39
684.705	14994.93
685.053	14996.74
685.4	15019.56
685.748	14913.8
686.095	14968.49
686.443	14900.92
686.79	14866.12
687.138	14907.02
687.485	14909.51
687.832	14779.12
688.18	14919.9
688.527	14838.32
688.874	14803.3
689.221	14722.62
689.568	14738.21
689.915	14780.25
690.262	14670.42
690.609	14709.29
690.956	14660.02
691.303	14685.56
691.65	14543.19
691.997	14594.94
692.344	14483.98
692.69	14594.94
693.037	14574.6
693.383	14425.91
693.73	14517.65
694.077	14458.45
694.423	14471.1
694.769	14446.47
695.116	14401.27
695.462	14316.08
695.808	14290.77
696.155	14370.31
696.501	14257.77
696.847	14315.63
697.193	14234.72
697.539	14272.92
697.885	14228.85
698.231	14173.94
698.577	14196.53
698.923	14226.59
699.269	14124.9
699.614	14118.34
699.96	14154.95
700.306	14069.31
700.651	14042.87
700.997	13954.96
701.342	13958.35
701.688	13940.72
702.033	13944.34
702.379	13919.7
702.724	13876.77
703.069	13919.48
703.415	13851.91
703.76	13781.86
704.105	13854.85
704.45	13830.44
704.795	13764.45
705.14	13750.22
705.485	13684.46
705.83	13689.65
706.175	13704.8
706.52	13705.25
706.865	13627.28
707.209	13575.08
707.554	13543.67
707.899	13621.63
708.243	13509.55
708.588	13529.21
708.932	13529.21
709.277	13484.24
709.621	13528.3
709.966	13416.22
710.31	13456.89
710.654	13343.67
710.998	13334.18
711.342	13442.2
711.687	13371.24
712.031	13279.27
712.375	13240.4
712.719	13329.89
713.063	13244.24
713.407	13308.65
713.75	13236.33
714.094	13320.17
714.438	13181.42
714.782	13335.09
715.125	13212.38
715.469	13241.3
715.812	13156.56
716.156	13182.32
716.499	13100.29
716.843	13207.63
717.186	13013.74
717.53	13120.4
717.873	13091.7
718.216	13002.67
718.559	13026.17
718.902	13048.32
719.246	12980.29
719.589	12905.95
719.932	12967.87
720.275	12951.59
720.617	12881.09
720.96	13006.51
721.303	12896.23
721.646	12978.49
721.989	12895.1
722.331	12900.07
722.674	12882.9
723.016	12955.66
723.359	12825.72
723.701	12866.62
724.044	12785.5
724.386	12762.45
724.729	12810.36
725.071	12735.55
725.413	12764.03
725.755	12726.52
726.097	12743.69
726.439	12669.34
726.782	12691.71
727.124	12803.58
727.465	12744.82
727.807	12685.84
728.149	12691.04
728.491	12693.07
728.833	12734.2
729.175	12613.52
729.516	12623.47
729.858	12733.3
730.199	12650.59
730.541	12631.38
730.882	12619.4
731.224	12663.47
731.565	12503.7
731.906	12572.62
732.248	12571.04
732.589	12519.52
732.93	12541.66
733.271	12554.77
733.612	12472.29
733.953	12533.07
734.294	12493.08
734.635	12498.27
734.976	12542.34
735.317	12404.04
735.658	12406.3
735.999	12354.55
736.339	12320.42
736.68	12411.04
737.021	12393.64
737.361	12379.63
737.702	12405.39
738.042	12357.26
738.383	12358.84
738.723	12289.92
739.063	12340.09
739.404	12326.07
739.744	12312.97
740.084	12262.57
740.424	12326.98
740.764	12245.4
741.104	12262.8
741.444	12197.04
741.784	12121.33
742.124	12218.05
742.464	12180.99
742.804	12174.44
743.143	12155.23
743.483	12133.54
743.823	12065.97
744.162	12044.05
744.502	12038.17
744.841	12089.02
745.181	12058.06
745.52	11998.4
745.86	12080.43
746.199	12024.16
746.538	11915.01
746.877	12032.3
747.216	12011.28
747.556	11918.4
747.895	11958.4
748.234	11855.58
748.573	11850.15
748.911	11810.38
749.25	11869.14
749.589	11782.59
749.928	11780.1
750.267	11850.15
750.605	11769.03
750.944	11738.29
751.283	11692.19
751.621	11664.62
751.96	11656.94
752.298	11653.32
752.636	11705.3
752.975	11581.01
753.313	11510.5
753.651	11620.33
753.989	11489.49
754.327	11487.23
754.666	11380.11
755.004	11434.8
755.342	11456.94
755.679	11416.72
756.017	11418.3
756.355	11374.69
756.693	11314.8
757.031	11392.31
757.368	11328.36
757.706	11267.8
758.044	11239.78
758.381	11207.46
758.719	11194.35
759.056	11084.3
759.394	11139.89
759.731	10978.54
760.068	11048.59
760.405	10997.52
760.743	11005.66
