Data from brown_tile_FLMS001491_038.txt Node
Date: Tue Feb 07 10:37:26 GMT 2017
User: dcchb
Spectrometer: FLMS00149
Trigger mode: 0
Integration Time (sec): 2.000000E-2
Scans to average: 10
Electric dark correction enabled: true
Nonlinearity correction enabled: false
Boxcar width: 0
XAxis mode: Wavelengths
Number of Pixels in Spectrum: 2048
>>>>>Begin Spectral Data<<<<<
341.393	-16.77
341.776	-16.77
342.16	-16.77
342.543	-75.97
342.927	-55.41
343.31	-64
343.693	-67.39
344.077	-65.13
344.46	-56.31
344.843	-46.14
345.226	-41.85
345.61	-36.65
345.993	-6.14
346.376	-22.19
346.759	17.36
347.142	27.98
347.525	41.76
347.908	55.78
348.291	72.72
348.674	82.89
349.057	107.3
349.44	131.48
349.823	131.48
350.206	145.94
350.588	192.95
350.971	171.25
351.354	208.31
351.737	218.71
352.119	233.17
352.502	241.99
352.884	274.75
353.267	256.22
353.65	282.66
354.032	270.01
354.414	297.58
354.797	300.29
355.179	293.51
355.562	334.19
355.944	314.75
356.326	300.97
356.709	308.2
357.091	299.61
357.473	339.84
357.855	345.26
358.238	314.75
358.62	333.73
359.002	322.21
359.384	314.53
359.766	324.47
360.148	332.15
360.53	317.24
360.912	323.34
361.294	301.87
361.676	324.02
362.057	332.15
362.439	325.15
362.821	304.36
363.203	309.55
363.584	320.85
363.966	292.38
364.348	305.49
364.729	300.74
365.111	313.85
365.493	290.35
365.874	286.05
366.256	289.67
366.637	304.36
367.019	301.64
367.4	307.75
367.781	320.18
368.163	291.7
368.544	309.1
368.925	277.92
369.306	281.31
369.688	304.58
370.069	312.27
370.45	307.07
370.831	295.77
371.212	285.83
371.593	276.11
371.974	294.41
372.355	275.88
372.736	279.72
373.117	288.09
373.498	301.19
373.879	310.68
374.26	324.69
374.641	298.48
375.021	287.86
375.402	288.09
375.783	295.54
376.163	309.55
376.544	306.39
376.925	310.01
377.305	312.04
377.686	322.21
378.066	305.49
378.447	323.56
378.827	315.88
379.208	317.46
379.588	313.85
379.968	329.21
380.349	293.28
380.729	334.41
381.109	314.53
381.489	303.68
381.87	324.02
382.25	315.2
382.63	304.58
383.01	319.5
383.39	305.71
383.77	327.63
384.15	326.05
384.53	324.47
384.91	330.12
385.29	322.21
385.67	330.12
386.049	328.08
386.429	351.59
386.809	320.18
387.189	350.23
387.568	327.41
387.948	334.64
388.328	312.49
388.707	341.87
389.087	325.15
389.466	324.69
389.846	338.48
390.225	355.65
390.605	342.77
390.984	355.2
391.363	355.2
391.743	351.59
392.122	349.78
392.501	324.24
392.881	347.75
393.26	341.42
393.639	345.94
394.018	344.58
394.397	350.91
394.776	337.12
395.155	347.97
395.534	364.24
395.913	361.76
396.292	363.79
396.671	361.3
397.05	358.37
397.429	376.9
397.808	366.05
398.186	344.13
398.565	351.81
398.944	353.85
399.323	383.68
399.701	356.11
400.08	357.69
400.458	385.48
400.837	395.2
401.215	378.93
401.594	353.62
401.972	375.54
402.351	365.6
402.729	382.32
403.107	367.18
403.486	375.31
403.864	390.23
404.242	384.35
404.62	379.16
404.999	369.44
405.377	405.14
405.755	396.33
406.133	401.53
406.511	401.08
406.889	389.78
407.267	390.46
407.645	392.04
408.023	413.28
408.401	398.82
408.779	415.31
409.156	392.49
409.534	399.5
409.912	410.57
410.29	428.19
410.667	407.86
411.045	433.17
411.422	424.13
411.8	409.21
412.178	412.38
412.555	392.72
412.933	434.97
413.31	423
413.687	444.24
414.065	433.39
414.442	411.7
414.819	439.72
415.197	438.59
415.574	443.56
415.951	425.71
416.328	452.38
416.705	454.41
417.082	448.53
417.46	450.12
417.837	465.71
418.214	447.63
418.591	460.96
418.967	458.48
419.344	465.48
419.721	472.71
420.098	468.65
420.475	471.36
420.852	443.11
421.228	483.11
421.605	481.53
421.982	490.79
422.358	482.43
422.735	474.97
423.111	485.37
423.488	476.1
423.864	477.91
424.241	513.84
424.617	463
424.994	482.2
425.37	498.25
425.746	493.05
426.123	519.27
426.499	510.23
426.875	516.1
427.251	517.46
427.627	523.11
428.003	520.17
428.379	530.34
428.756	544.58
429.132	544.35
429.507	541.41
429.883	521.3
430.259	563.33
430.635	553.84
431.011	573.28
431.387	545.93
431.763	573.95
432.138	557.91
432.514	554.97
432.89	583.45
433.265	575.08
433.641	592.71
434.016	571.02
434.392	584.8
434.767	597.68
435.143	602.43
435.518	603.78
435.894	616.66
436.269	616.89
436.644	613.95
437.02	631.13
437.395	616.66
437.77	641.07
438.145	639.71
438.52	620.51
438.895	627.96
439.271	641.75
439.646	662.77
440.021	669.54
440.395	658.92
440.77	662.99
441.145	644.01
441.52	677.45
441.895	674.97
442.27	681.75
442.645	667.74
443.019	670.67
443.394	657.34
443.769	705.02
444.143	677
444.518	686.04
444.892	690.79
445.267	698.7
445.641	705.7
446.016	695.53
446.39	698.7
446.764	701.63
447.139	691.92
447.513	703.44
447.887	702.09
448.262	703.22
448.636	700.96
449.01	727.4
449.384	730.56
449.758	752.03
450.132	745.93
450.506	754.51
450.88	740.5
451.254	750.45
451.628	758.81
452.002	752.25
452.376	767.85
452.75	764.46
453.123	772.59
453.497	777.34
453.871	779.82
454.244	797.9
454.618	798.58
454.992	816.66
455.365	827.51
455.739	821.4
456.112	831.57
456.486	873.16
456.859	853.04
457.232	833.38
457.606	844.46
457.979	864.12
458.352	880.84
458.725	892.14
459.099	857.11
459.472	876.32
459.845	920.84
460.218	887.17
460.591	909.09
460.964	922.19
461.337	926.03
461.71	942.31
462.083	931.46
462.456	959.48
462.829	928.29
463.201	972.81
463.574	933.94
463.947	931.23
464.32	989.31
464.692	1015.07
465.065	1027.73
465.438	1007.39
465.81	1029.76
466.183	1041.51
466.555	1064.79
466.928	1057.33
467.3	1070.44
467.672	1069.76
468.045	1105.24
468.417	1093.49
468.789	1092.58
469.161	1113.6
469.534	1119.02
469.906	1138.68
470.278	1168.06
470.65	1150.21
471.022	1183.2
471.394	1161.73
471.766	1194.73
472.138	1221.85
472.51	1202.41
472.882	1226.37
473.253	1256.2
473.625	1265.46
473.997	1287.83
474.369	1301.84
474.74	1310.21
475.112	1311.56
475.484	1337.32
475.855	1360.37
476.227	1360.83
476.598	1392.46
476.97	1421.62
477.341	1433.82
477.713	1477.66
478.084	1470.2
478.455	1491.22
478.827	1495.96
479.198	1550.43
479.569	1559.24
479.94	1577.09
480.311	1611.44
480.682	1631.55
481.053	1634.26
481.424	1633.36
481.795	1667.03
482.166	1686.24
482.537	1740.02
482.908	1744.54
483.279	1780.93
483.65	1821.6
484.021	1834.94
484.391	1833.58
484.762	1889.17
485.133	1878.55
485.503	1933.24
485.874	1923.3
486.244	1952.22
486.615	1972.79
486.985	2023.63
487.356	2036.29
487.726	2043.07
488.097	2100.02
488.467	2097.08
488.837	2147.7
489.207	2195.83
489.578	2190.86
489.948	2160.58
490.318	2249.84
490.688	2208.71
491.058	2294.36
491.428	2329.16
491.798	2316.51
492.168	2330.74
492.538	2397.86
492.908	2369.84
493.278	2405.09
493.648	2442.61
494.017	2461.59
494.387	2448.25
494.757	2504.98
495.126	2533.22
495.496	2567.57
495.866	2524.41
496.235	2573
496.605	2612.54
496.974	2583.17
497.344	2651.19
497.713	2632.88
498.082	2699.77
498.452	2688.93
498.821	2723.73
499.19	2715.82
499.559	2720.11
499.928	2804.18
500.298	2758.53
500.667	2829.26
501.036	2798.98
501.405	2821.8
501.774	2844.63
502.143	2864.97
502.512	2860.67
502.88	2902.48
503.249	2926.66
503.618	2948.13
503.987	2928.69
504.356	2991.97
504.724	2984.51
505.093	2991.52
505.462	3030.84
505.83	3008.24
506.199	3057.5
506.567	3094.79
506.936	3094.11
507.304	3130.95
507.672	3095.47
508.041	3150.16
508.409	3200.55
508.777	3221.34
509.145	3253.88
509.514	3218.4
509.882	3239.19
510.25	3257.27
510.618	3312.41
510.986	3317.38
511.354	3331.62
511.722	3385.41
512.09	3399.64
512.458	3383.15
512.826	3408
513.193	3484.61
513.561	3468.79
513.929	3513.31
514.297	3510.83
514.664	3569.36
515.032	3605.29
515.4	3616.36
515.767	3633.53
516.135	3657.26
516.502	3655.91
516.869	3716.7
517.237	3718.96
517.604	3726.19
517.972	3802.12
518.339	3808.9
518.706	3814.09
519.073	3763.47
519.44	3905.17
519.808	3906.07
520.175	3901.32
520.542	3965.96
520.909	3998.04
521.276	4011.6
521.643	4036.69
522.009	4057.25
522.376	4061.32
522.743	4168.66
523.11	4197.14
523.477	4214.76
523.843	4242.56
524.21	4247.53
524.577	4303.35
524.943	4331.6
525.31	4369.33
525.676	4391.93
526.043	4446.85
526.409	4467.18
526.776	4549.67
527.142	4537.01
527.508	4580.18
527.874	4607.97
528.241	4600.97
528.607	4644.58
528.973	4708.31
529.339	4677.8
529.705	4759.83
530.071	4818.81
530.437	4831.47
530.803	4831.02
531.169	4898.59
531.535	4847.06
531.901	4927.51
532.267	4970.9
532.632	4925.93
532.998	5058.36
533.364	5041.86
533.73	5057.45
534.095	5057.45
534.461	5142.65
534.826	5187.62
535.192	5187.39
535.557	5205.24
535.923	5253.15
536.288	5252.02
536.653	5338.8
537.019	5341.74
537.384	5313.72
537.749	5419.48
538.114	5454.05
538.479	5388.29
538.845	5429.19
539.21	5455.41
539.575	5492.47
539.94	5571.11
540.305	5563.2
540.67	5583.77
541.034	5629.41
541.399	5672.12
541.764	5716.42
542.129	5748.96
542.494	5769.75
542.858	5840.71
543.223	5787.15
543.587	5887.03
543.952	5880.48
544.316	5871.44
544.681	5930.88
545.045	5996.18
545.41	6004.55
545.774	6057.43
546.138	6024.43
546.503	6091.1
546.867	6150.53
547.231	6172
547.595	6200.7
547.959	6294.93
548.324	6293.35
548.688	6335.16
549.052	6387.13
549.416	6375.38
549.779	6437.08
550.143	6448.83
550.507	6521.37
550.871	6524.08
551.235	6587.13
551.599	6674.81
551.962	6700.35
552.326	6674.36
552.689	6727.92
553.053	6793.45
553.417	6795.49
553.78	6954.8
554.143	6965.88
554.507	7057.63
554.87	7060.11
555.234	7211.29
555.597	7194.57
555.96	7190.05
556.323	7247.9
556.686	7327.9
557.05	7430.72
557.413	7485.64
557.776	7533.09
558.139	7594.11
558.502	7606.99
558.865	7695.35
559.228	7748
559.59	7796.14
559.953	7847.43
560.316	7974.89
560.679	7984.61
561.041	8074.77
561.404	8146.64
561.767	8240.19
562.129	8300.98
562.492	8360.42
562.854	8375.33
563.217	8501.88
563.579	8569.68
563.941	8649
564.304	8717.02
564.666	8778.03
565.028	8827.52
565.39	8889.67
565.753	9009.44
566.115	9095.09
566.477	9158.81
566.839	9238.13
567.201	9334.18
567.563	9360.84
567.925	9547.5
568.287	9544.57
568.648	9613.26
569.01	9678.35
569.372	9822.98
569.734	9894.16
570.095	9963.76
570.457	9992.92
570.819	10116.3
571.18	10229.52
571.542	10288.05
571.903	10388.61
572.265	10352.23
572.626	10469.74
572.987	10582.28
573.349	10641.94
573.71	10775.27
574.071	10786.57
574.432	10902.04
574.794	11021.14
575.155	11016.17
575.516	11040.12
575.877	11143.85
576.238	11277.18
576.599	11325.99
576.96	11396.49
577.32	11444.63
577.681	11551.97
578.042	11666.77
578.403	11742.93
578.763	11890.94
579.124	11859.98
579.485	11925.52
579.845	11984.95
580.206	11936.14
580.566	12136.14
580.927	12233.53
581.287	12227.43
581.648	12284.38
582.008	12356.69
582.368	12395.79
582.728	12485.51
583.089	12489.12
583.449	12549.01
583.809	12552.17
584.169	12675.1
584.529	12743.8
584.889	12918.49
585.249	12878.49
585.609	12867.42
585.969	12937.02
586.329	13015.66
586.688	13055.43
587.048	13098.14
587.408	13092.95
587.768	13187.41
588.127	13213.85
588.487	13208.2
588.846	13298.14
589.206	13239.16
589.565	13286.84
589.925	13475.99
590.284	13457
590.643	13497.46
591.003	13600.5
591.362	13552.6
591.721	13605.25
592.08	13691.58
592.44	13728.86
592.799	13759.82
593.158	13804.79
593.517	13807.73
593.876	13816.09
594.235	13903.09
594.593	13929.99
594.952	13951.91
595.311	13995.07
595.67	14085.46
596.029	14088.17
596.387	14232.8
596.746	14222.86
597.104	14184.44
597.463	14171.79
597.822	14305.8
598.18	14249.53
598.538	14282.97
598.897	14413.36
599.255	14343.31
599.613	14609.97
599.972	14499.69
600.33	14539.69
600.688	14484.55
601.046	14555.73
601.404	14642.96
601.762	14631.21
602.12	14772.68
602.478	14761.83
602.836	14703.98
603.194	14708.95
603.552	14830.3
603.91	14769.51
604.268	14870.53
604.625	14880.92
604.983	14949.17
605.341	14936.06
605.698	15043.86
606.056	15118.66
606.413	15095.15
606.771	15179.22
607.128	15233.68
607.485	15110.29
607.843	15173.34
608.2	15169.5
608.557	15359.78
608.914	15219.44
609.272	15375.6
609.629	15327.69
609.986	15424.18
610.343	15243.85
610.7	15503.73
611.057	15502.83
611.414	15390.97
611.771	15562.03
612.127	15685.65
612.484	15593.22
612.841	15701.01
613.198	15600.9
613.554	15659.43
613.911	15729.71
614.267	15699.43
614.624	15810.84
614.98	15710.05
615.337	15879.09
615.693	15859.43
616.05	15805.64
616.406	15887.45
616.762	15904.17
617.118	15858.98
617.475	15877.05
617.831	16011.29
618.187	16075.24
618.543	15998.41
618.899	16135.58
619.255	16044.96
619.611	16090.38
619.967	16162.92
620.323	16195.92
620.678	16110.49
621.034	16099.65
621.39	16115.01
621.746	16098.29
622.101	16268.46
622.457	16189.81
622.812	16236.14
623.168	16308.91
623.523	16294.44
623.879	16311.62
624.234	16146.65
624.589	16326.31
624.945	16288.79
625.3	16306.87
625.655	16246.76
626.01	16281.79
626.365	16381.22
626.72	16400.43
627.075	16418.96
627.43	16353.65
627.785	16287.66
628.14	16376.93
628.495	16338.74
628.85	16332.64
629.205	16272.07
629.559	16359.3
629.914	16338.29
630.269	16329.7
630.623	16329.47
630.978	16327.89
631.332	16363.6
631.687	16326.76
632.041	16316.36
632.396	16370.83
632.75	16222.13
633.104	16313.88
633.459	16289.7
633.813	16184.16
634.167	16257.84
634.521	16264.84
634.875	16227.1
635.229	16234.56
635.583	16182.81
635.937	16150.49
636.291	16205.63
636.645	16218.06
636.999	16122.92
637.352	16242.92
637.706	16162.92
638.06	16182.36
638.413	16155.01
638.767	16147.33
639.121	16213.77
639.474	16042.93
639.828	16048.58
640.181	16123.38
640.534	15984.85
640.888	16088.8
641.241	15975.36
641.594	16000.44
641.947	16100.33
642.301	15947.11
642.654	16004.06
643.007	15996.15
643.36	15973.1
643.713	15942.36
644.066	15987.33
644.419	15904.62
644.771	15855.81
645.124	15663.05
645.477	15635.25
645.83	15623.28
646.182	15470.51
646.535	15465.09
646.888	15476.84
647.24	15440.46
647.593	15518.42
647.945	15487.91
648.298	15355.71
648.65	15368.14
649.002	15322.27
649.355	15523.84
649.707	15358.42
650.059	15515.71
650.411	15683.16
650.763	15624.18
651.115	15800.45
651.467	15722.26
651.819	15794.57
652.171	15692.43
652.523	15710.5
652.875	15724.97
653.227	15642.03
653.578	15767.45
653.93	15694.46
654.282	15647.23
654.633	15636.61
654.985	15666.66
655.337	15705.76
655.688	15781.46
656.039	15807.23
656.391	15650.39
656.742	15673.9
657.094	15692.2
657.445	15769.71
657.796	15688.13
658.147	15668.92
658.498	15691.75
658.849	15709.38
659.2	15659.88
659.551	15640.68
659.902	15729.26
660.253	15665.53
660.604	15723.84
660.955	15633.22
661.306	15727.91
661.656	15746.21
662.007	15660.79
662.358	15731.75
662.708	15702.82
663.059	15719.54
663.409	15676.16
663.76	15751.86
664.11	15667.12
664.461	15816.49
664.811	15748.92
665.161	15796.15
665.511	15729.04
665.862	15748.02
666.212	15891.74
666.562	15830.5
666.912	15844.96
667.262	15771.75
667.612	15845.87
667.962	15860.56
668.312	15826.89
668.662	15868.69
669.011	15885.19
669.361	15753.89
669.711	15832.76
670.06	15762.48
670.41	15774.91
670.76	15792.54
671.109	15785.76
671.459	15847
671.808	15787.57
672.157	15798.19
672.507	15733.1
672.856	15831.18
673.205	15778.3
673.554	15865.3
673.904	15740.79
674.253	15870.5
674.602	15762.03
674.951	15602.03
675.3	15569.27
675.649	15746.66
675.998	15721.13
676.346	15731.3
676.695	15790.5
677.044	15659.43
677.393	15764.74
677.741	15873.66
678.09	15785.98
678.438	15749.15
678.787	15784.18
679.135	15825.76
679.484	15651.98
679.832	15760.22
680.181	15724.29
680.529	15809.03
680.877	15727.91
681.225	15792.31
681.573	15838.19
681.922	15685.42
682.27	15737.62
682.618	15752.76
682.966	15683.84
683.314	15748.7
683.661	15715.02
684.009	15682.03
684.357	15604.07
684.705	15573.11
685.053	15627.57
685.4	15676.83
685.748	15543.5
686.095	15566.78
686.443	15527.68
686.79	15498.31
687.138	15524.97
687.485	15562.94
687.832	15527.01
688.18	15539.21
688.527	15405.43
688.874	15494.92
689.221	15480
689.568	15334.24
689.915	15369.5
690.262	15341.48
690.609	15364.75
690.956	15274.36
691.303	15381.02
691.65	15208.15
691.997	15214.92
692.344	15139.45
692.69	15179.45
693.037	15247.92
693.383	15050.64
693.73	15171.31
694.077	15077.08
694.423	15087.47
694.769	15119.33
695.116	15032.33
695.462	14985.1
695.808	14921.37
696.155	15019.45
696.501	14945.1
696.847	14897.19
697.193	14859.45
697.539	14879.34
697.885	14750.08
698.231	14813.35
698.577	14775.39
698.923	14748.72
699.269	14668.72
699.614	14661.04
699.96	14584.66
700.306	14658.78
700.651	14606.58
700.997	14506.92
701.342	14656.75
701.688	14554.15
702.033	14468.5
702.379	14455.17
702.724	14419.92
703.069	14535.39
703.415	14317.77
703.76	14287.27
704.105	14406.58
704.45	14449.97
704.795	14238.23
705.14	14249.3
705.485	14259.24
705.83	14103.99
706.175	14225.12
706.52	14210.21
706.865	14199.36
707.209	14118
707.554	14156.42
707.899	14147.38
708.243	14044.56
708.588	14124.33
708.932	14006.59
709.277	14104.45
709.621	13995.52
709.966	13934.51
710.31	14047.05
710.654	13856.77
710.998	14003.66
711.342	14015.18
711.687	13957.1
712.031	13943.32
712.375	13802.31
712.719	13816.54
713.063	13819.71
713.407	13928.18
713.75	13852.02
714.094	13849.31
714.438	13763.66
714.782	13767.28
715.125	13703.55
715.469	13741.07
715.812	13748.07
716.156	13683.21
716.499	13748.52
716.843	13737.68
717.186	13599.6
717.53	13638.7
717.873	13712.59
718.216	13633.95
718.559	13548.98
718.902	13515.31
719.246	13612.71
719.589	13505.82
719.932	13539.04
720.275	13489.32
720.617	13447.97
720.96	13438.02
721.303	13437.57
721.646	13522.54
721.989	13429.21
722.331	13402.32
722.674	13424.92
723.016	13412.49
723.359	13312.38
723.701	13419.72
724.044	13341.75
724.386	13325.26
724.729	13348.31
725.071	13315.77
725.413	13352.6
725.755	13331.13
726.097	13288.87
726.439	13170.91
726.782	13287.29
727.124	13315.99
727.465	13242.32
727.807	13332.04
728.149	13172.49
728.491	13251.36
728.833	13268.08
729.175	13167.97
729.516	13181.76
729.858	13195.54
730.199	13134.98
730.541	13109.22
730.882	13091.14
731.224	13212.94
731.565	13086.85
731.906	13172.27
732.248	13077.13
732.589	13083.23
732.93	13113.96
733.271	12968.2
733.612	13043.91
733.953	13068.09
734.294	13019.73
734.635	13046.39
734.976	13077.58
735.317	13045.04
735.658	12978.83
735.999	12998.94
736.339	12933.63
736.68	12930.69
737.021	12915.32
737.361	12901.99
737.702	12976.34
738.042	12847.3
738.383	12874.2
738.723	12830.13
739.063	12746.52
739.404	12888.88
739.744	12813.86
740.084	12734.09
740.424	12776.12
740.764	12753.07
741.104	12767.08
741.444	12642.56
741.784	12693.86
742.124	12764.59
742.464	12708.32
742.804	12678.04
743.143	12643.02
743.483	12607.54
743.823	12651.15
744.162	12502.91
744.502	12633.3
744.841	12523.47
745.181	12577.25
745.52	12532.28
745.86	12511.49
746.199	12579.29
746.538	12468.78
746.877	12529.12
747.216	12465.62
747.556	12470.36
747.895	12411.16
748.234	12414.77
748.573	12440.76
748.911	12356.92
749.25	12342.68
749.589	12362.8
749.928	12365.51
750.267	12271.73
750.605	12233.76
750.944	12336.36
751.283	12256.58
751.621	12239.64
751.96	12103.14
752.298	12219.98
752.636	12167.55
752.975	12092.07
753.313	12120.09
753.651	12128.68
753.989	12018.4
754.327	12025.86
754.666	11965.52
755.004	12018.4
755.342	12026.31
755.679	11916.25
756.017	11895.01
756.355	11847.78
756.693	11852.08
757.031	11792.87
757.368	11815.69
757.706	11823.83
758.044	11820.44
758.381	11670.84
758.719	11674
759.056	11674.23
759.394	11652.53
759.731	11594.23
760.068	11533.44
760.405	11469.26
