Data from brown_tile_FLMS001491_009.txt Node
Date: Tue Feb 07 10:37:00 GMT 2017
User: dcchb
Spectrometer: FLMS00149
Trigger mode: 0
Integration Time (sec): 2.000000E-2
Scans to average: 10
Electric dark correction enabled: true
Nonlinearity correction enabled: false
Boxcar width: 0
XAxis mode: Wavelengths
Number of Pixels in Spectrum: 2048
>>>>>Begin Spectral Data<<<<<
341.393	-5.72
341.776	-5.72
342.16	-5.72
342.543	-56.57
342.927	-61.54
343.31	-68.77
343.693	-74.19
344.077	-57.24
344.46	-64.93
344.843	-77.81
345.226	-34.42
345.61	-31.03
345.993	-0.07
346.376	2.42
346.759	5.13
347.142	20.27
347.525	45.13
347.908	50.55
348.291	100.27
348.674	102.3
349.057	82.41
349.44	115.86
349.823	121.73
350.206	160.38
350.588	189.53
350.971	203.54
351.354	215.97
351.737	219.58
352.119	255.74
352.502	254.16
352.884	269.53
353.267	239.02
353.65	264.1
354.032	274.72
354.414	287.38
354.797	294.38
355.179	299.13
355.562	303.65
355.944	314.72
356.326	316.98
356.709	300.94
357.091	315.63
357.473	324.21
357.855	304.33
358.238	343.42
358.62	349.07
359.002	351.11
359.384	334.84
359.766	352.01
360.148	335.06
360.53	315.18
360.912	325.12
361.294	330.09
361.676	322.18
362.057	332.58
362.439	298.45
362.821	313.14
363.203	322.63
363.584	310.88
363.966	314.5
364.348	309.07
364.729	309.75
365.111	311.79
365.493	296.42
365.874	302.75
366.256	305.68
366.637	319.24
367.019	289.19
367.4	300.71
367.781	307.27
368.163	302.07
368.544	298.9
368.925	296.19
369.306	291.22
369.688	302.29
370.069	301.16
370.45	314.72
370.831	308.62
371.212	312.24
371.593	301.39
371.974	282.18
372.355	303.2
372.736	300.94
373.117	321.95
373.498	281.05
373.879	296.42
374.26	302.52
374.641	301.16
375.021	288.96
375.402	309.07
375.783	314.95
376.163	329.19
376.544	329.19
376.925	324.89
377.305	314.72
377.686	327.15
378.066	326.47
378.447	313.14
378.827	330.77
379.208	334.38
379.588	301.62
379.968	324.21
380.349	298.9
380.729	325.8
381.109	334.84
381.489	333.48
381.87	336.64
382.25	328.06
382.63	334.38
383.01	327.38
383.39	340.03
383.77	338.68
384.15	358.11
384.53	334.38
384.91	335.06
385.29	342.07
385.67	309.98
386.049	357.66
386.429	342.29
386.809	349.52
387.189	368.73
387.568	352.69
387.948	362.63
388.328	354.5
388.707	367.6
389.087	352.24
389.466	351.33
389.846	341.84
390.225	343.42
390.605	359.69
390.984	360.15
391.363	354.04
391.743	342.29
392.122	339.58
392.501	351.11
392.881	362.63
393.26	373.25
393.639	351.33
394.018	363.31
394.397	364.21
394.776	366.25
395.155	362.18
395.534	350.43
395.913	349.3
396.292	365.12
396.671	363.99
397.05	375.96
397.429	377.32
397.808	384.55
398.186	401.73
398.565	395.17
398.944	375.74
399.323	396.08
399.701	383.87
400.08	382.52
400.458	381.61
400.837	406.92
401.215	375.06
401.594	382.07
401.972	396.53
402.351	381.61
402.729	393.59
403.107	417.09
403.486	386.59
403.864	399.69
404.242	395.63
404.62	415.96
404.999	403.08
405.377	408.51
405.755	419.81
406.133	401.95
406.511	420.26
406.889	424.55
407.267	428.17
407.645	431.33
408.023	424.78
408.401	411.22
408.779	432.46
409.156	436.08
409.534	441.73
409.912	450.54
410.29	448.28
410.667	464.78
411.045	438.56
411.422	441.73
411.8	442.86
412.178	432.69
412.555	450.31
412.933	461.39
413.31	441.73
413.687	481.05
414.065	467.04
414.442	467.94
414.819	480.37
415.197	476.08
415.574	472.69
415.951	458
416.328	473.82
416.705	490.09
417.082	465.68
417.46	476.75
417.837	499.58
418.214	501.16
418.591	503.42
418.967	495.74
419.344	490.99
419.721	495.06
420.098	509.52
420.475	513.81
420.852	512.91
421.228	510.2
421.605	521.5
421.982	511.1
422.358	525.34
422.735	526.02
423.111	505
423.488	538.22
423.864	525.34
424.241	526.7
424.617	537.32
424.994	525.79
425.37	542.29
425.746	545.68
426.123	535.96
426.499	559.24
426.875	555.85
427.251	575.06
427.627	551.1
428.003	555.17
428.379	558.33
428.756	574.6
429.132	611.21
429.507	574.15
429.883	593.81
430.259	610.99
430.635	621.16
431.011	607.82
431.387	608.5
431.763	616.18
432.138	605.34
432.514	618.67
432.89	648.05
433.265	664.32
433.641	651.89
434.016	666.8
434.392	649.18
434.767	656.86
435.143	646.01
435.518	680.82
435.894	658.44
436.269	678.1
436.644	689.18
437.02	701.38
437.395	693.7
437.77	705.9
438.145	715.16
438.52	707.03
438.895	722.62
439.271	737.99
439.646	729.63
440.021	700.48
440.395	723.75
440.77	716.52
441.145	730.53
441.52	726.01
441.895	727.37
442.27	747.25
442.645	738.67
443.019	760.14
443.394	760.59
443.769	744.77
444.143	750.42
444.518	793.13
444.892	772.11
445.267	777.31
445.641	793.81
446.016	789.06
446.39	769.85
446.764	786.12
447.139	787.25
447.513	816.41
447.887	798.1
448.262	813.02
448.636	804.65
449.01	801.72
449.384	823.18
449.758	829.29
450.132	825.67
450.506	831.55
450.88	835.16
451.254	853.47
451.628	835.84
452.002	846.23
452.376	862.05
452.75	860.47
453.123	875.16
453.497	878.32
453.871	859.79
454.244	900.47
454.618	890.98
454.992	907.93
455.365	920.58
455.739	941.83
456.112	940.24
456.486	946.35
456.859	942.28
457.232	951.32
457.606	960.58
457.979	976.85
458.352	997.87
458.725	997.64
459.099	977.53
459.472	1024.31
459.845	1017.08
460.218	1036.96
460.591	1027.25
460.964	1061.37
461.337	1076.06
461.71	1062.05
462.083	1082.16
462.456	1106.34
462.829	1086.91
463.201	1122.39
463.574	1102.05
463.947	1116.96
464.32	1136.4
464.692	1143.85
465.065	1166.45
465.438	1153.12
465.81	1171.2
466.183	1198.77
466.555	1223.85
466.928	1212.55
467.3	1217.75
467.672	1226.79
468.045	1246.45
468.417	1269.27
468.789	1259.78
469.161	1294.81
469.534	1278.31
469.906	1296.62
470.278	1315.15
470.65	1357.63
471.022	1335.94
471.394	1389.72
471.766	1396.28
472.138	1402.15
472.51	1433.11
472.882	1420.23
473.253	1447.35
473.625	1481.92
473.997	1526.89
474.369	1501.58
474.74	1540.45
475.112	1569.83
475.484	1566.89
475.855	1597.85
476.227	1597.18
476.598	1627.91
476.97	1649.6
477.341	1666.33
477.713	1729.15
478.084	1726.66
478.455	1743.61
478.827	1759.66
479.198	1795.59
479.569	1812.76
479.94	1848.24
480.311	1861.8
480.682	1895.02
481.053	1927.11
481.424	1992.19
481.795	1964.62
482.166	1979.09
482.537	2007.56
482.908	2083.72
483.279	2089.82
483.65	2100.89
484.021	2151.29
484.391	2178.63
484.762	2186.54
485.133	2198.97
485.503	2240.77
485.874	2295.01
486.244	2283.94
486.615	2351.51
486.985	2356.7
487.356	2374.78
487.726	2414.78
488.097	2466.31
488.467	2462.92
488.837	2515.57
489.207	2560.99
489.578	2565.06
489.948	2551.27
490.318	2603.7
490.688	2648.9
491.058	2680.76
491.428	2741.55
491.798	2708.78
492.168	2802.34
492.538	2798.73
492.908	2811.38
493.278	2839.85
493.648	2834.43
494.017	2919.17
494.387	2932.73
494.757	2923.69
495.126	2971.83
495.496	2987.87
495.866	3005.5
496.235	3045.05
496.605	3053.41
496.974	3087.31
497.344	3122.79
497.713	3065.16
498.082	3107.64
498.452	3150.81
498.821	3163.01
499.19	3204.14
499.559	3256.34
499.928	3277.36
500.298	3320.07
500.667	3317.58
501.036	3294.31
501.405	3355.77
501.774	3353.06
502.143	3376.79
502.512	3404.36
502.88	3437.35
503.249	3473.06
503.618	3440.74
503.987	3464.25
504.356	3508.99
504.724	3542.89
505.093	3572.26
505.462	3612.04
505.83	3592.6
506.199	3640.06
506.567	3657.23
506.936	3656.1
507.304	3732.03
507.672	3719.83
508.041	3760.28
508.409	3789.89
508.777	3835.53
509.145	3798.93
509.514	3852.48
509.882	3911.92
510.25	3843.67
510.618	3889.32
510.986	3898.81
511.354	3980.84
511.722	4015.87
512.09	4036.66
512.458	4019.03
512.826	4097.9
513.193	4096.09
513.561	4129.54
513.929	4134.51
514.297	4200.95
514.664	4244.34
515.032	4246.37
515.4	4273.04
515.767	4311
516.135	4331.34
516.502	4314.84
516.869	4433.71
517.237	4395.97
517.604	4442.52
517.972	4471.68
518.339	4518.68
518.706	4436.2
519.073	4562.07
519.44	4578.11
519.808	4638
520.175	4652.91
520.542	4664.89
520.909	4741.73
521.276	4717.32
521.643	4784.66
522.009	4822.85
522.376	4883.87
522.743	4862.17
523.11	4927.94
523.477	4944.66
523.843	4989.85
524.21	5026.24
524.577	5110.08
524.943	5119.57
525.31	5164.54
525.676	5246.12
526.043	5242.73
526.409	5293.12
526.776	5376.51
527.142	5407.7
527.508	5402.05
527.874	5442.72
528.241	5503.97
528.607	5503.06
528.973	5593.23
529.339	5514.59
529.705	5610.63
530.071	5679.55
530.437	5743.28
530.803	5744.19
531.169	5796.16
531.535	5770.4
531.901	5781.7
532.267	5848.59
532.632	5877.29
532.998	5933.78
533.364	5971.75
533.73	5948.7
534.095	6039.77
534.461	6041.58
534.826	6107.57
535.192	6150.28
535.557	6214.46
535.923	6216.94
536.288	6218.52
536.653	6300.1
537.019	6261.91
537.384	6309.14
537.749	6357.73
538.114	6353.66
538.479	6479.31
538.845	6454.67
539.21	6438.63
539.575	6482.92
539.94	6549.81
540.305	6604.05
540.67	6561.79
541.034	6592.52
541.399	6670.71
541.764	6687.66
542.129	6736.7
542.494	6729.47
542.858	6837.04
543.223	6821.22
543.587	6878.17
543.952	6925.85
544.316	6989.58
544.681	6979.41
545.045	7024.15
545.41	7073.87
545.774	7112.74
546.138	7148.67
546.503	7183.24
546.867	7182.79
547.231	7292.84
547.595	7339.85
547.959	7333.75
548.324	7407.64
548.688	7420.53
549.052	7520.41
549.416	7562.44
549.779	7534.87
550.143	7612.84
550.507	7689.67
550.871	7732.83
551.235	7734.87
551.599	7817.58
551.962	7835.43
552.326	7903.68
552.689	7979.83
553.053	7975.99
553.417	8055.99
553.78	8148.87
554.143	8214.63
554.507	8227.06
554.87	8297.11
555.234	8327.39
555.597	8413.49
555.96	8501.85
556.323	8487.39
556.686	8563.55
557.05	8651
557.413	8717.21
557.776	8752.69
558.139	8847.83
558.502	8935.06
558.865	8986.81
559.228	9034.27
559.59	9151.33
559.953	9228.61
560.316	9377.99
560.679	9333.47
561.041	9461.38
561.404	9544.09
561.767	9699.11
562.129	9627.7
562.492	9767.58
562.854	9820.24
563.217	9863.85
563.579	10042.38
563.941	10050.29
564.304	10141.58
564.666	10333.67
565.028	10354.46
565.39	10370.5
565.753	10444.17
566.115	10601.46
566.477	10661.8
566.839	10725.98
567.201	10871.28
567.563	10956.25
567.925	10983.14
568.287	11116.25
568.648	11156.25
569.01	11312.63
569.372	11372.96
569.734	11451.38
570.095	11578.38
570.457	11630.13
570.819	11676.91
571.18	11741.32
571.542	11858.15
571.903	12011.82
572.265	12049.1
572.626	12202.32
572.987	12235.09
573.349	12302.2
573.71	12503.33
574.071	12464.91
574.432	12572.48
574.794	12772.25
575.155	12789.65
575.516	12838.24
575.877	12948.29
576.238	12992.13
576.599	13074.16
576.96	13209.98
577.32	13270.99
577.681	13306.25
578.042	13395.28
578.403	13575.17
578.763	13646.12
579.124	13588.95
579.485	13746.69
579.845	13808.83
580.206	13880.69
580.566	13944.65
580.927	13950.3
581.287	14047.02
581.648	14062.84
582.008	14120.01
582.368	14236.84
582.728	14248.14
583.089	14307.58
583.449	14376.5
583.809	14483.84
584.169	14605.2
584.529	14523.39
584.889	14722.71
585.249	14643.16
585.609	14678.64
585.969	14718.19
586.329	14797.28
586.688	14834.34
587.048	14879.76
587.408	14934
587.768	15050.38
588.127	15032.53
588.487	15047.22
588.846	15131.73
589.206	15136.71
589.565	15129.25
589.925	15258.06
590.284	15334.22
590.643	15337.38
591.003	15468.9
591.362	15482.91
591.721	15474.1
592.08	15422.57
592.44	15555.68
592.799	15613.76
593.158	15604.04
593.517	15752.96
593.876	15721.55
594.235	15748.22
594.593	15835.67
594.952	15920.19
595.311	15855.11
595.67	15914.99
596.029	16023.91
596.387	16051.26
596.746	16165.83
597.104	16124.03
597.463	16185.04
597.822	16274.53
598.18	16260.74
598.538	16209.9
598.897	16429.1
599.255	16228.66
599.613	16548.87
599.972	16411.02
600.33	16534.64
600.688	16535.54
601.046	16533.96
601.404	16669.1
601.762	16645.14
602.12	16719.49
602.478	16793.16
602.836	16687.63
603.194	16697.12
603.552	16847.17
603.91	16751.81
604.268	16816.21
604.625	16904.8
604.983	16914.06
605.341	16950.9
605.698	17018.92
606.056	17028.41
606.413	17001.06
606.771	17130.78
607.128	17123.09
607.485	17120.84
607.843	17167.84
608.2	17218.91
608.557	17313.15
608.914	17271.79
609.272	17374.61
609.629	17376.87
609.986	17463.65
610.343	17410.32
610.7	17560.15
611.057	17469.07
611.414	17481.73
611.771	17584.1
612.127	17703.64
612.484	17624.55
612.841	17743.64
613.198	17730.54
613.554	17763.3
613.911	17804.66
614.267	17873.36
614.624	17801.27
614.98	17902.96
615.337	18012.56
615.693	17857.54
616.05	17868.39
616.406	18020.47
616.762	17908.16
617.118	17992.9
617.475	18041.94
617.831	18180.47
618.187	18135.05
618.543	18200.35
618.899	18270.64
619.255	18265.21
619.611	18250.75
619.967	18281.93
620.323	18464.08
620.678	18328.49
621.034	18248.72
621.39	18188.38
621.746	18345.21
622.101	18426.11
622.457	18293.69
622.812	18327.36
623.168	18381.82
623.523	18377.98
623.879	18390.63
624.234	18258.66
624.589	18376.85
624.945	18400.12
625.3	18513.57
625.655	18401.48
626.01	18551.53
626.365	18499.56
626.72	18510.86
627.075	18501.59
627.43	18512.21
627.785	18429.28
628.14	18452.78
628.495	18522.38
628.85	18482.83
629.205	18479.9
629.559	18491.65
629.914	18379.33
630.269	18431.54
630.623	18397.86
630.978	18319
631.332	18384.3
631.687	18521.48
632.041	18510.4
632.396	18437.18
632.75	18364.19
633.104	18430.18
633.459	18275.83
633.813	18264.31
634.167	18240.81
634.521	18323.52
634.875	18421.37
635.229	18324.87
635.583	18291.2
635.937	18224.99
636.291	18224.76
636.645	18238.32
636.999	18210.07
637.352	18250.75
637.706	18121.94
638.06	18212.33
638.413	18142.96
638.767	18120.36
639.121	18111.32
639.474	18030.87
639.828	18057.08
640.181	18153.58
640.534	18016.18
640.888	18047.59
641.241	17954.71
641.594	18030.19
641.947	18103.86
642.301	17988.38
642.654	17999.23
643.007	17994.48
643.36	17999.23
643.713	17990.64
644.066	18134.82
644.419	17956.97
644.771	17825
645.124	17703.64
645.477	17595.17
645.83	17481.05
646.182	17438.34
646.535	17430.66
646.888	17432.47
647.24	17387.95
647.593	17548.39
647.945	17389.53
648.298	17385.91
648.65	17247.39
649.002	17326.03
649.355	17300.27
649.707	17338
650.059	17506.59
650.411	17601.95
650.763	17669.52
651.115	17853.47
651.467	17727.82
651.819	17772.8
652.171	17667.94
652.523	17745.68
652.875	17742.74
653.227	17586.59
653.578	17775.28
653.93	17751.78
654.282	17697.09
654.633	17648.05
654.985	17615.06
655.337	17713.14
655.688	17750.88
656.039	17717.2
656.391	17600.37
656.742	17653.02
657.094	17578
657.445	17723.08
657.796	17653.48
658.147	17658.9
658.498	17588.85
658.849	17631.78
659.2	17586.59
659.551	17665.23
659.902	17660.26
660.253	17634.95
660.604	17622.74
660.955	17593.14
661.306	17698.67
661.656	17648.28
662.007	17637.21
662.358	17683.31
662.708	17683.31
663.059	17591.11
663.409	17531.45
663.76	17635.17
664.11	17674.27
664.461	17581.16
664.811	17673.14
665.161	17647.6
665.511	17635.17
665.862	17661.39
666.212	17765.34
666.562	17704.32
666.912	17705.68
667.262	17778.44
667.612	17738.67
667.962	17722.85
668.312	17645.57
668.662	17798.56
669.011	17742.74
669.361	17614.16
669.711	17642.18
670.06	17719.24
670.41	17708.62
670.76	17704.32
671.109	17759.91
671.459	17726.69
671.808	17708.39
672.157	17725.57
672.507	17602.63
672.856	17611.67
673.205	17771.89
673.554	17902.28
673.904	17711.78
674.253	17748.16
674.602	17735.06
674.951	17507.27
675.3	17382.07
675.649	17721.05
675.998	17763.53
676.346	17705.9
676.695	17788.39
677.044	17698.67
677.393	17660.03
677.741	17698.45
678.09	17693.48
678.438	17611.44
678.787	17644.21
679.135	17737.32
679.484	17704.32
679.832	17602.63
680.181	17596.53
680.529	17642.86
680.877	17656.64
681.225	17604.44
681.573	17690.09
681.922	17636.3
682.27	17611.67
682.618	17625.91
682.966	17574.61
683.314	17618.45
683.661	17567.83
684.009	17548.62
684.357	17514.95
684.705	17440.15
685.053	17477.21
685.4	17409.19
685.748	17497.1
686.095	17399.47
686.443	17377.55
686.79	17349.98
687.138	17504.33
687.485	17378.46
687.832	17297.78
688.18	17352.69
688.527	17265.69
688.874	17329.42
689.221	17302.75
689.568	17175.97
689.915	17148.41
690.262	17243.32
690.609	17201.06
690.956	17121.74
691.303	17151.79
691.65	17035.64
691.997	17037.22
692.344	16947.51
692.69	16977.56
693.037	16987.05
693.383	16805.36
693.73	16968.07
694.077	16822.54
694.423	16826.38
694.769	16743.44
695.116	16843.33
695.462	16750.45
695.808	16688.53
696.155	16743.22
696.501	16659.83
696.847	16582.32
697.193	16430.01
697.539	16599.49
697.885	16465.71
698.231	16446.28
698.577	16514.3
698.923	16451.25
699.269	16308.65
699.614	16278.37
699.96	16388.65
700.306	16312.95
700.651	16323.57
700.997	16233.85
701.342	16273.85
701.688	16205.15
702.033	16254.19
702.379	16158.15
702.724	16141.88
703.069	16244.93
703.415	16029.56
703.76	16056.23
704.105	16038.15
704.45	16130.13
704.795	15947.08
705.14	15868.66
705.485	15899.62
705.83	15832.28
706.175	15910.25
706.52	15785.73
706.865	15829.8
707.209	15759.52
707.554	15756.13
707.899	15826.18
708.243	15692.62
708.588	15681.55
708.932	15578.5
709.277	15596.36
709.621	15664.6
709.966	15576.02
710.31	15626.19
710.654	15529.69
710.998	15497.6
711.342	15544.61
711.687	15549.58
712.031	15517.49
712.375	15365.18
712.719	15427.32
713.063	15427.32
713.407	15394.78
713.75	15380.32
714.094	15345.06
714.438	15263.48
714.782	15252.18
715.125	15331.73
715.469	15328.79
715.812	15246.08
716.156	15193.2
716.499	15210.38
716.843	15141.68
717.186	15029.36
717.53	15152.3
717.873	15246.53
718.216	15123.83
718.559	15055.13
718.902	15018.07
719.246	15096.03
719.589	15029.14
719.932	14945.07
720.275	15003.6
720.617	14992.76
720.96	14960.67
721.303	14887.22
721.646	14936.94
721.989	14906.88
722.331	14983.26
722.674	14885.19
723.016	14885.64
723.359	14887
723.701	14894.68
724.044	14751.63
724.386	14719.09
724.729	14882.48
725.071	14756.83
725.413	14874.11
725.755	14827.11
726.097	14668.47
726.439	14698.98
726.782	14620.34
727.124	14784.4
727.465	14718.41
727.807	14679.09
728.149	14699.43
728.491	14653.78
728.833	14610.84
729.175	14607.23
729.516	14618.3
729.858	14576.04
730.199	14599.55
730.541	14658.98
730.882	14527.91
731.224	14644.06
731.565	14407.91
731.906	14514.12
732.248	14592.99
732.589	14529.94
732.93	14475.03
733.271	14461.24
733.612	14486.1
733.953	14458.98
734.294	14404.75
734.635	14443.17
734.976	14480
735.317	14349.38
735.658	14381.92
735.999	14323.17
736.339	14356.61
736.68	14497.63
737.021	14265.54
737.361	14338.54
737.702	14376.5
738.042	14354.81
738.383	14224.41
738.723	14332.89
739.063	14178.31
739.404	14346.9
739.744	14221.48
740.084	14218.76
740.424	14169.27
740.764	14129.95
741.104	14293.79
741.444	14040.46
741.784	14069.16
742.124	14095.38
742.464	14091.08
742.804	14111.87
743.143	14049.5
743.483	13990.97
743.823	13923.18
744.162	13962.05
744.502	13950.52
744.841	13972.9
745.181	13977.87
745.52	13918.43
745.86	13896.29
746.199	13821.26
746.538	13839.79
746.877	13943.97
747.216	13842.05
747.556	13755.73
747.895	13859.45
748.234	13771.09
748.573	13722.05
748.911	13675.95
749.25	13665.33
749.589	13594.15
749.928	13637.99
750.267	13666.69
750.605	13583.98
750.944	13638.21
751.283	13594.83
751.621	13598.89
751.96	13430.76
752.298	13415.62
752.636	13408.39
752.975	13404.32
753.313	13403.19
753.651	13494.04
753.989	13312.57
754.327	13367.94
754.666	13259.24
755.004	13251.56
755.342	13284.55
755.679	13159.81
756.017	13194.38
756.355	13145.35
756.693	13027.84
757.031	13044.11
757.368	13048.17
757.706	13063.54
758.044	13052.47
758.381	13021.28
758.719	12963.2
759.056	12849.31
759.394	12908.97
759.731	12831.46
