Data from brown_tile_FLMS001491_043.txt Node
Date: Tue Feb 07 10:37:33 GMT 2017
User: dcchb
Spectrometer: FLMS00149
Trigger mode: 0
Integration Time (sec): 2.000000E-2
Scans to average: 10
Electric dark correction enabled: true
Nonlinearity correction enabled: false
Boxcar width: 0
XAxis mode: Wavelengths
Number of Pixels in Spectrum: 2048
>>>>>Begin Spectral Data<<<<<
341.393	-31.68
341.776	-31.68
342.16	-31.68
342.543	-49.31
342.927	-69.65
343.31	-73.03
343.693	-62.87
344.077	-65.8
344.46	-59.25
344.843	-38.23
345.226	-48.63
345.61	-53.83
345.993	-9.08
346.376	5.61
346.759	13.52
347.142	15.55
347.525	47.41
347.908	47.19
348.291	81.09
348.674	91.93
349.057	108.43
349.44	112.05
349.823	129.9
350.206	137.36
350.588	184.36
350.971	187.98
351.354	213.96
351.737	208.54
352.119	234.08
352.502	228.88
352.884	272.27
353.267	266.39
353.65	282.89
354.032	289.67
354.414	290.8
354.797	288.76
355.179	284.24
355.562	293.96
355.944	313.4
356.326	320.63
356.709	306.39
357.091	333.73
357.473	326.05
357.855	322.44
358.238	340.74
358.62	338.93
359.002	332.15
359.384	315.66
359.766	331.93
360.148	317.46
360.53	330.8
360.912	319.95
361.294	316.33
361.676	313.4
362.057	322.44
362.439	314.3
362.821	310.91
363.203	305.94
363.584	329.89
363.966	319.95
364.348	318.37
364.729	314.3
365.111	289.89
365.493	286.96
365.874	291.48
366.256	305.26
366.637	291.25
367.019	293.96
367.4	288.99
367.781	291.25
368.163	310.23
368.544	292.15
368.925	307.07
369.306	279.05
369.688	291.7
370.069	291.25
370.45	294.41
370.831	292.15
371.212	285.37
371.593	273.17
371.974	307.52
372.355	291.48
372.736	296.67
373.117	302.55
373.498	288.54
373.879	321.53
374.26	298.93
374.641	284.7
375.021	291.25
375.402	305.26
375.783	322.21
376.163	304.13
376.544	297.35
376.925	302.32
377.305	305.94
377.686	304.13
378.066	306.39
378.447	302.77
378.827	305.49
379.208	331.25
379.588	312.27
379.968	326.28
380.349	315.88
380.729	321.98
381.109	328.08
381.489	327.18
381.87	310.68
382.25	331.25
382.63	316.33
383.01	308.42
383.39	333.06
383.77	332.6
384.15	310.91
384.53	307.97
384.91	326.5
385.29	318.14
385.67	316.79
386.049	326.73
386.429	325.82
386.809	331.25
387.189	317.24
387.568	338.48
387.948	337.12
388.328	318.14
388.707	338.48
389.087	325.6
389.466	325.37
389.846	344.36
390.225	352.04
390.605	332.6
390.984	317.24
391.363	341.19
391.743	353.39
392.122	344.36
392.501	350
392.881	359.95
393.26	345.94
393.639	360.17
394.018	340.97
394.397	335.54
394.776	360.63
395.155	348.88
395.534	357.91
395.913	352.04
396.292	364.24
396.671	371.93
397.05	363.79
397.429	374.86
397.808	360.17
398.186	378.7
398.565	367.18
398.944	363.79
399.323	381.42
399.701	371.02
400.08	367.86
400.458	403.56
400.837	387.07
401.215	375.77
401.594	355.88
401.972	374.41
402.351	359.72
402.729	380.06
403.107	394.52
403.486	400.63
403.864	406.95
404.242	388.2
404.62	389.1
404.999	376.9
405.377	384.58
405.755	360.85
406.133	401.75
406.511	391.36
406.889	378.25
407.267	413.96
407.645	406.27
408.023	402.43
408.401	405.82
408.779	410.79
409.156	396.11
409.534	383.45
409.912	414.18
410.29	419.83
410.667	422.77
411.045	410.57
411.422	439.95
411.8	422.32
412.178	426.39
412.555	427.07
412.933	416.44
413.31	428.65
413.687	438.82
414.065	428.19
414.442	438.82
414.819	409.44
415.197	444.92
415.574	447.86
415.951	463.22
416.328	436.33
416.705	453.73
417.082	460.51
417.46	462.32
417.837	459.38
418.214	459.38
418.591	441.75
418.967	472.26
419.344	467.74
419.721	466.61
420.098	480.4
420.475	479.49
420.852	470.23
421.228	473.17
421.605	475.43
421.982	500.28
422.358	482.66
422.735	483.33
423.111	473.17
423.488	497.12
423.864	500.74
424.241	501.19
424.617	497.57
424.994	506.61
425.37	522.88
425.746	494.63
426.123	504.58
426.499	505.93
426.875	516.78
427.251	518.59
427.627	519.94
428.003	534.63
428.379	533.73
428.756	536.44
429.132	516.55
429.507	528.31
429.883	553.16
430.259	539.38
430.635	547.74
431.011	564.69
431.387	558.59
431.763	559.94
432.138	590.45
432.514	582.09
432.89	563.11
433.265	557.23
433.641	588.42
434.016	571.02
434.392	606.72
434.767	610.34
435.143	571.24
435.518	622.31
435.894	589.77
436.269	630.22
436.644	626.16
437.02	641.52
437.395	590.22
437.77	617.34
438.145	637.23
438.52	651.92
438.895	643.1
439.271	645.14
439.646	643.78
440.021	675.19
440.395	650.34
440.77	665.7
441.145	647.17
441.52	670.9
441.895	667.96
442.27	644.69
442.645	668.64
443.019	696.66
443.394	663.67
443.769	696.66
444.143	666.83
444.518	701.63
444.892	683.1
445.267	685.36
445.641	729.2
446.016	724.23
446.39	702.54
446.764	716.1
447.139	709.54
447.513	727.85
447.887	715.42
448.262	708.19
448.636	726.04
449.01	720.16
449.384	748.41
449.758	740.05
450.132	774.63
450.506	741.41
450.88	740.73
451.254	756.32
451.628	780.05
452.002	789.09
452.376	777.79
452.75	780.05
453.123	785.93
453.497	802.2
453.871	778.69
454.244	811.69
454.618	813.5
454.992	801.74
455.365	811.46
455.739	841.97
456.112	849.43
456.486	849.65
456.859	814.4
457.232	848.52
457.606	861.86
457.979	869.99
458.352	905.47
458.725	899.14
459.099	895.08
459.472	879.26
459.845	904.57
460.218	917
460.591	942.08
460.964	937.79
461.337	944.57
461.71	937.33
462.083	966.71
462.456	949.09
462.829	973.94
463.201	991.57
463.574	973.27
463.947	1000.61
464.32	1033.38
464.692	1027.05
465.065	1026.37
465.438	1036.31
465.81	1048.97
466.183	1064.34
466.555	1084.67
466.928	1074.05
467.3	1070.89
467.672	1117.22
468.045	1123.09
468.417	1125.13
468.789	1098.23
469.161	1118.35
469.534	1166.03
469.906	1151.79
470.278	1188.17
470.65	1178.68
471.022	1205.8
471.394	1212.58
471.766	1241.73
472.138	1225.69
472.51	1270.66
472.882	1298.91
473.253	1277.66
473.625	1295.52
473.997	1325.8
474.369	1321.5
474.74	1338.23
475.112	1357.44
475.484	1385.91
475.855	1420.49
476.227	1398.11
476.598	1446.25
476.97	1439.02
477.341	1510.65
477.713	1512.46
478.084	1478.56
478.455	1550.88
478.827	1527.6
479.198	1574.38
479.569	1585
479.94	1615.96
480.311	1605.79
480.682	1667.94
481.053	1678.78
481.424	1712
481.795	1718.78
482.166	1758.78
482.537	1796.07
482.908	1817.99
483.279	1822.73
483.65	1857.76
484.021	1895.05
484.391	1873.81
484.762	1919.68
485.133	1956.06
485.503	1971.43
485.874	1972.56
486.244	2005.1
486.615	2032.45
486.985	2069.73
487.356	2120.13
487.726	2085.55
488.097	2133.46
488.467	2164.65
488.837	2173.69
489.207	2171.65
489.578	2251.65
489.948	2244.64
490.318	2304.53
490.688	2273.8
491.058	2311.08
491.428	2382.49
491.798	2365.32
492.168	2388.37
492.538	2440.57
492.908	2453.68
493.278	2485.32
493.648	2464.07
494.017	2512.89
494.387	2550.17
494.757	2586.1
495.126	2608.7
495.496	2588.14
495.866	2599.44
496.235	2674.69
496.605	2683.05
496.974	2669.27
497.344	2697.06
497.713	2731.86
498.082	2737.06
498.452	2718.98
498.821	2775.48
499.19	2791.3
499.559	2853.44
499.928	2838.98
500.298	2844.18
500.667	2888.7
501.036	2857.51
501.405	2901.8
501.774	2934.12
502.143	2955.81
502.512	2958.3
502.88	2983.38
503.249	2982.48
503.618	3019.09
503.987	3027
504.356	3062.48
504.724	3068.8
505.093	3121.01
505.462	3110.61
505.83	3121.68
506.199	3158.74
506.567	3225.41
506.936	3206.43
507.304	3221.57
507.672	3239.42
508.041	3256.6
508.409	3269.02
508.777	3331.4
509.145	3340.89
509.514	3344.73
509.882	3415.24
510.25	3390.38
510.618	3421.79
510.986	3382.92
511.354	3442.13
511.722	3464.5
512.09	3505.63
512.458	3534.78
512.826	3563.71
513.193	3543.37
513.561	3622.69
513.929	3611.16
514.297	3666.98
514.664	3660.43
515.032	3734.77
515.4	3715.57
515.767	3741.78
516.135	3754.89
516.502	3771.61
516.869	3815.22
517.237	3820.2
517.604	3892.96
517.972	3933.64
518.339	3927.31
518.706	3983.36
519.073	3955.79
519.44	3980.64
519.808	4037.14
520.175	4026.29
520.542	4056.8
520.909	4144.71
521.276	4115.33
521.643	4206.63
522.009	4183.35
522.376	4258.6
522.743	4233.74
523.11	4305.61
523.477	4345.38
523.843	4391.25
524.21	4380.18
524.577	4419.73
524.943	4440.74
525.31	4495.88
525.676	4589.89
526.043	4512.83
526.409	4639.84
526.776	4611.36
527.142	4658.37
527.508	4745.6
527.874	4732.04
528.241	4787.18
528.607	4753.05
528.973	4868.98
529.339	4798.93
529.705	4924.35
530.071	4935.2
530.437	4983.33
530.803	4999.15
531.169	5010.22
531.535	5037.11
531.901	5015.64
532.267	5068.3
532.632	5119.15
532.998	5169.31
533.364	5193.49
533.73	5258.35
534.095	5270.55
534.461	5316.65
534.826	5308.07
535.192	5409.98
535.557	5388.74
535.923	5383.77
536.288	5450.66
536.653	5482.53
537.019	5486.82
537.384	5508.51
537.749	5598.91
538.114	5555.74
538.479	5622.41
538.845	5628.06
539.21	5670.32
539.575	5706.02
539.94	5680.94
540.305	5746.93
540.67	5802.97
541.034	5826.25
541.399	5776.98
541.764	5853.82
542.129	5916.64
542.494	5925.9
542.858	5951.44
543.223	5986.47
543.587	6046.58
543.952	6034.83
544.316	6019.23
544.681	6133.36
545.045	6169.29
545.41	6183.75
545.774	6219.23
546.138	6251.32
546.503	6253.35
546.867	6293.8
547.231	6409.51
547.595	6463.97
547.959	6454.48
548.324	6478.66
548.688	6480.01
549.052	6532.89
549.416	6570.86
549.779	6616.51
550.143	6669.61
550.507	6747.58
550.871	6730.63
551.235	6800.91
551.599	6807.46
551.962	6914.35
552.326	6915.71
552.689	6981.02
553.053	6977.63
553.417	7049.72
553.78	7158.19
554.143	7172.42
554.507	7201.12
554.87	7283.83
555.234	7334.91
555.597	7385.53
555.96	7414.23
556.323	7525.64
556.686	7528.57
557.05	7586.42
557.413	7620.55
557.776	7736.7
558.139	7787.55
558.502	7780.09
558.865	7881.11
559.228	7958.84
559.59	8016.24
559.953	8030.71
560.316	8130.37
560.679	8172.4
561.041	8304.37
561.404	8401.32
561.767	8514.08
562.129	8503.24
562.492	8605.83
562.854	8578.26
563.217	8672.95
563.579	8751.82
563.941	8832.49
564.304	8945.71
564.666	8995.65
565.028	9024.81
565.39	9126.95
565.753	9233.84
566.115	9274.74
566.477	9386.38
566.839	9429.99
567.201	9564
567.563	9554.73
567.925	9626.37
568.287	9794.73
568.648	9756.76
569.01	9888.29
569.372	9948.85
569.734	10087.83
570.095	10081.5
570.457	10179.35
570.819	10260.93
571.18	10290.08
571.542	10376.63
571.903	10522.39
572.265	10580.7
572.626	10676.06
572.987	10723.52
573.349	10812.33
573.71	10929.84
574.071	10956.96
574.432	11084.86
574.794	11206.44
575.155	11205.54
575.516	11231.53
575.877	11325.54
576.238	11390.17
576.599	11510.16
576.96	11606.21
577.32	11585.64
577.681	11699.76
578.042	11711.97
578.403	11828.8
578.763	11928.23
579.124	11914.9
579.485	12015.23
579.845	12085.74
580.206	12072.41
580.566	12133.65
580.927	12262.23
581.287	12265.17
581.648	12390.37
582.008	12468.56
582.368	12457.03
582.728	12510.82
583.089	12591.26
583.449	12581.55
583.809	12688.21
584.169	12724.37
584.529	12724.37
584.889	12908.54
585.249	12895.66
585.609	12834.2
585.969	12961.88
586.329	13006.62
586.688	13007.75
587.048	13123.68
587.408	13139.73
587.768	13099.95
588.127	13131.59
588.487	13203.23
588.846	13388.76
589.206	13318.7
589.565	13333.39
589.925	13417.23
590.284	13388.31
590.643	13545.59
591.003	13525.7
591.362	13617
591.721	13565.48
592.08	13616.1
592.44	13692.25
592.799	13800.05
593.158	13721.18
593.517	13771.8
593.876	13916.43
594.235	13872.36
594.593	13827.84
594.952	13948.52
595.311	13969.53
595.67	13970.21
596.029	14092.47
596.387	14175.63
596.746	14160.94
597.104	14176.76
597.463	14209.75
597.822	14346.25
598.18	14312.35
598.538	14252.92
598.897	14413.59
599.255	14333.14
599.613	14548.28
599.972	14447.94
600.33	14526.81
600.688	14457.88
601.046	14555.73
601.404	14644.09
601.762	14605.9
602.12	14750.98
602.478	14732.23
602.836	14685.67
603.194	14702.85
603.552	14812.22
603.91	14740.59
604.268	14791.43
604.625	14896.29
604.983	14956.17
605.341	14920.92
605.698	14988.94
606.056	15086.11
606.413	15038.88
606.771	15062.16
607.128	15048.15
607.485	15181.71
607.843	15141.25
608.2	15207.92
608.557	15248.37
608.914	15226
609.272	15299.22
609.629	15298.31
609.986	15429.61
610.343	15272.32
610.7	15501.24
611.057	15394.58
611.414	15505.99
611.771	15554.12
612.127	15551.64
612.484	15502.37
612.841	15655.14
613.198	15574.01
613.554	15591.86
613.911	15673.44
614.267	15665.08
614.624	15712.99
614.98	15740.11
615.337	15846.77
615.693	15866.66
616.05	15810.39
616.406	15949.14
616.762	15889.48
617.118	15919.54
617.475	15886.77
617.831	15947.79
618.187	15843.83
618.543	15939.43
618.899	16000.67
619.255	16108.91
619.611	15998.18
619.967	16176.03
620.323	16206.54
620.678	16143.04
621.034	15992.98
621.39	16021.23
621.746	16049.93
622.101	16251.96
622.457	16141
622.812	16228.01
623.168	16182.13
623.523	16214.67
623.879	16296.25
624.234	16221.23
624.589	16212.19
624.945	16285.86
625.3	16272.52
625.655	16353.43
626.01	16265.97
626.365	16251.51
626.72	16263.48
627.075	16247.44
627.43	16265.74
627.785	16300.09
628.14	16285.18
628.495	16304.84
628.85	16277.95
629.205	16274.78
629.559	16281.11
629.914	16271.17
630.269	16367.44
630.623	16237.27
630.978	16247.89
631.332	16258.06
631.687	16273.43
632.041	16230.72
632.396	16277.72
632.75	16218.74
633.104	16268.23
633.459	16196.82
633.813	16262.58
634.167	16188.68
634.521	16157.72
634.875	16194.33
635.229	16181
635.583	16080.89
635.937	16112.3
636.291	16125.86
636.645	16107.56
636.999	15995.02
637.352	16204.05
637.706	15943.04
638.06	16053.32
638.413	16093.09
638.767	16023.72
639.121	16030.27
639.474	15961.57
639.828	15954.34
640.181	16044.06
640.534	16002.7
640.888	15938.97
641.241	15958.86
641.594	15988.24
641.947	15956.15
642.301	15891.74
642.654	15938.97
643.007	16018.07
643.36	15813.78
643.713	15898.97
644.066	16031.63
644.419	15881.57
644.771	15728.58
645.124	15681.81
645.477	15625.76
645.83	15571.98
646.182	15470.06
646.535	15478.65
646.888	15454.01
647.24	15313
647.593	15536.05
647.945	15426.22
648.298	15342.38
648.65	15352.32
649.002	15328.14
649.355	15341.02
649.707	15383.51
650.059	15351.19
650.411	15566.55
650.763	15549.38
651.115	15790.95
651.467	15698.75
651.819	15649.72
652.171	15711.18
652.523	15644.29
652.875	15694.01
653.227	15609.04
653.578	15682.94
653.93	15644.07
654.282	15596.16
654.633	15632.54
654.985	15606.55
655.337	15548.48
655.688	15576.27
656.039	15652.88
656.391	15540.57
656.742	15603.16
657.094	15476.16
657.445	15609.49
657.796	15578.31
658.147	15558.42
658.498	15532.66
658.849	15641.58
659.2	15612.43
659.551	15515.03
659.902	15707.79
660.253	15593.9
660.604	15691.3
660.955	15521.81
661.306	15669.38
661.656	15654.91
662.007	15648.59
662.358	15639.55
662.708	15673.67
663.059	15631.86
663.409	15505.76
663.76	15621.92
664.11	15620.11
664.461	15736.72
664.811	15670.05
665.161	15662.6
665.511	15629.83
665.862	15661.92
666.212	15661.92
666.562	15708.47
666.912	15614.24
667.262	15619.89
667.612	15729.49
667.962	15698.53
668.312	15696.72
668.662	15710.5
669.011	15617.63
669.361	15626.44
669.711	15643.61
670.06	15677.29
670.41	15654.91
670.76	15536.27
671.109	15675.93
671.459	15646.33
671.808	15692.2
672.157	15783.95
672.507	15570.4
672.856	15673.22
673.205	15541.47
673.554	15703.95
673.904	15564.52
674.253	15717.96
674.602	15681.58
674.951	15456.73
675.3	15369.27
675.649	15707.79
675.998	15608.59
676.346	15678.64
676.695	15724.29
677.044	15640.45
677.393	15684.07
677.741	15618.98
678.09	15666.89
678.438	15631.41
678.787	15674.12
679.135	15685.87
679.484	15581.92
679.832	15597.74
680.181	15545.76
680.529	15604.52
680.877	15617.4
681.225	15649.49
681.573	15651.3
681.922	15559.55
682.27	15546.44
682.618	15576.72
682.966	15440.23
683.314	15613.11
683.661	15467.57
684.009	15425.31
684.357	15396.84
684.705	15385.99
685.053	15470.74
685.4	15468.03
685.748	15371.08
686.095	15437.52
686.443	15406.56
686.79	15375.37
687.138	15375.6
687.485	15369.5
687.832	15340.12
688.18	15348.71
688.527	15369.72
688.874	15244.08
689.221	15263.96
689.568	15245.66
689.915	15241.59
690.262	15290.4
690.609	15189.61
690.956	15138.32
691.303	15161.37
691.65	15119.56
691.997	15127.47
692.344	14981.03
692.69	15008.15
693.037	15096.74
693.383	14969.96
693.73	14982.39
694.077	14960.02
694.423	14917.31
694.769	14900.81
695.116	14812.22
695.462	14858.32
695.808	14827.36
696.155	14830.08
696.501	14714.37
696.847	14807.03
697.193	14652
697.539	14656.97
697.885	14596.41
698.231	14609.29
698.577	14619.91
698.923	14565.68
699.269	14586.69
699.614	14489.52
699.96	14505.79
700.306	14523.64
700.651	14447.49
700.997	14407.49
701.342	14361.16
701.688	14439.58
702.033	14366.81
702.379	14340.15
702.724	14290.2
703.069	14290.43
703.415	14221.28
703.76	14131.34
704.105	14233.03
704.45	14260.37
704.795	14087.72
705.14	14104.9
705.485	14127.04
705.83	14111.45
706.175	14053.37
706.52	14066.03
706.865	14027.16
707.209	14013.83
707.554	13971.34
707.899	13987.61
708.243	13979.7
708.588	13969.08
708.932	13893.15
709.277	13887.73
709.621	13886.15
709.966	13833.94
710.31	13829.42
710.654	13673.27
710.998	13755.53
711.342	13713.72
711.687	13774.96
712.031	13777.9
712.375	13691.12
712.719	13638.7
713.063	13710.33
713.407	13679.82
713.75	13617.68
714.094	13683.67
714.438	13569.09
714.782	13596.66
715.125	13579.94
715.469	13578.58
715.812	13560.96
716.156	13591.46
716.499	13477.57
716.843	13475.99
717.186	13397.8
717.53	13491.13
717.873	13482.09
718.216	13497.91
718.559	13383.79
718.902	13379.04
719.246	13322.09
719.589	13358.93
719.932	13290.91
720.275	13239.61
720.617	13330.91
720.96	13439.15
721.303	13294.75
721.646	13312.6
721.989	13149.89
722.331	13282.09
722.674	13259.5
723.016	13282.32
723.359	13275.54
723.701	13235.99
724.044	13175.88
724.386	13099.73
724.729	13145.15
725.071	13177.46
725.413	13135.66
725.755	13188.54
726.097	13103.57
726.439	12901.77
726.782	13065.38
727.124	13123.23
727.465	12980.86
727.807	13094.08
728.149	13045.94
728.491	13024.7
728.833	13048.2
729.175	12961.65
729.516	13041.42
729.858	13001.2
730.199	13027.19
730.541	12983.12
730.882	12877.13
731.224	12956
731.565	12869.9
731.906	12906.74
732.248	12854.31
732.589	12767.31
732.93	12820.19
733.271	12855.21
733.612	12765.5
733.953	12854.99
734.294	12772.28
734.635	12782.22
734.976	12820.86
735.317	12695.89
735.658	12734.99
735.999	12782.9
736.339	12675.1
736.68	12719.4
737.021	12737.7
737.361	12671.26
737.702	12635.11
738.042	12730.92
738.383	12584.71
738.723	12668.33
739.063	12618.16
739.404	12629.46
739.744	12571.38
740.084	12624.26
740.424	12651.15
740.764	12568.67
741.104	12600.76
741.444	12557.82
741.784	12477.14
742.124	12552.85
742.464	12500.19
742.804	12467.88
743.143	12450.03
743.483	12485.96
743.823	12342.68
744.162	12417.03
744.502	12374.32
744.841	12369.12
745.181	12443.7
745.52	12270.82
745.86	12340.65
746.199	12320.76
746.538	12293.19
746.877	12337.26
747.216	12295
747.556	12232.18
747.895	12234.66
748.234	12192.63
748.573	12195.8
748.911	12241.67
749.25	12168
749.589	12101.33
749.928	12144.95
750.267	12145.85
750.605	12154.89
750.944	12127.77
751.283	12089.58
751.621	12051.17
751.96	11972.07
752.298	11972.75
752.636	11985.18
752.975	11828.35
753.313	11831.06
753.651	11931.85
753.989	11863.37
754.327	11756.26
754.666	11810.27
755.004	11755.13
755.342	11710.38
755.679	11705.19
756.017	11618.86
756.355	11742.25
756.693	11616.6
757.031	11657.5
757.368	11546.77
757.706	11629.03
758.044	11471.52
758.381	11505.19
758.719	11424.97
759.056	11462.48
759.394	11497.28
759.731	11333.22
760.068	11335.25
760.405	11248.93
