Data from brown_tile_FLMS001491_077.txt Node
Date: Tue Feb 07 10:37:59 GMT 2017
User: dcchb
Spectrometer: FLMS00149
Trigger mode: 0
Integration Time (sec): 2.000000E-2
Scans to average: 10
Electric dark correction enabled: true
Nonlinearity correction enabled: false
Boxcar width: 0
XAxis mode: Wavelengths
Number of Pixels in Spectrum: 2048
>>>>>Begin Spectral Data<<<<<
341.393	-25.95
341.776	-25.95
342.16	-25.95
342.543	-71.14
342.927	-81.76
343.31	-51.26
343.693	-77.92
344.077	-76.57
344.46	-44.48
344.843	-37.7
345.226	-42.89
345.61	-27.53
345.993	-20.97
346.376	-2.9
346.759	-10.8
347.142	16.31
347.525	25.35
347.908	57.22
348.291	78.01
348.674	120.72
349.057	95.41
349.44	128.4
349.823	146.48
350.206	172.24
350.588	174.05
350.971	198.46
351.354	218.12
351.737	216.99
352.119	237.78
352.502	242.97
352.884	252.24
353.267	266.25
353.65	278.68
354.032	290.88
354.414	290.66
354.797	306.25
355.179	313.71
355.562	300.37
355.944	289.98
356.326	302.63
356.709	318.45
357.091	320.49
357.473	328.85
357.855	322.52
358.238	332.69
358.62	334.95
359.002	332.69
359.384	329.07
359.766	332.01
360.148	329.98
360.53	325.46
360.912	317.32
361.294	327.27
361.676	304.22
362.057	325.46
362.439	301.28
362.821	327.27
363.203	336.76
363.584	303.99
363.966	305.35
364.348	315.06
364.729	307.15
365.111	309.19
365.493	314.84
365.874	318.23
366.256	279.81
366.637	295.63
367.019	297.66
367.4	275.52
367.781	300.6
368.163	285.46
368.544	287.04
368.925	297.89
369.306	307.15
369.688	304.22
370.069	298.34
370.45	270.77
370.831	282.29
371.212	292.92
371.593	278.45
371.974	292.92
372.355	295.4
372.736	303.76
373.117	293.37
373.498	298.57
373.879	308.96
374.26	312.58
374.641	296.53
375.021	301.28
375.402	288.62
375.783	281.39
376.163	298.79
376.544	307.38
376.925	308.96
377.305	312.35
377.686	314.61
378.066	312.35
378.447	310.09
378.827	316.64
379.208	316.19
379.588	315.06
379.968	313.25
380.349	319.81
380.729	302.18
381.109	326.36
381.489	324.55
381.87	312.35
382.25	319.36
382.63	322.97
383.01	329.75
383.39	311.45
383.77	318.68
384.15	331.56
384.53	331.56
384.91	332.91
385.29	329.07
385.67	340.37
386.049	348.06
386.429	329.3
386.809	324.1
387.189	347.38
387.568	343.31
387.948	349.86
388.328	327.04
388.707	321.84
389.087	350.09
389.466	360.71
389.846	346.47
390.225	350.99
390.605	354.16
390.984	337.89
391.363	343.76
391.743	351.45
392.122	352.35
392.501	347.15
392.881	361.39
393.26	360.48
393.639	343.76
394.018	356.42
394.397	355.51
394.776	353.25
395.155	377.43
395.534	370.88
395.913	359.81
396.292	365.68
396.671	354.38
397.05	369.98
397.429	354.61
397.808	366.36
398.186	374.04
398.565	362.52
398.944	342.41
399.323	369.3
399.701	390.99
400.08	382.86
400.458	382.41
400.837	369.98
401.215	388.73
401.594	361.16
401.972	383.54
402.351	381.05
402.729	372.46
403.107	365.68
403.486	369.07
403.864	390.99
404.242	397.09
404.62	390.09
404.999	382.18
405.377	396.64
405.755	421.05
406.133	395.29
406.511	402.74
406.889	416.53
407.267	417.21
407.645	412.46
408.023	395.96
408.401	402.97
408.779	405.46
409.156	397.09
409.534	404.1
409.912	412.23
410.29	430.31
410.667	437.09
411.045	417.21
411.422	448.17
411.8	435.96
412.178	414.95
412.555	419.24
412.933	455.85
413.31	445.91
413.687	452.91
414.065	437.77
414.442	451.56
414.819	444.1
415.197	465.11
415.574	471.22
415.951	459.92
416.328	473.02
416.705	468.5
417.082	479.35
417.46	470.76
417.837	487.04
418.214	483.65
418.591	494.27
418.967	466.02
419.344	472.8
419.721	456.3
420.098	480.26
420.475	475.96
420.852	500.37
421.228	505.34
421.605	496.98
421.982	494.72
422.358	499.01
422.735	507.83
423.111	497.88
423.488	508.28
423.864	516.86
424.241	517.09
424.617	515.06
424.994	512.57
425.37	508.96
425.746	520.25
426.123	522.51
426.499	553.02
426.875	513.48
427.251	534.94
427.627	555.96
428.003	560.03
428.379	553.02
428.756	536.98
429.132	532.23
429.507	550.76
429.883	546.69
430.259	595.96
430.635	572.23
431.011	571.78
431.387	565
431.763	570.65
432.138	597.54
432.514	597.31
432.89	619.69
433.265	589.63
433.641	599.8
434.016	599.12
434.392	624.21
434.767	621.72
435.143	612.91
435.518	635.28
435.894	637.54
436.269	640.03
436.644	653.13
437.02	640.93
437.395	646.13
437.77	650.87
438.145	659.69
438.52	651.78
438.895	661.49
439.271	678.67
439.646	669.63
440.021	680.93
440.395	655.39
440.77	694.94
441.145	688.16
441.52	706.69
441.895	702.62
442.27	720.7
442.645	707.59
443.019	701.27
443.394	698.1
443.769	709.4
444.143	721.83
444.518	736.75
444.892	728.38
445.267	719.35
445.641	742.85
446.016	748.95
446.39	714.37
446.764	748.72
447.139	779.91
447.513	756.63
447.887	746.46
448.262	739.46
448.636	758.67
449.01	780.13
449.384	760.25
449.758	769.06
450.132	767.93
450.506	770.19
450.88	786.46
451.254	805.44
451.628	815.84
452.002	832.11
452.376	806.57
452.75	789.4
453.123	810.42
453.497	852.22
453.871	844.09
454.244	834.6
454.618	829.4
454.992	829.4
455.365	874.82
455.739	885.67
456.112	863.75
456.486	881.6
456.859	911.43
457.232	912.33
457.606	894.03
457.979	881.83
458.352	933.8
458.725	922.5
459.099	920.02
459.472	947.81
459.845	968.15
460.218	972.67
460.591	986.91
460.964	986.91
461.337	1013.35
461.71	1015.61
462.083	1021.03
462.456	984.65
462.829	1046.57
463.201	1006.8
463.574	1023.29
463.947	1055.16
464.32	1058.09
464.692	1070.3
465.065	1057.64
465.438	1051.54
465.81	1092.67
466.183	1120.24
466.555	1116.62
466.928	1119.56
467.3	1114.82
467.672	1148.49
468.045	1167.92
468.417	1115.72
468.789	1166.34
469.161	1185.32
469.534	1200.91
469.906	1228.26
470.278	1229.16
470.65	1224.19
471.022	1254.47
471.394	1263.96
471.766	1307.35
472.138	1279.56
472.51	1316.84
472.882	1315.71
473.253	1360.23
473.625	1365.66
473.997	1392.32
474.369	1400.01
474.74	1407.91
475.112	1445.2
475.484	1433.23
475.855	1464.64
476.227	1480.23
476.598	1484.75
476.97	1503.96
477.341	1558.19
477.713	1581.24
478.084	1582.37
478.455	1621.24
478.827	1628.25
479.198	1670.51
479.569	1654.24
479.94	1699.88
480.311	1707.79
480.682	1742.37
481.053	1758.41
481.424	1789.6
481.795	1797.51
482.166	1860.11
482.537	1870.73
482.908	1873.21
483.279	1923.61
483.65	1955.47
484.021	1982.59
484.391	2004.74
484.762	1996.83
485.133	2026.2
485.503	2025.53
485.874	2083.38
486.244	2146.65
486.615	2148.46
486.985	2178.97
487.356	2194.79
487.726	2221.45
488.097	2264.16
488.467	2265.07
488.837	2301
489.207	2336.48
489.578	2314.11
489.948	2392.75
490.318	2426.65
490.688	2427.78
491.058	2444.5
491.428	2482.46
491.798	2487.89
492.168	2521.56
492.538	2583.7
492.908	2586.42
493.278	2576.47
493.648	2635.45
494.017	2648.33
494.387	2647.88
494.757	2725.39
495.126	2722
495.496	2735.11
495.866	2755.9
496.235	2772.17
496.605	2797.03
496.974	2776.92
497.344	2828.89
497.713	2866.63
498.082	2865.5
498.452	2926.29
498.821	2940.76
499.19	2949.8
499.559	2939.85
499.928	2963.13
500.298	3000.87
500.667	3028.66
501.036	3029.57
501.405	3064.59
501.774	3032.51
502.143	3113.63
502.512	3124.93
502.88	3146.63
503.249	3145.72
503.618	3156.12
503.987	3197.47
504.356	3200.86
504.724	3207.64
505.093	3218.71
505.462	3269.79
505.83	3250.58
506.199	3300.29
506.567	3330.8
506.936	3352.27
507.304	3410.35
507.672	3407.41
508.041	3454.19
508.409	3446.28
508.777	3465.04
509.145	3528.09
509.514	3488.76
509.882	3546.39
510.25	3549.78
510.618	3567.18
510.986	3608.31
511.354	3638.82
511.722	3654.64
512.09	3668.42
512.458	3647.86
512.826	3722.88
513.193	3763.56
513.561	3779.15
513.929	3810.11
514.297	3826.61
514.664	3850.34
515.032	3916.32
515.4	3882.65
515.767	3941.86
516.135	3952.25
516.502	3928.75
516.869	4016.89
517.237	4013.72
517.604	3983.21
517.972	4036.09
518.339	4062.31
518.706	4071.57
519.073	4143.66
519.44	4197.9
519.808	4209.42
520.175	4201.97
520.542	4258.01
520.909	4307.27
521.276	4289.87
521.643	4359.48
522.009	4408.51
522.376	4367.61
522.743	4429.53
523.11	4535.06
523.477	4526.93
523.843	4539.81
524.21	4624.78
524.577	4676.98
524.943	4672.01
525.31	4710.43
525.676	4762.63
526.043	4799.69
526.409	4829.07
526.776	4810.54
527.142	4899.35
527.508	4940.03
527.874	4921.04
528.241	4921.04
528.607	4969.86
528.973	5081.26
529.339	5054.15
529.705	5072.68
530.071	5159.23
530.437	5188.15
530.803	5251.43
531.169	5325.55
531.535	5278.32
531.901	5297.08
532.267	5315.38
532.632	5357.19
532.998	5360.58
533.364	5438.32
533.73	5445.1
534.095	5504.76
534.461	5551.76
534.826	5594.92
535.192	5625.43
535.557	5634.02
535.923	5667.46
536.288	5657.75
536.653	5743.62
537.019	5665.66
537.384	5730.74
537.749	5804.41
538.114	5780
538.479	5827.01
538.845	5880.79
539.21	5914.46
539.575	5866.33
539.94	5934.35
540.305	6021.35
540.67	5984.29
541.034	6057.06
541.399	6043.73
541.764	6123.5
542.129	6130.5
542.494	6198.3
542.858	6252.31
543.223	6252.99
543.587	6331.18
543.952	6309.26
544.316	6375.69
544.681	6322.81
545.045	6460.89
545.41	6483.26
545.774	6483.71
546.138	6520.55
546.503	6544.96
546.867	6596.48
547.231	6645.07
547.595	6658.85
547.959	6679.41
548.324	6803.25
548.688	6781.33
549.052	6810.03
549.416	6876.47
549.779	6840.54
550.143	6908.11
550.507	6949.01
550.871	7056.58
551.235	7024.94
551.599	7136.13
551.962	7214.32
552.326	7183.81
552.689	7270.59
553.053	7237.59
553.417	7381.09
553.78	7523.01
554.143	7433.97
554.507	7497.92
554.87	7571.59
555.234	7647.52
555.597	7668.54
555.96	7777.69
556.323	7759.39
556.686	7855.66
557.05	7921.19
557.413	7972.71
557.776	8045.03
558.139	8171.13
558.502	8102.65
558.865	8241.18
559.228	8338.13
559.59	8297.23
559.953	8426.04
560.316	8504
560.679	8605.24
561.041	8602.98
561.404	8732.69
561.767	8789.19
562.129	8801.39
562.492	8944.21
562.854	8982.63
563.217	9125
563.579	9143.53
563.941	9187.6
564.304	9328.38
564.666	9376.52
565.028	9435.5
565.39	9497.19
565.753	9616.51
566.115	9670.75
566.477	9776.73
566.839	9856.05
567.201	9987.8
567.563	9990.51
567.925	10168.81
568.287	10159.32
568.648	10269.38
569.01	10253.11
569.372	10417.4
569.734	10443.61
570.095	10600.44
570.457	10647.45
570.819	10756.37
571.18	10845.41
571.542	10858.06
571.903	10917.5
572.265	11090.37
572.626	11084.27
572.987	11205.4
573.349	11257.37
573.71	11385.05
574.071	11408.78
574.432	11524.94
574.794	11617.82
575.155	11728.77
575.516	11708.21
575.877	11795.89
576.238	11928.09
576.599	12009.22
576.96	12059.61
577.32	12125.83
577.681	12198.37
578.042	12218.7
578.403	12415.08
578.763	12434.52
579.124	12481.52
579.485	12640.16
579.845	12676.09
580.206	12743.66
580.566	12732.14
580.927	12800.61
581.287	12948.63
581.648	12909.76
582.008	12939.36
582.368	13133.26
582.728	13067.27
583.089	13137.32
583.449	13086.03
583.809	13268.39
584.169	13306.36
584.529	13330.77
584.889	13451.21
585.249	13443.08
585.609	13381.61
585.969	13603.3
586.329	13533.25
586.688	13650.98
587.048	13684.88
587.408	13653.02
587.768	13754.03
588.127	13772.34
588.487	13756.29
588.846	13909.06
589.206	13841.71
589.565	13979.34
589.925	14068.82
590.284	14065.89
590.643	14077.19
591.003	14194.02
591.362	14250.29
591.721	14231.98
592.08	14236.96
592.44	14350.63
592.799	14415.26
593.158	14333.45
593.517	14439.21
593.876	14502.03
594.235	14519.21
594.593	14613.9
594.952	14606.89
595.311	14639.66
595.67	14713.33
596.029	14798.52
596.387	14792.65
596.746	14841.69
597.104	14827.45
597.463	14911.06
597.822	14919.2
598.18	14949.25
598.538	14878.52
598.897	15168.91
599.255	14915.81
599.613	15199.42
599.972	15056.37
600.33	15118.74
600.688	15143.82
601.046	15175.01
601.404	15366.42
601.762	15327.55
602.12	15369.58
602.478	15376.14
602.836	15453.65
603.194	15368.45
603.552	15487.54
603.91	15441.9
604.268	15471.5
604.625	15569.8
604.983	15528.22
605.341	15519.63
605.698	15616.58
606.056	15694.32
606.413	15727.99
606.771	15683.47
607.128	15756.46
607.485	15773.19
607.843	15695.9
608.2	15910.13
608.557	15919.17
608.914	15881.43
609.272	16018.15
609.629	16032.84
609.986	16031.49
610.343	16027.42
610.7	16164.14
611.057	16153.52
611.414	16124.59
611.771	16195.32
612.127	16279.39
612.484	16300.63
612.841	16300.18
613.198	16242.55
613.554	16237.13
613.911	16483.9
614.267	16406.84
614.624	16396
614.98	16448.65
615.337	16580.4
615.693	16398.48
616.05	16462.43
616.406	16577.69
616.762	16623.56
617.118	16656.78
617.475	16596.89
617.831	16657.23
618.187	16763.67
618.543	16580.17
618.899	16880.5
619.255	16711.47
619.611	16713.73
619.967	16881.18
620.323	16818.36
620.678	16954.62
621.034	16799.37
621.39	16857.23
621.746	16801.63
622.101	16980.61
622.457	16798.02
622.812	16869.2
623.168	16916.66
623.523	17010.89
623.879	17000.05
624.234	16878.69
624.589	16941.52
624.945	16953.27
625.3	16996.43
625.655	17035.75
626.01	17085.02
626.365	16998.01
626.72	16994.4
627.075	16947.62
627.43	17077.33
627.785	16987.84
628.14	16986.94
628.495	16986.71
628.85	17023.32
629.205	16974.51
629.559	17086.37
629.914	16970.44
630.269	17047.28
630.623	16953.04
630.978	17006.37
631.332	16998.92
631.687	17023.55
632.041	17001.18
632.396	17051.12
632.75	16954.4
633.104	16943.55
633.459	16912.82
633.813	16832.82
634.167	16841.86
634.521	16901.52
634.875	16916.66
635.229	16802.09
635.583	16845.48
635.937	16828.98
636.291	16836.44
636.645	16859.49
636.999	16737
637.352	16841.86
637.706	16681.64
638.06	16786.95
638.413	16757.57
638.767	16610
639.121	16774.29
639.474	16747.62
639.828	16755.53
640.181	16802.54
640.534	16698.36
640.888	16676.44
641.241	16646.84
641.594	16647.29
641.947	16625.14
642.301	16634.18
642.654	16581.08
643.007	16577.23
643.36	16626.05
643.713	16566.39
644.066	16582.66
644.419	16499.95
644.771	16447.75
645.124	16317.35
645.477	16250.69
645.83	16040.52
646.182	16078.49
646.535	16053.18
646.888	16133.4
647.24	15976.12
647.593	16106.74
647.945	16022.45
648.298	16019.51
648.65	16030.36
649.002	15889.12
649.355	16005.5
649.707	15993.52
650.059	16073.29
650.411	16196
650.763	16179.05
651.115	16467.41
651.467	16463.11
651.819	16427.18
652.171	16350.8
652.523	16359.61
652.875	16278.48
653.227	16379.5
653.578	16373.4
653.93	16298.14
654.282	16266.73
654.633	16216.79
654.985	16271.03
655.337	16235.77
655.688	16241.2
656.039	16344.02
656.391	16138.83
656.742	16276.68
657.094	16183.57
657.445	16393.06
657.796	16256.11
658.147	16282.78
658.498	16253.4
658.849	16264.47
659.2	16193.51
659.551	16246.85
659.902	16257.69
660.253	16296.11
660.604	16291.14
660.955	16248.43
661.306	16318.48
661.656	16261.99
662.007	16307.64
662.358	16296.34
662.708	16252.27
663.059	16352.38
663.409	16230.12
663.76	16315.77
664.11	16359.61
664.461	16384.02
664.811	16309.22
665.161	16233.06
665.511	16293.17
665.862	16326.62
666.212	16381.53
666.562	16445.03
666.912	16393.06
667.262	16362.32
667.612	16317.35
667.962	16363
668.312	16303.79
668.662	16489.33
669.011	16403
669.361	16324.81
669.711	16381.08
670.06	16395.54
670.41	16376.33
670.76	16291.59
671.109	16501.53
671.459	16377.24
671.808	16414.53
672.157	16437.8
672.507	16339.27
672.856	16300.63
673.205	16383.34
673.554	16431.02
673.904	16313.96
674.253	16395.54
674.602	16382.44
674.951	16221.76
675.3	16171.59
675.649	16415.66
675.998	16333.85
676.346	16361.42
676.695	16346.51
677.044	16323.91
677.393	16370.46
677.741	16440.06
678.09	16382.89
678.438	16402.32
678.787	16453.62
679.135	16479.61
679.484	16330.46
679.832	16301.53
680.181	16318.71
680.529	16461.98
680.877	16339.73
681.225	16406.84
681.573	16427.86
681.922	16253.17
682.27	16219.05
682.618	16265.83
682.966	16179.73
683.314	16279.61
683.661	16265.38
684.009	16162.78
684.357	16219.28
684.705	16107.19
685.053	16227.86
685.4	16153.74
685.748	16106.06
686.095	16113.74
686.443	16043.91
686.79	16085.5
687.138	16163.23
687.485	16023.35
687.832	16014.08
688.18	15994.65
688.527	16012.05
688.874	15916.01
689.221	15878.72
689.568	15878.27
689.915	15927.99
690.262	15936.57
690.609	15885.95
690.956	15827.42
691.303	15801.66
691.65	15835.33
691.997	15731.38
692.344	15695.9
692.69	15615
693.037	15673.3
693.383	15574.55
693.73	15655.45
694.077	15567.99
694.423	15488.67
694.769	15504.04
695.116	15518.5
695.462	15531.39
695.808	15404.84
696.155	15460.88
696.501	15390.82
696.847	15340.43
697.193	15306.31
697.539	15346.76
697.885	15221.34
698.231	15255.23
698.577	15170.94
698.923	15229.7
699.269	15109.25
699.614	15063.38
699.96	15076.26
700.306	15031.29
700.651	15050.27
700.997	14969.82
701.342	14954.45
701.688	14988.57
702.033	15003.94
702.379	14805.08
702.724	14917.84
703.069	14949.48
703.415	14784.06
703.76	14769.15
704.105	14804.62
704.45	14689.15
704.795	14768.02
705.14	14752.42
705.485	14677.85
705.83	14610.73
706.175	14667.23
706.52	14645.31
706.865	14547.46
707.209	14563.73
707.554	14529.6
707.899	14592.43
708.243	14488.25
708.588	14478.98
708.932	14478.76
709.277	14443.73
709.621	14479.89
709.966	14345.2
710.31	14467.23
710.654	14202.38
710.998	14320.34
711.342	14319.67
711.687	14264.75
712.031	14304.3
712.375	14233.57
712.719	14234.47
713.063	14229.27
713.407	14334.13
713.75	14245.32
714.094	14230.18
714.438	14208.48
714.782	14112.67
715.125	14052.55
715.469	14162.61
715.812	14122.16
716.156	13926.91
716.499	14053.23
716.843	14100.69
717.186	13995.61
717.53	14004.87
717.873	14090.97
718.216	14045.77
718.559	14029.96
718.902	13928.49
719.246	13980.24
719.589	13973.23
719.932	13855.27
720.275	13868.15
720.617	13849.17
720.96	13871.09
721.303	13879.9
721.646	13882.16
721.989	13903.41
722.331	13862.95
722.674	13787.7
723.016	13749.96
723.359	13837.42
723.701	13860.92
724.044	13761.49
724.386	13657.31
724.729	13780.47
725.071	13742.05
725.413	13749.96
725.755	13667.48
726.097	13754.93
726.439	13626.58
726.782	13617.76
727.124	13716.97
727.465	13594.26
727.807	13637.2
728.149	13551.1
728.491	13542.29
728.833	13521.95
729.175	13591.55
729.516	13563.3
729.858	13553.81
730.199	13569.86
730.541	13515.39
730.882	13524.88
731.224	13557.65
731.565	13397.43
731.906	13489.18
732.248	13513.81
732.589	13401.27
732.93	13329.86
733.271	13452.8
733.612	13440.82
733.953	13515.62
734.294	13389.07
734.635	13318.11
734.976	13441.72
735.317	13287.38
735.658	13323.99
735.999	13359.69
736.339	13340.26
736.68	13370.76
737.021	13358.56
737.361	13266.81
737.702	13297.77
738.042	13222.75
738.383	13254.84
738.723	13187.04
739.063	13149.53
739.404	13231.33
739.744	13102.52
740.084	13107.27
740.424	13155.18
740.764	13080.83
741.104	13116.76
741.444	13061.39
741.784	13062.3
742.124	13055.74
742.464	13045.35
742.804	12912.25
743.143	12955.18
743.483	12989.76
743.823	12915.41
744.162	12955.86
744.502	12985.69
744.841	12927.39
745.181	12950.44
745.52	12944.56
745.86	12911.12
746.199	13005.8
746.538	12869.31
746.877	12859.82
747.216	12834.06
747.556	12767.84
747.895	12746.6
748.234	12717
748.573	12769.42
748.911	12740.72
749.25	12765.81
749.589	12675.87
749.928	12707.28
750.267	12716.09
750.605	12613.27
750.944	12573.27
751.283	12458.47
751.621	12590.22
751.96	12541.18
752.298	12455.53
752.636	12444.91
752.975	12422.77
753.313	12391.58
753.651	12466.83
753.989	12393.16
754.327	12292.83
754.666	12264.13
755.004	12285.14
755.342	12292.37
755.679	12242.43
756.017	12146.39
756.355	12261.87
756.693	12175.09
757.031	12160.17
757.368	12046.28
757.706	12039.5
758.044	12012.16
758.381	12008.99
758.719	12046.28
759.056	12020.07
759.394	11956.79
759.731	11924.93
760.068	11843.57
