Data from brown_tile_FLMS001491_049.txt Node
Date: Tue Feb 07 10:37:34 GMT 2017
User: dcchb
Spectrometer: FLMS00149
Trigger mode: 0
Integration Time (sec): 2.000000E-2
Scans to average: 10
Electric dark correction enabled: true
Nonlinearity correction enabled: false
Boxcar width: 0
XAxis mode: Wavelengths
Number of Pixels in Spectrum: 2048
>>>>>Begin Spectral Data<<<<<
341.393	-7.06
341.776	-7.06
342.16	-7.06
342.543	-56.55
342.927	-52.48
343.31	-63.56
343.693	-67.17
344.077	-68.98
344.46	-45.03
344.843	-58.36
345.226	-50.45
345.61	-23.56
345.993	-20.85
346.376	-19.94
346.759	13.73
347.142	29.32
347.525	39.26
347.908	65.7
348.291	70.45
348.674	81.07
349.057	118.36
349.44	119.04
349.823	140.5
350.206	139.83
350.588	199.26
350.971	206.94
351.354	211.46
351.737	216.43
352.119	231.35
352.502	237.23
352.884	269.99
353.267	277
353.65	264.12
354.032	278.81
354.414	288.98
354.797	329.43
355.179	288.3
355.562	305.7
355.944	325.13
356.326	307.51
356.709	324.68
357.091	304.12
357.473	334.85
357.855	340.73
358.238	315.42
358.62	328.07
359.002	324.45
359.384	336.43
359.766	318.58
360.148	323.78
360.53	319.71
360.912	307.05
361.294	312.25
361.676	322.42
362.057	305.92
362.439	320.39
362.821	321.29
363.203	301.86
363.584	305.25
363.966	306.15
364.348	320.84
364.729	321.74
365.111	301.18
365.493	316.32
365.874	311.35
366.256	309.54
366.637	308.41
367.019	308.41
367.4	304.79
367.781	296.43
368.163	284.46
368.544	319.03
368.925	301.63
369.306	305.47
369.688	278.35
370.069	328.75
370.45	293.72
370.831	276.77
371.212	286.94
371.593	285.36
371.974	307.73
372.355	314.51
372.736	305.7
373.117	318.58
373.498	309.31
373.879	313.38
374.26	312.48
374.641	305.47
375.021	291.91
375.402	319.48
375.783	315.87
376.163	302.31
376.544	316.09
376.925	321.29
377.305	312.25
377.686	315.42
378.066	334.17
378.447	303.89
378.827	308.86
379.208	315.87
379.588	331.23
379.968	300.05
380.349	315.87
380.729	332.36
381.109	316.55
381.489	317.9
381.87	339.37
382.25	302.08
382.63	329.43
383.01	313.16
383.39	324
383.77	317.22
384.15	333.27
384.53	308.41
384.91	328.52
385.29	363.55
385.67	334.17
386.049	352.93
386.429	350.67
386.809	359.26
387.189	335.75
387.568	333.04
387.948	330.33
388.328	329.88
388.707	328.3
389.087	329.88
389.466	349.31
389.846	357.45
390.225	352.48
390.605	355.87
390.984	357
391.363	343.66
391.743	342.08
392.122	333.72
392.501	363.78
392.881	347.05
393.26	369.88
393.639	356.32
394.018	341.4
394.397	348.63
394.776	359.26
395.155	359.26
395.534	356.32
395.913	375.3
396.292	358.58
396.671	354.06
397.05	389.09
397.429	390.22
397.808	348.63
398.186	366.94
398.565	364.45
398.944	374.17
399.323	347.28
399.701	375.53
400.08	376.88
400.458	360.61
400.837	390.89
401.215	378.92
401.594	365.81
401.972	386.37
402.351	360.16
402.729	377.56
403.107	363.78
403.486	391.35
403.864	437.22
404.242	370.56
404.62	414.4
404.999	395.19
405.377	401.29
405.755	385.7
406.133	382.08
406.511	392.02
406.889	416.43
407.267	393.61
407.645	424.34
408.023	421.18
408.401	416.43
408.779	442.87
409.156	411.01
409.534	411.23
409.912	421.18
410.29	433.6
410.667	422.53
411.045	426.37
411.422	420.5
411.8	402.87
412.178	442.19
412.555	451.68
412.933	439.48
413.31	443.55
413.687	427.28
414.065	448.75
414.442	449.42
414.819	438.8
415.197	434.06
415.574	427.05
415.951	461.4
416.328	448.29
416.705	455.07
417.082	467.05
417.46	473.6
417.837	470.44
418.214	454.39
418.591	462.53
418.967	464.79
419.344	488.52
419.721	477.45
420.098	479.48
420.475	465.24
420.852	494.17
421.228	505.47
421.605	481.06
421.982	496.43
422.358	483.09
422.735	500.5
423.111	499.37
423.488	492.59
423.864	493.94
424.241	479.25
424.617	519.7
424.994	504.56
425.37	512.92
425.746	536.2
426.123	529.42
426.499	528.52
426.875	522.42
427.251	521.51
427.627	536.88
428.003	542.53
428.379	531.91
428.756	545.92
429.132	547.5
429.507	558.12
429.883	548.4
430.259	576.88
430.635	548.18
431.011	564.67
431.387	551.34
431.763	588.63
432.138	589.76
432.514	587.95
432.89	572.81
433.265	595.63
433.641	603.77
434.016	589.76
434.392	590.44
434.767	644.9
435.143	620.04
435.518	634.05
435.894	618.23
436.269	617.33
436.644	641.06
437.02	636.99
437.395	640.15
437.77	629.76
438.145	627.72
438.52	648.29
438.895	654.62
439.271	651.9
439.646	656.2
440.021	663.43
440.395	676.08
440.77	672.69
441.145	667.72
441.52	656.88
441.895	682.64
442.27	670.66
442.645	661.17
443.019	694.84
443.394	706.59
443.769	712.24
444.143	683.99
444.518	694.39
444.892	687.84
445.267	685.58
445.641	708.63
446.016	701.62
446.39	699.13
446.764	730.55
447.139	717.44
447.513	728.51
447.887	709.53
448.262	735.29
448.636	723.99
449.01	756.99
449.384	755.18
449.758	764.22
450.132	748.62
450.506	761.05
450.88	758.79
451.254	753.6
451.628	756.99
452.002	793.82
452.376	786.59
452.75	791.11
453.123	793.37
453.497	801.28
453.871	801.28
454.244	831.11
454.618	834.95
454.992	812.13
455.365	815.06
455.739	836.76
456.112	848.28
456.486	860.49
456.859	857.55
457.232	871.11
457.606	872.46
457.979	891.45
458.352	890.77
458.725	896.42
459.099	914.95
459.472	908.17
459.845	937.09
460.218	940.94
460.591	940.26
460.964	958.56
461.337	936.64
461.71	965.79
462.083	991.56
462.456	968.05
462.829	980.26
463.201	988.17
463.574	978.9
463.947	1008.05
464.32	1008.05
464.692	1039.46
465.065	1016.64
465.438	1055.28
465.81	1060.25
466.183	1079.92
466.555	1071.55
466.928	1073.59
467.3	1072.23
467.672	1112.23
468.045	1142.29
468.417	1122.63
468.789	1116.98
469.161	1117.65
469.534	1145.68
469.906	1146.58
470.278	1190.19
470.65	1185.45
471.022	1177.54
471.394	1269.06
471.766	1234.49
472.138	1254.15
472.51	1255.73
472.882	1296.86
473.253	1292.34
473.625	1323.75
473.997	1335.73
474.369	1342.06
474.74	1361.49
475.112	1367.14
475.484	1360.13
475.855	1407.59
476.227	1436.06
476.598	1454.82
476.97	1440.81
477.341	1486.91
477.713	1518.77
478.084	1528.49
478.455	1542.05
478.827	1551.32
479.198	1593.12
479.569	1608.94
479.94	1629.28
480.311	1660.92
480.682	1676.74
481.053	1663.85
481.424	1706.57
481.795	1781.14
482.166	1768.71
482.537	1775.49
482.908	1815.04
483.279	1822.27
483.65	1880.8
484.021	1904.3
484.391	1904.07
484.762	1937.52
485.133	1933
485.503	1973.68
485.874	2015.71
486.244	1992.89
486.615	2033.56
486.985	2075.6
487.356	2107.68
487.726	2132.09
488.097	2160.34
488.467	2152.43
488.837	2189.49
489.207	2210.96
489.578	2248.25
489.948	2275.36
490.318	2297.96
490.688	2294.12
491.058	2320.11
491.428	2352.88
491.798	2356.72
492.168	2435.59
492.538	2423.16
492.908	2463.61
493.278	2497.05
493.648	2487.79
494.017	2540.22
494.387	2530.05
494.757	2578.86
495.126	2588.35
495.496	2609.37
495.866	2637.39
496.235	2633.09
496.605	2667.67
496.974	2683.49
497.344	2743.15
497.713	2715.58
498.082	2753.09
498.452	2742.02
498.821	2803.94
499.19	2791.51
499.559	2824.73
499.928	2839.64
500.298	2833.77
500.667	2873.99
501.036	2889.81
501.405	2927.55
501.774	2939.3
502.143	2947.21
502.512	2973.65
502.88	3024.04
503.249	2983.37
503.618	3022.69
503.987	3041.22
504.356	3088
504.724	3111.05
505.093	3111.5
505.462	3104.95
505.83	3130.48
506.199	3166.19
506.567	3174.55
506.936	3225.62
507.304	3181.55
507.672	3244.38
508.041	3262
508.409	3281.21
508.777	3328.44
509.145	3316.24
509.514	3341.32
509.882	3406.41
510.25	3395.79
510.618	3427.88
510.986	3405.5
511.354	3467.2
511.722	3466.97
512.09	3526.4
512.458	3546.52
512.826	3549.23
513.193	3592.17
513.561	3626.06
513.929	3633.97
514.297	3672.84
514.664	3661.99
515.032	3709.22
515.4	3743.8
515.767	3776.12
516.135	3786.96
516.502	3771.14
516.869	3832.84
517.237	3834.64
517.604	3888.88
517.972	3902.67
518.339	3897.02
518.706	3954.19
519.073	3954.87
519.44	4019.95
519.808	4040.97
520.175	4061.76
520.542	4099.72
520.909	4145.15
521.276	4107.86
521.643	4187.63
522.009	4232.15
522.376	4200.06
522.743	4268.31
523.11	4333.39
523.477	4352.6
523.843	4370.9
524.21	4422.65
524.577	4478.47
524.943	4503.78
525.31	4491.12
525.676	4575.64
526.043	4572.93
526.409	4616.55
526.776	4653.38
527.142	4663.32
527.508	4709.2
527.874	4722.76
528.241	4778.12
528.607	4765.02
528.973	4840.95
529.339	4835.75
529.705	4894.28
530.071	4928.63
530.437	4977.67
530.803	5021.73
531.169	5071.22
531.535	5043.43
531.901	5082.97
532.267	5105.35
532.632	5127.04
532.998	5160.26
533.364	5209.75
533.73	5210.43
534.095	5262.4
534.461	5310.99
534.826	5333.36
535.192	5333.81
535.557	5434.6
535.923	5386.02
536.288	5473.47
536.653	5520.7
537.019	5503.08
537.384	5540.59
537.749	5534.04
538.114	5596.86
538.479	5656.07
538.845	5651.55
539.21	5654.03
539.575	5681.6
539.94	5719.57
540.305	5770.64
540.67	5762.73
541.034	5810.19
541.399	5830.07
541.764	5872.78
542.129	5918.66
542.494	5932.22
542.858	5970.63
543.223	5991.88
543.587	6074.36
543.952	6041.82
544.316	6096.28
544.681	6088.82
545.045	6102.61
545.41	6187.8
545.774	6235.71
546.138	6285.43
546.503	6291.76
546.867	6275.26
547.231	6353.67
547.595	6361.81
547.959	6472.09
548.324	6439.77
548.688	6488.36
549.052	6561.13
549.416	6574.69
549.779	6613.55
550.143	6705.98
550.507	6764.29
550.871	6850.84
551.235	6811.74
551.599	6808.8
551.962	6864.85
552.326	6960.89
552.689	6972.19
553.053	7039.31
553.417	7004.96
553.78	7161.11
554.143	7141
554.507	7226.65
554.87	7247.66
555.234	7392.07
555.597	7336.47
555.96	7408.11
556.323	7544.6
556.686	7555.68
557.05	7592.29
557.413	7618.73
557.776	7714.32
558.139	7724.94
558.502	7829.79
558.865	7844.48
559.228	7938.04
559.59	8021.88
559.953	8027.98
560.316	8177.58
560.679	8214.87
561.041	8356.56
561.404	8363.11
561.767	8469.1
562.129	8477.69
562.492	8570.57
562.854	8640.62
563.217	8645.59
563.579	8779.6
563.941	8793.16
564.304	8900.5
564.666	8940.5
565.028	9058.69
565.39	9105.01
565.753	9231.11
566.115	9237.67
566.477	9401.05
566.839	9415.06
567.201	9537.77
567.563	9570.99
567.925	9738.22
568.287	9731.89
568.648	9806.47
569.01	9861.15
569.372	9995.16
569.734	9963.52
570.095	10031.09
570.457	10201.48
570.819	10249.62
571.18	10304.31
571.542	10456.62
571.903	10531.19
572.265	10607.35
572.626	10645.77
572.987	10749.04
573.349	10819.09
573.71	10946.32
574.071	10995.59
574.432	11104.51
574.794	11178.18
575.155	11253.21
575.516	11219.76
575.877	11313.32
576.238	11442.35
576.599	11521.22
576.96	11548.79
577.32	11658.39
577.681	11696.81
578.042	11736.36
578.403	11828.79
578.763	11853.87
579.124	11956.69
579.485	12028.1
579.845	12084.82
580.206	12190.81
580.566	12100.87
580.927	12243.92
581.287	12299.28
581.648	12261.54
582.008	12488.65
582.368	12433.51
582.728	12559.39
583.089	12605.94
583.449	12656.56
583.809	12628.09
584.169	12808.65
584.529	12765.03
584.889	12871.7
585.249	12943.11
585.609	12927.51
585.969	12949.43
586.329	12969.77
586.688	13160.28
587.048	13116.43
587.408	13039.83
587.768	13190.78
588.127	13181.74
588.487	13210.67
588.846	13320.5
589.206	13273.94
589.565	13343.32
589.925	13375.86
590.284	13409.99
590.643	13543.32
591.003	13580.6
591.362	13656.08
591.721	13656.76
592.08	13671.45
592.44	13779.69
592.799	13762.52
593.158	13755.06
593.517	13750.09
593.876	13853.82
594.235	13897.21
594.593	13867.83
594.952	13912.35
595.311	13928.84
595.67	14046.13
596.029	14003.19
596.387	14170.19
596.746	14170.64
597.104	14194.6
597.463	14169.06
597.822	14291.09
598.18	14286.35
598.538	14290.19
598.897	14338.32
599.255	14359.34
599.613	14547.58
599.972	14394.37
600.33	14552.78
600.688	14471.2
601.046	14595.49
601.404	14605.66
601.762	14613.12
602.12	14776.05
602.478	14658.54
602.836	14784.64
603.194	14776.28
603.552	14759.33
603.91	14778.99
604.268	14803.4
604.625	14862.83
604.983	14945.99
605.341	14949.15
605.698	14976.72
606.056	15004.97
606.413	15017.63
606.771	15070.28
607.128	15138.98
607.485	15007.91
607.843	15128.36
608.2	15222.37
608.557	15206.1
608.914	15228.24
609.272	15382.36
609.629	15288.36
609.986	15327.45
610.343	15381.46
610.7	15438.63
611.057	15461.68
611.414	15414
611.771	15425.53
612.127	15548.24
612.484	15448.35
612.841	15557.95
613.198	15640.21
613.554	15570.83
613.911	15741
614.267	15729.7
614.624	15715.46
614.98	15769.92
615.337	15849.92
615.693	15825.52
616.05	15876.14
616.406	15872.07
616.762	15892.18
617.118	15850.6
617.475	15915.23
617.831	15937.6
618.187	15878.62
618.543	16001.78
618.899	16092.4
619.255	16079.75
619.611	16150.71
619.967	16091.72
620.323	16108.67
620.678	16024.61
621.034	16080.88
621.39	16136.24
621.746	16132.63
622.101	16270.93
622.457	16121.33
622.812	16183.25
623.168	16181.44
623.523	16249.01
623.879	16283.13
624.234	16244.26
624.589	16283.36
624.945	16362
625.3	16260.76
625.655	16276.58
626.01	16320.64
626.365	16285.62
626.72	16230.03
627.075	16275
627.43	16343.02
627.785	16226.41
628.14	16289.46
628.495	16364.48
628.85	16268.22
629.205	16282.68
629.559	16314.77
629.914	16331.27
630.269	16309.8
630.623	16203.59
630.978	16221.66
631.332	16253.98
631.687	16411.94
632.041	16249.23
632.396	16358.61
632.75	16129.24
633.104	16236.8
633.459	16135.79
633.813	16210.59
634.167	16188.22
634.521	16115.9
634.875	16191.83
635.229	16119.07
635.583	16063.93
635.937	16140.31
636.291	16075
636.645	16053.31
636.999	16161.1
637.352	16038.62
637.706	16091.72
638.06	16121.33
638.413	16091.95
638.767	16037.04
639.121	16073.65
639.474	16008.34
639.828	15970.37
640.181	16089.01
640.534	16008.11
640.888	15974.21
641.241	15888.11
641.594	16006.08
641.947	16030.71
642.301	15910.71
642.654	15913.2
643.007	16016.92
643.36	15920.2
643.713	15865.52
644.066	15976.92
644.419	15907.77
644.771	15767.44
645.124	15687.21
645.477	15648.57
645.83	15629.59
646.182	15460.1
646.535	15418.07
646.888	15468.92
647.24	15381.91
647.593	15468.92
647.945	15465.53
648.298	15310.28
648.65	15385.3
649.002	15292.65
649.355	15459.42
649.707	15324.06
650.059	15404.51
650.411	15642.02
650.763	15658.74
651.115	15762.01
651.467	15726.08
651.819	15634.79
652.171	15668.68
652.523	15618.29
652.875	15677.5
653.227	15594.11
653.578	15672.07
653.93	15679.98
654.282	15604.28
654.633	15618.06
654.985	15511.17
655.337	15539.42
655.688	15638.85
656.039	15643.37
656.391	15591.62
656.742	15597.73
657.094	15607.44
657.445	15714.78
657.796	15557.05
658.147	15602.47
658.498	15599.99
658.849	15571.29
659.2	15613.77
659.551	15597.5
659.902	15611.28
660.253	15638.4
660.604	15581.45
660.955	15551.85
661.306	15677.95
661.656	15582.36
662.007	15651.06
662.358	15587.33
662.708	15653.32
663.059	15615.8
663.409	15533.77
663.76	15653.32
664.11	15594.11
664.461	15636.37
664.811	15622.58
665.161	15658.29
665.511	15663.94
665.862	15686.54
666.212	15754.33
666.562	15750.94
666.912	15738.06
667.262	15649.7
667.612	15680.89
667.962	15797.95
668.312	15614
668.662	15738.74
669.011	15712.07
669.361	15649.48
669.711	15665.07
670.06	15662.36
670.41	15670.27
670.76	15625.52
671.109	15627.1
671.459	15706.88
671.808	15729.47
672.157	15684.73
672.507	15659.87
672.856	15664.39
673.205	15665.75
673.554	15747.78
673.904	15639.31
674.253	15706.2
674.602	15700.1
674.951	15424.62
675.3	15345.3
675.649	15612.64
675.998	15631.85
676.346	15715.01
676.695	15777.38
677.044	15593.21
677.393	15639.08
677.741	15729.93
678.09	15630.04
678.438	15656.93
678.787	15624.17
679.135	15677.95
679.484	15497.62
679.832	15626.2
680.181	15507.11
680.529	15658.06
680.877	15662.13
681.225	15600.44
681.573	15602.7
681.922	15584.17
682.27	15556.14
682.618	15594.79
682.966	15531.74
683.314	15668.68
683.661	15443.61
684.009	15470.05
684.357	15429.14
684.705	15515.02
685.053	15413.55
685.4	15431.63
685.748	15428.69
686.095	15412.42
686.443	15386.88
686.79	15375.58
687.138	15327.9
687.485	15392.99
687.832	15394.57
688.18	15380.56
688.527	15309.82
688.874	15237.06
689.221	15302.14
689.568	15293.55
689.915	15248.58
690.262	15215.36
690.609	15193.44
690.956	15130.17
691.303	15047.68
691.65	15097.4
691.997	15124.29
692.344	15007.68
692.69	15012.66
693.037	15067.57
693.383	14941.7
693.73	15005.2
694.077	14846.78
694.423	14959.55
694.769	14872.55
695.116	14776.5
695.462	14835.03
695.808	14785.09
696.155	14878.87
696.501	14706.9
696.847	14715.49
697.193	14651.99
697.539	14756.17
697.885	14663.29
698.231	14632.33
698.577	14659.67
698.923	14678.2
699.269	14534.25
699.614	14505.55
699.96	14447.47
700.306	14502.16
700.651	14407.25
700.997	14449.51
701.342	14502.16
701.688	14350.75
702.033	14416.29
702.379	14360.24
702.724	14296.06
703.069	14407.7
703.415	14237.76
703.76	14248.16
704.105	14246.8
704.45	14252
704.795	14128.16
705.14	14107.82
705.485	14085
705.83	14020.37
706.175	14068.27
706.52	14077.09
706.865	14015.62
707.209	13998.9
707.554	13943.98
707.899	14067.6
708.243	13864.89
708.588	13966.58
708.932	13870.09
709.277	13848.84
709.621	13882.52
709.966	13770.65
710.31	13952.35
710.654	13686.14
710.998	13736.31
711.342	13852.01
711.687	13772.91
712.031	13735.18
712.375	13697.21
712.719	13743.31
713.063	13745.12
713.407	13694.05
713.75	13645.23
714.094	13590.55
714.438	13640.71
714.782	13662.41
715.125	13559.81
715.469	13556.88
715.812	13554.84
716.156	13475.07
716.499	13531.11
716.843	13515.07
717.186	13487.27
717.53	13488.18
717.873	13509.42
718.216	13478.01
718.559	13384.22
718.902	13382.87
719.246	13355.75
719.589	13388.07
719.932	13283.66
720.275	13288.18
720.617	13352.13
720.96	13284.79
721.303	13315.53
721.646	13376.99
721.989	13179.48
722.331	13287.5
722.674	13297.45
723.016	13239.82
723.359	13224.23
723.701	13220.39
724.044	13174.96
724.386	13096.32
724.729	13148.75
725.071	13228.3
725.413	13149.43
725.755	13212.25
726.097	13129.32
726.439	13048.41
726.782	13148.52
727.124	13157.11
727.465	13053.61
727.807	13126.83
728.149	12998.92
728.491	13016.1
728.833	13097
729.175	13041.63
729.516	12962.54
729.858	12981.07
730.199	12927.29
730.541	12999.38
730.882	13003.67
731.224	13015.19
731.565	12890.45
731.906	12830.57
732.248	12880.96
732.589	12837.35
732.93	12783.79
733.271	12832.6
733.612	12836.44
733.953	12913.5
734.294	12867.63
734.635	12784.24
734.976	12740.85
735.317	12703.11
735.658	12765.94
735.999	12739.72
736.339	12791.25
736.68	12744.47
737.021	12627.41
737.361	12678.03
737.702	12774.07
738.042	12729.1
738.383	12646.16
738.723	12676.67
739.063	12649.78
739.404	12613.62
739.744	12643
740.084	12564.13
740.424	12646.39
740.764	12550.35
741.104	12615.43
741.444	12529.56
741.784	12411.82
742.124	12523.91
742.464	12464.02
742.804	12486.62
743.143	12482.33
743.483	12466.51
743.823	12338.38
744.162	12393.74
744.502	12428.09
744.841	12395.55
745.181	12404.59
745.52	12324.37
745.86	12336.79
746.199	12293.86
746.538	12348.55
746.877	12289.11
747.216	12258.15
747.556	12193.97
747.895	12259.51
748.234	12232.16
748.573	12216.57
748.911	12186.29
749.25	12148.78
749.589	12214.31
749.928	12163.01
750.267	12157.36
750.605	12125.5
750.944	12113.07
751.283	11994.88
751.621	12049.57
751.96	11999.4
752.298	11939.06
752.636	11986.75
752.975	11878.5
753.313	11781.1
753.651	11889.12
753.989	11765.51
754.327	11764.61
754.666	11729.58
755.004	11777.03
755.342	11674.21
755.679	11785.4
756.017	11665.4
756.355	11676.25
756.693	11712.18
757.031	11706.53
757.368	11676.47
757.706	11433.99
758.044	11479.42
758.381	11506.99
758.719	11398.97
759.056	11469.25
759.394	11395.35
759.731	11333.43
760.068	11331.4
760.405	11241.23
760.743	11266.99
