Data from brown_tile_FLMS001491_026.txt Node
Date: Tue Feb 07 10:37:17 GMT 2017
User: dcchb
Spectrometer: FLMS00149
Trigger mode: 0
Integration Time (sec): 2.000000E-2
Scans to average: 10
Electric dark correction enabled: true
Nonlinearity correction enabled: false
Boxcar width: 0
XAxis mode: Wavelengths
Number of Pixels in Spectrum: 2048
>>>>>Begin Spectral Data<<<<<
341.393	-3.7
341.776	-3.7
342.16	-3.7
342.543	-68.56
342.927	-70.37
343.31	-77.6
343.693	-75.79
344.077	-64.26
344.46	-53.19
344.843	-69.01
345.226	-41.67
345.61	-47.99
345.993	-29.01
346.376	-3.47
346.759	25.68
347.142	38.56
347.525	53.02
347.908	65.45
348.291	79.46
348.674	91.21
349.057	108.61
349.44	130.31
349.823	132.57
350.206	136.63
350.588	183.87
350.971	186.58
351.354	217.31
351.737	228.38
352.119	220.7
352.502	253.47
352.884	264.99
353.267	256.41
353.65	273.13
354.032	285.11
354.414	284.65
354.797	290.53
355.179	293.47
355.562	292.34
355.944	296.18
356.326	302.05
356.709	309.51
357.091	320.81
357.473	340.25
357.855	318.1
358.238	329.4
358.62	334.14
359.002	328.49
359.384	324.88
359.766	332.56
360.148	318.55
360.53	310.87
360.912	308.83
361.294	316.97
361.676	297.99
362.057	317.65
362.439	296.86
362.821	311.32
363.203	311.32
363.584	304.99
363.966	316.97
364.348	289.17
364.729	281.72
365.111	285.33
365.493	284.65
365.874	311.77
366.256	283.52
366.637	313.81
367.019	296.86
367.4	285.78
367.781	308.38
368.163	327.59
368.544	320.13
368.925	297.99
369.306	283.75
369.688	291.88
370.069	299.12
370.45	297.76
370.831	287.37
371.212	306.35
371.593	302.05
371.974	306.57
372.355	317.65
372.736	304.31
373.117	293.24
373.498	287.14
373.879	281.26
374.26	293.69
374.641	291.66
375.021	304.99
375.402	321.94
375.783	309.74
376.163	297.53
376.544	307.48
376.925	322.39
377.305	302.05
377.686	309.74
378.066	317.2
378.447	302.28
378.827	312
379.208	314.26
379.588	312.9
379.968	304.99
380.349	289.17
380.729	313.81
381.109	302.51
381.489	327.59
381.87	328.95
382.25	299.79
382.63	330.98
383.01	318.32
383.39	335.27
383.77	313.13
384.15	307.93
384.53	327.14
384.91	297.53
385.29	326.91
385.67	307.48
386.049	331.43
386.429	327.59
386.809	337.53
387.189	348.61
387.568	349.28
387.948	328.95
388.328	328.49
388.707	336.18
389.087	353.13
389.466	331.66
389.846	324.2
390.225	344.31
390.605	331.88
390.984	343.86
391.363	361.94
391.743	320.81
392.122	334.82
392.501	353.58
392.881	363.52
393.26	341.15
393.639	333.69
394.018	335.27
394.397	357.19
394.776	353.8
395.155	365.1
395.534	379.34
395.913	351.77
396.292	360.36
396.671	371.88
397.05	388.38
397.429	361.04
397.808	363.97
398.186	370.53
398.565	374.59
398.944	380.02
399.323	362.39
399.701	352.22
400.08	378.21
400.458	351.32
400.837	372.33
401.215	375.95
401.594	359
401.972	392
402.351	387.25
402.729	388.61
403.107	388.61
403.486	387.02
403.864	386.12
404.242	377.31
404.62	385.89
404.999	422.05
405.377	374.82
405.755	375.95
406.133	386.35
406.511	384.99
406.889	423.63
407.267	384.99
407.645	387.02
408.023	403.52
408.401	388.83
408.779	404.42
409.156	415.27
409.534	398.77
409.912	412.79
410.29	425.21
410.667	407.81
411.045	402.16
411.422	400.81
411.8	418.44
412.178	435.61
412.555	430.41
412.933	422.05
413.31	422.95
413.687	442.84
414.065	438.1
414.442	432.67
414.819	441.03
415.197	468.6
415.574	438.55
415.951	453.24
416.328	454.59
416.705	431.09
417.082	450.07
417.46	450.75
417.837	457.53
418.214	453.24
418.591	432.22
418.967	459.79
419.344	442.84
419.721	473.35
420.098	484.87
420.475	488.26
420.852	480.81
421.228	469.28
421.605	472.9
421.982	487.59
422.358	497.08
422.735	490.75
423.111	490.52
423.488	488.94
423.864	490.52
424.241	502.27
424.617	511.31
424.994	496.17
425.37	499.56
425.746	488.49
426.123	516.51
426.499	492.78
426.875	487.36
427.251	507.25
427.627	507.7
428.003	520.81
428.379	514.25
428.756	539.56
429.132	544.53
429.507	537.3
429.883	544.76
430.259	558.77
430.635	540.92
431.011	543.18
431.387	547.7
431.763	569.62
432.138	566.68
432.514	569.62
432.89	596.06
433.265	591.99
433.641	582.72
434.016	596.51
434.392	596.28
434.767	589.96
435.143	596.51
435.518	597.87
435.894	605.32
436.269	583.18
436.644	603.29
437.02	636.28
437.395	633.12
437.77	623.4
438.145	622.27
438.52	638.09
438.895	617.53
439.271	624.98
439.646	643.51
440.021	643.51
440.395	638.77
440.77	630.41
441.145	647.58
441.52	644.64
441.895	671.76
442.27	645.1
442.645	648.49
443.019	668.15
443.394	667.69
443.769	675.6
444.143	699.78
444.518	695.94
444.892	665.89
445.267	692.33
445.641	674.7
446.016	697.75
446.39	691.2
446.764	716.05
447.139	697.07
447.513	719.67
447.887	727.81
448.262	726.22
448.636	716.28
449.01	695.72
449.384	726
449.758	731.87
450.132	737.52
450.506	745.21
450.88	736.62
451.254	734.13
451.628	737.3
452.002	746.79
452.376	750.4
452.75	766.9
453.123	794.02
453.497	778.2
453.871	771.19
454.244	794.92
454.618	813.91
454.992	817.97
455.365	802.61
455.739	811.87
456.112	824.07
456.486	813.45
456.859	857.29
457.232	871.53
457.606	831.98
457.979	860.46
458.352	862.72
458.725	880.34
459.099	875.82
459.472	871.76
459.845	896.61
460.218	896.16
460.591	895.94
460.964	904.75
461.337	928.7
461.71	918.76
462.083	934.13
462.456	933
462.829	965.54
463.201	979.32
463.574	962.83
463.947	985.65
464.32	1010.96
464.692	994.92
465.065	1007.35
465.438	990.85
465.81	1037.85
466.183	1027.46
466.555	1051.19
466.928	1036.95
467.3	1036.5
467.672	1057.74
468.045	1081.69
468.417	1088.02
468.789	1082.82
469.161	1120.11
469.534	1104.29
469.906	1118.08
470.278	1150.39
470.65	1149.72
471.022	1162.37
471.394	1186.1
471.766	1196.49
472.138	1183.61
472.51	1202.37
472.882	1248.02
473.253	1254.8
473.625	1255.02
473.997	1276.94
474.369	1276.27
474.74	1304.29
475.112	1324.4
475.484	1341.12
475.855	1374.79
476.227	1369.6
476.598	1381.8
476.97	1408.24
477.341	1414.79
477.713	1447.79
478.084	1430.61
478.455	1463.61
478.827	1487.33
479.198	1532.76
479.569	1529.14
479.94	1566.88
480.311	1568.91
480.682	1597.39
481.053	1672.41
481.424	1656.82
481.795	1665.41
482.166	1683.71
482.537	1727.78
482.908	1756.48
483.279	1705.41
483.65	1757.16
484.021	1793.09
484.391	1807.55
484.762	1836.03
485.133	1836.93
485.503	1871.73
485.874	1902.46
486.244	1899.53
486.615	1947.66
486.985	1956.02
487.356	2020.88
487.726	2001.9
488.097	2080.09
488.467	2079.18
488.837	2091.84
489.207	2133.64
489.578	2178.39
489.948	2180.65
490.318	2164.6
490.688	2226.98
491.058	2228.11
491.428	2219.74
491.798	2290.25
492.168	2339.06
492.538	2334.54
492.908	2332.51
493.278	2375.67
493.648	2415.9
494.017	2426.74
494.387	2461.77
494.757	2444.82
495.126	2509.23
495.496	2511.49
495.866	2493.18
496.235	2532.73
496.605	2518.49
496.974	2525.72
497.344	2567.08
497.713	2600.98
498.082	2637.13
498.452	2666.96
498.821	2638.49
499.19	2683.01
499.559	2700.64
499.928	2719.17
500.298	2729.34
500.667	2737.7
501.036	2767.75
501.405	2800.52
501.774	2809.11
502.143	2854.53
502.512	2821.99
502.88	2846.62
503.249	2853.63
503.618	2851.59
503.987	2910.35
504.356	2939.72
504.724	2916
505.093	2941.53
505.462	2965.04
505.83	2977.01
506.199	3022.21
506.567	3050
506.936	3040.97
507.304	3090.91
507.672	3058.37
508.041	3093.62
508.409	3143.79
508.777	3133.62
509.145	3183.56
509.514	3200.28
509.882	3215.42
510.25	3181.53
510.618	3242.77
510.986	3274.18
511.354	3295.87
511.722	3294.74
512.09	3357.79
512.458	3365.25
512.826	3362.54
513.193	3400.73
513.561	3430.11
513.929	3439.15
514.297	3515.76
514.664	3503.33
515.032	3535.19
515.4	3533.16
515.767	3548.3
516.135	3577.22
516.502	3580.16
516.869	3667.16
517.237	3679.14
517.604	3642.08
517.972	3712.59
518.339	3705.13
518.706	3712.13
519.073	3737.44
519.44	3756.88
519.808	3833.26
520.175	3845.01
520.542	3873.71
520.909	3856.76
521.276	3909.64
521.643	3983.09
522.009	3984.9
522.376	3985.8
522.743	4102.63
523.11	4102.41
523.477	4127.26
523.843	4143.54
524.21	4203.42
524.577	4249.97
524.943	4246.81
525.31	4300.82
525.676	4339.01
526.043	4352.8
526.409	4354.6
526.776	4392.34
527.142	4429.4
527.508	4465.33
527.874	4517.54
528.241	4536.52
528.607	4560.7
528.973	4615.61
529.339	4611.55
529.705	4706.01
530.071	4770.86
530.437	4725.67
530.803	4731.99
531.169	4823.52
531.535	4848.83
531.901	4866.68
532.267	4884.31
532.632	4928.15
532.998	4922.27
533.364	4956.17
533.73	4996.17
534.095	5025.32
534.461	5030.52
534.826	5058.09
535.192	5102.61
535.557	5155.26
535.923	5161.59
536.288	5236.61
536.653	5201.36
537.019	5207.69
537.384	5272.32
537.749	5277.06
538.114	5316.84
538.479	5358.87
538.845	5355.71
539.21	5406.78
539.575	5418.53
539.94	5451.3
540.305	5456.04
540.67	5529.26
541.034	5542.59
541.399	5621.24
541.764	5618.3
542.129	5609.49
542.494	5637.28
542.858	5695.81
543.223	5698.52
543.587	5787.56
543.952	5827.78
544.316	5819.88
544.681	5801.57
545.045	5866.65
545.41	5852.19
545.774	5936.93
546.138	5935.58
546.503	6010.6
546.867	6067.33
547.231	6095.8
547.595	6103.03
547.959	6157.04
548.324	6194.33
548.688	6195.23
549.052	6182.58
549.416	6343.25
549.779	6317.26
550.143	6358.84
550.507	6430.03
550.871	6491.04
551.235	6460.99
551.599	6570.59
551.962	6547.77
552.326	6645.62
552.689	6648.1
553.053	6654.43
553.417	6745.05
553.78	6844.03
554.143	6870.7
554.507	6919.51
554.87	6974.65
555.234	7035.21
555.597	7030.69
555.96	7117.47
556.323	7118.15
556.686	7195.43
557.05	7265.71
557.413	7336.22
557.776	7368.08
558.139	7430.91
558.502	7513.16
558.865	7548.64
559.228	7691.69
559.59	7692.59
559.953	7728.53
560.316	7820.27
560.679	7916.54
561.041	7999.03
561.404	8065.01
561.767	8103.66
562.129	8156.99
562.492	8262.07
562.854	8259.36
563.217	8308.17
563.579	8444.21
563.941	8452.35
564.304	8585
564.666	8670.87
565.028	8764.2
565.39	8820.93
565.753	8896.63
566.115	8961.04
566.477	9055.95
566.839	9140.47
567.201	9194.02
567.563	9283.51
567.925	9378.88
568.287	9453.68
568.648	9454.13
569.01	9529.16
569.372	9735.7
569.734	9657.74
570.095	9864.06
570.457	9845.76
570.819	9965.3
571.18	10055.24
571.542	10126.43
571.903	10166.2
572.265	10219.76
572.626	10373.43
572.987	10443.26
573.349	10568.9
573.71	10621.56
574.071	10641.9
574.432	10708.56
574.794	10832.17
575.155	10902.23
575.516	10943.36
575.877	10987.65
576.238	11099.74
576.599	11153.07
576.96	11229.9
577.32	11325.49
577.681	11412.5
578.042	11424.02
578.403	11544.02
578.763	11609.55
579.124	11566.84
579.485	11771.58
579.845	11833.28
580.206	11847.97
580.566	11907.85
580.927	11987.17
581.287	12070.56
581.648	12045.47
582.008	12133.38
582.368	12185.58
582.728	12270.55
583.089	12275.07
583.449	12353.94
583.809	12423.32
584.169	12440.04
584.529	12432.81
584.889	12650.2
585.249	12600.26
585.609	12578.79
585.969	12666.25
586.329	12696.53
586.688	12732.91
587.048	12827.37
587.408	12908.05
587.768	12852.68
588.127	12928.61
588.487	12940.59
588.846	13090.19
589.206	12975.39
589.565	13108.72
589.925	13103.3
590.284	13111.89
590.643	13284.31
591.003	13263.3
591.362	13308.04
591.721	13356.63
592.08	13316.4
592.44	13479.79
592.799	13485.44
593.158	13571.08
593.517	13634.58
593.876	13590.97
594.235	13559.11
594.593	13655.83
594.952	13653.34
595.311	13687.46
595.67	13787.35
596.029	13870.96
596.387	13834.81
596.746	13958.87
597.104	13923.62
597.463	13964.97
597.822	14014.24
598.18	13956.84
598.538	13935.37
598.897	14072.54
599.255	14082.03
599.613	14206.32
599.972	14162.71
600.33	14213.55
600.688	14158.86
601.046	14315.92
601.404	14366.09
601.762	14297.39
602.12	14431.17
602.478	14443.15
602.836	14453.09
603.194	14398.41
603.552	14479.76
603.91	14482.25
604.268	14570.15
604.625	14526.54
604.983	14705.07
605.341	14483.83
605.698	14698.74
606.056	14733.54
606.413	14722.69
606.771	14832.75
607.128	14870.71
607.485	14798.17
607.843	14694.67
608.2	14842.24
608.557	15006.75
608.914	14954.78
609.272	15027.77
609.629	15010.14
609.986	15154.09
610.343	14984.38
610.7	15176.01
611.057	15172.4
611.414	15215.56
611.771	15127.2
612.127	15309.12
612.484	15197.26
612.841	15328.55
613.198	15278.38
613.554	15345.73
613.911	15429.34
614.267	15430.47
614.624	15438.15
614.98	15473.86
615.337	15567.64
615.693	15552.05
616.05	15493.52
616.406	15645.15
616.762	15602.67
617.118	15539.39
617.475	15548.43
617.831	15631.37
618.187	15718.15
618.543	15608.32
618.899	15726.51
619.255	15720.18
619.611	15698.26
619.967	15801.53
620.323	15872.04
620.678	15838.59
621.034	15793.62
621.39	15773.51
621.746	15831.59
622.101	16033.84
622.457	15878.82
622.812	15906.39
623.168	15944.81
623.523	16005.6
623.879	15992.26
624.234	15886.96
624.589	16004.24
624.945	16009.44
625.3	16039.04
625.655	16044.69
626.01	15921.3
626.365	15960.63
626.72	16026.16
627.075	15928.08
627.43	15884.47
627.785	15962.66
628.14	16067.52
628.495	16022.09
628.85	16003.56
629.205	15949.1
629.559	16060.96
629.914	15965.15
630.269	16137.57
630.623	16012.15
630.978	15977.57
631.332	16020.74
631.687	16126.72
632.041	16022.77
632.396	15985.26
632.75	15984.81
633.104	15989.55
633.459	15867.97
633.813	15858.26
634.167	15922.21
634.521	15910.68
634.875	15932.38
635.229	15854.41
635.583	15834.53
635.937	15929.44
636.291	15910.46
636.645	15851.7
636.999	15752.95
637.352	15846.96
637.706	15832.49
638.06	15792.27
638.413	15790.01
638.767	15797.01
639.121	15806.51
639.474	15614.42
639.828	15776
640.181	15777.58
640.534	15666.17
640.888	15747.3
641.241	15674.53
641.594	15679.28
641.947	15640.41
642.301	15615.78
642.654	15701.88
643.007	15713.17
643.36	15647.41
643.713	15643.8
644.066	15655.32
644.419	15655.32
644.771	15425.05
645.124	15340.53
645.477	15332.39
645.83	15343.01
646.182	15253.98
646.535	15139.86
646.888	15287.2
647.24	15157.93
647.593	15258.72
647.945	15252.62
648.298	15128.56
648.65	15060.31
649.002	15061.89
649.355	15061.89
649.707	15168.33
650.059	15129.23
650.411	15317.25
650.763	15370.13
651.115	15464.59
651.467	15435.44
651.819	15484.48
652.171	15435.89
652.523	15381.43
652.875	15370.36
653.227	15352.73
653.578	15461.2
653.93	15333.75
654.282	15333.98
654.633	15412.84
654.985	15453.97
655.337	15352.96
655.688	15414.65
656.039	15464.59
656.391	15257.14
656.742	15239.51
657.094	15381.21
657.445	15398.15
657.796	15407.19
658.147	15305.05
658.498	15348.21
658.849	15363.81
659.2	15400.19
659.551	15295.11
659.902	15373.52
660.253	15326.97
660.604	15420.98
660.955	15318.16
661.306	15418.27
661.656	15380.53
662.007	15359.96
662.358	15421.2
662.708	15354.31
663.059	15441.54
663.409	15217.82
663.76	15476.57
664.11	15399.51
664.461	15446.74
664.811	15492.84
665.161	15371.94
665.511	15379.17
665.862	15373.07
666.212	15443.58
666.562	15449.23
666.912	15447.19
667.262	15404.71
667.612	15377.59
667.962	15367.42
668.312	15475.67
668.662	15454.88
669.011	15524.7
669.361	15528.09
669.711	15445.38
670.06	15434.54
670.41	15408.1
670.76	15429.57
671.109	15437.93
671.459	15500.52
671.808	15340.3
672.157	15486.51
672.507	15455.55
672.856	15409
673.205	15409.68
673.554	15383.24
673.904	15435.44
674.253	15460.53
674.602	15512.5
674.951	15304.6
675.3	15075.23
675.649	15483.35
675.998	15432.5
676.346	15381.43
676.695	15475.44
677.044	15402.67
677.393	15479.51
677.741	15402.45
678.09	15414.65
678.438	15432.5
678.787	15460.75
679.135	15429.11
679.484	15329.68
679.832	15356.35
680.181	15376.23
680.529	15394.54
680.877	15345.27
681.225	15299.17
681.573	15481.99
681.922	15346.4
682.27	15258.05
682.618	15324.71
682.966	15266.41
683.314	15385.73
683.661	15242.23
684.009	15236.12
684.357	15234.77
684.705	15178.95
685.053	15254.88
685.4	15257.37
685.748	15214.43
686.095	15190.25
686.443	15178.95
686.79	15059.63
687.138	15116.81
687.485	15088.56
687.832	15075.9
688.18	15106.86
688.527	15041.33
688.874	15076.13
689.221	15043.14
689.568	14912.52
689.915	14969.69
690.262	15001.78
690.609	14943.03
690.956	14964.95
691.303	14876.36
691.65	14832.29
691.997	14830.03
692.344	14804.27
692.69	14842.91
693.037	14805.63
693.383	14733.54
693.73	14721.11
694.077	14654.9
694.423	14764.72
694.769	14680.21
695.116	14668.23
695.462	14633.43
695.808	14678.17
696.155	14617.84
696.501	14500.32
696.847	14548.46
697.193	14468.91
697.539	14576.26
697.885	14422.13
698.231	14403.15
698.577	14477.73
698.923	14370.16
699.269	14370.38
699.614	14312.31
699.96	14269.82
700.306	14309.14
700.651	14184.18
700.997	14156.38
701.342	14166.77
701.688	14181.24
702.033	14182.82
702.379	14162.25
702.724	14215.13
703.069	14133.78
703.415	14064.63
703.76	14016.72
704.105	13982.37
704.45	14046.78
704.795	13947.12
705.14	13921.13
705.485	14014.01
705.83	13881.13
706.175	14002.03
706.52	13883.62
706.865	13908.7
707.209	13943.73
707.554	13859.21
707.899	13970.62
708.243	13823.73
708.588	13817.18
708.932	13727.69
709.277	13794.81
709.621	13782.15
709.966	13673.45
710.31	13743.06
710.654	13601.82
710.998	13636.39
711.342	13638.65
711.687	13590.29
712.031	13605.43
712.375	13546.45
712.719	13571.99
713.063	13554.36
713.407	13583.06
713.75	13564.08
714.094	13550.75
714.438	13441.6
714.782	13488.15
715.125	13477.75
715.469	13559.11
715.812	13379
716.156	13364.76
716.499	13407.92
716.843	13375.61
717.186	13385.78
717.53	13375.16
717.873	13334.71
718.216	13334.48
718.559	13290.64
718.902	13263.52
719.246	13300.81
719.589	13259.23
719.932	13155.05
720.275	13204.99
720.617	13203.41
720.96	13186.69
721.303	13218.55
721.646	13270.75
721.989	13140.13
722.331	13174.48
722.674	13172
723.016	13085.45
723.359	13152.56
723.701	13096.75
724.044	13002.06
724.386	13038.67
724.729	13120.47
725.071	12979.01
725.413	13115.05
725.755	13140.36
726.097	13046.58
726.439	12927.03
726.782	13059.01
727.124	13065.33
727.465	12960.25
727.807	12935.85
728.149	12980.36
728.491	12959.8
728.833	12967.03
729.175	12890.65
729.516	12863.08
729.858	12859.24
730.199	12936.52
730.541	12855.85
730.882	12852.91
731.224	12846.13
731.565	12826.7
731.906	12797.09
732.248	12834.83
732.589	12765.91
732.93	12739.24
733.271	12795.29
733.612	12815.85
733.953	12769.07
734.294	12734.72
734.635	12741.28
734.976	12766.59
735.317	12619.24
735.658	12691.78
735.999	12618.11
736.339	12698.56
736.68	12645.46
737.021	12654.72
737.361	12566.36
737.702	12639.13
738.042	12638
738.383	12569.3
738.723	12581.05
739.063	12550.09
739.404	12554.16
739.744	12494.73
740.084	12488.63
740.424	12438.23
740.764	12433.03
741.104	12519.81
741.444	12384.9
741.784	12416.09
742.124	12367.27
742.464	12348.52
742.804	12370.66
743.143	12355.75
743.483	12373.83
743.823	12298.8
744.162	12361.62
744.502	12284.56
744.841	12268.07
745.181	12280.04
745.52	12204.57
745.86	12260.38
746.199	12136.55
746.538	12231.01
746.877	12151.01
747.216	12258.35
747.556	12149.88
747.895	12166.83
748.234	12139.26
748.573	12064.46
748.911	12041.41
749.25	12016.32
749.589	11999.6
749.928	12081.86
750.267	12027.17
750.605	12036.66
750.944	11991.69
751.283	11952.82
751.621	11955.99
751.96	11785.37
752.298	11899.94
752.636	11900.62
752.975	11858.36
753.313	11784.69
753.651	11849.55
753.989	11669.66
754.327	11723.22
754.666	11695.43
755.004	11592.38
755.342	11667.18
755.679	11638.03
756.017	11510.8
756.355	11594.64
756.693	11552.38
757.031	11595.99
757.368	11497.92
757.706	11430.35
758.044	11382.89
758.381	11435.09
758.719	11403.01
759.056	11389.45
759.394	11348.32
759.731	11258.15
760.068	11289.11
760.405	11229.9
