Data from brown_tile_FLMS001491_008.txt Node
Date: Tue Feb 07 10:37:00 GMT 2017
User: dcchb
Spectrometer: FLMS00149
Trigger mode: 0
Integration Time (sec): 2.000000E-2
Scans to average: 10
Electric dark correction enabled: true
Nonlinearity correction enabled: false
Boxcar width: 0
XAxis mode: Wavelengths
Number of Pixels in Spectrum: 2048
>>>>>Begin Spectral Data<<<<<
341.393	-16.02
341.776	-16.02
342.16	-16.02
342.543	-79.07
342.927	-69.35
343.31	-53.3
343.693	-59.18
344.077	-66.18
344.46	-58.28
344.843	-62.12
345.226	-42.91
345.61	-37.71
345.993	-4.72
346.376	0.48
346.759	-15.34
347.142	19.69
347.525	24.89
347.908	66.47
348.291	77.99
348.674	108.5
349.057	101.72
349.44	111.44
349.823	138.33
350.206	152.34
350.588	193.24
350.971	191.21
351.354	206.12
351.737	217.88
352.119	229.85
352.502	253.81
352.884	274.15
353.267	263.07
353.65	255.84
354.032	305.56
354.414	309.4
354.797	309.85
355.179	310.08
355.562	316.63
355.944	301.26
356.326	315.27
356.709	321.6
357.091	319.79
357.473	332.45
357.855	326.57
358.238	329.29
358.62	321.6
359.002	317.53
359.384	331.54
359.766	332.9
360.148	330.42
360.53	324.54
360.912	342.62
361.294	329.96
361.676	315.5
362.057	337.65
362.439	329.06
362.821	301.04
363.203	311.43
363.584	285.44
363.966	312.56
364.348	309.4
364.729	313.69
365.111	283.18
365.493	312.56
365.874	294.94
366.256	299
366.637	301.72
367.019	303.07
367.4	309.4
367.781	316.63
368.163	306.23
368.544	323.64
368.925	308.72
369.306	294.71
369.688	290.42
370.069	306.69
370.45	317.99
370.831	297.2
371.212	298.1
371.593	315.27
371.974	317.31
372.355	298.78
372.736	318.66
373.117	287.03
373.498	306.69
373.879	308.49
374.26	282.51
374.641	305.78
375.021	306.69
375.402	308.95
375.783	323.41
376.163	330.64
376.544	317.99
376.925	314.6
377.305	310.98
377.686	333.58
378.066	326.8
378.447	323.64
378.827	320.47
379.208	329.29
379.588	313.01
379.968	322.05
380.349	321.38
380.729	315.05
381.109	330.42
381.489	331.09
381.87	320.47
382.25	344.88
382.63	324.31
383.01	360.02
383.39	333.8
383.77	332.22
384.15	341.04
384.53	331.54
384.91	326.12
385.29	333.13
385.67	354.82
386.049	333.13
386.429	352.34
386.809	346.91
387.189	321.6
387.568	324.99
387.948	353.92
388.328	355.27
388.707	346.69
389.087	367.02
389.466	376.97
389.846	360.24
390.225	340.13
390.605	362.28
390.984	366.8
391.363	362.96
391.743	360.7
392.122	378.32
392.501	353.69
392.881	353.69
393.26	361.6
393.639	375.16
394.018	353.47
394.397	361.6
394.776	376.97
395.155	366.57
395.534	388.72
395.913	367.93
396.292	381.94
396.671	373.35
397.05	380.36
397.429	368.15
397.808	360.47
398.186	392.11
398.565	365.67
398.944	368.83
399.323	412.22
399.701	408.61
400.08	406.8
400.458	391.43
400.837	401.37
401.215	410.86
401.594	408.83
401.972	389.17
402.351	395.05
402.729	407.93
403.107	382.62
403.486	409.73
403.864	393.01
404.242	412.9
404.62	408.83
404.999	425.55
405.377	414.93
405.755	429.85
406.133	410.41
406.511	403.86
406.889	419
407.267	436.63
407.645	422.16
408.023	410.19
408.401	449.96
408.779	437.3
409.156	444.08
409.534	433.24
409.912	453.35
410.29	468.49
410.667	447.25
411.045	437.76
411.422	426.23
411.8	456.06
412.178	455.38
412.555	469.85
412.933	464.42
413.31	452.67
413.687	462.84
414.065	462.84
414.442	454.71
414.819	480.02
415.197	473.46
415.574	470.75
415.951	475.95
416.328	467.36
416.705	476.4
417.082	475.5
417.46	463.52
417.837	501.03
418.214	489.96
418.591	506
418.967	484.76
419.344	512.56
419.721	511.65
420.098	520.69
420.475	518.21
420.852	528.38
421.228	511.2
421.605	524.08
421.982	538.32
422.358	515.72
422.735	522.5
423.111	522.27
423.488	546.91
423.864	544.19
424.241	536.74
424.617	538.32
424.994	529.73
425.37	558.43
425.746	521.14
426.123	562.73
426.499	561.6
426.875	563.4
427.251	560.24
427.627	560.69
428.003	556.85
428.379	579
428.756	589.84
429.132	574.7
429.507	605.44
429.883	592.33
430.259	610.86
430.635	615.83
431.011	593.46
431.387	589.84
431.763	628.49
432.138	602.72
432.514	636.62
432.89	634.81
433.265	654.25
433.641	652.44
434.016	652.44
434.392	658.77
434.767	659.67
435.143	661.71
435.518	688.37
435.894	673.23
436.269	644.98
436.644	708.26
437.02	708.26
437.395	701.48
437.77	689.73
438.145	700.57
438.52	706.68
438.895	698.09
439.271	722.72
439.646	704.64
440.021	705.77
440.395	730.86
440.77	756.17
441.145	711.2
441.52	753.23
441.895	733.79
442.27	760.46
442.645	737.86
443.019	764.98
443.394	759.78
443.769	750.74
444.143	753.23
444.518	758.2
444.892	766.79
445.267	790.97
445.641	771.31
446.016	759.56
446.39	780.35
446.764	810.85
447.139	781.48
447.513	816.05
447.887	800.46
448.262	806.56
448.636	819.67
449.01	814.7
449.384	826.9
449.758	830.74
450.132	837.97
450.506	829.61
450.88	831.87
451.254	834.13
451.628	845.2
452.002	858.31
452.376	856.28
452.75	863.28
453.123	887.24
453.497	895.37
453.871	883.85
454.244	885.65
454.618	898.08
454.992	916.61
455.365	924.3
455.739	915.48
456.112	939.89
456.486	950.51
456.859	941.7
457.232	952.77
457.606	970.62
457.979	960.45
458.352	978.08
458.725	983.73
459.099	1001.58
459.472	1011.08
459.845	1033.22
460.218	1038.65
460.591	1033
460.964	1034.35
461.337	1052.88
461.71	1062.15
462.083	1091.98
462.456	1072.54
462.829	1098.53
463.201	1104.63
463.574	1122.26
463.947	1113.67
464.32	1156.61
464.692	1162.71
465.065	1181.69
465.438	1175.59
465.81	1183.27
466.183	1197.74
466.555	1221.47
466.928	1188.47
467.3	1217.85
467.672	1219.66
468.045	1268.24
468.417	1262.59
468.789	1267.79
469.161	1263.72
469.534	1298.98
469.906	1308.02
470.278	1309.82
470.65	1324.74
471.022	1368.13
471.394	1408.58
471.766	1418.07
472.138	1425.53
472.51	1436.15
472.882	1431.86
473.253	1421.91
473.625	1461.46
473.997	1491.97
474.369	1496.94
474.74	1530.38
475.112	1560.67
475.484	1543.94
475.855	1599.76
476.227	1599.99
476.598	1645.86
476.97	1647.89
477.341	1673.43
477.713	1706.65
478.084	1696.93
478.455	1748.46
478.827	1783.71
479.198	1798.63
479.569	1801.11
479.94	1847.21
480.311	1856.02
480.682	1909.81
481.053	1952.52
481.424	1958.62
481.795	1989.35
482.166	1966.76
482.537	2017.83
482.908	2065.51
483.279	2078.84
483.65	2130.82
484.021	2117.49
484.391	2164.72
484.762	2178.05
485.133	2192.96
485.503	2216.92
485.874	2270.7
486.244	2296.47
486.615	2340.53
486.985	2343.92
487.356	2386.18
487.726	2414.43
488.097	2442.45
488.467	2463.47
488.837	2511.6
489.207	2537.59
489.578	2557.48
489.948	2580.98
490.318	2631.82
490.688	2632.5
491.058	2669.34
491.428	2711.6
491.798	2758.15
492.168	2763.12
492.538	2775.77
492.908	2812.61
493.278	2847.64
493.648	2872.27
494.017	2905.04
494.387	2939.39
494.757	2943.68
495.126	2951.14
495.496	2965.37
495.866	3044.47
496.235	3051.47
496.605	3034.3
496.974	3083.11
497.344	3135.31
497.713	3122.43
498.082	3147.52
498.452	3206.27
498.821	3235.42
499.19	3227.51
499.559	3226.61
499.928	3268.87
500.298	3244.69
500.667	3300.51
501.036	3347.74
501.405	3354.29
501.774	3344.57
502.143	3374.4
502.512	3417.57
502.88	3402.2
503.249	3440.62
503.618	3509.09
503.987	3506.15
504.356	3494.4
504.724	3536.21
505.093	3566.94
505.462	3557
505.83	3559.03
506.199	3622.98
506.567	3654.85
506.936	3664.79
507.304	3698.24
507.672	3691
508.041	3748.4
508.409	3768.74
508.777	3769.87
509.145	3805.58
509.514	3818.23
509.882	3835.41
510.25	3861.4
510.618	3901.62
510.986	3948.4
511.354	3957.44
511.722	3970.09
512.09	4025.01
512.458	4061.16
512.826	4053.93
513.193	4088.51
513.561	4135.06
513.929	4161.27
514.297	4166.02
514.664	4198.34
515.032	4272.23
515.4	4275.17
515.767	4252.8
516.135	4309.75
516.502	4304.77
516.869	4393.59
517.237	4366.02
517.604	4396.75
517.972	4439.91
518.339	4477.2
518.706	4504.32
519.073	4516.75
519.44	4555.84
519.808	4589.29
520.175	4631.32
520.542	4667.48
520.909	4737.98
521.276	4736.63
521.643	4796.74
522.009	4821.6
522.376	4847.81
522.743	4895.04
523.11	4956.28
523.477	4977.07
523.843	4985.21
524.21	5037.86
524.577	5068.82
524.943	5109.05
525.31	5136.16
525.676	5208.03
526.043	5226.11
526.409	5292.32
526.776	5406.67
527.142	5372.77
527.508	5390.85
527.874	5425.2
528.241	5481.92
528.607	5502.93
528.973	5512.88
529.339	5562.14
529.705	5629.03
530.071	5684.62
530.437	5667
530.803	5748.58
531.169	5761.01
531.535	5736.15
531.901	5793.77
532.267	5839.87
532.632	5880.78
532.998	5935.01
533.364	6000.32
533.73	5972.53
534.095	6046.65
534.461	6057.72
534.826	6092.52
535.192	6136.82
535.557	6219.3
535.923	6246.87
536.288	6248.45
536.653	6266.76
537.019	6284.38
537.384	6369.13
537.749	6363.48
538.114	6341.33
538.479	6405.96
538.845	6425.62
539.21	6440.76
539.575	6533.87
539.94	6518.95
540.305	6586.52
540.67	6598.05
541.034	6620.42
541.399	6645.5
541.764	6734.09
542.129	6779.29
542.494	6771.15
542.858	6888.43
543.223	6860.86
543.587	6901.54
543.952	6922.33
544.316	6926.17
544.681	6933.41
545.045	7014.31
545.41	7080.29
545.774	7130.91
546.138	7142.21
546.503	7143.34
546.867	7233.28
547.231	7323.9
547.595	7326.16
547.959	7374.3
548.324	7363.45
548.688	7431.92
549.052	7491.36
549.416	7472.83
549.779	7563.45
550.143	7638.7
550.507	7676.89
550.871	7729.09
551.235	7735.87
551.599	7861.52
551.962	7939.48
552.326	7927.05
552.689	8047.27
553.053	7959.59
553.417	8062.42
553.78	8168.18
554.143	8151.45
554.507	8199.59
554.87	8302.18
555.234	8453.82
555.597	8397.1
555.96	8443.87
556.323	8530.88
556.686	8575.4
557.05	8642.74
557.413	8736.3
557.776	8746.69
558.139	8901.26
558.502	8962.5
558.865	8997.31
559.228	9087.92
559.59	9127.47
559.953	9191.65
560.316	9297.64
560.679	9373.12
561.041	9517.07
561.404	9519.78
561.767	9655.82
562.129	9680.68
562.492	9871.86
562.854	9828.02
563.217	9877.51
563.579	9946.21
563.941	10058.52
564.304	10192.3
564.666	10216.26
565.028	10330.83
565.39	10364.05
565.753	10554.55
566.115	10638.62
566.477	10675.91
566.839	10719.29
567.201	10866.41
567.563	10963.13
567.925	11050.81
568.287	11102.34
568.648	11145.95
569.01	11315.21
569.372	11380.07
569.734	11453.74
570.095	11536.67
570.457	11700.29
570.819	11726.5
571.18	11769.21
571.542	11904.35
571.903	12012.14
572.265	12017.34
572.626	12094.17
572.987	12233.83
573.349	12372.36
573.71	12402.41
574.071	12507.95
574.432	12623.2
574.794	12768.51
575.155	12777.77
575.516	12872.46
575.877	12966.02
576.238	12941.83
576.599	13099.8
576.96	13165.11
577.32	13225.44
577.681	13339.11
578.042	13407.81
578.403	13466.34
578.763	13504.31
579.124	13637.18
579.485	13785.88
579.845	13846.22
580.206	13820.46
580.566	13904.97
580.927	13937.74
581.287	14081.01
581.648	14130.05
582.008	14184.97
582.368	14183.84
582.728	14316.26
583.089	14292.31
583.449	14442.13
583.809	14467.67
584.169	14506.54
584.529	14547.22
584.889	14677.16
585.249	14594.45
585.609	14690.72
585.969	14787.21
586.329	14803.03
586.688	14829.02
587.048	14853.42
587.408	14930.94
587.768	14989.01
588.127	15069.01
588.487	15102.46
588.846	15186.52
589.206	15089.35
589.565	15107.65
589.925	15223.36
590.284	15267.88
590.643	15406.85
591.003	15426.52
591.362	15472.62
591.721	15497.25
592.08	15485.95
592.44	15532.73
592.799	15652.95
593.158	15587.42
593.517	15672.38
593.876	15801.65
594.235	15741.08
594.593	15803.68
594.952	15941.76
595.311	15866.96
595.67	15896.33
596.029	16088.87
596.387	16079.61
596.746	16065.82
597.104	16065.37
597.463	16118.93
597.822	16181.3
598.18	16215.42
598.538	16242.09
598.897	16334.06
599.255	16280.05
599.613	16463.55
599.972	16452.93
600.33	16580.61
600.688	16398.24
601.046	16564.11
601.404	16643.43
601.762	16649.76
602.12	16743.32
602.478	16756.65
602.836	16856.76
603.194	16636.43
603.552	16735.18
603.91	16740.83
604.268	16851.11
604.625	16827.83
604.983	16902.86
605.341	16963.88
605.698	16962.75
606.056	17074.61
606.413	17053.14
606.771	17118.45
607.128	17083.65
607.485	17144.66
607.843	17167.71
608.2	17146.47
608.557	17324.32
608.914	17243.64
609.272	17405.45
609.629	17416.07
609.986	17482.05
610.343	17426.46
610.7	17547.36
611.057	17561.15
611.414	17508.27
611.771	17568.38
612.127	17629.62
612.484	17629.17
612.841	17716.62
613.198	17629.4
613.554	17637.53
613.911	17799.56
614.267	17806.11
614.624	17827.36
614.98	17838.43
615.337	17844.98
615.693	17950.97
616.05	17901.25
616.406	18021.25
616.762	17964.98
617.118	17972.21
617.475	18010.18
617.831	18204.3
618.187	18113.9
618.543	18148.7
618.899	18318.42
619.255	18273.67
619.611	18254.92
619.967	18263.95
620.323	18410.39
620.678	18281.81
621.034	18348.47
621.39	18259.89
621.746	18177.18
622.101	18402.03
622.457	18354.57
622.812	18378.08
623.168	18333.33
623.523	18335.37
623.879	18452.65
624.234	18368.13
624.589	18456.27
624.945	18399.32
625.3	18503.95
625.655	18463.72
626.01	18510.73
626.365	18472.31
626.72	18503.04
627.075	18461.46
627.43	18457.62
627.785	18389.6
628.14	18467.79
628.495	18475.93
628.85	18545.76
629.205	18409.26
629.559	18537.85
629.914	18453.33
630.269	18387.34
630.623	18370.17
630.978	18404.29
631.332	18438.87
631.687	18614
632.041	18388.47
632.396	18428.92
632.75	18346.44
633.104	18445.19
633.459	18325.42
633.813	18301.02
634.167	18369.04
634.521	18312.99
634.875	18412.88
635.229	18317.29
635.583	18163.39
635.937	18306.21
636.291	18193.9
636.645	18230.51
636.999	18077.75
637.352	18181.02
637.706	18098.54
638.06	18177.63
638.413	18110.51
638.767	18140.57
639.121	18162.04
639.474	18065.99
639.828	18118.65
640.181	18105.99
640.534	18159.78
640.888	17956.62
641.241	17939.67
641.594	17993.23
641.947	18046.56
642.301	18009.95
642.654	18096.28
643.007	18049.72
643.36	18028.71
643.713	18023.74
644.066	18091.53
644.419	17935.83
644.771	17735.61
645.124	17506.91
645.477	17635.95
645.83	17511.66
646.182	17439.8
646.535	17424.43
646.888	17499.68
647.24	17424.2
647.593	17553.01
647.945	17401.83
648.298	17405.22
648.65	17369.52
649.002	17233.25
649.355	17257.43
649.707	17389.18
650.059	17449.51
650.411	17637.76
650.763	17748.49
651.115	17884.3
651.467	17816.96
651.819	17775.83
652.171	17745.1
652.523	17724.76
652.875	17637.98
653.227	17647.93
653.578	17741.03
653.93	17719.79
654.282	17711.43
654.633	17681.37
654.985	17631.2
655.337	17716.62
655.688	17712.1
656.039	17695.16
656.391	17582.16
656.742	17601.15
657.094	17682.5
657.445	17775.83
657.796	17710.3
658.147	17653.35
658.498	17704.2
658.849	17647.7
659.2	17642.95
659.551	17618.55
659.902	17689.73
660.253	17668.94
660.604	17660.35
660.955	17620.58
661.306	17650.41
661.656	17720.92
662.007	17653.35
662.358	17630.53
662.708	17636.4
663.059	17670.07
663.409	17470.08
663.76	17642.95
664.11	17735.16
664.461	17679.11
664.811	17626.01
665.161	17688.6
665.511	17626.68
665.862	17645.67
666.212	17662.84
666.562	17772.22
666.912	17651.77
667.262	17719.34
667.612	17638.21
667.962	17688.15
668.312	17685.44
668.662	17886.34
669.011	17736.74
669.361	17756.17
669.711	17692.22
670.06	17743.97
670.41	17764.76
670.76	17728.15
671.109	17748.04
671.459	17750.52
671.808	17682.5
672.157	17889.28
672.507	17651.09
672.856	17662.16
673.205	17753.46
673.554	17712.1
673.904	17705.55
674.253	17788.26
674.602	17736.96
674.951	17477.76
675.3	17359.12
675.649	17686.79
675.998	17690.18
676.346	17682.95
676.695	17807.47
677.044	17671.88
677.393	17640.24
677.741	17662.16
678.09	17679.34
678.438	17694.93
678.787	17727.25
679.135	17821.93
679.484	17531.09
679.832	17624.88
680.181	17536.52
680.529	17632.33
680.877	17690.86
681.225	17599.79
681.573	17753.91
681.922	17680.24
682.27	17574.93
682.618	17527.48
682.966	17609.51
683.314	17571.77
683.661	17537.42
684.009	17485.22
684.357	17406.35
684.705	17463.98
685.053	17496.97
685.4	17426.46
685.748	17434.6
686.095	17379.23
686.443	17395.96
686.79	17312.57
687.138	17403.41
687.485	17318.44
687.832	17271.44
688.18	17321.83
688.527	17346.24
688.874	17230.54
689.221	17226.47
689.568	17282.74
689.915	17125.68
690.262	17196.19
690.609	17074.38
690.956	17189.86
691.303	17127.49
691.65	16983.76
691.997	17072.35
692.344	16875.06
692.69	17040.71
693.037	16965.46
693.383	16840.49
693.73	16873.71
694.077	16809.08
694.423	16821.05
694.769	16794.16
695.116	16709.65
695.462	16774.05
695.808	16639.14
696.155	16722.75
696.501	16617.44
696.847	16648.4
697.193	16520.27
697.539	16589.65
697.885	16535.41
698.231	16473.04
698.577	16417.9
698.923	16528.63
699.269	16265.82
699.614	16281.41
699.96	16295.19
700.306	16334.74
700.651	16234.63
700.997	16265.82
701.342	16157.34
701.688	16077.57
702.033	16122.32
702.379	16216.78
702.724	16099.27
703.069	16244.8
703.415	15983.56
703.76	16050.91
704.105	16026.27
704.45	16007.29
704.795	15894.98
705.14	15935.88
705.485	15903.11
705.83	15892.49
706.175	15873.74
706.52	15871.48
706.865	15788.09
707.209	15813.17
707.554	15840.06
707.899	15875.32
708.243	15680.07
708.588	15681.2
708.932	15597.81
709.277	15633.52
709.621	15624.02
709.966	15580.64
710.31	15586.29
710.654	15481.88
710.998	15546.51
711.342	15523.01
711.687	15407.08
712.031	15508.77
712.375	15404.14
712.719	15400.98
713.063	15452.73
713.407	15471.26
713.75	15378.15
714.094	15427.19
714.438	15315.11
714.782	15420.87
715.125	15297.25
715.469	15324.15
715.812	15304.48
716.156	15077.6
716.499	15207.09
716.843	15159.18
717.186	15171.61
717.53	15322.79
717.873	15149.01
718.216	15182
718.559	15123.25
718.902	15125.28
719.246	15123.7
719.589	15071.27
719.932	15054.77
720.275	14940.65
720.617	15057.94
720.96	14998.05
721.303	14988.56
721.646	14979.07
721.989	14857.49
722.331	14922.57
722.674	14931.16
723.016	14908.34
723.359	14909.92
723.701	14929.13
724.044	14800.77
724.386	14734.56
724.729	14882.57
725.071	14916.02
725.413	14801.9
725.755	14846.42
726.097	14777.94
726.439	14755.8
726.782	14742.47
727.124	14717.16
727.465	14637.16
727.807	14684.16
728.149	14696.14
728.491	14668.57
728.833	14723.48
729.175	14615.24
729.516	14558.52
729.858	14560.78
730.199	14682.35
730.541	14617.5
730.882	14576.14
731.224	14603.03
731.565	14557.16
731.906	14530.04
732.248	14514.67
732.589	14485.75
732.93	14397.62
733.271	14486.2
733.612	14494.56
733.953	14513.32
734.294	14467.67
734.635	14449.37
734.976	14465.64
735.317	14463.15
735.658	14414.56
735.999	14417.73
736.339	14308.13
736.68	14319.88
737.021	14346.32
737.361	14274.23
737.702	14387.45
738.042	14207.56
738.383	14309.03
738.723	14300.22
739.063	14307.45
739.404	14319.88
739.744	14206.66
740.084	14135.02
740.424	14218.19
740.764	14203.72
741.104	14232.87
741.444	14121.92
741.784	14083.5
742.124	14169.83
742.464	14108.13
742.804	14044.18
743.143	14000.34
743.483	14055.48
743.823	13902.26
744.162	13881.25
744.502	13954.24
744.841	13874.24
745.181	13952.2
745.52	13887.35
745.86	13886.44
746.199	13843.05
746.538	13922.6
746.877	13844.41
747.216	13862.94
747.556	13782.26
747.895	13740.01
748.234	13695.49
748.573	13703.17
748.911	13744.53
749.25	13681.7
749.589	13666.11
749.928	13629.5
750.267	13630.63
750.605	13643.74
750.944	13532.78
751.283	13494.59
751.621	13481.71
751.96	13494.14
752.298	13370.3
752.636	13464.76
752.975	13331.88
753.313	13280.81
753.651	13387.25
753.989	13363.07
754.327	13348.15
754.666	13208.49
755.004	13267.02
755.342	13280.36
755.679	13220.47
756.017	13137.08
756.355	13179.57
756.693	13088.05
757.031	13149.74
757.368	13003.98
757.706	13044.43
758.044	12978.22
758.381	13024.54
758.719	12945.45
759.056	12882.4
759.394	12854.83
759.731	12765.12
