Data from brown_tile_FLMS001491_036.txt Node
Date: Tue Feb 07 10:37:25 GMT 2017
User: dcchb
Spectrometer: FLMS00149
Trigger mode: 0
Integration Time (sec): 2.000000E-2
Scans to average: 10
Electric dark correction enabled: true
Nonlinearity correction enabled: false
Boxcar width: 0
XAxis mode: Wavelengths
Number of Pixels in Spectrum: 2048
>>>>>Begin Spectral Data<<<<<
341.393	-7.57
341.776	-7.57
342.16	-7.57
342.543	-73.33
342.927	-71.07
343.31	-67
343.693	-49.83
344.077	-53.9
344.46	-55.93
344.843	-47.8
345.226	-48.7
345.61	-33.33
345.993	-10.51
346.376	-15.71
346.759	10.06
347.142	22.49
347.525	35.59
347.908	74.01
348.291	67.46
348.674	89.6
349.057	83.5
349.44	135.7
349.823	134.57
350.206	142.03
350.588	182.03
350.971	201.92
351.354	211.63
351.737	194.46
352.119	212.08
352.502	232.42
352.884	249.37
353.267	267
353.65	284.17
354.032	274
354.414	274.68
354.797	286.21
355.179	307.9
355.562	303.83
355.944	303.61
356.326	323.95
356.709	324.85
357.091	304.51
357.473	334.57
357.855	315.58
358.238	302.7
358.62	343.83
359.002	316.26
359.384	325.53
359.766	325.53
360.148	321.23
360.53	325.75
360.912	339.99
361.294	311.29
361.676	319.88
362.057	324.4
362.439	303.61
362.821	307
363.203	318.52
363.584	323.27
363.966	320.78
364.348	310.39
364.729	321.69
365.111	310.39
365.493	297.51
365.874	317.62
366.256	324.85
366.637	281.69
367.019	309.94
367.4	305.42
367.781	293.21
368.163	299.99
368.544	309.26
368.925	301.8
369.306	297.96
369.688	284.4
370.069	276.72
370.45	306.77
370.831	304.29
371.212	307.68
371.593	277.17
371.974	300.44
372.355	281.91
372.736	283.04
373.117	301.35
373.498	294.34
373.879	299.54
374.26	292.99
374.641	285.3
375.021	302.93
375.402	285.3
375.783	294.79
376.163	314
376.544	314.68
376.925	319.88
377.305	294.34
377.686	314.91
378.066	318.3
378.447	305.42
378.827	327.56
379.208	302.93
379.588	299.54
379.968	322.59
380.349	304.06
380.729	298.41
381.109	315.13
381.489	304.74
381.87	329.82
382.25	319.43
382.63	314.46
383.01	320.56
383.39	334.34
383.77	340.44
384.15	309.71
384.53	308.13
384.91	310.16
385.29	326.21
385.67	302.7
386.049	317.17
386.429	337.05
386.809	325.3
387.189	313.33
387.568	321.91
387.948	347.22
388.328	340.44
388.707	320.33
389.087	316.26
389.466	329.82
389.846	354.68
390.225	356.04
390.605	340.67
390.984	332.53
391.363	349.26
391.743	319.2
392.122	343.38
392.501	349.93
392.881	341.8
393.26	352.65
393.639	341.12
394.018	369.37
394.397	360.56
394.776	377.96
395.155	364.85
395.534	370.95
395.913	363.27
396.292	366.88
396.671	359.43
397.05	354.68
397.429	372.31
397.808	352.87
398.186	359.43
398.565	349.48
398.944	356.71
399.323	354.45
399.701	361.69
400.08	379.99
400.458	357.62
400.837	380.44
401.215	383.38
401.594	367.79
401.972	376.83
402.351	372.53
402.729	379.09
403.107	373.21
403.486	362.14
403.864	382.02
404.242	369.59
404.62	374.57
404.999	400.33
405.377	386.54
405.755	378.41
406.133	375.47
406.511	402.59
406.889	399.42
407.267	398.52
407.645	399.2
408.023	401.46
408.401	392.65
408.779	424.96
409.156	403.49
409.534	398.52
409.912	403.94
410.29	422.25
410.667	407.33
411.045	417.73
411.422	406.88
411.8	424.51
412.178	404.85
412.555	410.5
412.933	420.67
413.31	453.21
413.687	440.55
414.065	409.37
414.442	434.9
414.819	442.81
415.197	422.47
415.574	426.32
415.951	450.95
416.328	442.81
416.705	454.79
417.082	452.08
417.46	432.87
417.837	441.23
418.214	459.08
418.591	470.84
418.967	465.86
419.344	449.14
419.721	496.37
420.098	451.63
420.475	458.18
420.852	463.83
421.228	487.56
421.605	483.72
421.982	482.59
422.358	475.13
422.735	471.74
423.111	485.07
423.488	487.33
423.864	504.96
424.241	490.04
424.617	489.14
424.994	485.52
425.37	493.43
425.746	494.11
426.123	523.04
426.499	513.32
426.875	512.64
427.251	487.56
427.627	514.9
428.003	520.1
428.379	522.36
428.756	528.91
429.132	533.43
429.507	553.09
429.883	547.67
430.259	559.87
430.635	525.07
431.011	559.42
431.387	554.9
431.763	561.91
432.138	555.8
432.514	586.76
432.89	570.95
433.265	587.22
433.641	592.41
434.016	590.83
434.392	593.54
434.767	603.94
435.143	603.03
435.518	582.92
435.894	600.1
436.269	612.3
436.644	619.31
437.02	634.22
437.395	620.89
437.77	582.7
438.145	620.89
438.52	619.08
438.895	642.36
439.271	630.15
439.646	641
440.021	627.67
440.395	629.7
440.77	657.95
441.145	650.49
441.52	656.14
441.895	657.95
442.27	644.16
442.645	660.89
443.019	656.59
443.394	663.15
443.769	685.07
444.143	676.03
444.518	670.15
444.892	683.71
445.267	679.64
445.641	695.69
446.016	708.34
446.39	712.18
446.764	699.3
447.139	699.3
447.513	709.92
447.887	700.89
448.262	688.23
448.636	720.09
449.01	731.62
449.384	754.67
449.758	717.61
450.132	737.72
450.506	729.59
450.88	753.77
451.254	740.88
451.628	745.86
452.002	777.72
452.376	776.59
452.75	751.51
453.123	772.52
453.497	773.88
453.871	774.56
454.244	782.24
454.618	786.53
454.992	812.3
455.365	810.94
455.739	840.32
456.112	827.89
456.486	831.96
456.859	831.5
457.232	846.64
457.606	856.14
457.979	846.87
458.352	856.81
458.725	907.43
459.099	880.99
459.472	885.06
459.845	885.51
460.218	889.58
460.591	906.76
460.964	896.13
461.337	919.18
461.71	933.87
462.083	963.25
462.456	926.87
462.829	950.14
463.201	956.25
463.574	971.16
463.947	970.93
464.32	1004.61
464.692	989.69
465.065	995.57
465.438	1011.84
465.81	1018.62
466.183	1041.44
466.555	1070.59
466.928	1043.93
467.3	1049.8
467.672	1061.55
468.045	1082.34
468.417	1101.1
468.789	1101.1
469.161	1113.98
469.534	1112.63
469.906	1169.35
470.278	1170.48
470.65	1161.66
471.022	1189.69
471.394	1187.65
471.766	1188.33
472.138	1221.32
472.51	1218.61
472.882	1243.92
473.253	1288.89
473.625	1263.81
473.997	1298.61
474.369	1294.77
474.74	1295.45
475.112	1342.9
475.484	1361.21
475.855	1367.76
476.227	1393.07
476.598	1426.29
476.97	1431.26
477.341	1436.46
477.713	1474.2
478.084	1455.89
478.455	1514.2
478.827	1527.08
479.198	1563.46
479.569	1570.24
479.94	1586.06
480.311	1601.43
480.682	1624.25
481.053	1640.3
481.424	1650.47
481.795	1671.48
482.166	1684.59
482.537	1714.87
482.908	1737.02
483.279	1785.38
483.65	1802.55
484.021	1822.44
484.391	1850.91
484.762	1881.19
485.133	1876.45
485.503	1927.29
485.874	1896.11
486.244	1954.19
486.615	1997.35
486.985	1980.17
487.356	2049.78
487.726	2056.1
488.097	2099.72
488.467	2103.56
488.837	2149.44
489.207	2166.84
489.578	2187.4
489.948	2195.99
490.318	2235.99
490.688	2262.43
491.058	2247.74
491.428	2297.91
491.798	2326.83
492.168	2364.34
492.538	2391.91
492.908	2377.9
493.278	2423.78
493.648	2461.97
494.017	2464.68
494.387	2455.19
494.757	2512.14
495.126	2508.07
495.496	2524.57
495.866	2551.46
496.235	2559.82
496.605	2614.28
496.974	2653.83
497.344	2615.41
497.713	2628.52
498.082	2673.04
498.452	2682.08
498.821	2663.09
499.19	2749.65
499.559	2738.57
499.928	2768.18
500.298	2775.18
500.667	2819.02
501.036	2801.4
501.405	2806.59
501.774	2823.54
502.143	2871
502.512	2899.25
502.88	2928.85
503.249	2880.04
503.618	2925.01
503.987	2949.64
504.356	2947.61
504.724	2976.08
505.093	3018.11
505.462	3021.95
505.83	3033.48
506.199	3052.91
506.567	3091.33
506.936	3089.52
507.304	3183.98
507.672	3154.38
508.041	3130.65
508.409	3211.1
508.777	3177.43
509.145	3226.02
509.514	3231.44
509.882	3261.04
510.25	3271.44
510.618	3311.66
510.986	3324.32
511.354	3357.76
511.722	3374.94
512.09	3407.48
512.458	3408.16
512.826	3444.54
513.193	3437.99
513.561	3474.6
513.929	3495.16
514.297	3533.58
514.664	3545.1
515.032	3577.42
515.4	3594.59
515.767	3596.18
516.135	3647.93
516.502	3643.41
516.869	3712.56
517.237	3696.29
517.604	3712.11
517.972	3746.46
518.339	3802.27
518.706	3842.05
519.073	3801.14
519.44	3820.13
519.808	3887.02
520.175	3892.89
520.542	3944.19
520.909	3946.68
521.276	4011.08
521.643	4040.23
522.009	4033.45
522.376	4093.34
522.743	4102.6
523.11	4137.41
523.477	4183.51
523.843	4266.67
524.21	4296.5
524.577	4318.19
524.943	4302.6
525.31	4381.47
525.676	4394.12
526.043	4441.58
526.409	4445.42
526.776	4544.85
527.142	4552.76
527.508	4606.77
527.874	4611.29
528.241	4634.12
528.607	4634.34
528.973	4634.57
529.339	4704.4
529.705	4815.13
530.071	4838.86
530.437	4825.75
530.803	4838.4
531.169	4875.92
531.535	4876.14
531.901	4913.43
532.267	4946.42
532.632	4952.75
532.998	4978.29
533.364	4995.69
533.73	5072.07
534.095	5144.16
534.461	5126.98
534.826	5190.71
535.192	5218.51
535.557	5197.26
535.923	5238.39
536.288	5300.76
536.653	5300.76
537.019	5302.8
537.384	5306.41
537.749	5389.8
538.114	5385.28
538.479	5445.17
538.845	5525.62
539.21	5460.76
539.575	5519.74
539.94	5548.44
540.305	5604.03
540.67	5636.35
541.034	5604.71
541.399	5660.53
541.764	5740.53
542.129	5743.24
542.494	5796.8
542.858	5800.41
543.223	5824.37
543.587	5891.71
543.952	5851.94
544.316	5931.26
544.681	5920.41
545.045	5898.94
545.41	6001.09
545.774	6013.51
546.138	6092.38
546.503	6134.19
546.867	6080.18
547.231	6133.29
547.595	6219.61
547.959	6245.6
548.324	6259.84
548.688	6319.95
549.052	6361.3
549.416	6358.82
549.779	6375.76
550.143	6442.66
550.507	6532.14
550.871	6577.34
551.235	6607.17
551.599	6581.18
551.962	6713.16
552.326	6732.82
552.689	6729.65
553.053	6762.42
553.417	6843.1
553.78	6929.65
554.143	6903.43
554.507	6976.43
554.87	7124.22
555.234	7151.79
555.597	7117.21
555.96	7214.39
556.323	7266.36
556.686	7321.05
557.05	7406.92
557.413	7444.44
557.776	7493.02
558.139	7608.05
558.502	7618.67
558.865	7627.03
559.228	7767.59
559.59	7763.75
559.953	7934.14
560.316	7914.03
560.679	7997.87
561.041	8087.58
561.404	8166.23
561.767	8302.04
562.129	8240.8
562.492	8368.71
562.854	8405.09
563.217	8525.76
563.579	8603.5
563.941	8638.76
564.304	8729.15
564.666	8812.08
565.028	8895.25
565.39	8937.28
565.753	9036.94
566.115	9044.85
566.477	9143.6
566.839	9254.78
567.201	9354.44
567.563	9371.17
567.925	9481.22
568.287	9555.12
568.648	9617.49
569.01	9733.42
569.372	9848.44
569.734	9867.42
570.095	9935.67
570.457	9993.52
570.819	10129.11
571.18	10160.07
571.542	10276.68
571.903	10358.71
572.265	10466.73
572.626	10582.66
572.987	10571.81
573.349	10627.4
573.71	10711.47
574.071	10870.79
574.432	10902.2
574.794	11005.02
575.155	11061.97
575.516	11044.12
575.877	11193.49
576.238	11215.64
576.599	11378.8
576.96	11421.73
577.32	11437.1
577.681	11589.86
578.042	11672.8
578.403	11687.94
578.763	11741.73
579.124	11855.39
579.485	11892.46
579.845	12001.61
580.206	11988.27
580.566	12100.13
580.927	12115.73
581.287	12196.63
581.648	12264.65
582.008	12253.58
582.368	12392.1
582.728	12478.2
583.089	12507.35
583.449	12535.38
583.809	12566.56
584.169	12663.73
584.529	12772.88
584.889	12808.36
585.249	12806.1
585.609	12843.17
585.969	12952.31
586.329	12978.75
586.688	13007.23
587.048	13108.47
587.408	13075.7
587.768	13103.05
588.127	13145.53
588.487	13190.95
588.846	13260.1
589.206	13267.11
589.565	13353.43
589.925	13415.35
590.284	13430.49
590.643	13579.19
591.003	13539.87
591.362	13659.87
591.721	13578.74
592.08	13678.4
592.44	13701.67
592.799	13770.15
593.158	13828.9
593.517	13902.8
593.876	13955.23
594.235	13928.79
594.593	13907.09
594.952	14043.36
595.311	13969.69
595.67	14090.59
596.029	14198.61
596.387	14122.23
596.746	14220.98
597.104	14166.07
597.463	14150.02
597.822	14319.96
598.18	14257.14
598.538	14316.35
598.897	14403.12
599.255	14328.55
599.613	14559.73
599.972	14512.95
600.33	14622.33
600.688	14456
601.046	14633.85
601.404	14671.37
601.762	14633.63
602.12	14707.07
602.478	14711.36
602.836	14778.93
603.194	14630.91
603.552	14764.92
603.91	14779.16
604.268	14884.47
604.625	14906.61
604.983	14842.21
605.341	14914.75
605.698	14944.8
606.056	15024.12
606.413	15042.88
606.771	15135.08
607.128	15160.84
607.485	15065.25
607.843	15185.7
608.2	15154.06
608.557	15238.36
608.914	15264.12
609.272	15409.2
609.629	15312.7
609.986	15403.55
610.343	15266.38
610.7	15420.95
611.057	15424.57
611.414	15532.13
611.771	15579.59
612.127	15562.19
612.484	15613.04
612.841	15644.22
613.198	15688.74
613.554	15640.61
613.911	15811.9
614.267	15734.61
614.624	15714.05
614.98	15760.83
615.337	15892.8
615.693	15816.65
616.05	15817.55
616.406	15978.9
616.762	15876.08
617.118	15909.98
617.475	15915.85
617.831	16028.39
618.187	15985.23
618.543	16049.18
618.899	16096.19
619.255	16149.29
619.611	16081.95
619.967	16081.72
620.323	16142.51
620.678	16136.19
621.034	16066.58
621.39	16185.45
621.746	16085.11
622.101	16272.91
622.457	16130.99
622.812	16242.4
623.168	16309.74
623.523	16363.98
623.879	16335.28
624.234	16263.41
624.589	16359.68
624.945	16227.26
625.3	16357.87
625.655	16320.59
626.01	16299.57
626.365	16359.91
626.72	16312.9
627.075	16343.19
627.43	16298.22
627.785	16332.34
628.14	16283.07
628.495	16349.06
628.85	16404.88
629.205	16280.36
629.559	16454.37
629.914	16372.34
630.269	16352.9
630.623	16289.85
630.978	16313.13
631.332	16349.29
631.687	16456.86
632.041	16373.69
632.396	16373.69
632.75	16255.05
633.104	16293.02
633.459	16239.46
633.813	16360.81
634.167	16217.31
634.521	16301.15
634.875	16205.11
635.229	16204.66
635.583	16283.53
635.937	16222.96
636.291	16202.85
636.645	16221.83
636.999	16129.41
637.352	16241.95
637.706	16129.86
638.06	16169.41
638.413	16186.35
638.767	16005.12
639.121	16174.15
639.474	16090.76
639.828	16001.95
640.181	16022.29
640.534	16090.31
640.888	16011.67
641.241	16000.14
641.594	16025.45
641.947	15971.44
642.301	15981.84
642.654	15905.46
643.007	15973.03
643.36	15935.06
643.713	15872.92
644.066	16004.66
644.419	15859.81
644.771	15814.84
645.124	15639.7
645.477	15687.61
645.83	15519.03
646.182	15451.46
646.535	15418.01
646.888	15530.33
647.24	15461.63
647.593	15515.64
647.945	15531.91
648.298	15418.46
648.65	15375.3
649.002	15302.31
649.355	15444.45
649.707	15390.89
650.059	15450.78
650.411	15750.89
650.763	15650.1
651.115	15905.91
651.467	15835.63
651.819	15699.59
652.171	15694.84
652.523	15806.93
652.875	15748.63
653.227	15575.3
653.578	15784.78
653.93	15771.68
654.282	15624.79
654.633	15627.27
654.985	15749.98
655.337	15671.11
655.688	15659.14
656.039	15732.81
656.391	15622.08
656.742	15657.55
657.094	15701.62
657.445	15827.72
657.796	15669.53
658.147	15668.85
658.498	15698.01
658.849	15716.31
659.2	15655.52
659.551	15677.67
659.902	15690.55
660.253	15712.02
660.604	15724.67
660.955	15683.99
661.306	15682.41
661.656	15691.9
662.007	15737.78
662.358	15665.01
662.708	15725.8
663.059	15781.62
663.409	15619.82
663.76	15704.11
664.11	15721.06
664.461	15776.2
664.811	15798.12
665.161	15759.25
665.511	15720.15
665.862	15728.29
666.212	15820.71
666.562	15858
666.912	15830.43
667.262	15724.9
667.612	15761.96
667.962	15735.74
668.312	15847.38
668.662	15858
669.011	15915.4
669.361	15791.11
669.711	15846.48
670.06	15837.21
670.41	15793.6
670.76	15711.34
671.109	15857.78
671.459	15796.76
671.808	15849.64
672.157	15847.38
672.507	15771.9
672.856	15775.29
673.205	15805.35
673.554	15894.61
673.904	15809.87
674.253	15854.61
674.602	15782.3
674.951	15691.45
675.3	15478.8
675.649	15762.18
675.998	15745.69
676.346	15795.63
676.695	15798.79
677.044	15717.44
677.393	15803.31
677.741	15767.83
678.09	15763.99
678.438	15806.7
678.787	15834.95
679.135	15817.55
679.484	15694.62
679.832	15742.07
680.181	15759.25
680.529	15769.42
680.877	15703.65
681.225	15715.18
681.573	15843.99
681.922	15784.1
682.27	15665.01
682.618	15711.34
682.966	15671.79
683.314	15718.34
683.661	15666.14
684.009	15650.77
684.357	15695.07
684.705	15619.82
685.053	15630.44
685.4	15615.3
685.748	15519.25
686.095	15642.41
686.443	15491.01
686.79	15519.48
687.138	15514.28
687.485	15572.36
687.832	15435.64
688.18	15580.04
688.527	15436.09
688.874	15456.2
689.221	15470.44
689.568	15437.45
689.915	15339.37
690.262	15376.21
690.609	15410.56
690.956	15333.04
691.303	15331.24
691.65	15238.36
691.997	15246.49
692.344	15123.56
692.69	15175.31
693.037	15161.97
693.383	15066.16
693.73	15098.25
694.077	15041.53
694.423	15065.71
694.769	14974.41
695.116	15070
695.462	15077.46
695.808	14963.11
696.155	14962.21
696.501	14924.69
696.847	14867.29
697.193	14840.4
697.539	14907.07
697.885	14801.31
698.231	14722.66
698.577	14790.23
698.923	14753.85
699.269	14713.4
699.614	14656.22
699.96	14674.76
700.306	14621.42
700.651	14567.41
700.997	14544.36
701.342	14590.24
701.688	14639.05
702.033	14457.59
702.379	14471.6
702.724	14503.69
703.069	14519.51
703.415	14318.38
703.76	14359.74
704.105	14344.59
704.45	14318.38
704.795	14297.82
705.14	14234.31
705.485	14209
705.83	14216.01
706.175	14135.56
706.52	14255.56
706.865	14147.31
707.209	14164.94
707.554	14171.94
707.899	14179.85
708.243	14107.09
708.588	14122.91
708.932	14063.47
709.277	14011.27
709.621	14039.07
709.966	13933.53
710.31	14006.3
710.654	13881.78
710.998	13940.09
711.342	14018.5
711.687	13959.97
712.031	13864.16
712.375	13818.51
712.719	13805.85
713.063	13825.74
713.407	13833.42
713.75	13793.42
714.094	13828
714.438	13837.49
714.782	13720.43
715.125	13774.21
715.469	13758.85
715.812	13757.04
716.156	13687.21
716.499	13747.77
716.843	13709.13
717.186	13636.14
717.53	13629.81
717.873	13617.38
718.216	13714.55
718.559	13611.28
718.902	13532.41
719.246	13538.29
719.589	13616.03
719.932	13493.77
720.275	13502.13
720.617	13502.13
720.96	13434.79
721.303	13514.11
721.646	13422.58
721.989	13366.99
722.331	13427.78
722.674	13434.79
723.016	13455.13
723.359	13426.65
723.701	13425.07
724.044	13327.45
724.386	13282.48
724.729	13406.77
725.071	13273.89
725.413	13374.22
725.755	13308.46
726.097	13295.58
726.439	13155.47
726.782	13253.1
727.124	13338.29
727.465	13166.55
727.807	13332.64
728.149	13243.61
728.491	13247
728.833	13278.18
729.175	13187.56
729.516	13171.29
729.858	13208.81
730.199	13218.3
730.541	13169.48
730.882	13046.78
731.224	13189.6
731.565	13053.1
731.906	13052.88
732.248	13101.46
732.589	13040.45
732.93	13001.35
733.271	13006.55
733.612	13080.45
733.953	13031.63
734.294	13065.76
734.635	12977.62
734.976	13005.65
735.317	12991.41
735.658	12969.04
735.999	13004.52
736.339	12953.22
736.68	12945.31
737.021	12883.16
737.361	12935.14
737.702	12882.49
738.042	12783.96
738.383	12820.79
738.723	12878.64
739.063	12841.13
739.404	12918.87
739.744	12819.66
740.084	12628.48
740.424	12793.45
740.764	12736.95
741.104	12878.64
741.444	12631.19
741.784	12697.63
742.124	12631.42
742.464	12657.63
742.804	12654.02
743.143	12595.04
743.483	12565.43
743.823	12601.14
744.162	12630.97
744.502	12623.74
744.841	12545.77
745.181	12610.85
745.52	12519.78
745.86	12602.27
746.199	12552.33
746.538	12508.03
746.877	12477.53
747.216	12470.97
747.556	12503.51
747.895	12472.33
748.234	12381.71
748.573	12307.81
748.911	12407.47
749.25	12292.67
749.589	12330.64
749.928	12361.6
750.267	12340.81
750.605	12342.16
750.944	12257.87
751.283	12192.79
751.621	12183.07
751.96	12251.99
752.298	12203.86
752.636	12179.45
752.975	12155.27
753.313	12122.73
753.651	12154.14
753.989	12008.38
754.327	12099.23
754.666	11921.16
755.004	11975.84
755.342	12006.8
755.679	11953.92
756.017	11907.6
756.355	11965.22
756.693	11834.83
757.031	11806.58
757.368	11761.84
757.706	11670.99
758.044	11690.43
758.381	11739.69
758.719	11645.23
759.056	11644.1
759.394	11638.23
759.731	11498.34
760.068	11484.56
760.405	11448.85
760.743	11499.7
761.08	11425.35
