Data from brown_tile_FLMS001491_027.txt Node
Date: Tue Feb 07 10:37:17 GMT 2017
User: dcchb
Spectrometer: FLMS00149
Trigger mode: 0
Integration Time (sec): 2.000000E-2
Scans to average: 10
Electric dark correction enabled: true
Nonlinearity correction enabled: false
Boxcar width: 0
XAxis mode: Wavelengths
Number of Pixels in Spectrum: 2048
>>>>>Begin Spectral Data<<<<<
341.393	-20.78
341.776	-20.78
342.16	-20.78
342.543	-73.2
342.927	-67.1
343.31	-65.75
343.693	-52.87
344.077	-70.94
344.46	-58.52
344.843	-60.32
345.226	-39.31
345.61	-37.27
345.993	-30.04
346.376	-17.39
346.759	17.41
347.142	34.14
347.525	34.82
347.908	51.09
348.291	95.6
348.674	87.24
349.057	112.1
349.44	127.92
349.823	136.06
350.206	146.9
350.588	194.36
350.971	195.04
351.354	200.91
351.737	229.16
352.119	225.77
352.502	223.29
352.884	242.95
353.267	279.33
353.65	290.85
354.032	274.13
354.414	290.4
354.797	306.9
355.179	294.47
355.562	326.11
355.944	304.19
356.326	297.41
356.709	312.1
357.091	312.1
357.473	327.92
357.855	311.87
358.238	329.27
358.62	336.95
359.002	318.42
359.384	302.83
359.766	318.2
360.148	312.1
360.53	357.29
360.912	308.25
361.294	319.1
361.676	325.88
362.057	326.33
362.439	312.55
362.821	307.35
363.203	302.83
363.584	314.81
363.966	316.16
364.348	312.55
364.729	321.36
365.111	308.03
365.493	294.24
365.874	298.76
366.256	313.23
366.637	299.44
367.019	289.05
367.4	287.92
367.781	305.54
368.163	299.22
368.544	291.31
368.925	300.12
369.306	291.76
369.688	298.31
370.069	286.56
370.45	284.07
370.831	300.57
371.212	314.81
371.593	295.83
371.974	282.72
372.355	313.68
372.736	301.93
373.117	291.08
373.498	274.58
373.879	287.01
374.26	308.03
374.641	300.57
375.021	289.72
375.402	303.73
375.783	306.67
376.163	315.94
376.544	310.06
376.925	294.7
377.305	278.65
377.686	298.76
378.066	312.77
378.447	282.72
378.827	327.92
379.208	335.6
379.588	320.01
379.968	314.81
380.349	335.37
380.729	316.84
381.109	311.42
381.489	310.06
381.87	305.54
382.25	296.28
382.63	329.95
383.01	310.06
383.39	313.9
383.77	324.07
384.15	324.98
384.53	316.16
384.91	340.12
385.29	308.25
385.67	327.69
386.049	317.52
386.429	305.32
386.809	331.53
387.189	339.89
387.568	331.3
387.948	320.46
388.328	321.59
388.707	341.25
389.087	348.25
389.466	340.34
389.846	336.95
390.225	333.34
390.605	334.47
390.984	330.63
391.363	350.51
391.743	343.73
392.122	356.84
392.501	329.27
392.881	374.02
393.26	362.94
393.639	349.16
394.018	332.21
394.397	360.91
394.776	356.16
395.155	368.37
395.534	359.33
395.913	377.41
396.292	350.74
396.671	385.99
397.05	375.82
397.429	336.73
397.808	331.3
398.186	363.85
398.565	360.91
398.944	361.36
399.323	350.06
399.701	368.14
400.08	372.43
400.458	404.3
400.837	390.29
401.215	375.82
401.594	372.43
401.972	387.57
402.351	375.15
402.729	370.63
403.107	373.79
403.486	383.51
403.864	394.13
404.242	382.6
404.62	392.09
404.999	396.61
405.377	384.64
405.755	401.13
406.133	371.3
406.511	413.56
406.889	400.46
407.267	411.75
407.645	386.44
408.023	396.61
408.401	393.22
408.779	402.04
409.156	385.31
409.534	409.95
409.912	417.18
410.29	416.95
410.667	436.16
411.045	416.05
411.422	424.41
411.8	419.89
412.178	441.36
412.555	416.27
412.933	427.8
413.31	449.72
413.687	441.58
414.065	429.61
414.442	448.59
414.819	456.27
415.197	450.17
415.574	434.8
415.951	440
416.328	444.3
416.705	433.68
417.082	456.05
417.46	447.69
417.837	469.38
418.214	463.73
418.591	458.08
418.967	446.33
419.344	447.91
419.721	452.88
420.098	463.5
420.475	467.12
420.852	458.99
421.228	470.51
421.605	461.47
421.982	477.06
422.358	478.87
422.735	484.52
423.111	489.04
423.488	512.09
423.864	493.56
424.241	479.32
424.617	489.27
424.994	493.11
425.37	494.01
425.746	500.79
426.123	510.06
426.499	507.8
426.875	527.68
427.251	528.59
427.627	507.35
428.003	501.24
428.379	515.48
428.756	526.1
429.132	523.84
429.507	546.89
429.883	531.98
430.259	536.27
430.635	544.18
431.011	555.71
431.387	548.7
431.763	566.78
432.138	566.55
432.514	567.23
432.89	586.67
433.265	585.08
433.641	587.57
434.016	607
434.392	593.9
434.767	600.22
435.143	592.99
435.518	588.25
435.894	591.86
436.269	599.32
436.644	599.09
437.02	603.39
437.395	617.63
437.77	643.61
438.145	619.88
438.52	626.89
438.895	632.99
439.271	602.48
439.646	642.71
440.021	651.97
440.395	642.48
440.77	631.18
441.145	658.3
441.52	649.71
441.895	665.99
442.27	658.75
442.645	670.28
443.019	687.68
443.394	653.78
443.769	682.48
444.143	678.87
444.518	688.58
444.892	672.76
445.267	674.8
445.641	718.19
446.016	694.23
446.39	701.92
446.764	708.24
447.139	699.66
447.513	695.14
447.887	700.33
448.262	711.18
448.636	703.72
449.01	715.48
449.384	759.09
449.758	738.75
450.132	734.23
450.506	739.66
450.88	745.76
451.254	717.51
451.628	746.44
452.002	764.97
452.376	770.16
452.75	769.49
453.123	780.11
453.497	788.47
453.871	763.84
454.244	773.78
454.618	802.93
454.992	775.36
455.365	788.92
455.739	768.58
456.112	836.15
456.486	833.44
456.859	833.21
457.232	848.35
457.606	826.43
457.979	852.42
458.352	864.17
458.725	864.4
459.099	871.86
459.472	868.47
459.845	886.54
460.218	909.82
460.591	908.46
460.964	927.22
461.337	930.16
461.71	925.64
462.083	960.89
462.456	940.33
462.829	943.49
463.201	950.05
463.574	954.57
463.947	979.2
464.32	986.65
464.692	983.49
465.065	994.56
465.438	1016.71
465.81	1017.84
466.183	1020.55
466.555	1021.23
466.928	1042.47
467.3	1031.63
467.672	1032.76
468.045	1076.37
468.417	1086.31
468.789	1098.74
469.161	1085.41
469.534	1098.06
469.906	1123.37
470.278	1138.06
470.65	1148.91
471.022	1155.69
471.394	1185.29
471.766	1193.66
472.138	1182.13
472.51	1226.42
472.882	1227.78
473.253	1229.59
473.625	1260.09
473.997	1268
474.369	1289.02
474.74	1286.53
475.112	1325.63
475.484	1338.28
475.855	1332.86
476.227	1388.68
476.598	1390.03
476.97	1393.2
477.341	1431.16
477.713	1430.71
478.084	1431.84
478.455	1479.75
478.827	1485.17
479.198	1531.27
479.569	1531.73
479.94	1556.36
480.311	1572.85
480.682	1622.8
481.053	1609.46
481.424	1647.2
481.795	1678.61
482.166	1667.99
482.537	1677.71
482.908	1752.74
483.279	1743.7
483.65	1754.77
484.021	1806.07
484.391	1834.54
484.762	1870.25
485.133	1835.9
485.503	1884.03
485.874	1897.59
486.244	1903.69
486.615	1957.02
486.985	1978.27
487.356	2020.53
487.726	2028.21
488.097	2051.03
488.467	2081.99
488.837	2099.85
489.207	2112.5
489.578	2132.39
489.948	2182.56
490.318	2198.37
490.688	2173.97
491.058	2228.88
491.428	2265.72
491.798	2286.51
492.168	2319.73
492.538	2340.52
492.908	2310.46
493.278	2392.95
493.648	2390.01
494.017	2422.1
494.387	2430.01
494.757	2448.31
495.126	2521.98
495.496	2493.06
495.866	2499.84
496.235	2524.02
496.605	2536.22
496.974	2520.63
497.344	2579.61
497.713	2600.62
498.082	2612.6
498.452	2666.38
498.821	2674.52
499.19	2704.58
499.559	2692.15
499.928	2730.56
500.298	2731.92
500.667	2744.35
501.036	2765.82
501.405	2780.73
501.774	2797.23
502.143	2857.11
502.512	2785.25
502.88	2866.15
503.249	2838.13
503.618	2884.91
503.987	2924.01
504.356	2940.05
504.724	2935.08
505.093	2937.11
505.462	2970.56
505.83	2985.25
506.199	2988.41
506.567	3074.51
506.936	3057.11
507.304	3085.58
507.672	3093.49
508.041	3157.67
508.409	3092.81
508.777	3156.99
509.145	3187.95
509.514	3202.42
509.882	3210.1
510.25	3207.84
510.618	3226.82
510.986	3259.14
511.354	3286.03
511.722	3319.25
512.09	3341.17
512.458	3326.93
512.826	3356.99
513.193	3393.6
513.561	3422.3
513.929	3448.74
514.297	3446.7
514.664	3467.72
515.032	3498.45
515.4	3562.63
515.767	3582.07
516.135	3579.58
516.502	3578.45
516.869	3603.08
517.237	3685.57
517.604	3621.16
517.972	3704.32
518.339	3687.83
518.706	3716.3
519.073	3751.33
519.44	3808.5
519.808	3803.76
520.175	3848.5
520.542	3937.99
520.909	3902.28
521.276	3890.76
521.643	3998.33
522.009	4001.49
522.376	4032
522.743	4002.17
523.11	4059.79
523.477	4069.96
523.843	4132.56
524.21	4160.81
524.577	4240.13
524.943	4216.4
525.31	4282.84
525.676	4291.88
526.043	4385.21
526.409	4389.73
526.776	4451.42
527.142	4466.56
527.508	4476.96
527.874	4514.25
528.241	4574.13
528.607	4561.25
528.973	4633.79
529.339	4655.71
529.705	4655.71
530.071	4698.2
530.437	4732.55
530.803	4749.27
531.169	4782.04
531.535	4806.44
531.901	4845.08
532.267	4867.68
532.632	4950.39
532.998	4911.98
533.364	4942.94
533.73	4983.39
534.095	5059.77
534.461	5035.36
534.826	5070.39
535.192	5113.78
535.557	5146.77
535.923	5114.23
536.288	5213.66
536.653	5202.59
537.019	5234.23
537.384	5264.96
537.749	5277.39
538.114	5333.66
538.479	5347.44
538.845	5384.96
539.21	5394.67
539.575	5443.03
539.94	5431.51
540.305	5569.59
540.67	5489.14
541.034	5527.33
541.399	5603.48
541.764	5582.01
542.129	5657.04
542.494	5666.31
542.858	5674.44
543.223	5699.75
543.587	5772.52
543.952	5814.78
544.316	5786.3
544.681	5857.49
545.045	5893.19
545.41	5926.19
545.774	5974.09
546.138	5959.86
546.503	6003.02
546.867	6038.95
547.231	6124.82
547.595	6098.38
547.959	6138.84
548.324	6184.94
548.688	6192.17
549.052	6246.86
549.416	6327.31
549.779	6324.82
550.143	6349.45
550.507	6402.33
550.871	6465.83
551.235	6496.57
551.599	6548.32
551.962	6609.11
552.326	6614.53
552.689	6705.6
553.053	6733.85
553.417	6773.17
553.78	6850.23
554.143	6850.91
554.507	6830.34
554.87	6967.97
555.234	7040.06
555.597	7064.01
555.96	7106.95
556.323	7190.56
556.686	7172.71
557.05	7209.54
557.413	7379.48
557.776	7370.67
558.139	7480.72
558.502	7471.68
558.865	7557.56
559.228	7644.11
559.59	7694.5
559.953	7700.38
560.316	7818.34
560.679	7884.78
561.041	7986.47
561.404	8010.42
561.767	8173.13
562.129	8136.52
562.492	8268.72
562.854	8262.4
563.217	8350.98
563.579	8464.2
563.941	8518.66
564.304	8619.22
564.666	8705.32
565.028	8730.41
565.39	8749.39
565.753	8910.29
566.115	8897.18
566.477	9060.79
566.839	9133.79
567.201	9259.43
567.563	9229.83
567.925	9361.8
568.287	9364.74
568.648	9482.02
569.01	9595.02
569.372	9735.58
569.734	9712.08
570.095	9836.37
570.457	9890.83
570.819	9931.96
571.18	10071.61
571.542	10075.23
571.903	10131.95
572.265	10279.97
572.626	10272.29
572.987	10484.26
573.349	10478.61
573.71	10611.26
574.071	10684.25
574.432	10797.7
574.794	10841.31
575.155	10937.58
575.516	10902.55
575.877	11037.01
576.238	11067.07
576.599	11132.15
576.96	11312.94
577.32	11299.15
577.681	11366.72
578.042	11506.38
578.403	11477.68
578.763	11517.9
579.124	11623.66
579.485	11750.89
579.845	11760.61
580.206	11802.87
580.566	11878.8
580.927	11934.62
581.287	12078.34
581.648	12137.32
582.008	12214.38
582.368	12160.37
582.728	12300.48
583.089	12244.66
583.449	12338.9
583.809	12359.24
584.169	12442.62
584.529	12433.36
584.889	12526.69
585.249	12552.9
585.609	12588.38
585.969	12667.93
586.329	12760.58
586.688	12748.15
587.048	12830.86
587.408	12782.5
587.768	12876.29
588.127	12946.11
588.487	12910.18
588.846	13078.31
589.206	13042.38
589.565	13065.66
589.925	13194.02
590.284	13133.68
590.643	13182.72
591.003	13208.93
591.362	13277.18
591.721	13394.69
592.08	13405.09
592.44	13493.67
592.799	13459.55
593.158	13502.26
593.517	13527.12
593.876	13560.79
594.235	13602.82
594.593	13624.51
594.952	13656.15
595.311	13690.95
595.67	13716.72
596.029	13922.13
596.387	13866.77
596.746	13952.87
597.104	13888.69
597.463	13892.76
597.822	14073.99
598.18	13987.67
598.538	14036.03
598.897	14081.68
599.255	14011.4
599.613	14256.14
599.972	14212.75
600.33	14209.13
600.688	14232.86
601.046	14305.85
601.404	14360.99
601.762	14306.3
602.12	14442.57
602.478	14470.14
602.836	14521.89
603.194	14445.96
603.552	14502.01
603.91	14456.13
604.268	14584.26
604.625	14502.68
604.983	14657.48
605.341	14538.84
605.698	14666.97
606.056	14726.63
606.413	14800.3
606.771	14807.08
607.128	14847.08
607.485	14807.99
607.843	14818.83
608.2	14988.55
608.557	14943.8
608.914	14893.41
609.272	14975.67
609.629	15046.4
609.986	15133.18
610.343	15021.99
610.7	15091.37
611.057	15109.22
611.414	15174.3
611.771	15181.99
612.127	15191.71
612.484	15284.58
612.841	15236.68
613.198	15266.51
613.554	15375.88
613.911	15493.17
614.267	15407.52
614.624	15384.24
614.98	15398.48
615.337	15490.45
615.693	15523.45
616.05	15591.69
616.406	15548.53
616.762	15475.54
617.118	15587.4
617.475	15502.66
617.831	15593.73
618.187	15709.43
618.543	15654.74
618.899	15783.78
619.255	15751.69
619.611	15727.96
619.967	15899.26
620.323	15888.64
620.678	15802.31
621.034	15807.06
621.39	15751.24
621.746	15861.74
622.101	16026.94
622.457	15882.99
622.812	15863.55
623.168	15958.46
623.523	15926.15
623.879	16015.86
624.234	15915.98
624.589	16047.28
624.945	16012.25
625.3	15922.31
625.655	16004.11
626.01	15982.64
626.365	15963.89
626.72	16067.39
627.075	16035.75
627.43	16047.73
627.785	15968.86
628.14	16033.26
628.495	15987.39
628.85	16062.64
629.205	16031.01
629.559	16064.22
629.914	16056.99
630.269	15971.57
630.623	15995.75
630.978	16000.5
631.332	16052.47
631.687	16110.1
632.041	16026.94
632.396	16005.24
632.75	15966.83
633.104	16046.37
633.459	15915.98
633.813	15931.8
634.167	15829.88
634.521	15849.31
634.875	15907.39
635.229	15889.77
635.583	15846.6
635.937	15920.5
636.291	15848.64
636.645	15917.79
636.999	15793.72
637.352	15894.96
637.706	15810.67
638.06	15792.14
638.413	15845.02
638.767	15814.06
639.121	15822.2
639.474	15741.75
639.828	15692.26
640.181	15796.66
640.534	15681.18
640.888	15682.99
641.241	15623.56
641.594	15660.62
641.947	15652.71
642.301	15701.3
642.654	15679.83
643.007	15703.56
643.36	15656.33
643.713	15622.43
644.066	15676.21
644.419	15622.65
644.771	15468.99
645.124	15325.26
645.477	15367.07
645.83	15288.2
646.182	15235.32
646.535	15204.13
646.888	15223.57
647.24	15073.97
647.593	15127.75
647.945	15211.82
648.298	15171.37
648.65	15048.66
649.002	15074.19
649.355	15158.03
649.707	15013.63
650.059	15186.73
650.411	15332.04
650.763	15289.56
651.115	15512.37
651.467	15413.17
651.819	15450.46
652.171	15409.33
652.523	15500.17
652.875	15423.34
653.227	15398.93
653.578	15508.08
653.93	15375.66
654.282	15358.25
654.633	15359.84
654.985	15414.52
655.337	15308.31
655.688	15384.69
656.039	15407.97
656.391	15272.61
656.742	15297.69
657.094	15385.37
657.445	15447.74
657.796	15343.57
658.147	15363.9
658.498	15360.06
658.849	15362.77
659.2	15287.75
659.551	15410.91
659.902	15352.6
660.253	15380.4
660.604	15446.16
660.955	15263.57
661.306	15448.65
661.656	15359.16
662.007	15357.12
662.358	15348.99
662.708	15367.07
663.059	15372.72
663.409	15254.08
663.76	15406.16
664.11	15383.34
664.461	15518.25
664.811	15428.99
665.161	15412.49
665.511	15411.59
665.862	15388.99
666.212	15494.07
666.562	15428.76
666.912	15471.7
667.262	15427.86
667.612	15435.09
667.962	15405.48
668.312	15446.16
668.662	15482.32
669.011	15434.41
669.361	15402.1
669.711	15464.69
670.06	15372.27
670.41	15448.65
670.76	15379.95
671.109	15429.89
671.459	15414.75
671.808	15349.67
672.157	15371.81
672.507	15372.27
672.856	15345.6
673.205	15420.4
673.554	15423.34
673.904	15388.54
674.253	15560.96
674.602	15559.15
674.951	15307.18
675.3	15172.27
675.649	15434.64
675.998	15422.43
676.346	15364.58
676.695	15442.55
677.044	15363.23
677.393	15424.47
677.741	15421.53
678.09	15454.75
678.438	15344.24
678.787	15476.22
679.135	15457.46
679.484	15414.52
679.832	15445.03
680.181	15367.07
680.529	15376.11
680.877	15455.43
681.225	15330.46
681.573	15468.31
681.922	15330.46
682.27	15325.71
682.618	15310.57
682.966	15327.29
683.314	15311.7
683.661	15252.27
684.009	15239.84
684.357	15219.05
684.705	15227.41
685.053	15231.25
685.4	15174.76
685.748	15125.04
686.095	15192.38
686.443	15078.71
686.79	15119.39
687.138	15133.18
687.485	15157.81
687.832	15151.48
688.18	15167.3
688.527	15051.14
688.874	15089.56
689.221	15123.91
689.568	15003.01
689.915	14915.78
690.262	14962.11
690.609	14937.25
690.956	14986.06
691.303	15022.22
691.65	14866.06
691.997	14877.59
692.344	14793.98
692.69	14770.02
693.037	14823.35
693.383	14705.62
693.73	14818.83
694.077	14748.1
694.423	14690.7
694.769	14648.89
695.116	14624.04
695.462	14642.12
695.808	14652.74
696.155	14702.23
696.501	14559.86
696.847	14553.08
697.193	14455.68
697.539	14539.29
697.885	14491.16
698.231	14487.32
698.577	14485.06
698.923	14403.03
699.269	14394.66
699.614	14353.31
699.96	14293.2
700.306	14358.05
700.651	14220.88
700.997	14235.57
701.342	14220.88
701.688	14263.14
702.033	14187.89
702.379	14207.32
702.724	14096.37
703.069	14254.55
703.415	14022.24
703.76	14066.76
704.105	14172.97
704.45	14051.17
704.795	14023.15
705.14	13980.66
705.485	13902.25
705.83	13975.92
706.175	13975.01
706.52	13963.71
706.865	13893.66
707.209	13904.28
707.554	13899.54
707.899	13851.63
708.243	13810.05
708.588	13794.45
708.932	13683.72
709.277	13751.97
709.621	13811.63
709.966	13736.83
710.31	13727.34
710.654	13629.03
710.998	13639.43
711.342	13639.43
711.687	13643.5
712.031	13629.26
712.375	13563.05
712.719	13554.91
713.063	13574.8
713.407	13635.81
713.75	13488.47
714.094	13551.07
714.438	13467
714.782	13372.32
715.125	13489.15
715.469	13424.52
715.812	13423.84
716.156	13334.8
716.499	13423.84
716.843	13372.77
717.186	13312.88
717.53	13379.1
717.873	13391.75
718.216	13277.63
718.559	13279.21
718.902	13248.48
719.246	13231.08
719.589	13247.58
719.932	13228.37
720.275	13142.95
720.617	13240.34
720.96	13145.66
721.303	13144.3
721.646	13162.15
721.989	13154.92
722.331	13178.65
722.674	13143.85
723.016	13161.02
723.359	13070.63
723.701	13127.35
724.044	13124.19
724.386	13036.73
724.729	13091.2
725.071	13023.63
725.413	13040.35
725.755	13024.53
726.097	12987.02
726.439	12957.64
726.782	12993.34
727.124	13051.65
727.465	12965.55
727.807	12964.42
728.149	12915.61
728.491	12981.59
728.833	12941.37
729.175	12862.73
729.516	12850.75
729.858	12797.19
730.199	12866.57
730.541	12808.26
730.882	12838.77
731.224	12928.94
731.565	12809.62
731.906	12767.81
732.248	12777.31
732.589	12701.15
732.93	12720.36
733.271	12771.2
733.612	12771.43
733.953	12781.82
734.294	12715.84
734.635	12709.96
734.976	12690.75
735.317	12627.7
735.658	12620.93
735.999	12689.85
736.339	12626.35
736.68	12638.1
737.021	12534.83
737.361	12550.42
737.702	12622.51
738.042	12556.75
738.383	12509.29
738.723	12640.36
739.063	12497.54
739.404	12596.52
739.744	12528.5
740.084	12515.17
740.424	12489.86
740.764	12536.63
741.104	12483.75
741.444	12475.84
741.784	12423.64
742.124	12387.26
742.464	12351.33
742.804	12366.92
743.143	12350.2
743.483	12334.38
743.823	12289.18
744.162	12234.95
744.502	12318.56
744.841	12253.03
745.181	12349.97
745.52	12216.64
745.86	12263.42
746.199	12179.58
746.538	12200.15
746.877	12185.23
747.216	12337.77
747.556	12165.8
747.895	12163.54
748.234	12160.37
748.573	12133.48
748.911	12091.67
749.25	12147.72
749.589	12021.84
749.928	12055.74
750.267	12000.15
750.605	11953.82
750.944	12030.88
751.283	11913.15
751.621	11928.51
751.96	11872.02
752.298	11885.58
752.636	11882.64
752.975	11876.76
753.313	11748.63
753.651	11834.96
753.989	11758.8
754.327	11694.85
754.666	11604.91
755.004	11731.91
755.342	11643.78
755.679	11602.42
756.017	11571.69
756.355	11574.63
756.693	11503.67
757.031	11609.43
757.368	11469.54
757.706	11526.49
758.044	11394.97
758.381	11398.36
758.719	11403.56
759.056	11373.95
759.394	11346.61
759.731	11219.38
760.068	11211.02
