Data from brown_tile_FLMS001491_054.txt Node
Date: Tue Feb 07 10:37:42 GMT 2017
User: dcchb
Spectrometer: FLMS00149
Trigger mode: 0
Integration Time (sec): 2.000000E-2
Scans to average: 10
Electric dark correction enabled: true
Nonlinearity correction enabled: false
Boxcar width: 0
XAxis mode: Wavelengths
Number of Pixels in Spectrum: 2048
>>>>>Begin Spectral Data<<<<<
341.393	0.47
341.776	0.47
342.16	0.47
342.543	-59.42
342.927	-76.82
343.31	-59.42
343.693	-62.36
344.077	-56.71
344.46	-57.16
344.843	-48.35
345.226	-20.55
345.61	-25.3
345.993	-7.9
346.376	-16.26
346.759	8.38
347.142	20.35
347.525	51.54
347.908	41.37
348.291	63.97
348.674	77.53
349.057	90.86
349.44	130.41
349.823	142.61
350.206	192.1
350.588	190.29
350.971	202.95
351.354	220.57
351.737	220.35
352.119	253.57
352.502	248.6
352.884	247.92
353.267	272.78
353.65	276.39
354.032	283.85
354.414	292.44
354.797	284.75
355.179	309.61
355.562	326.33
355.944	322.49
356.326	313.9
356.709	310.97
357.091	304.64
357.473	329.5
357.855	312.55
358.238	314.36
358.62	315.71
359.002	326.79
359.384	321.36
359.766	331.08
360.148	340.8
360.53	326.11
360.912	310.29
361.294	316.62
361.676	315.49
362.057	320.01
362.439	310.97
362.821	306.45
363.203	310.06
363.584	308.48
363.966	307.12
364.348	296.05
364.729	292.44
365.111	295.83
365.493	313.23
365.874	302.38
366.256	308.25
366.637	292.89
367.019	317.29
367.4	301.93
367.781	280.68
368.163	304.86
368.544	274.58
368.925	302.38
369.306	293.11
369.688	305.09
370.069	291.53
370.45	305.09
370.831	290.18
371.212	295.83
371.593	303.51
371.974	288.82
372.355	301.48
372.736	285.88
373.117	305.99
373.498	291.76
373.879	304.86
374.26	280.46
374.641	312.77
375.021	285.88
375.402	311.64
375.783	300.35
376.163	303.06
376.544	312.77
376.925	314.58
377.305	305.77
377.686	347.35
378.066	294.7
378.447	324.3
378.827	282.49
379.208	296.73
379.588	314.58
379.968	299.22
380.349	307.12
380.729	302.38
381.109	306.67
381.489	321.59
381.87	297.86
382.25	309.38
382.63	317.75
383.01	313.68
383.39	331.98
383.77	315.71
384.15	305.54
384.53	334.69
384.91	324.07
385.29	333.11
385.67	313
386.049	331.76
386.429	313
386.809	336.05
387.189	323.17
387.568	312.77
387.948	315.49
388.328	335.6
388.707	335.6
389.087	341.93
389.466	311.42
389.846	327.01
390.225	323.4
390.605	344.64
390.984	335.37
391.363	358.2
391.743	345.54
392.122	345.32
392.501	356.84
392.881	353.68
393.26	356.16
393.639	329.27
394.018	345.99
394.397	344.19
394.776	347.58
395.155	360
395.534	369.5
395.913	348.03
396.292	333.11
396.671	364.75
397.05	361.59
397.429	366.56
397.808	381.02
398.186	368.59
398.565	339.67
398.944	390.06
399.323	345.32
399.701	381.7
400.08	363.17
400.458	337.86
400.837	374.92
401.215	389.38
401.594	370.85
401.972	370.85
402.351	360.91
402.729	378.31
403.107	376.95
403.486	385.31
403.864	373.56
404.242	397.97
404.62	378.76
404.999	387.35
405.377	398.87
405.755	391.19
406.133	402.94
406.511	391.87
406.889	394.58
407.267	407.01
407.645	404.07
408.023	425.54
408.401	402.26
408.779	394.58
409.156	408.36
409.534	419.66
409.912	415.14
410.29	429.16
410.667	420.57
411.045	417.63
411.422	423.96
411.8	451.3
412.178	414.01
412.555	415.82
412.933	433.45
413.31	454.69
413.687	456.73
414.065	447.01
414.442	435.71
414.819	436.61
415.197	427.57
415.574	456.73
415.951	479.32
416.328	460.57
416.705	439.32
417.082	444.97
417.46	462.15
417.837	474.13
418.214	459.66
418.591	464.86
418.967	483.39
419.344	473.22
419.721	464.63
420.098	468.93
420.475	461.24
420.852	470.28
421.228	477.29
421.605	455.37
421.982	483.17
422.358	500.57
422.735	495.59
423.111	492.2
423.488	490.62
423.864	494.92
424.241	494.92
424.617	505.09
424.994	497.18
425.37	501.47
425.746	512.99
426.123	501.47
426.499	515.25
426.875	509.61
427.251	531.98
427.627	524.52
428.003	520.68
428.379	539.43
428.756	536.95
429.132	545.08
429.507	548.25
429.883	545.76
430.259	564.07
430.635	564.97
431.011	549.83
431.387	563.84
431.763	569.72
432.138	576.72
432.514	574.24
432.89	578.3
433.265	582.37
433.641	586.67
434.016	612.43
434.392	584.41
434.767	612.88
435.143	596.16
435.518	632.31
435.894	628.25
436.269	618.75
436.644	625.53
437.02	621.01
437.395	630.73
437.77	655.36
438.145	635.03
438.52	623.5
438.895	621.24
439.271	650.17
439.646	664.86
440.021	661.69
440.395	642.71
440.77	661.01
441.145	666.44
441.52	674.8
441.895	675.7
442.27	690.62
442.645	677.96
443.019	688.58
443.394	675.48
443.769	694.46
444.143	670.96
444.518	707.11
444.892	707.11
445.267	678.64
445.641	702.37
446.016	698.98
446.39	702.59
446.764	705.76
447.139	705.08
447.513	729.03
447.887	699.2
448.262	699.2
448.636	732.2
449.01	746.21
449.384	756.15
449.758	725.19
450.132	752.99
450.506	729.49
450.88	761.35
451.254	731.75
451.628	766.55
452.002	762.03
452.376	788.47
452.75	788.02
453.123	782.59
453.497	802.48
453.871	784.63
454.244	822.82
454.618	817.39
454.992	818.98
455.365	815.81
455.739	833.89
456.112	823.5
456.486	849.94
456.859	866.21
457.232	871.63
457.606	872.53
457.979	868.69
458.352	881.12
458.725	882.48
459.099	899.65
459.472	884.74
459.845	905.98
460.218	920.22
460.591	911.18
460.964	903.04
461.337	959.99
461.71	937.16
462.083	973.55
462.456	966.99
462.829	982.81
463.201	985.52
463.574	985.3
463.947	986.65
464.32	1014
464.692	1000.21
465.065	979.42
465.438	1020.1
465.81	1060.55
466.183	1033.66
466.555	1068.69
466.928	1077.27
467.3	1078.86
467.672	1064.17
468.045	1106.65
468.417	1128.57
468.789	1115.01
469.161	1126.76
469.534	1126.09
469.906	1162.47
470.278	1173.09
470.65	1187.33
471.022	1196.14
471.394	1245.63
471.766	1202.69
472.138	1220.32
472.51	1236.37
472.882	1252.18
473.253	1295.12
473.625	1300.32
473.997	1313.43
474.369	1303.26
474.74	1344.16
475.112	1352.07
475.484	1382.8
475.855	1372.86
476.227	1409.92
476.598	1440.65
476.97	1474.33
477.341	1470.71
477.713	1476.13
478.084	1482.24
478.455	1533.99
478.827	1551.16
479.198	1587.32
479.569	1583.25
479.94	1630.03
480.311	1628.45
480.682	1646.98
481.053	1690.82
481.424	1710.7
481.795	1731.95
482.166	1727.88
482.537	1775.56
482.908	1810.36
483.279	1793.87
483.65	1828.44
484.021	1890.13
484.391	1879.96
484.762	1914.31
485.133	1886.07
485.503	1935.33
485.874	1974.2
486.244	2020.3
486.615	2028.66
486.985	2045.38
487.356	2106.17
487.726	2099.62
488.097	2131.48
488.467	2164.25
488.837	2182.33
489.207	2185.27
489.578	2247.86
489.948	2245.15
490.318	2249.67
490.688	2305.94
491.058	2323.57
491.428	2345.04
491.798	2340.07
492.168	2390.91
492.538	2432.94
492.908	2442.21
493.278	2475.2
493.648	2461.87
494.017	2491.7
494.387	2522.21
494.757	2517.46
495.126	2595.65
495.496	2567.86
495.866	2582.77
496.235	2643.11
496.605	2643.56
496.974	2631.13
497.344	2652.37
497.713	2700.73
498.082	2702.99
498.452	2729.43
498.821	2738.93
499.19	2767.4
499.559	2835.87
499.928	2849.2
500.298	2821.86
500.667	2850.56
501.036	2858.92
501.405	2903.44
501.774	2881.97
502.143	2933.27
502.512	2951.12
502.88	2944.8
503.249	2917.68
503.618	2996.77
503.987	2970.33
504.356	3029.31
504.724	3034.51
505.093	3076.77
505.462	3072.93
505.83	3088.75
506.199	3107.05
506.567	3150.21
506.936	3192.7
507.304	3185.02
507.672	3181.85
508.041	3204.68
508.409	3269.08
508.777	3247.84
509.145	3358.57
509.514	3295.75
509.882	3314.28
510.25	3355.86
510.618	3382.52
510.986	3411.22
511.354	3425.91
511.722	3446.48
512.09	3463.43
512.458	3482.18
512.826	3511.79
513.193	3525.8
513.561	3570.54
513.929	3578.9
514.297	3594.72
514.664	3634.95
515.032	3636.3
515.4	3676.3
515.767	3712.23
516.135	3753.14
516.502	3718.11
516.869	3740.25
517.237	3815.06
517.604	3776.86
517.972	3836.07
518.339	3852.34
518.706	3926.46
519.073	3889.63
519.44	3970.76
519.808	3982.73
520.175	4050.53
520.542	4070.42
520.909	4100.25
521.276	4084.2
521.643	4150.41
522.009	4148.61
522.376	4184.76
522.743	4206.01
523.11	4250.07
523.477	4297.75
523.843	4323.29
524.21	4391.76
524.577	4375.49
524.943	4447.58
525.31	4399.67
525.676	4518.09
526.043	4479.67
526.409	4567.13
526.776	4565.54
527.142	4605.54
527.508	4646.9
527.874	4667.01
528.241	4776.16
528.607	4779.55
528.973	4742.26
529.339	4779.1
529.705	4841.69
530.071	4884.63
530.437	4908.81
530.803	4947
531.169	4969.83
531.535	4939.32
531.901	5005.53
532.267	5069.26
532.632	5100.67
532.998	5153.1
533.364	5116.26
533.73	5196.71
534.095	5239.88
534.461	5223.38
534.826	5259.31
535.192	5304.73
535.557	5321.46
535.923	5351.74
536.288	5332.76
536.653	5405.52
537.019	5418.18
537.384	5446.65
537.749	5455.69
538.114	5514.22
538.479	5507.89
538.845	5566.65
539.21	5620.66
539.575	5589.47
539.94	5649.13
540.305	5665.18
540.67	5701.33
541.034	5725.51
541.399	5774.55
541.764	5752.18
542.129	5839.18
542.494	5868.56
542.858	5896.36
543.223	5903.14
543.587	5934.55
543.952	5958.28
544.316	6021.78
544.681	6026.3
545.045	6094.54
545.41	6118.5
545.774	6152.39
546.138	6139.51
546.503	6215.9
546.867	6237.59
547.231	6365.04
547.595	6308.55
547.959	6364.59
548.324	6364.59
548.688	6446.4
549.052	6498.6
549.416	6464.7
549.779	6475.78
550.143	6508.77
550.507	6599.84
550.871	6643.23
551.235	6707.18
551.599	6769.78
551.962	6793.73
552.326	6854.98
552.689	6929.32
553.053	6886.61
553.417	6889.1
553.78	6998.47
554.143	7035.31
554.507	7141.07
554.87	7148.3
555.234	7227.17
555.597	7245.25
555.96	7284.57
556.323	7367.73
556.686	7473.04
557.05	7496.31
557.413	7587.16
557.776	7595.97
558.139	7689.3
558.502	7732.01
558.865	7825.8
559.228	7949.41
559.59	7918.22
559.953	7981.5
560.316	8091.33
560.679	8087.26
561.041	8169.29
561.404	8246.58
561.767	8348.04
562.129	8381.94
562.492	8519.56
562.854	8510.98
563.217	8595.95
563.579	8646.11
563.941	8782.61
564.304	8857.41
564.666	8954.58
565.028	8987.8
565.39	9093.56
565.753	9138.08
566.115	9168.36
566.477	9330.39
566.839	9313.22
567.201	9421.69
567.563	9492.87
567.925	9630.95
568.287	9625.75
568.648	9738.29
569.01	9831.62
569.372	9941
569.734	9979.19
570.095	10079.3
570.457	10118.39
570.819	10251.5
571.18	10227.09
571.542	10392.74
571.903	10449.23
572.265	10477.93
572.626	10629.79
572.987	10598.38
573.349	10728.77
573.71	10869.56
574.071	10853.06
574.432	10993.85
574.794	11121.08
575.155	11184.8
575.516	11169.89
575.877	11323.33
576.238	11224.13
576.599	11453.05
576.96	11490.56
577.32	11576.21
577.681	11630.22
578.042	11729.65
578.403	11789.53
578.763	11774.62
579.124	11905.46
579.485	11987.27
579.845	12003.77
580.206	12072.24
580.566	12043.99
580.927	12203.31
581.287	12340.71
581.648	12336.41
582.008	12436.3
582.368	12422.74
582.728	12547.93
583.089	12527.37
583.449	12622.06
583.809	12655.5
584.169	12743.41
584.529	12798.77
584.889	12944.53
585.249	12853.24
585.609	12808.94
585.969	12964.87
586.329	13036.73
586.688	13037.41
587.048	13119.44
587.408	13115.15
587.768	13169.61
588.127	13197.63
588.487	13190.18
588.846	13294.13
589.206	13325.99
589.565	13348.14
589.925	13451.86
590.284	13469.94
590.643	13541.13
591.003	13533.67
591.362	13586.78
591.721	13641.01
592.08	13614.35
592.44	13638.75
592.799	13718.07
593.158	13788.35
593.517	13765.98
593.876	13805.53
594.235	13903.6
594.593	13902.93
594.952	13972.3
595.311	14007.33
595.67	14020.44
596.029	14097.04
596.387	14152.18
596.746	14183.6
597.104	14140.89
597.463	14118.06
597.822	14256.14
598.18	14236.02
598.538	14248.91
598.897	14397.6
599.255	14366.19
599.613	14511.5
599.972	14446.64
600.33	14518.28
600.688	14448
601.046	14612.29
601.404	14593.08
601.762	14555.56
602.12	14759.17
602.478	14780.42
602.836	14737.93
603.194	14762.11
603.552	14800.3
603.91	14685.96
604.268	14898.61
604.625	14911.49
604.983	14866.74
605.341	14886.85
605.698	15024.25
606.056	15010.69
606.413	14988.09
606.771	15114.42
607.128	15167.3
607.485	15102.67
607.843	15111.48
608.2	15228.54
608.557	15235.77
608.914	15225.38
609.272	15294.08
609.629	15369.78
609.986	15383.34
610.343	15291.82
610.7	15423.79
611.057	15435.09
611.414	15501.3
611.771	15385.6
612.127	15570.45
612.484	15578.14
612.841	15640.51
613.198	15622.43
613.554	15631.24
613.911	15637.57
614.267	15687.96
614.624	15707.62
614.98	15768.19
615.337	15858.58
615.693	15832.37
616.05	15774.97
616.406	15904.23
616.762	15840.28
617.118	15977.67
617.475	15877.56
617.831	15892.03
618.187	16038.69
618.543	16014.06
618.899	16056.54
619.255	16054.28
619.611	16029.88
619.967	16151
620.323	16161.62
620.678	16165.69
621.034	16064
621.39	16136.09
621.746	16127.05
622.101	16334.27
622.457	16222.64
622.812	16188.29
623.168	16305.12
623.523	16285.46
623.879	16289.08
624.234	16106.48
624.589	16326.82
624.945	16268.96
625.3	16197.33
625.655	16328.17
626.01	16349.19
626.365	16280.49
626.72	16322.52
627.075	16292.92
627.43	16317.55
627.785	16296.76
628.14	16293.82
628.495	16356.65
628.85	16298.79
629.205	16247.72
629.559	16409.53
629.914	16292.69
630.269	16320.04
630.623	16278.91
630.978	16215.18
631.332	16294.5
631.687	16313.48
632.041	16288.85
632.396	16263.99
632.75	16237.33
633.104	16253.82
633.459	16236.65
633.813	16210.21
634.167	16216.76
634.521	16164.11
634.875	16159.14
635.229	16253.37
635.583	16124.11
635.937	16138.57
636.291	16133.83
636.645	16132.02
636.999	16041.4
637.352	16129.53
637.706	16088.63
638.06	16119.59
638.413	16080.72
638.767	16039.37
639.121	16053.38
639.474	15924.57
639.828	15914.85
640.181	16036.65
640.534	16013.6
640.888	15887.96
641.241	15874.85
641.594	15960.95
641.947	15913.49
642.301	15900.61
642.654	15974.06
643.007	15935.64
643.36	15923.66
643.713	15961.18
644.066	15954.4
644.419	15854.96
644.771	15643.22
645.124	15580.62
645.477	15570
645.83	15488.19
646.182	15414.52
646.535	15339.5
646.888	15467.63
647.24	15276.9
647.593	15377.24
647.945	15381.98
648.298	15278.03
648.65	15326.16
649.002	15189.9
649.355	15325.71
649.707	15285.94
650.059	15368.88
650.411	15542.43
650.763	15573.16
651.115	15697.91
651.467	15817
651.819	15629.89
652.171	15676.66
652.523	15652.03
652.875	15641.86
653.227	15535.42
653.578	15621.52
653.93	15606.38
654.282	15583.11
654.633	15595.99
654.985	15633.5
655.337	15633.5
655.688	15624.46
656.039	15738.81
656.391	15520.28
656.742	15593.95
657.094	15534.52
657.445	15623.78
657.796	15605.71
658.147	15561.64
658.498	15592.82
658.849	15598.93
659.2	15526.84
659.551	15581.53
659.902	15617.91
660.253	15605.25
660.604	15685.03
660.955	15558.48
661.306	15658.36
661.656	15512.37
662.007	15616.78
662.358	15653.84
662.708	15546.95
663.059	15587.85
663.409	15609.77
663.76	15697.45
664.11	15666.04
664.461	15601.86
664.811	15665.36
665.161	15587.63
665.511	15593.5
665.862	15625.59
666.212	15698.13
666.562	15648.19
666.912	15699.71
667.262	15721.41
667.612	15648.64
667.962	15668.3
668.312	15685.25
668.662	15706.27
669.011	15705.82
669.361	15706.95
669.711	15590.79
670.06	15714.63
670.41	15646.61
670.76	15624.69
671.109	15718.92
671.459	15711.47
671.808	15592.15
672.157	15661.07
672.507	15588.98
672.856	15583.79
673.205	15667.4
673.554	15627.85
673.904	15633.05
674.253	15747.17
674.602	15642.77
674.951	15534.07
675.3	15336.33
675.649	15619.94
675.998	15635.54
676.346	15682.31
676.695	15757.57
677.044	15617.46
677.393	15688.64
677.741	15666.04
678.09	15616.78
678.438	15670.34
678.787	15661.52
679.135	15721.18
679.484	15628.3
679.832	15641.86
680.181	15579.04
680.529	15770.9
680.877	15627.85
681.225	15592.15
681.573	15662.2
681.922	15605.03
682.27	15599.38
682.618	15650.9
682.966	15561.41
683.314	15645.25
683.661	15551.7
684.009	15530.45
684.357	15466.27
684.705	15482.77
685.053	15499.95
685.4	15499.27
685.748	15443.22
686.095	15450
686.443	15436.67
686.79	15344.92
687.138	15428.08
687.485	15372.27
687.832	15337.92
688.18	15413.39
688.527	15330.91
688.874	15366.62
689.221	15224.92
689.568	15230.8
689.915	15187.19
690.262	15226.05
690.609	15175.21
690.956	15143.57
691.303	15211.82
691.65	15078.49
691.997	15177.24
692.344	14962.78
692.69	15131.82
693.037	15049.79
693.383	14981.77
693.73	15090.24
694.077	14996.68
694.423	14993.97
694.769	14909.9
695.116	14876.91
695.462	14926.18
695.808	14812.73
696.155	14916.68
696.501	14813.18
696.847	14783.13
697.193	14721.89
697.539	14710.81
697.885	14715.11
698.231	14626.3
698.577	14550.59
698.923	14562.34
699.269	14544.49
699.614	14532.06
699.96	14467.66
700.306	14488.9
700.651	14535.45
700.997	14454.55
701.342	14394.44
701.688	14433.08
702.033	14459.52
702.379	14400.77
702.724	14383.14
703.069	14369.58
703.415	14277.83
703.76	14217.27
704.105	14337.49
704.45	14276.7
704.795	14162.58
705.14	14106.76
705.485	14187.21
705.83	14088.68
706.175	14069.25
706.52	14139.98
706.865	14064.96
707.209	14016.59
707.554	14046.2
707.899	14096.14
708.243	13899.31
708.588	13960.55
708.932	13858.86
709.277	14039.42
709.621	13924.85
709.966	13890.04
710.31	13833.32
710.654	13694.34
710.998	13868.8
711.342	13845.3
711.687	13815.92
712.031	13764.17
712.375	13732.76
712.719	13697.73
713.063	13720.56
713.407	13782.25
713.75	13757.17
714.094	13706.32
714.438	13623.16
714.782	13652.99
715.125	13567.12
715.469	13652.76
715.812	13577.51
716.156	13545.42
716.499	13503.16
716.843	13498.19
717.186	13460.23
717.53	13487.8
717.873	13548.81
718.216	13588.13
718.559	13368.48
718.902	13393.56
719.246	13434.46
719.589	13306.33
719.932	13337.29
720.275	13315.82
720.617	13351.98
720.96	13358.31
721.303	13356.05
721.646	13302.26
721.989	13203.51
722.331	13425.2
722.674	13337.74
723.016	13321.25
723.359	13265.88
723.701	13277.63
724.044	13268.59
724.386	13114.7
724.729	13229.95
725.071	13253.68
725.413	13191.76
725.755	13228.82
726.097	13146.11
726.439	13116.51
726.782	13133.91
727.124	13250.74
727.465	13079.9
727.807	13073.12
728.149	13037.64
728.491	13005.77
728.833	13091.42
729.175	13014.14
729.516	13072.21
729.858	13073.79
730.199	12996.28
730.541	13060.01
730.882	12983.63
731.224	13045.32
731.565	12919.9
731.906	12904.53
732.248	12991.76
732.589	12931.88
732.93	12861.14
733.271	12871.09
733.612	12893.01
733.953	12918.09
734.294	12874.03
734.635	12757.19
734.976	12907.47
735.317	12788.83
735.658	12814.14
735.999	12805.33
736.339	12849.39
736.68	12752.45
737.021	12787.25
737.361	12729.85
737.702	12673.13
738.042	12663.41
738.383	12656.86
738.723	12774.82
739.063	12580.7
739.404	12658.44
739.744	12656.86
740.084	12553.81
740.424	12667.48
740.764	12568.5
741.104	12669.74
741.444	12555.39
741.784	12529.4
742.124	12513.13
742.464	12540.25
742.804	12480.59
743.143	12575.73
743.483	12479.91
743.823	12375.96
744.162	12383.42
744.502	12472.23
744.841	12387.94
745.181	12392.91
745.52	12350.65
745.86	12361.27
746.199	12230.88
746.538	12330.31
746.877	12345.45
747.216	12335.28
747.556	12231.1
747.895	12279.69
748.234	12314.27
748.573	12260.93
748.911	12200.6
749.25	12173.25
749.589	12137.1
749.928	12099.58
750.267	12161.73
750.605	12147.94
750.944	12088.28
751.283	12024.1
751.621	11984.33
751.96	12036.99
752.298	11954.5
752.636	11927.16
752.975	11881.96
753.313	11856.2
753.651	11892.58
753.989	11844
754.327	11808.74
754.666	11763.55
755.004	11772.36
755.342	11771.91
755.679	11757.45
756.017	11675.87
756.355	11758.58
756.693	11657.33
757.031	11724.68
757.368	11534.17
757.706	11556.32
758.044	11567.39
758.381	11527.17
758.719	11460.5
759.056	11514.51
759.394	11506.15
759.731	11373.5
760.068	11333.95
760.405	11275.88
760.743	11263.45
