Data from brown_tile_FLMS001491_029.txt Node
Date: Tue Feb 07 10:37:18 GMT 2017
User: dcchb
Spectrometer: FLMS00149
Trigger mode: 0
Integration Time (sec): 2.000000E-2
Scans to average: 10
Electric dark correction enabled: true
Nonlinearity correction enabled: false
Boxcar width: 0
XAxis mode: Wavelengths
Number of Pixels in Spectrum: 2048
>>>>>Begin Spectral Data<<<<<
341.393	-5.8
341.776	-5.8
342.16	-5.8
342.543	-55.75
342.927	-66.37
343.31	-80.15
343.693	-70.44
344.077	-56.2
344.46	-47.39
344.843	-48.06
345.226	-37.44
345.61	-54.17
345.993	-0.83
346.376	-1.29
346.759	15.44
347.142	33.52
347.525	44.59
347.908	56.11
348.291	62.67
348.674	86.85
349.057	96.79
349.44	115.77
349.823	126.62
350.206	149.22
350.588	170.69
350.971	179.95
351.354	194.42
351.737	226.51
352.119	217.47
352.502	257.24
352.884	259.05
353.267	247.3
353.65	268.99
354.032	281.87
354.414	268.54
354.797	277.35
355.179	305.83
355.562	305.83
355.944	293.85
356.326	323.9
356.709	319.16
357.091	323.23
357.473	331.14
357.855	298.37
358.238	318.93
358.62	324.81
359.002	324.58
359.384	314.41
359.766	322.1
360.148	322.77
360.53	296.33
360.912	322.1
361.294	327.97
361.676	322.1
362.057	323
362.439	317.8
362.821	328.88
363.203	312.83
363.584	280.06
363.966	314.19
364.348	306.96
364.729	295.88
365.111	299.27
365.493	293.17
365.874	311.25
366.256	307.63
366.637	306.05
367.019	286.39
367.4	300.85
367.781	305.37
368.163	287.75
368.544	269.22
368.925	285.49
369.306	289.1
369.688	290.68
370.069	272.83
370.45	314.86
370.831	287.52
371.212	285.03
371.593	279.84
371.974	294.75
372.355	290.23
372.736	285.03
373.117	289.55
373.498	295.88
373.879	297.92
374.26	282.78
374.641	298.82
375.021	302.89
375.402	300.85
375.783	295.88
376.163	307.86
376.544	323.45
376.925	291.36
377.305	304.02
377.686	307.63
378.066	289.78
378.447	316.67
378.827	315.77
379.208	310.34
379.588	320.29
379.968	297.46
380.349	317.58
380.729	320.51
381.109	311.93
381.489	310.57
381.87	315.99
382.25	293.4
382.63	327.97
383.01	323.23
383.39	313.96
383.77	318.03
384.15	308.31
384.53	319.38
384.91	346.05
385.29	342.43
385.67	314.64
386.049	330.68
386.429	320.06
386.809	318.48
387.189	315.32
387.568	330.01
387.948	317.12
388.328	330.91
388.707	334.3
389.087	333.62
389.466	317.12
389.846	339.04
390.225	351.47
390.605	328.88
390.984	337.24
391.363	334.3
391.743	356.22
392.122	352.83
392.501	341.53
392.881	329.78
393.26	337.46
393.639	341.76
394.018	369.33
394.397	355.54
394.776	339.04
395.155	363.45
395.534	356.9
395.913	351.47
396.292	351.47
396.671	348.99
397.05	343.56
397.429	363.9
397.808	355.32
398.186	369.33
398.565	340.85
398.944	348.31
399.323	351.02
399.701	368.65
400.08	358.93
400.458	367.52
400.837	381.76
401.215	372.49
401.594	375.43
401.972	387.86
402.351	400.96
402.729	372.72
403.107	395.77
403.486	397.12
403.864	383.56
404.242	387.86
404.62	379.72
404.999	377.91
405.377	393.73
405.755	397.35
406.133	374.07
406.511	415.65
406.889	392.15
407.267	399.16
407.645	381.98
408.023	400.51
408.401	409.1
408.779	418.59
409.156	419.72
409.534	395.31
409.912	408.2
410.29	415.88
410.667	415.65
411.045	431.47
411.422	386.5
411.8	412.72
412.178	417.91
412.555	412.72
412.933	420.4
413.31	402.32
413.687	410.68
414.065	431.02
414.442	430.79
414.819	417.69
415.197	435.77
415.574	461.98
415.951	459.27
416.328	438.03
416.705	437.35
417.082	437.8
417.46	439.83
417.837	458.82
418.214	449.1
418.591	433.51
418.967	455.88
419.344	467.85
419.721	446.84
420.098	477.8
420.475	454.07
420.852	503.79
421.228	487.06
421.605	505.82
421.982	482.32
422.358	490.45
422.735	482.09
423.111	506.27
423.488	489.55
423.864	465.37
424.241	487.06
424.617	499.27
424.994	490
425.37	494.52
425.746	477.57
426.123	503.56
426.499	499.27
426.875	505.14
427.251	516.22
427.627	536.1
428.003	523.9
428.379	537.91
428.756	536.1
429.132	517.8
429.507	551.47
429.883	535.65
430.259	543.79
430.635	555.54
431.011	556.44
431.387	565.25
431.763	574.29
432.138	553.05
432.514	547.4
432.89	570.45
433.265	567.74
433.641	555.99
434.016	591.47
434.392	585.59
434.767	603.9
435.143	589.66
435.518	605.93
435.894	583.56
436.269	614.74
436.644	619.49
437.02	621.3
437.395	608.87
437.77	630.34
438.145	631.24
438.52	607.96
438.895	612.26
439.271	659.26
439.646	645.48
440.021	661.75
440.395	669.88
440.77	644.12
441.145	633.73
441.52	649.09
441.895	661.52
442.27	661.3
442.645	662.65
443.019	683.67
443.394	667.4
443.769	673.27
444.143	659.71
444.518	662.65
444.892	702.65
445.267	694.29
445.641	676.89
446.016	682.31
446.39	679.6
446.764	722.54
447.139	673.27
447.513	691.35
447.887	697.68
448.262	695.65
448.636	701.07
449.01	714.85
449.384	722.54
449.758	715.76
450.132	736.77
450.506	722.54
450.88	721.63
451.254	747.4
451.628	754.4
452.002	763.44
452.376	752.82
452.75	791.91
453.123	774.51
453.497	795.53
453.871	794.17
454.244	783.1
454.618	788.3
454.992	784.46
455.365	805.25
455.739	814.29
456.112	826.94
456.486	840.73
456.859	842.08
457.232	835.53
457.606	827.17
457.979	854.74
458.352	841.63
458.725	861.74
459.099	864.91
459.472	865.13
459.845	918.01
460.218	905.36
460.591	908.3
460.964	897.45
461.337	922.08
461.71	945.58
462.083	929.99
462.456	939.03
462.829	936.77
463.201	951.91
463.574	968.86
463.947	964.57
464.32	982.42
464.692	980.38
465.065	1016.54
465.438	1020.83
465.81	1033.49
466.183	1051.12
466.555	1029.65
466.928	1047.73
467.3	1073.04
467.672	1071.91
468.045	1056.31
468.417	1075.75
468.789	1101.06
469.161	1106.48
469.534	1100.38
469.906	1135.86
470.278	1134.73
470.65	1140.83
471.022	1148.51
471.394	1187.38
471.766	1183.99
472.138	1235.29
472.51	1205.91
472.882	1220.38
473.253	1250.89
473.625	1287.49
473.997	1262.41
474.369	1299.47
474.74	1316.65
475.112	1304.9
475.484	1325.69
475.855	1347.38
476.227	1364.33
476.598	1394.16
476.97	1392.12
477.341	1411.33
477.713	1449.52
478.084	1454.72
478.455	1506.47
478.827	1492.91
479.198	1538.79
479.569	1525.45
479.94	1549.41
480.311	1588.96
480.682	1618.79
481.053	1625.34
481.424	1649.29
481.795	1657.43
482.166	1673.02
482.537	1698.11
482.908	1713.92
483.279	1743.08
483.65	1754.37
484.021	1808.16
484.391	1858.1
484.762	1864.43
485.133	1833.47
485.503	1863.75
485.874	1926.35
486.244	1921.38
486.615	1951.66
486.985	1953.69
487.356	2026.01
487.726	2014.25
488.097	2062.62
488.467	2084.31
488.837	2101.26
489.207	2149.39
489.578	2176.74
489.948	2176.74
490.318	2166.79
490.688	2200.01
491.058	2268.26
491.428	2271.88
491.798	2258.99
492.168	2302.38
492.538	2316.85
492.908	2351.2
493.278	2365.88
493.648	2386.9
494.017	2410.63
494.387	2431.65
494.757	2459.21
495.126	2478.2
495.496	2484.98
495.866	2480.91
496.235	2575.14
496.605	2544.41
496.974	2559.55
497.344	2577.86
497.713	2631.87
498.082	2585.54
498.452	2601.58
498.821	2651.3
499.19	2637.29
499.559	2699.21
499.928	2690.62
500.298	2693.33
500.667	2747.57
501.036	2791.18
501.405	2775.59
501.774	2781.69
502.143	2777.4
502.512	2828.02
502.88	2894.23
503.249	2849.26
503.618	2895.14
503.987	2873.44
504.356	2927.9
504.724	2956.38
505.093	2974.68
505.462	2981.91
505.83	2968.13
506.199	2995.7
506.567	3003.38
506.936	3041.12
507.304	3092.42
507.672	3076.37
508.041	3087.22
508.409	3160.44
508.777	3169.93
509.145	3196.82
509.514	3180.33
509.882	3214.45
510.25	3219.42
510.618	3250.83
510.986	3276.14
511.354	3290.15
511.722	3304.84
512.09	3364.28
512.458	3345.75
512.826	3358.17
513.193	3395.91
513.561	3449.02
513.929	3425.74
514.297	3488.79
514.664	3501.9
515.032	3530.37
515.4	3516.14
515.767	3553.88
516.135	3547.32
516.502	3628
516.869	3637.72
517.237	3639.3
517.604	3631.84
517.972	3680.88
518.339	3713.65
518.706	3749.8
519.073	3745.51
519.44	3793.87
519.808	3839.07
520.175	3832.06
520.542	3872.74
520.909	3902.57
521.276	3888.1
521.643	3934.88
522.009	3998.16
522.376	3986.41
522.743	4032.28
523.11	4083.58
523.477	4114.31
523.843	4152.96
524.21	4212.84
524.577	4207.42
524.943	4226.4
525.31	4325.83
525.676	4338.49
526.043	4327.19
526.409	4370.13
526.776	4402.44
527.142	4451.7
527.508	4474.08
527.874	4500.29
528.241	4540.52
528.607	4558.14
528.973	4586.16
529.339	4608.09
529.705	4666.61
530.071	4712.72
530.437	4760.62
530.803	4806.27
531.169	4808.31
531.535	4812.83
531.901	4881.07
532.267	4865.71
532.632	4919.04
532.998	4937.79
533.364	4985.02
533.73	4979.15
534.095	5008.07
534.461	5051.01
534.826	5056.66
535.192	5095.08
535.557	5156.32
535.923	5186.37
536.288	5169.65
536.653	5291
537.019	5239.93
537.384	5267.28
537.749	5325.81
538.114	5293.26
538.479	5319.7
538.845	5373.71
539.21	5387.05
539.575	5410.55
539.94	5451.68
540.305	5526.93
540.67	5521.51
541.034	5504.11
541.399	5549.98
541.764	5517.89
542.129	5633.82
542.494	5683.76
542.858	5670.43
543.223	5709.75
543.587	5755.63
543.952	5796.75
544.316	5815.74
544.681	5764.66
545.045	5847.6
545.41	5891.67
545.774	5944.1
546.138	5950.42
546.503	5998.78
546.867	6010.99
547.231	6095.28
547.595	6128.05
547.959	6152.68
548.324	6211.88
548.688	6221.83
549.052	6332.79
549.416	6250.53
549.779	6317.87
550.143	6352.67
550.507	6466.57
550.871	6463.63
551.235	6491.88
551.599	6531.2
551.962	6596.06
552.326	6637.64
552.689	6675.38
553.053	6641.7
553.417	6727.35
553.78	6826.33
554.143	6845.54
554.507	6869.27
554.87	6901.36
555.234	7006.44
555.597	6982.71
555.96	7095.03
556.323	7135.02
556.686	7190.84
557.05	7297.96
557.413	7314.23
557.776	7394.68
558.139	7432.42
558.502	7513.32
558.865	7552.41
559.228	7666.54
559.59	7670.15
559.953	7740.66
560.316	7884.16
560.679	7872.18
561.041	7964.38
561.404	8017.03
561.767	8104.94
562.129	8173.19
562.492	8286.63
562.854	8319.63
563.217	8378.38
563.579	8416.8
563.941	8493.86
564.304	8631.71
564.666	8661.54
565.028	8751.7
565.39	8807.97
565.753	8845.26
566.115	8988.76
566.477	8975.65
566.839	9076.22
567.201	9220.39
567.563	9241.64
567.925	9432.14
568.287	9446.6
568.648	9489.76
569.01	9551.23
569.372	9689.08
569.734	9706.71
570.095	9789.42
570.457	9915.29
570.819	9947.61
571.18	10000.49
571.542	10107.6
571.903	10205
572.265	10285.9
572.626	10388.95
572.987	10437.31
573.349	10493.13
573.71	10623.52
574.071	10652.9
574.432	10705.55
574.794	10811.76
575.155	10834.14
575.516	11036.62
575.877	11076.39
576.238	11135.6
576.599	11161.59
576.96	11288.36
577.32	11328.13
577.681	11390.28
578.042	11447.68
578.403	11538.3
578.763	11521.35
579.124	11623.04
579.485	11721.34
579.845	11816.71
580.206	11821.68
580.566	11826.65
580.927	11942.13
581.287	12152.97
581.648	12059.19
582.008	12164.95
582.368	12204.72
582.728	12179.19
583.089	12251.73
583.449	12385.73
583.809	12369.91
584.169	12393.19
584.529	12513.64
584.889	12615.56
585.249	12552.28
585.609	12630.02
585.969	12685.84
586.329	12646.74
586.688	12793.18
587.048	12812.16
587.408	12838.83
587.768	12966.06
588.127	12913.18
588.487	12952.27
588.846	13083.57
589.206	13057.58
589.565	13020.29
589.925	13188.2
590.284	13153.17
590.643	13244.92
591.003	13277.69
591.362	13381.41
591.721	13326.5
592.08	13411.02
592.44	13420.06
592.799	13484.46
593.158	13525.36
593.517	13478.13
593.876	13579.37
594.235	13626.6
594.593	13622.54
594.952	13757
595.311	13682.2
595.67	13677
596.029	13798.58
596.387	13830.44
596.746	13956.09
597.104	13915.64
597.463	13843.32
597.822	13963.09
598.18	13975.3
598.538	14028.4
598.897	14112.02
599.255	14074.95
599.613	14222.07
599.972	14244.89
600.33	14236.98
600.688	14260.03
601.046	14243.54
601.404	14384.33
601.762	14328.96
602.12	14449.63
602.478	14489.18
602.836	14375.51
603.194	14480.82
603.552	14540.25
603.91	14473.59
604.268	14567.15
604.625	14539.8
604.983	14625.9
605.341	14607.14
605.698	14734.15
606.056	14750.19
606.413	14671.32
606.771	14842.62
607.128	14768.5
607.485	14821.83
607.843	14849.62
608.2	14924.88
608.557	14960.81
608.914	14967.13
609.272	14961.26
609.629	14965.55
609.986	15074.7
610.343	15004.2
610.7	15134.81
611.057	15121.25
611.414	15121.25
611.771	15206.68
612.127	15248.71
612.484	15322.83
612.841	15316.5
613.198	15245.32
613.554	15291.65
613.911	15400.12
614.267	15400.12
614.624	15419.55
614.98	15472.21
615.337	15564.63
615.693	15595.59
616.05	15524.86
616.406	15650.73
616.762	15615.25
617.118	15563.05
617.475	15577.97
617.831	15636.5
618.187	15642.37
618.543	15712.2
618.899	15782.03
619.255	15824.51
619.611	15805.98
619.967	15805.08
620.323	15839.88
620.678	15879.2
621.034	15878.07
621.39	15873.33
621.746	15856.15
622.101	16048.91
622.457	15857.96
622.812	15909.71
623.168	16007.56
623.523	15960.33
623.879	16026.32
624.234	15939.09
624.589	15978.86
624.945	15966.66
625.3	16007.56
625.655	15938.41
626.01	16031.74
626.365	16008.46
626.72	16007.11
627.075	16057.73
627.43	16064.73
627.785	15958.75
628.14	16094.34
628.495	16060.44
628.85	15977.05
629.205	15960.1
629.559	16109.7
629.914	15944.28
630.269	16033.77
630.623	16047.11
630.978	16052.53
631.332	16036.71
631.687	16081.23
632.041	15992.42
632.396	16041
632.75	15931.18
633.104	15974.34
633.459	15840.11
633.813	15888.24
634.167	15884.17
634.521	15947
634.875	15949.03
635.229	15856.38
635.583	15862.03
635.937	15868.81
636.291	15827.45
636.645	15845.98
636.999	15789.71
637.352	15901.8
637.706	15748.81
638.06	15829.48
638.413	15797.17
638.767	15811.18
639.121	15808.92
639.474	15680.56
639.828	15743.16
640.181	15808.92
640.534	15708.81
640.888	15728.24
641.241	15643.95
641.594	15649.15
641.947	15640.79
642.301	15573.45
642.654	15650.28
643.007	15627.68
643.36	15641.92
643.713	15652.09
644.066	15753.1
644.419	15596.04
644.771	15450.29
645.124	15404.86
645.477	15336.39
645.83	15237.41
646.182	15264.3
646.535	15203.96
646.888	15201.03
647.24	15110.86
647.593	15234.92
647.945	15188.6
648.298	15134.59
648.65	15026.34
649.002	15076.51
649.355	15147.92
649.707	15083.97
650.059	15159.67
650.411	15416.16
650.763	15350.85
651.115	15524.18
651.467	15448.93
651.819	15465.43
652.171	15425.2
652.523	15391.76
652.875	15389.95
653.227	15366.9
653.578	15485.99
653.93	15348.59
654.282	15424.52
654.633	15389.04
654.985	15405.77
655.337	15384.52
655.688	15293.68
656.039	15390.85
656.391	15314.02
656.742	15299.33
657.094	15308.14
657.445	15436.05
657.796	15330.51
658.147	15389.5
658.498	15358.76
658.849	15417.52
659.2	15396.73
659.551	15315.83
659.902	15363.06
660.253	15378.2
660.604	15375.26
660.955	15357.63
661.306	15345.66
661.656	15419.78
662.007	15442.83
662.358	15377.29
662.708	15404.86
663.059	15366.45
663.409	15377.97
663.76	15357.18
664.11	15415.03
664.461	15487.12
664.811	15470.17
665.161	15438.99
665.511	15347.24
665.862	15424.98
666.212	15433.11
666.562	15434.69
666.912	15434.02
667.262	15484.18
667.612	15462.26
667.962	15433.56
668.312	15455.94
668.662	15507.23
669.011	15434.47
669.361	15412.09
669.711	15476.27
670.06	15457.97
670.41	15426.78
670.76	15372.55
671.109	15414.81
671.459	15460.91
671.808	15491.19
672.157	15439.21
672.507	15424.07
672.856	15397.41
673.205	15457.29
673.554	15478.76
673.904	15452.55
674.253	15500.68
674.602	15479.66
674.951	15210.74
675.3	15171.42
675.649	15419.1
675.998	15415.71
676.346	15474.47
676.695	15509.04
677.044	15340.91
677.393	15459.55
677.741	15434.02
678.09	15445.09
678.438	15508.36
678.787	15393.11
679.135	15444.18
679.484	15314.47
679.832	15391.98
680.181	15315.37
680.529	15430.63
680.877	15272.66
681.225	15329.61
681.573	15507.69
681.922	15268.14
682.27	15232.89
682.618	15317.86
682.966	15326.67
683.314	15365.32
683.661	15240.35
684.009	15248.48
684.357	15180.01
684.705	15204.64
685.053	15238.31
685.4	15270.86
685.748	15147.24
686.095	15159.22
686.443	15204.64
686.79	15118.54
687.138	15128.94
687.485	15121.03
687.832	15088.71
688.18	15205.32
688.527	15043.06
688.874	15074.93
689.221	15000.35
689.568	15003.74
689.915	14973.46
690.262	15010.98
690.609	14955.61
690.956	14970.3
691.303	14960.13
691.65	14930.53
691.997	14904.76
692.344	14744.32
692.69	14838.55
693.037	14902.96
693.383	14778.21
693.73	14826.57
694.077	14595.39
694.423	14680.81
694.769	14653.02
695.116	14635.84
695.462	14558.11
695.808	14577.54
696.155	14653.24
696.501	14594.04
696.847	14591.33
697.193	14466.36
697.539	14585
697.885	14503.19
698.231	14393.36
698.577	14364.21
698.923	14486.92
699.269	14316.53
699.614	14285.57
699.96	14283.54
700.306	14289.86
700.651	14195.63
700.997	14277.89
701.342	14258.68
701.688	14192.24
702.033	14182.75
702.379	14169.42
702.724	14146.59
703.069	14203.99
703.415	14034.73
703.76	14049.42
704.105	14064.33
704.45	14058.91
704.795	14013.26
705.14	13988.18
705.485	13939.82
705.83	13941.85
706.175	13909.31
706.52	13829.99
706.865	13807.39
707.209	13909.99
707.554	13767.62
707.899	13900.04
708.243	13827.73
708.588	13742.53
708.932	13751.35
709.277	13765.13
709.621	13735.3
709.966	13709.99
710.31	13689.88
710.654	13620.28
710.998	13610.33
711.342	13740.5
711.687	13582.76
712.031	13498.47
712.375	13530.79
712.719	13544.57
713.063	13544.12
713.407	13574.18
713.75	13621.41
714.094	13474.74
714.438	13519.26
714.782	13427.51
715.125	13431.36
715.469	13558.81
715.812	13398.81
716.156	13386.39
716.499	13375.31
716.843	13331.7
717.186	13359.95
717.53	13388.65
717.873	13352.49
718.216	13387.74
718.559	13314.52
718.902	13195.88
719.246	13291.25
719.589	13177.58
719.932	13227.97
720.275	13199.72
720.617	13210.34
720.96	13223.45
721.303	13216.67
721.646	13251.25
721.989	13154.53
722.331	13125.83
722.674	13169.67
723.016	13111.59
723.359	13150.01
723.701	13110.23
724.044	13028.65
724.386	13072.72
724.729	13043.34
725.071	13074.08
725.413	13031.37
725.755	13032.95
726.097	13053.06
726.439	12966.06
726.782	12971.03
727.124	13087.86
727.465	13043.12
727.807	12942.1
728.149	12903.23
728.491	12940.52
728.833	12809.23
729.175	12871.14
729.516	12956.57
729.858	12798.15
730.199	12922.22
730.541	12868.21
730.882	12830.92
731.224	12846.29
731.565	12780.75
731.906	12831.15
732.248	12776.01
732.589	12753.63
732.93	12752.28
733.271	12813.97
733.612	12758.61
733.953	12745.5
734.294	12724.48
734.635	12752.5
734.976	12759.51
735.317	12644.48
735.658	12721.54
735.999	12598.38
736.339	12639.96
736.68	12664.82
737.021	12675.9
737.361	12551.15
737.702	12600.19
738.042	12597.25
738.383	12544.37
738.723	12590.7
739.063	12542.11
739.404	12540.31
739.744	12444.04
740.084	12465.51
740.424	12524.94
740.764	12418.5
741.104	12514.77
741.444	12397.71
741.784	12361.55
742.124	12363.59
742.464	12375.56
742.804	12379.18
743.143	12323.36
743.483	12378.05
743.823	12318.62
744.162	12216.7
744.502	12275
744.841	12232.52
745.181	12287.43
745.52	12260.31
745.86	12220.09
746.199	12220.54
746.538	12216.02
746.877	12207.89
747.216	12122.24
747.556	12145.29
747.895	12207.89
748.234	12133.99
748.573	12030.71
748.911	12134.44
749.25	12064.61
749.589	11986.65
749.928	12074.1
750.267	12050.6
750.605	11984.61
750.944	11914.79
751.283	11983.26
751.621	11901.45
751.96	11893.32
752.298	11841.57
752.636	11876.82
752.975	11807.67
753.313	11702.36
753.651	11744.62
753.989	11791.62
754.327	11713.43
754.666	11628.24
755.004	11689.25
755.342	11684.06
755.679	11690.38
756.017	11559.54
756.355	11601.57
756.693	11603.83
757.031	11596.6
757.368	11479.54
757.706	11485.64
758.044	11375.14
758.381	11428.47
758.719	11303.95
759.056	11449.04
759.394	11267.12
759.731	11259.44
760.068	11299.21
760.405	11157.74
760.743	11190.06
