Data from brown_tile_FLMS001491_086.txt Node
Date: Tue Feb 07 10:38:07 GMT 2017
User: dcchb
Spectrometer: FLMS00149
Trigger mode: 0
Integration Time (sec): 2.000000E-2
Scans to average: 10
Electric dark correction enabled: true
Nonlinearity correction enabled: false
Boxcar width: 0
XAxis mode: Wavelengths
Number of Pixels in Spectrum: 2048
>>>>>Begin Spectral Data<<<<<
341.393	2.47
341.776	2.47
342.16	2.47
342.543	-63.29
342.927	-59.22
343.31	-79.79
343.693	-56.06
344.077	-63.06
344.46	-45.21
344.843	-62.39
345.226	-36.85
345.61	-33.01
345.993	-33.46
346.376	-7.92
346.759	-2.5
347.142	28.01
347.525	30.72
347.908	75.92
348.291	81.57
348.674	85.63
349.057	118.4
349.44	143.03
349.823	134.9
350.206	154.56
350.588	190.04
350.971	233.2
351.354	235.46
351.737	238.17
352.119	240.21
352.502	239.08
352.884	266.65
353.267	277.72
353.65	261.9
354.032	273.65
354.414	294.44
354.797	293.09
355.179	301.9
355.562	315.23
355.944	309.13
356.326	306.42
356.709	327.66
357.091	338.06
357.473	336.47
357.855	315.68
358.238	344.16
358.62	329.24
359.002	341.45
359.384	331.28
359.766	317.49
360.148	337.15
360.53	325.4
360.912	318.4
361.294	322.92
361.676	315.68
362.057	317.72
362.439	326.76
362.821	297.15
363.203	305.29
363.584	311.39
363.966	330.15
364.348	309.13
364.729	324.27
365.111	317.27
365.493	302.58
365.874	313.65
366.256	321.79
366.637	305.97
367.019	313.42
367.4	312.07
367.781	293.76
368.163	304.38
368.544	299.19
368.925	317.04
369.306	277.27
369.688	287.44
370.069	300.09
370.45	282.01
370.831	303.25
371.212	317.94
371.593	298.28
371.974	290.37
372.355	309.36
372.736	290.15
373.117	296.93
373.498	293.31
373.879	283.37
374.26	291.05
374.641	300.32
375.021	312.29
375.402	303.25
375.783	299.64
376.163	323.37
376.544	309.81
376.925	290.15
377.305	300.99
377.686	303.03
378.066	308.45
378.447	300.54
378.827	318.17
379.208	294.89
379.588	314.1
379.968	299.41
380.349	311.84
380.729	306.64
381.109	310.26
381.489	306.87
381.87	311.84
382.25	313.88
382.63	333.76
383.01	295.12
383.39	321.56
383.77	344.61
384.15	317.72
384.53	333.99
384.91	307.32
385.29	337.38
385.67	321.79
386.049	330.6
386.429	340.77
386.809	329.69
387.189	348.45
387.568	337.38
387.948	349.58
388.328	338.51
388.707	361.11
389.087	343.93
389.466	360.88
389.846	330.15
390.225	340.32
390.605	333.76
390.984	323.59
391.363	357.26
391.743	347.32
392.122	352.29
392.501	359.98
392.881	349.81
393.26	367.89
393.639	362.91
394.018	360.43
394.397	362.01
394.776	362.01
395.155	363.82
395.534	344.84
395.913	339.41
396.292	377.6
396.671	353.65
397.05	365.63
397.429	365.63
397.808	394.55
398.186	371.05
398.565	357.26
398.944	353.65
399.323	345.29
399.701	367.43
400.08	375.34
400.458	383.25
400.837	374.89
401.215	375.12
401.594	385.06
401.972	360.2
402.351	371.05
402.729	374.44
403.107	394.33
403.486	372.41
403.864	388.9
404.242	380.77
404.62	387.32
404.999	401.33
405.377	374.44
405.755	388.68
406.133	386.87
406.511	411.5
406.889	395.46
407.267	395.46
407.645	398.39
408.023	412.63
408.401	406.53
408.779	406.08
409.156	404.5
409.534	416.7
409.912	419.64
410.29	398.62
410.667	426.87
411.045	403.59
411.422	428.45
411.8	424.16
412.178	426.42
412.555	430.03
412.933	420.09
413.31	445.17
413.687	436.36
414.065	430.93
414.442	434.55
414.819	427.77
415.197	436.81
415.574	450.82
415.951	449.92
416.328	463.02
416.705	443.82
417.082	451.73
417.46	446.3
417.837	471.84
418.214	456.7
418.591	461.67
418.967	478.62
419.344	452.86
419.721	464.38
420.098	483.36
420.475	460.99
420.852	466.41
421.228	463.93
421.605	473.19
421.982	450.82
422.358	472.06
422.735	474.55
423.111	486.98
423.488	470.26
423.864	493.76
424.241	505.96
424.617	522.23
424.994	491.72
425.37	496.02
425.746	501.44
426.123	489.24
426.499	483.81
426.875	519.52
427.251	510.03
427.627	513.42
428.003	531.27
428.379	518.39
428.756	540.31
429.132	530.14
429.507	536.24
429.883	538.05
430.259	553.64
430.635	537.6
431.011	524.49
431.387	558.39
431.763	568.33
432.138	545.06
432.514	566.52
432.89	569.24
433.265	581.21
433.641	588.22
434.016	586.41
434.392	587.09
434.767	595
435.143	598.61
435.518	583.7
435.894	585.28
436.269	585.96
436.644	586.19
437.02	620.53
437.395	613.76
437.77	606.52
438.145	622.57
438.52	634.77
438.895	619.4
439.271	633.87
439.646	630.93
440.021	637.94
440.395	647.2
440.77	612.63
441.145	638.39
441.52	666.41
441.895	633.87
442.27	658.27
442.645	634.77
443.019	650.14
443.394	653.3
443.769	656.69
444.143	640.87
444.518	673.19
444.892	677.48
445.267	671.38
445.641	677.03
446.016	684.04
446.39	685.62
446.764	683.36
447.139	698.27
447.513	687.65
447.887	701.89
448.262	695.79
448.636	713.19
449.01	716.8
449.384	715.67
449.758	698.27
450.132	710.25
450.506	717.48
450.88	726.07
451.254	739.18
451.628	747.76
452.002	740.31
452.376	733.53
452.75	757.25
453.123	759.97
453.497	772.85
453.871	741.66
454.244	800.42
454.618	786.41
454.992	776.69
455.365	765.16
455.739	812.62
456.112	788.44
456.486	796.8
456.859	828.44
457.232	829.57
457.606	819.17
457.979	836.8
458.352	853.3
458.725	841.32
459.099	860.08
459.472	878.38
459.845	889.23
460.218	882.67
460.591	892.17
460.964	890.13
461.337	892.62
461.71	891.49
462.083	909.79
462.456	910.7
462.829	932.16
463.201	922.9
463.574	942.11
463.947	967.42
464.32	977.81
464.692	961.09
465.065	971.94
465.438	958.83
465.81	999.73
466.183	1009.68
466.555	1025.04
466.928	1047.87
467.3	1017.81
467.672	1029.56
468.045	1031.6
468.417	1044.25
468.789	1071.6
469.161	1066.4
469.534	1094.42
469.906	1108.21
470.278	1113.63
470.65	1127.87
471.022	1145.49
471.394	1136
471.766	1176.9
472.138	1165.38
472.51	1200.86
472.882	1212.38
473.253	1221.42
473.625	1255.77
473.997	1257.35
474.369	1219.84
474.74	1263.68
475.112	1282.21
475.484	1308.2
475.855	1319.5
476.227	1335.32
476.598	1353.62
476.97	1338.48
477.341	1382.77
477.713	1419.84
478.084	1393.17
478.455	1433.62
478.827	1444.69
479.198	1453.06
479.569	1487.4
479.94	1538.02
480.311	1542.77
480.682	1526.27
481.053	1587.29
481.424	1600.62
481.795	1639.72
482.166	1630.68
482.537	1642.43
482.908	1654.63
483.279	1677
483.65	1722.88
484.021	1744.12
484.391	1792.48
484.762	1813.27
485.133	1793.61
485.503	1810.79
485.874	1846.72
486.244	1851.91
486.615	1900.5
486.985	1909.31
487.356	1927.62
487.726	1971.69
488.097	1984.11
488.467	1999.48
488.837	2062.08
489.207	2071.57
489.578	2086.48
489.948	2095.52
490.318	2114.51
490.688	2138.69
491.058	2184.56
491.428	2162.19
491.798	2207.61
492.168	2249.64
492.538	2260.27
492.908	2298.91
493.278	2282.86
493.648	2341.62
494.017	2319.25
494.387	2352.24
494.757	2366.03
495.126	2419.81
495.496	2408.96
495.866	2436.53
496.235	2460.94
496.605	2483.31
496.974	2467.94
497.344	2492.12
497.713	2568.51
498.082	2497.77
498.452	2587.71
498.821	2557.66
499.19	2583.19
499.559	2599.24
499.928	2659.35
500.298	2634.72
500.667	2660.48
501.036	2669.52
501.405	2695.06
501.774	2672.23
502.143	2740.48
502.512	2724.89
502.88	2785.68
503.249	2766.92
503.618	2812.57
503.987	2782.51
504.356	2848.5
504.724	2831.55
505.093	2871.32
505.462	2861.15
505.83	2890.31
506.199	2904.09
506.567	2952.22
506.936	2950.64
507.304	2952
507.672	2998.33
508.041	3002.17
508.409	3050.98
508.777	3003.75
509.145	3098.21
509.514	3105.89
509.882	3095.27
510.25	3117.87
510.618	3135.95
510.986	3166.23
511.354	3200.35
511.722	3204.2
512.09	3224.53
512.458	3222.05
512.826	3297.3
513.193	3279.9
513.561	3273.8
513.929	3377.75
514.297	3347.24
514.664	3396.51
515.032	3402.83
515.4	3427.47
515.767	3472.66
516.135	3486.67
516.502	3486.22
516.869	3554.47
517.237	3561.47
517.604	3520.35
517.972	3583.62
518.339	3605.77
518.706	3591.76
519.073	3652.55
519.44	3645.09
519.808	3709.49
520.175	3728.02
520.542	3748.36
520.909	3823.39
521.276	3810.51
521.643	3843.95
522.009	3874.91
522.376	3925.08
522.743	3937.96
523.11	3948.81
523.477	3990.39
523.843	4044.17
524.21	4039.2
524.577	4103.15
524.943	4131.63
525.31	4201.01
525.676	4202.81
526.043	4223.6
526.409	4220.21
526.776	4311.06
527.142	4340.21
527.508	4372.53
527.874	4334.79
528.241	4372.98
528.607	4406.2
528.973	4420.43
529.339	4445.07
529.705	4548.11
530.071	4521.22
530.437	4608.68
530.803	4619.75
531.169	4656.13
531.535	4680.09
531.901	4699.3
532.267	4732.29
532.632	4799.86
532.998	4749.24
533.364	4801.44
533.73	4808.9
534.095	4839.63
534.461	4876.69
534.826	4906.52
535.192	4926.18
535.557	4946.07
535.923	4977.03
536.288	4969.35
536.653	5073.75
537.019	5015
537.384	5095.9
537.749	5135.44
538.114	5116.91
538.479	5171.15
538.845	5227.87
539.21	5203.46
539.575	5223.13
539.94	5300.41
540.305	5295.67
540.67	5319.85
541.034	5334.08
541.399	5362.78
541.764	5399.84
542.129	5508.77
542.494	5468.77
542.858	5487.98
543.223	5543.34
543.587	5560.97
543.952	5629.44
544.316	5634.64
544.681	5593.96
545.045	5693.62
545.41	5709.89
545.774	5763.45
546.138	5786.05
546.503	5824.47
546.867	5798.25
547.231	5913.95
547.595	5936.33
547.959	5960.51
548.324	5949.43
548.688	6028.08
549.052	6021.52
549.416	6102.42
549.779	6060.17
550.143	6184.23
550.507	6178.35
550.871	6230.1
551.235	6248.86
551.599	6328.18
551.962	6371.57
552.326	6375.19
552.689	6477.78
553.053	6445.69
553.417	6550.77
553.78	6671.67
554.143	6576.54
554.507	6628.96
554.87	6727.72
555.234	6798.68
555.597	6750.09
555.96	6845.23
556.323	6930.43
556.686	6999.35
557.05	7034.15
557.413	7108.95
557.776	7156.63
558.139	7217.2
558.502	7257.87
558.865	7308.95
559.228	7394.82
559.59	7470.07
559.953	7463.52
560.316	7612.44
560.679	7605.44
561.041	7789.84
561.404	7836.16
561.767	7865.32
562.129	7923.39
562.492	8004.07
562.854	8064.18
563.217	8087.46
563.579	8162.26
563.941	8230.05
564.304	8316.15
564.666	8358.18
565.028	8501.68
565.39	8587.56
565.753	8665.75
566.115	8725.86
566.477	8762.69
566.839	8807.21
567.201	8888.11
567.563	8957.49
567.925	9091.5
568.287	9080.88
568.648	9213.3
569.01	9289.01
569.372	9359.06
569.734	9386.18
570.095	9491.71
570.457	9580.75
570.819	9654.2
571.18	9732.84
571.542	9819.16
571.903	9837.69
572.265	9957.46
572.626	10034.07
572.987	10083.11
573.349	10201.3
573.71	10268.19
574.071	10352.03
574.432	10401.07
574.794	10527.84
575.155	10613.72
575.516	10587.96
575.877	10673.38
576.238	10745.01
576.599	10859.59
576.96	10937.33
577.32	11018.91
577.681	11080.37
578.042	11133.7
578.403	11206.02
578.763	11227.49
579.124	11386.35
579.485	11399.46
579.845	11478.78
580.206	11522.62
580.566	11497.99
580.927	11584.54
581.287	11729.85
581.648	11766.23
582.008	11795.61
582.368	11834.93
582.728	11952.21
583.089	11974.59
583.449	11951.76
583.809	12026.56
584.169	12074.24
584.529	12161.25
584.889	12282.83
585.249	12247.57
585.609	12205.77
585.969	12358.53
586.329	12375.93
586.688	12434.01
587.048	12468.13
587.408	12520.11
587.768	12487.12
588.127	12565.53
588.487	12649.37
588.846	12750.16
589.206	12669.03
589.565	12715.13
589.925	12816.15
590.284	12824.06
590.643	12810.5
591.003	12864.51
591.362	12988.12
591.721	12983.15
592.08	13021.56
592.44	13105.18
592.799	13113.99
593.158	13147.21
593.517	13205.97
593.876	13225.4
594.235	13322.35
594.593	13279.41
594.952	13355.57
595.311	13326.42
595.67	13403.48
596.029	13516.92
596.387	13603.02
596.746	13579.52
597.104	13551.49
597.463	13526.86
597.822	13749
598.18	13596.24
598.538	13650.02
598.897	13783.35
599.255	13641.89
599.613	13925.27
599.972	13803.92
600.33	13916.23
600.688	13941.77
601.046	13933.4
601.404	14064.47
601.762	14052.5
602.12	14071.93
602.478	14054.31
602.836	14085.72
603.194	14044.59
603.552	14107.64
603.91	14152.16
604.268	14249.33
604.625	14147.41
604.983	14269.89
605.341	14188.09
605.698	14339.72
606.056	14396.22
606.413	14358.03
606.771	14361.87
607.128	14532.71
607.485	14380.4
607.843	14388.76
608.2	14593.27
608.557	14645.93
608.914	14648.64
609.272	14663.78
609.629	14714.85
609.986	14732.71
610.343	14729.99
610.7	14815.87
611.057	14856.09
611.414	14873.95
611.771	14928.18
612.127	14924.57
612.484	14989.65
612.841	15009.31
613.198	14924.79
613.554	15027.84
613.911	15060.38
614.267	15129.31
614.624	15067.39
614.98	15143.77
615.337	15195.52
615.693	15182.41
616.05	15195.74
616.406	15378.11
616.762	15286.59
617.118	15325.46
617.475	15310.77
617.831	15290.66
618.187	15379.92
618.543	15390.32
618.899	15475.96
619.255	15407.04
619.611	15489.75
619.967	15536.75
620.323	15506.7
620.678	15454.04
621.034	15497.88
621.39	15531.78
621.746	15485.45
622.101	15628.5
622.457	15542.63
622.812	15503.76
623.168	15524.1
623.523	15609.52
623.879	15700.59
624.234	15563.19
624.589	15652.91
624.945	15568.62
625.3	15556.86
625.655	15603.87
626.01	15632.12
626.365	15701.49
626.72	15677.09
627.075	15630.99
627.43	15655.85
627.785	15605
628.14	15567.94
628.495	15655.85
628.85	15649.07
629.205	15602.74
629.559	15671.44
629.914	15606.58
630.269	15609.29
630.623	15524.55
630.978	15537.43
631.332	15661.27
631.687	15691.78
632.041	15592.34
632.396	15658.11
632.75	15530.2
633.104	15654.49
633.459	15566.13
633.813	15516.87
634.167	15466.47
634.521	15561.84
634.875	15560.71
635.229	15569.07
635.583	15420.15
635.937	15516.41
636.291	15480.03
636.645	15425.57
636.999	15454.72
637.352	15512.35
637.706	15435.74
638.06	15495.17
638.413	15411.33
638.767	15431.67
639.121	15410.88
639.474	15381.5
639.828	15371.79
640.181	15403.2
640.534	15322.97
640.888	15329.75
641.241	15285.46
641.594	15407.49
641.947	15319.58
642.301	15327.04
642.654	15347.6
643.007	15341.28
643.36	15285.91
643.713	15282.07
644.066	15346.7
644.419	15325.46
644.771	15172.47
645.124	14993.04
645.477	15050.44
645.83	14827.62
646.182	14841.18
646.535	14794.4
646.888	14847.05
647.24	14761.86
647.593	14849.76
647.945	14813.83
648.298	14731.35
648.65	14797.11
649.002	14664.46
649.355	14795.76
649.707	14751.69
650.059	14775.87
650.411	14979.48
650.763	15000.95
651.115	15202.52
651.467	15137.89
651.819	15152.81
652.171	15094.73
652.523	15047.73
652.875	15092.92
653.227	15074.39
653.578	15132.92
653.93	15040.27
654.282	15035.52
654.633	15073.26
654.985	15052.25
655.337	15078.01
655.688	15009.76
656.039	15204.11
656.391	14936.99
656.742	15017.44
657.094	15031
657.445	15008.86
657.796	15095.18
658.147	15033.71
658.498	15067.61
658.849	15125.69
659.2	15062.19
659.551	15005.02
659.902	15142.64
660.253	15056.77
660.604	15046.82
660.955	14988.74
661.306	15129.98
661.656	14986.26
662.007	15074.62
662.358	15074.62
662.708	15082.53
663.059	15035.3
663.409	14964.56
663.76	15028.07
664.11	15151
664.461	15118.91
664.811	15157.33
665.161	15056.99
665.511	15126.14
665.862	15118.46
666.212	15134.73
666.562	15112.81
666.912	15178.57
667.262	15134.5
667.612	15178.8
667.962	15244.56
668.312	15188.74
668.662	15176.08
669.011	15234.61
669.361	15121.62
669.711	15148.29
670.06	15101.96
670.41	15043.88
670.76	15050.21
671.109	15143.99
671.459	15074.84
671.808	15099.93
672.157	15132.24
672.507	15048.86
672.856	15183.54
673.205	15177.21
673.554	15171.34
673.904	15157.78
674.253	15246.14
674.602	15179.47
674.951	14980.38
675.3	14889.31
675.649	15136.54
675.998	15197.55
676.346	15172.69
676.695	15211.56
677.044	15147.61
677.393	15086.14
677.741	15162.07
678.09	15108.97
678.438	15106.26
678.787	15176.76
679.135	15177.44
679.484	15006.37
679.832	15140.6
680.181	15139.47
680.529	15058.8
680.877	15074.39
681.225	15073.71
681.573	15218.79
681.922	15056.31
682.27	14973.83
682.618	15043.21
682.966	15026.48
683.314	15043.88
683.661	15078.01
684.009	15025.35
684.357	14943.55
684.705	14904.45
685.053	14947.39
685.4	14943.77
685.748	14970.44
686.095	14918.46
686.443	14928.86
686.79	14859.71
687.138	14837.79
687.485	14946.71
687.832	14880.72
688.18	14824.68
688.527	14821.29
688.874	14757.56
689.221	14752.37
689.568	14756.89
689.915	14779.03
690.262	14819.94
690.609	14682.76
690.956	14641.63
691.303	14612.26
691.65	14655.42
691.997	14589.21
692.344	14472.15
692.69	14529.77
693.037	14561.86
693.383	14423.34
693.73	14511.92
694.077	14444.13
694.423	14474.86
694.769	14367.52
695.116	14436.67
695.462	14408.19
695.808	14357.8
696.155	14457.46
696.501	14376.56
696.847	14296.33
697.193	14306.95
697.539	14317.35
697.885	14188.09
698.231	14059.05
698.577	14152.16
698.923	14170.91
699.269	14138.82
699.614	14068.09
699.96	14049.11
700.306	13974.53
700.651	14005.04
700.997	14003.91
701.342	13921.43
701.688	13948.09
702.033	13902.67
702.379	13988.77
702.724	13963.01
703.069	13961.65
703.415	13778.61
703.76	13753.52
704.105	13829.9
704.45	13746.74
704.795	13760.75
705.14	13786.97
705.485	13710.81
705.83	13688.21
706.175	13642.11
706.52	13653.19
706.865	13563.47
707.209	13563.25
707.554	13514.66
707.899	13555.34
708.243	13432.85
708.588	13537.93
708.932	13497.94
709.277	13505.39
709.621	13510.37
709.966	13433.98
710.31	13469.24
710.654	13304.49
710.998	13354.89
711.342	13449.12
711.687	13390.37
712.031	13248.45
712.375	13221.11
712.719	13264.04
713.063	13265.17
713.407	13318.51
713.75	13167.55
714.094	13246.19
714.438	13222.92
714.782	13311.27
715.125	13194.67
715.469	13154.22
715.812	13122.35
716.156	13125.97
716.499	13131.62
716.843	13111.51
717.186	13054.78
717.53	13110.15
717.873	13069.7
718.216	13053.2
718.559	13072.41
718.902	12978.63
719.246	12993.77
719.589	12942.02
719.932	12943.37
720.275	12979.53
720.617	12917.84
720.96	12914.45
721.303	12951.06
721.646	12936.37
721.989	12821.34
722.331	12889.82
722.674	12908.35
723.016	12905.18
723.359	12830.16
723.701	12906.09
724.044	12820.67
724.386	12786.77
724.729	12786.99
725.071	12816.82
725.413	12852.08
725.755	12751.74
726.097	12724.62
726.439	12691.18
726.782	12693.44
727.124	12805.98
727.465	12709.48
727.807	12625.19
728.149	12641.01
728.491	12709.03
728.833	12639.88
729.175	12601.01
729.516	12664.74
729.858	12631.07
730.199	12596.94
730.541	12592.65
730.882	12626.32
731.224	12682.82
731.565	12607.79
731.906	12586.1
732.248	12530.73
732.589	12568.69
732.93	12530.73
733.271	12520.11
733.612	12520.56
733.953	12539.09
734.294	12468.13
734.635	12429.26
734.976	12498.19
735.317	12464.52
735.658	12456.83
735.999	12460
736.339	12415.93
736.68	12390.17
737.021	12429.72
737.361	12372.54
737.702	12380
738.042	12377.51
738.383	12311.07
738.723	12361.02
739.063	12340.9
739.404	12368.7
739.744	12290.74
740.084	12262.71
740.424	12183.17
740.764	12278.08
741.104	12299.78
741.444	12158.31
741.784	12179.33
742.124	12217.29
742.464	12168.71
742.804	12204.64
743.143	12115.6
743.483	12079.22
743.823	12006
744.162	12003.74
744.502	12048.26
744.841	11984.53
745.181	12043.96
745.52	12039.44
745.86	12022.95
746.199	11948.37
746.538	12001.7
746.877	12024.53
747.216	11937.3
747.556	11898.2
747.895	11963.97
748.234	11935.72
748.573	11930.75
748.911	11868.83
749.25	11807.13
749.589	11860.01
749.928	11847.58
750.267	11846.68
750.605	11776.17
750.944	11777.53
751.283	11690.98
751.621	11742.5
751.96	11650.75
752.298	11680.58
752.636	11646.46
752.975	11568.5
753.313	11500.93
753.651	11603.3
753.989	11474.94
754.327	11489.85
754.666	11464.54
755.004	11416.41
755.342	11502.28
755.679	11456.41
756.017	11325.11
756.355	11308.62
756.693	11322.63
757.031	11339.35
757.368	11213.02
757.706	11260.71
758.044	11221.39
758.381	11247.37
758.719	11167.15
759.056	11197.88
759.394	11121.05
759.731	11125.8
760.068	11026.59
760.405	11026.36
