Data from brown_tile_FLMS001491_006.txt Node
Date: Tue Feb 07 10:36:59 GMT 2017
User: dcchb
Spectrometer: FLMS00149
Trigger mode: 0
Integration Time (sec): 2.000000E-2
Scans to average: 10
Electric dark correction enabled: true
Nonlinearity correction enabled: false
Boxcar width: 0
XAxis mode: Wavelengths
Number of Pixels in Spectrum: 2048
>>>>>Begin Spectral Data<<<<<
341.393	-21.99
341.776	-21.99
342.16	-21.99
342.543	-53.63
342.927	-63.12
343.31	-57.47
343.693	-76
344.077	-61.76
344.46	-57.02
344.843	-33.97
345.226	-45.04
345.61	-32.61
345.993	-11.6
346.376	-0.07
346.759	7.16
347.142	10.32
347.525	42.64
347.908	51.91
348.291	67.05
348.674	80.61
349.057	115.86
349.44	123.32
349.823	141.39
350.206	161.73
350.588	189.98
350.971	189.75
351.354	205.57
351.737	221.84
352.119	229.3
352.502	247.61
352.884	249.41
353.267	282.41
353.65	288.74
354.032	277.89
354.414	301.16
354.797	280.37
355.179	304.55
355.562	326.47
355.944	328.28
356.326	318.57
356.709	328.73
357.091	311.33
357.473	324.21
357.855	326.47
358.238	326.47
358.62	332.8
359.002	298.45
359.384	327.6
359.766	336.19
360.148	330.54
360.53	330.09
360.912	335.74
361.294	322.63
361.676	322.86
362.057	339.36
362.439	321.28
362.821	314.27
363.203	307.49
363.584	308.62
363.966	323.08
364.348	298.23
364.729	305.01
365.111	320.82
365.493	329.64
365.874	303.88
366.256	297.77
366.637	300.71
367.019	304.1
367.4	298.68
367.781	296.19
368.163	304.33
368.544	293.71
368.925	307.49
369.306	311.33
369.688	305.68
370.069	305.46
370.45	304.55
370.831	294.16
371.212	284.22
371.593	306.14
371.974	301.84
372.355	303.88
372.736	327.83
373.117	306.36
373.498	315.85
373.879	296.64
374.26	317.44
374.641	294.16
375.021	298.68
375.402	311.56
375.783	300.94
376.163	314.5
376.544	318.79
376.925	324.44
377.305	310.43
377.686	317.89
378.066	312.92
378.447	319.24
378.827	313.14
379.208	325.12
379.588	301.39
379.968	308.85
380.349	334.38
380.729	324.67
381.109	329.86
381.489	326.25
381.87	332.35
382.25	339.36
382.63	333.71
383.01	329.41
383.39	342.29
383.77	326.7
384.15	328.06
384.53	338.45
384.91	331.67
385.29	324.44
385.67	345.23
386.049	356.53
386.429	327.83
386.809	347.26
387.189	342.29
387.568	354.27
387.948	341.39
388.328	353.59
388.707	332.8
389.087	345.91
389.466	349.07
389.846	336.64
390.225	337.1
390.605	381.39
390.984	340.49
391.363	388.85
391.743	357.66
392.122	364.89
392.501	359.24
392.881	381.16
393.26	376.42
393.639	361.95
394.018	350.65
394.397	368.73
394.776	374.38
395.155	376.64
395.534	366.7
395.913	371.22
396.292	382.74
396.671	360.15
397.05	399.69
397.429	395.4
397.808	384.55
398.186	378
398.565	384.33
398.944	388.85
399.323	365.8
399.701	389.75
400.08	411.9
400.458	393.59
400.837	382.52
401.215	392.69
401.594	395.63
401.972	373.7
402.351	382.07
402.729	392.24
403.107	389.75
403.486	403.31
403.864	413.25
404.242	387.26
404.62	409.64
404.999	433.14
405.377	419.81
405.755	408.05
406.133	399.47
406.511	434.27
406.889	405.57
407.267	411.9
407.645	436.53
408.023	431.1
408.401	454.15
408.779	421.39
409.156	441.5
409.534	425.91
409.912	446.7
410.29	459.35
410.667	445.34
411.045	439.92
411.422	447.15
411.8	438.34
412.178	437.66
412.555	439.01
412.933	474.49
413.31	471.78
413.687	471.33
414.065	468.39
414.442	475.62
414.819	472.69
415.197	472.91
415.574	475.62
415.951	476.75
416.328	485.57
416.705	491.89
417.082	477.88
417.46	494.38
417.837	490.09
418.214	497.54
418.591	504.1
418.967	486.24
419.344	507.03
419.721	509.75
420.098	505
420.475	521.05
420.852	513.81
421.228	494.38
421.605	515.85
421.982	523.53
422.358	514.94
422.735	528.5
423.111	548.62
423.488	526.92
423.864	541.84
424.241	526.92
424.617	540.93
424.994	551.78
425.37	542.51
425.746	519.01
426.123	575.73
426.499	564.21
426.875	570.08
427.251	555.17
427.627	563.98
428.003	560.14
428.379	601.72
428.756	567.6
429.132	568.95
429.507	594.04
429.883	586.35
430.259	594.04
430.635	596.3
431.011	618.67
431.387	604.43
431.763	613.92
432.138	636.07
432.514	642.17
432.89	635.84
433.265	634.49
433.641	639.23
434.016	654.15
434.392	643.53
434.767	661.15
435.143	663.87
435.518	653.25
435.894	663.19
436.269	669.29
436.644	674.71
437.02	677.88
437.395	694.83
437.77	704.54
438.145	714.26
438.52	730.08
438.895	713.13
439.271	708.84
439.646	734.83
440.021	728.5
440.395	729.63
440.77	710.19
441.145	741.38
441.52	736.41
441.895	749.06
442.27	749.97
442.645	749.74
443.019	763.98
443.394	747.25
443.769	740.02
444.143	751.77
444.518	754.71
444.892	782.51
445.267	781.6
445.641	784.32
446.016	768.72
446.39	786.58
446.764	794.94
447.139	796.29
447.513	794.94
447.887	806.01
448.262	790.42
448.636	784.09
449.01	809.17
449.384	834.48
449.758	826.12
450.132	842.39
450.506	832.45
450.88	827.25
451.254	876.74
451.628	837.87
452.002	829.51
452.376	866.8
452.75	863.86
453.123	847.82
453.497	874.03
453.871	887.36
454.244	900.92
454.618	904.31
454.992	876.52
455.365	914.71
455.739	918.55
456.112	958.32
456.486	943.63
456.859	973.46
457.232	950.86
457.606	956.97
457.979	951.77
458.352	957.87
458.725	1027.02
459.099	1010.75
459.472	1022.28
459.845	987.02
460.218	1033.12
460.591	1003.74
460.964	1056.85
461.337	1049.62
461.71	1068.83
462.083	1069.28
462.456	1083.06
462.829	1100.01
463.201	1116.74
463.574	1098.43
463.947	1105.66
464.32	1163.74
464.692	1137.53
465.065	1152.67
465.438	1145.44
465.81	1186.11
466.183	1191.31
466.555	1190.63
466.928	1208.03
467.3	1232.21
467.672	1229.95
468.045	1257.07
468.417	1221.82
468.789	1268.14
469.161	1275.15
469.534	1297.75
469.906	1313.79
470.278	1310.86
470.65	1331.42
471.022	1326.45
471.394	1364.87
471.766	1392.89
472.138	1412.55
472.51	1423.62
472.882	1454.13
473.253	1455.71
473.625	1464.07
473.997	1452.32
474.369	1519.66
474.74	1550.62
475.112	1530.51
475.484	1543.62
475.855	1580.9
476.227	1594.69
476.598	1638.76
476.97	1660.68
477.341	1691.18
477.713	1696.16
478.084	1700.68
478.455	1758.08
478.827	1765.98
479.198	1811.41
479.569	1821.58
479.94	1845.3
480.311	1863.16
480.682	1887.34
481.053	1933.66
481.424	1934.57
481.795	1984.28
482.166	1974.57
482.537	1996.04
482.908	2078.29
483.279	2075.81
483.65	2098.86
484.021	2138.63
484.391	2172.98
484.762	2178.63
485.133	2203.94
485.503	2230.15
485.874	2287.78
486.244	2274.45
486.615	2295.91
486.985	2351.28
487.356	2365.06
487.726	2417.72
488.097	2457.04
488.467	2457.94
488.837	2517.15
489.207	2553.31
489.578	2568
489.948	2573.2
490.318	2651.39
490.688	2616.36
491.058	2672.85
491.428	2718.05
491.798	2694.77
492.168	2790.59
492.538	2764.15
492.908	2815
493.278	2850.25
493.648	2849.8
494.017	2889.12
494.387	2906.52
494.757	2954.65
495.126	2955.56
495.496	2970.02
495.866	3020.19
496.235	3033.07
496.605	3043.69
496.974	3089.11
497.344	3071.49
497.713	3122.79
498.082	3117.14
498.452	3192.16
498.821	3209.34
499.19	3167.98
499.559	3225.83
499.928	3257.92
500.298	3294.53
500.667	3327.75
501.036	3293.4
501.405	3330.46
501.774	3331.14
502.143	3359.39
502.512	3388.99
502.88	3421.31
503.249	3449.33
503.618	3480.29
503.987	3506.28
504.356	3539.05
504.724	3526.62
505.093	3541.31
505.462	3572.26
505.83	3604.35
506.199	3591.25
506.567	3685.26
506.936	3677.8
507.304	3726.16
507.672	3716.22
508.041	3745.59
508.409	3752.6
508.777	3783.11
509.145	3804.8
509.514	3859.49
509.882	3842.77
510.25	3861.07
510.618	3904.69
510.986	3912.37
511.354	3931.13
511.722	3986.27
512.09	4039.15
512.458	4057.45
512.826	4051.12
513.193	4095.41
513.561	4092.7
513.929	4146.26
514.297	4141.97
514.664	4188.75
515.032	4238.69
515.4	4251.34
515.767	4294.73
516.135	4322.53
516.502	4286.6
516.869	4379.02
517.237	4386.25
517.604	4413.6
517.972	4475.29
518.339	4513.03
518.706	4482.07
519.073	4525.46
519.44	4537.21
519.808	4580.37
520.175	4667.6
520.542	4655.4
520.909	4714.61
521.276	4726.36
521.643	4770.88
522.009	4802.29
522.376	4872.57
522.743	4867.37
523.11	4936.52
523.477	4931.33
523.843	5012
524.21	5052.23
524.577	5103.07
524.943	5133.13
525.31	5107.14
525.676	5228.27
526.043	5240.02
526.409	5280.47
526.776	5265.55
527.142	5301.94
527.508	5388.94
527.874	5446.79
528.241	5443.18
528.607	5503.74
528.973	5569.95
529.339	5567.69
529.705	5614.47
530.071	5722.26
530.437	5715.26
530.803	5728.82
531.169	5734.02
531.535	5792.77
531.901	5850.62
532.267	5780.12
532.632	5912.99
532.998	5969.49
533.364	5949.83
533.73	6037.28
534.095	6023.05
534.461	6045.65
534.826	6127.9
535.192	6188.69
535.557	6190.95
535.923	6152.99
536.288	6260.33
536.653	6217.62
537.019	6247.22
537.384	6314.11
537.749	6328.35
538.114	6379.42
538.479	6435.69
538.845	6437.73
539.21	6420.55
539.575	6506.2
539.94	6585.74
540.305	6601.34
540.67	6604.05
541.034	6615.8
541.399	6701
541.764	6716.59
542.129	6762.01
542.494	6732.86
542.858	6849.24
543.223	6846.98
543.587	6925.62
543.952	6884.95
544.316	6940.09
544.681	6990.48
545.045	6989.8
545.41	7083.13
545.774	7098.95
546.138	7136.69
546.503	7162.23
546.867	7178.5
547.231	7349.34
547.595	7350.24
547.959	7304.37
548.324	7417.14
548.688	7444.93
549.052	7484.25
549.416	7565.15
549.779	7562.22
550.143	7577.36
550.507	7670.01
550.871	7726.51
551.235	7792.27
551.599	7819.61
551.962	7907.07
552.326	7876.78
552.689	7978.7
553.053	8006.05
553.417	8039.72
553.78	8195.42
554.143	8222.09
554.507	8260.05
554.87	8333.27
555.234	8454.62
555.597	8397.45
555.96	8469.99
556.323	8530.78
556.686	8576.2
557.05	8671.34
557.413	8685.12
557.776	8725.8
558.139	8858
558.502	8902.75
558.865	8995.17
559.228	9094.15
559.59	9210.08
559.953	9242.4
560.316	9342.96
560.679	9335.73
561.041	9525.55
561.404	9562.84
561.767	9631.54
562.129	9645.78
562.492	9810.97
562.854	9814.81
563.217	9904.53
563.579	9955.83
563.941	10083.05
564.304	10144.52
564.666	10296.83
565.028	10307.23
565.39	10403.5
565.753	10544.74
566.115	10609.37
566.477	10674.68
566.839	10761.68
567.201	10921.45
567.563	10919.42
567.925	11088
568.287	11065.18
568.648	11138.17
569.01	11273.08
569.372	11466.07
569.734	11424.04
570.095	11560.76
570.457	11632.62
570.819	11654.54
571.18	11786.51
571.542	11914.87
571.903	12017.92
572.265	12113.96
572.626	12136.79
572.987	12185.82
573.349	12315.09
573.71	12552.59
574.071	12503.78
574.432	12631.91
574.794	12791.46
575.155	12784.9
575.516	12747.84
575.877	12877.33
576.238	13041.85
576.599	13092.47
576.96	13176.31
577.32	13219.92
577.681	13387.83
578.042	13464.21
578.403	13494.94
578.763	13508.27
579.124	13498.11
579.485	13655.39
579.845	13906
580.206	13864.65
580.566	13846.34
580.927	13992.56
581.287	14107.13
581.648	13983.74
582.008	14177.41
582.368	14274.36
582.728	14271.42
583.089	14337.63
583.449	14377.63
583.809	14451.07
584.169	14555.7
584.529	14583.73
584.889	14669.15
585.249	14633.67
585.609	14680
585.969	14858.75
586.329	14777.62
586.688	14814.23
587.048	14986.65
587.408	14973.55
587.768	15039.53
588.127	15035.47
588.487	15053.77
588.846	15166.76
589.206	15086.76
589.565	15114.56
589.925	15342.35
590.284	15269.13
590.643	15327.66
591.003	15425.74
591.362	15468.68
591.721	15446.08
592.08	15524.72
592.44	15636.58
592.799	15614.21
593.158	15651.72
593.517	15665.51
593.876	15771.94
594.235	15761.55
594.593	15820.08
594.952	15850.36
595.311	15927.87
595.67	15870.47
596.029	16023.46
596.387	16074.76
596.746	16088.77
597.104	16104.59
597.463	16150.69
597.822	16229.33
598.18	16156.11
598.538	16279.5
598.897	16420.06
599.255	16220.29
599.613	16503.9
599.972	16437.46
600.33	16554.75
600.688	16415.32
601.046	16539.61
601.404	16663.9
601.762	16593.84
602.12	16668.42
602.478	16729.88
602.836	16864.8
603.194	16769.21
603.552	16759.94
603.91	16682.43
604.268	16897.11
604.625	16903.89
604.983	16922.65
605.341	16885.36
605.698	17046.71
606.056	17102.3
606.413	17124
606.771	17085.58
607.128	17133.04
607.485	17131.46
607.843	17112.02
608.2	17229.76
608.557	17274.5
608.914	17279.02
609.272	17498.9
609.629	17455.74
609.986	17456.19
610.343	17361.28
610.7	17593.82
611.057	17536.19
611.414	17639.92
611.771	17582.52
612.127	17767.15
612.484	17733.93
612.841	17771.89
613.198	17586.36
613.554	17725.57
613.911	17868.61
614.267	17860.25
614.624	17879.69
614.98	17871.1
615.337	17939.57
615.693	17955.84
616.05	17907.26
616.406	18067.02
616.762	17974.82
617.118	17912.45
617.475	18044.65
617.831	18128.27
618.187	18136.63
618.543	18201.26
618.899	18256.17
619.255	18175.5
619.611	18210.52
619.967	18329.84
620.323	18245.78
620.678	18285.1
621.034	18218.66
621.39	18248.26
621.746	18182.05
622.101	18480.35
622.457	18278.32
622.812	18364.42
623.168	18381.59
623.523	18394.7
623.879	18482.16
624.234	18328.04
624.589	18383.63
624.945	18424.98
625.3	18422.27
625.655	18471.08
626.01	18490.74
626.365	18476.96
626.72	18521.02
627.075	18434.7
627.43	18378.43
627.785	18402.61
628.14	18497.75
628.495	18465.43
628.85	18491.65
629.205	18383.4
629.559	18498.43
629.914	18443.29
630.269	18423.17
630.623	18383.85
630.978	18326
631.332	18453.46
631.687	18507.69
632.041	18467.01
632.396	18460.23
632.75	18422.27
633.104	18428.6
633.459	18311.09
633.813	18370.75
634.167	18317.64
634.521	18335.04
634.875	18354.7
635.229	18246.68
635.583	18191.54
635.937	18242.84
636.291	18217.08
636.645	18341.59
636.999	18116.97
637.352	18210.07
637.706	18117.42
638.06	18250.75
638.413	18167.81
638.767	18210.3
639.121	18230.41
639.474	18022.05
639.828	18080.81
640.181	18141.83
640.534	18011.21
640.888	18062.73
641.241	17938.89
641.594	18069.06
641.947	18175.04
642.301	18066.35
642.654	17946.8
643.007	18077.19
643.36	18018.21
643.713	18060.25
644.066	18036.29
644.419	17941.6
644.771	17818.9
645.124	17714.04
645.477	17542.52
645.83	17503.2
646.182	17531.9
646.535	17435.63
646.888	17439.02
647.24	17437.89
647.593	17515.18
647.945	17453.48
648.298	17419.58
648.65	17292.58
649.002	17264.11
649.355	17390.21
649.707	17392.24
650.059	17436.31
650.411	17639.92
650.763	17682.85
651.115	17945.45
651.467	17748.16
651.819	17749.29
652.171	17800.37
652.523	17732.8
652.875	17650.99
653.227	17788.39
653.578	17790.87
653.93	17707.03
654.282	17612.8
654.633	17582.74
654.985	17680.82
655.337	17672.23
655.688	17660.48
656.039	17785.9
656.391	17543.65
656.742	17669.52
657.094	17710.2
657.445	17632.23
657.796	17616.19
658.147	17644.44
658.498	17574.16
658.849	17700.03
659.2	17649.86
659.551	17599.01
659.902	17715.62
660.253	17626.58
660.604	17637.66
660.955	17510.66
661.306	17680.14
661.656	17619.81
662.007	17737.99
662.358	17588.39
662.708	17625.23
663.059	17620.03
663.409	17600.37
663.76	17653.48
664.11	17632.23
664.461	17748.16
664.811	17671.56
665.161	17659.58
665.511	17707.49
665.862	17675.17
666.212	17730.76
666.562	17795.85
666.912	17628.84
667.262	17688.5
667.612	17716.75
667.962	17715.85
668.312	17717.66
668.662	17751.1
669.011	17815.73
669.361	17696.41
669.711	17634.27
670.06	17744.1
670.41	17754.49
670.76	17745
671.109	17786.81
671.459	17766.02
671.808	17649.63
672.157	17775.73
672.507	17688.05
672.856	17674.72
673.205	17669.97
673.554	17679.01
673.904	17618.22
674.253	17761.5
674.602	17702.29
674.951	17498.45
675.3	17473.37
675.649	17732.57
675.998	17669.3
676.346	17733.7
676.695	17726.92
677.044	17602.63
677.393	17656.64
677.741	17740.71
678.09	17643.08
678.438	17618.9
678.787	17645.79
679.135	17728.95
679.484	17566.93
679.832	17731.67
680.181	17616.42
680.529	17626.81
680.877	17638.34
681.225	17525.8
681.573	17766.24
681.922	17520.6
682.27	17572.57
682.618	17562.86
682.966	17577.09
683.314	17611.22
683.661	17530.32
684.009	17491.45
684.357	17387.27
684.705	17442.41
685.053	17449.19
685.4	17557.66
685.748	17358.79
686.095	17534.61
686.443	17364.9
686.79	17321.06
687.138	17468.85
687.485	17411.45
687.832	17423.65
688.18	17327.61
688.527	17191.12
688.874	17217.33
689.221	17201.06
689.568	17224.56
689.915	17160.38
690.262	17132.59
690.609	17126.71
690.956	17061.85
691.303	17144.79
691.65	16983.66
691.997	16998.58
692.344	16976.43
692.69	16886.94
693.037	16977.56
693.383	16828.41
693.73	16929.2
694.077	16854.85
694.423	16825.93
694.769	16740.51
695.116	16694.18
695.462	16773.27
695.808	16651.92
696.155	16694.86
696.501	16683.56
696.847	16554.52
697.193	16532.38
697.539	16612.83
697.885	16547.97
698.231	16446.28
698.577	16430.68
698.923	16404.92
699.269	16378.03
699.614	16335.32
699.96	16255.1
700.306	16286.51
700.651	16268.65
700.997	16267.3
701.342	16300.74
701.688	16261.42
702.033	16232.5
702.379	16099.17
702.724	16126.29
703.069	16138.04
703.415	15957.02
703.76	16046.74
704.105	16037.25
704.45	16022.33
704.795	15890.81
705.14	15961.32
705.485	15945.05
705.83	15837.03
706.175	15913.64
706.52	15759.29
706.865	15762.23
707.209	15831.83
707.554	15838.38
707.899	15844.26
708.243	15675.22
708.588	15753.64
708.932	15643.59
709.277	15663.7
709.621	15731.95
709.966	15566.98
710.31	15666.41
710.654	15508.22
710.998	15608.33
711.342	15592.29
711.687	15552.51
712.031	15440.2
712.375	15367.66
712.719	15453.99
713.063	15448.11
713.407	15405.63
713.75	15340.32
714.094	15408.79
714.438	15313.2
714.782	15343.71
715.125	15262.8
715.469	15352.07
715.812	15226.87
716.156	15153.66
716.499	15187.33
716.843	15212.41
717.186	15107.33
717.53	15232.3
717.873	15247.44
718.216	15091.51
718.559	15113.43
718.902	15083.37
719.246	15079.31
719.589	15147.1
719.932	14927.45
720.275	15020.1
720.617	15004.96
720.96	15038.18
721.303	14999.99
721.646	15002.02
721.989	14854.91
722.331	14901.91
722.674	14934.23
723.016	14973.1
723.359	14944.4
723.701	14876.6
724.044	14779.88
724.386	14720.9
724.729	14852.65
725.071	14788.47
725.413	14847.67
725.755	14730.84
726.097	14743.04
726.439	14767.9
726.782	14648.58
727.124	14793.44
727.465	14747.56
727.807	14713.67
728.149	14691.75
728.491	14639.09
728.833	14689.94
729.175	14603.16
729.516	14595.03
729.858	14544.63
730.199	14609.26
730.541	14535.82
730.882	14531.07
731.224	14579.21
731.565	14540.79
731.906	14514.12
732.248	14533.78
732.589	14473.67
732.93	14433.22
733.271	14463.05
733.612	14548.93
733.953	14519.1
734.294	14406.78
734.635	14525.42
734.976	14387.35
735.317	14415.37
735.658	14418.53
735.999	14362.49
736.339	14245.66
736.68	14455.59
737.021	14302.6
737.361	14295.37
737.702	14322.49
738.042	14281.59
738.383	14240.46
738.723	14299.44
739.063	14223.28
739.404	14223.06
739.744	14187.8
740.084	14173.34
740.424	14194.36
740.764	14147.13
741.104	14234.81
741.444	14129.28
741.784	14137.64
742.124	14069.62
742.464	14032.78
742.804	14033.01
743.143	13977.19
743.483	14088.6
743.823	13964.99
744.162	13958.43
744.502	14058.99
744.841	13929.51
745.181	13991.2
745.52	13911.2
745.86	13986.68
746.199	13838.66
746.538	13871.2
746.877	13892.67
747.216	13853.58
747.556	13796.85
747.895	13808.15
748.234	13803.41
748.573	13738.78
748.911	13694.48
749.25	13720.25
749.589	13602.51
749.928	13669.85
750.267	13664.88
750.605	13631.44
750.944	13585.33
751.283	13551.44
751.621	13591.66
751.96	13480.93
752.298	13404.1
752.636	13414.94
752.975	13412.01
753.313	13430.76
753.651	13405.9
753.989	13356.64
754.327	13352.8
754.666	13268.28
755.004	13215.18
755.342	13254.27
755.679	13216.31
756.017	13093.6
756.355	13215.63
756.693	13162.07
757.031	13077.33
757.368	13063.77
757.706	13049.3
758.044	12950.55
758.381	12957.33
758.719	12919.82
759.056	12959.14
759.394	12842.08
759.731	12742.65
760.068	12699.26
