Data from brown_tile_FLMS001491_019.txt Node
Date: Tue Feb 07 10:37:09 GMT 2017
User: dcchb
Spectrometer: FLMS00149
Trigger mode: 0
Integration Time (sec): 2.000000E-2
Scans to average: 10
Electric dark correction enabled: true
Nonlinearity correction enabled: false
Boxcar width: 0
XAxis mode: Wavelengths
Number of Pixels in Spectrum: 2048
>>>>>Begin Spectral Data<<<<<
341.393	-14.05
341.776	-14.05
342.16	-14.05
342.543	-44.79
342.927	-72.58
343.31	-94.05
343.693	-77.1
344.077	-59.7
344.46	-34.39
344.843	-48.18
345.226	-52.7
345.61	-29.19
345.993	-27.16
346.376	-4.79
346.759	13.74
347.142	16.68
347.525	36.57
347.908	65.27
348.291	88.54
348.674	89.22
349.057	117.24
349.44	128.99
349.823	123.12
350.206	140.74
350.588	206.05
350.971	205.83
351.354	205.38
351.737	225.71
352.119	232.27
352.502	277.01
352.884	246.5
353.267	265.94
353.65	274.75
354.032	276.56
354.414	288.76
354.797	307.52
355.179	304.36
355.562	321.08
355.944	332.6
356.326	345.03
356.709	301.64
357.091	310.01
357.473	340.06
357.855	330.34
358.238	332.38
358.62	337.8
359.002	335.32
359.384	317.92
359.766	332.83
360.148	315.43
360.53	338.93
360.912	300.97
361.294	321.53
361.676	308.65
362.057	325.6
362.439	333.06
362.821	338.48
363.203	314.07
363.584	336.22
363.966	322.21
364.348	307.29
364.729	332.38
365.111	301.19
365.493	325.6
365.874	295.77
366.256	299.61
366.637	293.28
367.019	292.61
367.4	288.54
367.781	303.9
368.163	317.46
368.544	291.7
368.925	294.64
369.306	310.91
369.688	293.28
370.069	312.94
370.45	316.33
370.831	300.06
371.212	311.14
371.593	310.46
371.974	310.23
372.355	327.41
372.736	306.16
373.117	310.46
373.498	317.69
373.879	305.94
374.26	310.23
374.641	315.43
375.021	311.81
375.402	298.48
375.783	318.59
376.163	332.6
376.544	330.57
376.925	319.27
377.305	319.95
377.686	309.1
378.066	316.33
378.447	315.88
378.827	341.87
379.208	319.27
379.588	328.76
379.968	322.44
380.349	343
380.729	349.1
381.109	333.96
381.489	331.25
381.87	325.37
382.25	352.49
382.63	349.33
383.01	310.23
383.39	332.38
383.77	334.64
384.15	336.9
384.53	327.86
384.91	355.88
385.29	330.34
385.67	336.45
386.049	345.71
386.429	348.42
386.809	349.55
387.189	352.94
387.568	348.42
387.948	335.77
388.328	360.4
388.707	368.76
389.087	351.81
389.466	363.34
389.846	350
390.225	352.49
390.605	323.79
390.984	352.26
391.363	347.52
391.743	359.72
392.122	371.02
392.501	373.06
392.881	353.62
393.26	372.15
393.639	375.09
394.018	377.57
394.397	361.98
394.776	356.78
395.155	384.35
395.534	375.77
395.913	380.29
396.292	381.42
396.671	385.94
397.05	387.52
397.429	396.33
397.808	387.29
398.186	376.9
398.565	371.47
398.944	385.94
399.323	366.73
399.701	381.64
400.08	394.07
400.458	388.2
400.837	400.85
401.215	407.63
401.594	403.11
401.972	414.86
402.351	394.75
402.729	391.36
403.107	408.08
403.486	405.6
403.864	411.25
404.242	408.31
404.62	420.29
404.999	388.65
405.377	408.31
405.755	412.83
406.133	416.44
406.511	416.22
406.889	420.51
407.267	445.82
407.645	422.55
408.023	434.75
408.401	434.97
408.779	417.12
409.156	436.1
409.534	439.04
409.912	467.06
410.29	444.92
410.667	453.73
411.045	448.99
411.422	439.95
411.8	465.26
412.178	454.86
412.555	471.36
412.933	475.43
413.31	462.09
413.687	481.53
414.065	474.07
414.442	485.82
414.819	489.89
415.197	477.91
415.574	482.88
415.951	477.46
416.328	489.44
416.705	501.41
417.082	487.4
417.46	507.29
417.837	510
418.214	491.7
418.591	502.09
418.967	519.27
419.344	519.04
419.721	537.12
420.098	520.17
420.475	513.16
420.852	495.31
421.228	517.46
421.605	536.67
421.982	525.14
422.358	531.24
422.735	512.49
423.111	530.11
423.488	538.7
423.864	520.17
424.241	555.88
424.617	554.07
424.994	544.8
425.37	551.13
425.746	575.31
426.123	568.76
426.499	589.77
426.875	581.19
427.251	566.72
427.627	595.65
428.003	576.67
428.379	600.39
428.756	586.83
429.132	602.88
429.507	609.43
429.883	623.9
430.259	630.68
430.635	650.79
431.011	602.43
431.387	649.21
431.763	648.53
432.138	651.01
432.514	652.82
432.89	640.17
433.265	648.98
433.641	662.99
434.016	684.91
434.392	686.72
434.767	675.65
435.143	672.71
435.518	684.23
435.894	703.44
436.269	695.76
436.644	722.2
437.02	709.54
437.395	722.88
437.77	712.48
438.145	746.38
438.52	746.6
438.895	728.98
439.271	737.57
439.646	759.03
440.021	754.97
440.395	764.23
440.77	745.02
441.145	744.8
441.52	777.79
441.895	767.85
442.27	769.43
442.645	782.76
443.019	793.38
443.394	776.21
443.769	804.91
444.143	778.69
444.518	789.32
444.892	810.11
445.267	821.18
445.641	800.61
446.016	786.38
446.39	801.74
446.764	809.88
447.139	832.03
447.513	844.23
447.887	834.74
448.262	812.59
448.636	858.01
449.01	847.62
449.384	835.19
449.758	828.64
450.132	883.1
450.506	875.87
450.88	858.01
451.254	898.01
451.628	881.97
452.002	897.34
452.376	892.14
452.75	882.87
453.123	897.11
453.497	873.83
453.871	931.68
454.244	931.46
454.618	940.27
454.992	950.44
455.365	971.01
455.739	956.99
456.112	976.88
456.486	994.06
456.859	1002.87
457.232	997.9
457.606	956.99
457.979	986.82
458.352	1039.03
458.725	1044.68
459.099	1039.7
459.472	1074.05
459.845	1059.82
460.218	1074.51
460.591	1090.32
460.964	1095.3
461.337	1103.21
461.71	1081.06
462.083	1137.33
462.456	1126.48
462.829	1135.07
463.201	1133.49
463.574	1135.3
463.947	1138.68
464.32	1175.97
464.692	1208.29
465.065	1202.19
465.438	1204.9
465.81	1250.32
466.183	1256.42
466.555	1247.61
466.928	1260.72
467.3	1252.13
467.672	1269.53
468.045	1307.49
468.417	1314.5
468.789	1323.99
469.161	1329.64
469.534	1349.98
469.906	1377.55
470.278	1406.25
470.65	1418.23
471.022	1420.49
471.394	1452.57
471.766	1476.08
472.138	1486.7
472.51	1487.6
472.882	1495.51
473.253	1519.92
473.625	1545
473.997	1581.16
474.369	1590.2
474.74	1589.07
475.112	1606.02
475.484	1626.13
475.855	1654.6
476.227	1681.27
476.598	1712.68
476.97	1721.95
477.341	1766.01
477.713	1789.74
478.084	1762.62
478.455	1829.06
478.827	1846.46
479.198	1866.35
479.569	1897.31
479.94	1932.34
480.311	1962.84
480.682	1997.19
481.053	2033.58
481.424	2050.53
481.795	2074.71
482.166	2094.37
482.537	2106.57
482.908	2149.05
483.279	2176.85
483.65	2207.36
484.021	2231.09
484.391	2301.37
484.762	2337.07
485.133	2331.87
485.503	2342.04
485.874	2370.06
486.244	2437.63
486.615	2436.05
486.985	2478.99
487.356	2507.01
487.726	2538.87
488.097	2601.7
488.467	2606.44
488.837	2693.45
489.207	2653.67
489.578	2683.5
489.948	2686.89
490.318	2783.16
490.688	2748.59
491.058	2836.49
491.428	2835.59
491.798	2909.94
492.168	2922.82
492.538	2938.64
492.908	2938.86
493.278	3025.19
493.648	3031.97
494.017	3070.84
494.387	3046.43
494.757	3088.46
495.126	3140.44
495.496	3178.18
495.866	3142.02
496.235	3203.04
496.605	3200.1
496.974	3235.35
497.344	3313.54
497.713	3290.27
498.082	3330.04
498.452	3320.55
498.821	3370.94
499.19	3384.5
499.559	3422.01
499.928	3447.32
500.298	3436.03
500.667	3499.75
501.036	3493.43
501.405	3499.07
501.774	3518.51
502.143	3604.61
502.512	3599.64
502.88	3639.41
503.249	3623.14
503.618	3659.07
503.987	3640.09
504.356	3699.75
504.724	3716.47
505.093	3767.99
505.462	3783.36
505.83	3789.69
506.199	3836.69
506.567	3858.39
506.936	3837.14
507.304	3925.73
507.672	3956.46
508.041	3944.94
508.409	3972.96
508.777	3998.72
509.145	4001.89
509.514	3990.81
509.882	4046.86
510.25	4074.65
510.618	4133.63
510.986	4153.52
511.354	4207.98
511.722	4187.87
512.09	4270.13
512.458	4251.6
512.826	4297.47
513.193	4325.95
513.561	4327.75
513.929	4353.52
514.297	4418.6
514.664	4473.29
515.032	4473.74
515.4	4508.54
515.767	4490.91
516.135	4564.36
516.502	4567.07
516.869	4637.58
517.237	4628.76
517.604	4647.97
517.972	4724.35
518.339	4786.95
518.706	4755.31
519.073	4766.16
519.44	4845.25
519.808	4907.17
520.175	4890.45
520.542	4964.35
520.909	4947.17
521.276	4940.39
521.643	5054.74
522.009	5075.76
522.376	5142.2
522.743	5156.66
523.11	5242.53
523.477	5302.64
523.843	5314.85
524.21	5380.16
524.577	5420.38
524.943	5445.24
525.31	5465.12
525.676	5511.9
526.043	5532.69
526.409	5567.95
526.776	5636.42
527.142	5678.9
527.508	5746.93
527.874	5773.59
528.241	5786.7
528.607	5802.74
528.973	5867.83
529.339	5913.93
529.705	5936.3
530.071	5934.26
530.437	6042.28
530.803	6114.6
531.169	6066.01
531.535	6152.79
531.901	6200.7
532.267	6183.3
532.632	6270.98
532.998	6219
533.364	6317.76
533.73	6323.86
534.095	6397.98
534.461	6425.1
534.826	6522.72
535.192	6496.06
535.557	6599.78
535.923	6539.45
536.288	6606.79
536.653	6655.15
537.019	6675.04
537.384	6714.81
537.749	6774.92
538.114	6831.64
538.479	6750.29
538.845	6834.58
539.21	6845.43
539.575	6913.22
539.94	6912.77
540.305	6946.67
540.67	6990.06
541.034	6992.32
541.399	7054.24
541.764	7124.97
542.129	7191.86
542.494	7183.05
542.858	7232.99
543.223	7301.23
543.587	7335.36
543.952	7338.3
544.316	7374.9
544.681	7433.89
545.045	7453.09
545.41	7495.13
545.774	7520.89
546.138	7595.69
546.503	7653.54
546.867	7699.87
547.231	7738.51
547.595	7757.49
547.959	7707.1
548.324	7830.49
548.688	7878.39
549.052	7882.01
549.416	7962.91
549.779	7973.53
550.143	8047.2
550.507	8119.29
550.871	8177.6
551.235	8215.11
551.599	8289.68
551.962	8363.81
552.326	8354.31
552.689	8446.97
553.053	8447.42
553.417	8500.3
553.78	8625.72
554.143	8645.15
554.507	8699.39
554.87	8815.32
555.234	8833.4
555.597	8902.1
555.96	8964.47
556.323	9002.21
556.686	9034.75
557.05	9143.45
557.413	9163.33
557.776	9253.05
558.139	9321.75
558.502	9436.32
558.865	9461.4
559.228	9598.35
559.59	9642.42
559.953	9684.9
560.316	9795.63
560.679	9893.26
561.041	10022.52
561.404	10066.81
561.767	10173.7
562.129	10119.92
562.492	10247.82
562.854	10340.02
563.217	10431.32
563.579	10506.35
563.941	10639.9
564.304	10688.49
564.666	10763.97
565.028	10885.77
565.39	10937.07
565.753	11078.76
566.115	11167.12
566.477	11264.52
566.839	11310.62
567.201	11420.45
567.563	11476.49
567.925	11630.84
568.287	11756.48
568.648	11747.67
569.01	11847.56
569.372	12016.14
569.734	11991.05
570.095	12209.35
570.457	12337.71
570.819	12290.93
571.18	12404.38
571.542	12566.63
571.903	12623.35
572.265	12698.15
572.626	12775.44
572.987	12887.98
573.349	12942.67
573.71	13027.41
574.071	13122.78
574.432	13228.08
574.794	13357.57
575.155	13382.2
575.516	13374.3
575.877	13587.85
576.238	13603.22
576.599	13709.65
576.96	13807.05
577.32	13887.05
577.681	13959.36
578.042	14016.76
578.403	14132.47
578.763	14197.1
579.124	14294.72
579.485	14372.46
579.845	14403.19
580.206	14478.9
580.566	14522.74
580.927	14587.14
581.287	14693.13
581.648	14706.92
582.008	14775.16
582.368	14817.2
582.728	14918.89
583.089	15017.64
583.449	15063.52
583.809	15112.78
584.169	15166.79
584.529	15098.54
584.889	15384.64
585.249	15245.43
585.609	15317.97
585.969	15487.69
586.329	15418.54
586.688	15470.06
587.048	15530.17
587.408	15665.76
587.768	15683.84
588.127	15800.22
588.487	15678.19
588.846	15804.97
589.206	15749.83
589.565	15790.28
589.925	15993.44
590.284	15994.11
590.643	16003.83
591.003	16106.2
591.362	16156.14
591.721	16117.27
592.08	16236.59
592.44	16217.84
592.799	16310.49
593.158	16369.92
593.517	16404.05
593.876	16468
594.235	16421.9
594.593	16477.72
594.952	16524.04
595.311	16611.72
595.67	16638.39
596.029	16679.75
596.387	16806.75
596.746	16720.65
597.104	16760.19
597.463	16835.9
597.822	16934.88
598.18	16880.42
598.538	16941.89
598.897	17081.54
599.255	16943.24
599.613	17218.71
599.972	17055.33
600.33	17235.66
600.688	17189.56
601.046	17280.63
601.404	17305.49
601.762	17310.24
602.12	17493.06
602.478	17426.62
602.836	17355.21
603.194	17358.37
603.552	17465.71
603.91	17349.56
604.268	17487.41
604.625	17485.83
604.983	17648.08
605.341	17639.27
605.698	17650.79
606.056	17806.27
606.413	17672.26
606.771	17874.74
607.128	17838.81
607.485	17857.12
607.843	17901.63
608.2	17978.92
608.557	18060.05
608.914	18037.45
609.272	18130.55
609.629	18086.94
609.986	18190.44
610.343	18034.06
610.7	18291.45
611.057	18227.05
611.414	18313.6
611.771	18304.11
612.127	18454.16
612.484	18442.41
612.841	18489.87
613.198	18391.56
613.554	18392.47
613.911	18556.98
614.267	18579.58
614.624	18516.98
614.98	18594.5
615.337	18696.19
615.693	18675.17
616.05	18672.24
616.406	18802.85
616.762	18708.62
617.118	18775.96
617.475	18798.11
617.831	18805.34
618.187	18801.27
618.543	18910.19
618.899	19056.86
619.255	18904.32
619.611	18877.43
619.967	19068.38
620.323	19066.35
620.678	18935.73
621.034	18982.96
621.39	19009.63
621.746	19032.23
622.101	19149.51
622.457	19008.27
622.812	19135.95
623.168	19197.42
623.523	19121.49
623.879	19181.6
624.234	19111.09
624.589	19191.54
624.945	19208.94
625.3	19210.3
625.655	19157.19
626.01	19212.33
626.365	19104.31
626.72	19242.39
627.075	19181.6
627.43	19200.81
627.785	19182.73
628.14	19216.63
628.495	19241.26
628.85	19258.43
629.205	19152
629.559	19342.73
629.914	19223.86
630.269	19283.29
630.623	19171.88
630.978	19200.58
631.332	19245.1
631.687	19370.97
632.041	19171.66
632.396	19212.33
632.75	19158.32
633.104	19141.6
633.459	19117.42
633.813	19067.03
634.167	19115.39
634.521	19093.24
634.875	19137.76
635.229	19131.21
635.583	19092.56
635.937	18952.23
636.291	18968.95
636.645	19007.82
636.999	19041.04
637.352	18936.86
637.706	18887.14
638.06	19076.07
638.413	18976.86
638.767	18963.53
639.121	18931.89
639.474	18895.28
639.828	18827.71
640.181	18823.42
640.534	18927.37
640.888	18838.78
641.241	18761.72
641.594	18722.86
641.947	18846.69
642.301	18832
642.654	18841.95
643.007	18840.37
643.36	18742.06
643.713	18859.57
644.066	18788.39
644.419	18705
644.771	18541.84
645.124	18426.82
645.477	18395.63
645.83	18280.15
646.182	18220.5
646.535	18259.14
646.888	18288.06
647.24	18119.26
647.593	18211.91
647.945	18154.28
648.298	18112.7
648.65	18081.29
649.002	17997.22
649.355	18125.13
649.707	18113.83
650.059	18167.16
650.411	18469.98
650.763	18490.09
651.115	18615.29
651.467	18585.91
651.819	18538.45
652.171	18489.19
652.523	18401.51
652.875	18504.56
653.227	18372.81
653.578	18523.54
653.93	18539.13
654.282	18444.44
654.633	18345.24
654.985	18402.86
655.337	18450.55
655.688	18420.94
656.039	18483.09
656.391	18305.69
656.742	18299.59
657.094	18439.25
657.445	18496.42
657.796	18359.47
658.147	18357.22
658.498	18349.31
658.849	18321.28
659.2	18292.36
659.551	18275.86
659.902	18331.45
660.253	18376.65
660.604	18327.39
660.955	18352.47
661.306	18465.23
661.656	18437.44
662.007	18398.57
662.358	18353.83
662.708	18363.32
663.059	18340.72
663.409	18232.7
663.76	18417.1
664.11	18385.46
664.461	18432.92
664.811	18423.2
665.161	18460.26
665.511	18294.62
665.862	18343.88
666.212	18432.47
666.562	18472.24
666.912	18410.32
667.262	18395.41
667.612	18461.85
667.962	18374.62
668.312	18362.64
668.662	18436.08
669.011	18444.9
669.361	18447.83
669.711	18434.5
670.06	18388.17
670.41	18334.16
670.76	18297.1
671.109	18429.53
671.459	18450.77
671.808	18430.43
672.157	18526.25
672.507	18341.62
672.856	18400.83
673.205	18386.59
673.554	18506.59
673.904	18423.88
674.253	18548.85
674.602	18484.22
674.951	18128.52
675.3	18160.61
675.649	18456.65
675.998	18375.97
676.346	18399.25
676.695	18512.92
677.044	18349.31
677.393	18526.48
677.741	18438.79
678.09	18474.05
678.438	18419.13
678.787	18447.38
679.135	18466.59
679.484	18377.55
679.832	18426.37
680.181	18360.15
680.529	18450.55
680.877	18408.29
681.225	18389.76
681.573	18489.19
681.922	18357.67
682.27	18347.05
682.618	18380.04
682.966	18302.08
683.314	18246.03
683.661	18291.91
684.009	18222.53
684.357	18142.31
684.705	18176.43
685.053	18120.16
685.4	18156.99
685.748	18155.19
686.095	18176.65
686.443	18016.89
686.79	18066.38
687.138	18078.8
687.485	18201.96
687.832	18054.17
688.18	18070.89
688.527	17959.49
688.874	17960.62
689.221	17993.16
689.568	17918.36
689.915	18021.63
690.262	17969.2
690.609	17768.76
690.956	17856.66
691.303	17730.34
691.65	17754.29
691.997	17735.08
692.344	17647.4
692.69	17590.91
693.037	17695.76
693.383	17478.59
693.73	17533.73
694.077	17533.28
694.423	17546.61
694.769	17511.81
695.116	17352.27
695.462	17424.81
695.808	17375.32
696.155	17402.89
696.501	17286.06
696.847	17366.96
697.193	17279.73
697.539	17314.08
697.885	17182.1
698.231	17151.37
698.577	17187.08
698.923	17118.6
699.269	17015.78
699.614	16961.55
699.96	16980.3
700.306	17102.78
700.651	17033.86
700.997	16913.86
701.342	16823.02
701.688	16902.11
702.033	16837.03
702.379	16825.28
702.724	16851.49
703.069	16870.47
703.415	16670.93
703.76	16684.49
704.105	16691.72
704.45	16747.54
704.795	16548.68
705.14	16639.29
705.485	16508.22
705.83	16472.07
706.175	16456.25
706.52	16448.34
706.865	16491.5
707.209	16406.08
707.554	16341.9
707.899	16401.33
708.243	16375.8
708.588	16345.06
708.932	16272.75
709.277	16276.59
709.621	16202.7
709.966	16134
710.31	16158.4
710.654	16192.3
710.998	16116.14
711.342	16182.13
711.687	16065.07
712.031	16070.04
712.375	15995.92
712.719	16051.74
713.063	16011.29
713.407	16109.36
713.75	15975.36
714.094	16034.79
714.438	15943.27
714.782	15936.49
715.125	15846.32
715.469	15865.76
715.812	15891.29
716.156	15779.2
716.499	15789.37
716.843	15746.89
717.186	15762.03
717.53	15775.59
717.873	15811.07
718.216	15772.88
718.559	15711.18
718.902	15629.38
719.246	15684.52
719.589	15613.78
719.932	15607
720.275	15534.46
720.617	15624.63
720.96	15581.24
721.303	15569.04
721.646	15684.29
721.989	15545.31
722.331	15578.53
722.674	15498.99
723.016	15603.62
723.359	15502.6
723.701	15445.43
724.044	15380.12
724.386	15347.8
724.729	15420.34
725.071	15380.34
725.413	15403.17
725.755	15395.94
726.097	15388.48
726.439	15360.68
726.782	15276.84
727.124	15341.93
727.465	15275.04
727.807	15293.34
728.149	15241.36
728.491	15285.66
728.833	15292.21
729.175	15154.14
729.516	15217.18
729.858	15216.05
730.199	15223.74
730.541	15163.17
730.882	15150.07
731.224	15162.5
731.565	15102.39
731.906	15099.67
732.248	15170.18
732.589	15046.79
732.93	15057.64
733.271	15041.6
733.612	15038.43
733.953	15065.1
734.294	14973.12
734.635	15051.09
734.976	15026
735.317	14956.4
735.658	14961.37
735.999	14881.37
736.339	14913.46
736.68	14909.62
737.021	14828.04
737.361	14859.68
737.702	14929.96
738.042	14818.55
738.383	14809.74
738.723	14893.58
739.063	14782.85
739.404	14764.77
739.744	14708.05
740.084	14718.89
740.424	14835.05
740.764	14661.72
741.104	14727.25
741.444	14655.39
741.784	14617.88
742.124	14621.72
742.464	14613.36
742.804	14539.01
743.143	14561.38
743.483	14654.71
743.823	14502.85
744.162	14503.98
744.502	14486.13
744.841	14478.9
745.181	14494.27
745.52	14360.94
745.86	14515.28
746.199	14424.89
746.538	14418.79
746.877	14427.6
747.216	14387.83
747.556	14322.29
747.895	14376.53
748.234	14328.62
748.573	14306.93
748.911	14245.91
749.25	14283.65
749.589	14133.37
749.928	14238
750.267	14255.4
750.605	14270.77
750.944	14106.71
751.283	14116.87
751.621	14106.03
751.96	14059.93
752.298	13984
752.636	13995.52
752.975	13952.36
753.313	13898.8
753.651	13975.18
753.989	13826.71
754.327	13900.84
754.666	13711.01
755.004	13822.87
755.342	13796.88
755.679	13798.24
756.017	13713.72
756.355	13764.79
756.693	13656.55
757.031	13682.99
757.368	13571.13
757.706	13619.03
758.044	13587.17
758.381	13581.07
758.719	13480.28
759.056	13413.39
759.394	13410.23
759.731	13282.55
760.068	13274.64
