Data from brown_tile_FLMS001491_044.txt Node
Date: Tue Feb 07 10:37:33 GMT 2017
User: dcchb
Spectrometer: FLMS00149
Trigger mode: 0
Integration Time (sec): 2.000000E-2
Scans to average: 10
Electric dark correction enabled: true
Nonlinearity correction enabled: false
Boxcar width: 0
XAxis mode: Wavelengths
Number of Pixels in Spectrum: 2048
>>>>>Begin Spectral Data<<<<<
341.393	5.41
341.776	5.41
342.16	5.41
342.543	-39.79
342.927	-52.67
343.31	-54.48
343.693	-70.52
344.077	-53.8
344.46	-53.35
344.843	-61.48
345.226	-40.01
345.61	-41.37
345.993	-30.75
346.376	-1.14
346.759	-2.5
347.142	46.54
347.525	40.21
347.908	46.99
348.291	73.43
348.674	88.12
349.057	114.11
349.44	112.3
349.823	152.75
350.206	161.11
350.588	200.21
350.971	189.13
351.354	203.14
351.737	218.51
352.119	221.67
352.502	258.06
352.884	241.79
353.267	275.46
353.65	267.55
354.032	277.94
354.414	286.31
354.797	303.03
355.179	307.55
355.562	302.12
355.944	317.72
356.326	323.14
356.709	330.82
357.091	333.31
357.473	323.59
357.855	329.24
358.238	322.46
358.62	331.5
359.002	327.21
359.384	319.53
359.766	323.37
360.148	333.99
360.53	327.43
360.912	309.13
361.294	310.49
361.676	333.31
362.057	331.5
362.439	293.99
362.821	319.3
363.203	329.92
363.584	300.99
363.966	309.36
364.348	312.75
364.729	304.61
365.111	305.97
365.493	306.42
365.874	319.75
366.256	306.42
366.637	307.55
367.019	295.12
367.4	310.03
367.781	321.33
368.163	273.2
368.544	314.33
368.925	312.75
369.306	279.75
369.688	293.99
370.069	298.96
370.45	299.64
370.831	276.59
371.212	303.48
371.593	299.64
371.974	296.48
372.355	288.57
372.736	308
373.117	293.09
373.498	301.9
373.879	293.54
374.26	269.81
374.641	297.61
375.021	290.6
375.402	295.57
375.783	299.41
376.163	319.07
376.544	320.88
376.925	305.51
377.305	304.38
377.686	310.94
378.066	308
378.447	290.15
378.827	320.66
379.208	313.2
379.588	306.64
379.968	316.14
380.349	310.71
380.729	321.11
381.109	318.62
381.489	323.14
381.87	319.98
382.25	319.75
382.63	325.4
383.01	324.05
383.39	324.05
383.77	321.11
384.15	328.34
384.53	315.23
384.91	316.14
385.29	345.74
385.67	315.46
386.049	326.08
386.429	320.43
386.809	338.06
387.189	338.06
387.568	335.8
387.948	330.37
388.328	338.73
388.707	343.03
389.087	345.97
389.466	336.25
389.846	338.96
390.225	358.39
390.605	336.7
390.984	332.86
391.363	341.9
391.743	362.01
392.122	328.11
392.501	327.21
392.881	352.07
393.26	331.95
393.639	345.74
394.018	343.93
394.397	326.08
394.776	371.28
395.155	342.8
395.534	364.72
395.913	353.65
396.292	370.82
396.671	369.69
397.05	381.22
397.429	366.08
397.808	372.86
398.186	370.82
398.565	364.72
398.944	402.46
399.323	382.8
399.701	351.16
400.08	390.71
400.458	390.48
400.837	360.2
401.215	400.2
401.594	382.8
401.972	383.93
402.351	394.78
402.729	378.51
403.107	390.48
403.486	380.09
403.864	383.7
404.242	382.12
404.62	394.78
404.999	382.57
405.377	394.33
405.755	379.18
406.133	394.33
406.511	404.72
406.889	417.83
407.267	401.78
407.645	389.13
408.023	411.5
408.401	389.35
408.779	429.58
409.156	419.18
409.534	420.54
409.912	416.47
410.29	415.34
410.667	416.02
411.045	432.52
411.422	416.7
411.8	440.2
412.178	443.36
412.555	435.23
412.933	435.23
413.31	437.49
413.687	431.84
414.065	426.64
414.442	447.21
414.819	454.44
415.197	445.17
415.574	446.53
415.951	445.17
416.328	473.42
416.705	443.82
417.082	463.25
417.46	471.61
417.837	461.67
418.214	476.58
418.591	451.5
418.967	466.19
419.344	470.48
419.721	478.39
420.098	485.4
420.475	472.06
420.852	472.06
421.228	483.36
421.605	481.56
421.982	494.44
422.358	509.13
422.735	498.96
423.111	510.03
423.488	521.78
423.864	500.31
424.241	502.12
424.617	508.9
424.994	505.06
425.37	519.97
425.746	516.36
426.123	509.35
426.499	504.83
426.875	495.34
427.251	538.5
427.627	548.22
428.003	540.99
428.379	517.94
428.756	526.53
429.132	538.95
429.507	553.64
429.883	558.39
430.259	533.76
430.635	552.06
431.011	555.9
431.387	558.62
431.763	595.9
432.138	575.56
432.514	582.57
432.89	581.67
433.265	575.79
433.641	601.1
434.016	582.57
434.392	622.34
434.767	628.67
435.143	612.4
435.518	610.59
435.894	631.61
436.269	629.35
436.644	644.49
437.02	616.69
437.395	652.17
437.77	640.2
438.145	635.45
438.52	653.53
438.895	639.52
439.271	687.43
439.646	669.12
440.021	652.4
440.395	667.09
440.77	647.88
441.145	669.35
441.52	667.54
441.895	688.56
442.27	677.26
442.645	689.91
443.019	701.66
443.394	701.66
443.769	700.76
444.143	698.27
444.518	691.95
444.892	693.07
445.267	724.26
445.641	711.38
446.016	720.42
446.39	722.68
446.764	709.35
447.139	711.38
447.513	726.52
447.887	734.43
448.262	730.81
448.636	731.49
449.01	731.04
449.384	740.76
449.758	759.06
450.132	775.33
450.506	771.94
450.88	764.71
451.254	733.3
451.628	769.01
452.002	755.9
452.376	789.57
452.75	770.14
453.123	795.22
453.497	789.57
453.871	805.16
454.244	829.34
454.618	828.89
454.992	846.07
455.365	861.21
455.739	847.87
456.112	830.25
456.486	852.62
456.859	865.73
457.232	858.27
457.606	866.63
457.979	886.52
458.352	877.02
458.725	899.62
459.099	917.02
459.472	910.92
459.845	910.7
460.218	916.57
460.591	928.32
460.964	934.65
461.337	925.39
461.71	980.98
462.083	982.11
462.456	970.36
462.829	978.27
463.201	1010.13
463.574	1000.64
463.947	1012.16
464.32	1014.87
464.692	1037.92
465.065	1039.05
465.438	1053.74
465.81	1046.96
466.183	1052.39
466.555	1080.18
466.928	1068.21
467.3	1080.18
467.672	1121.99
468.045	1117.7
468.417	1129.22
468.789	1138.49
469.161	1142.33
469.534	1161.99
469.906	1187.75
470.278	1173.51
470.65	1190.01
471.022	1213.74
471.394	1217.81
471.766	1263
472.138	1259.84
472.51	1235.21
472.882	1265.94
473.253	1295.77
473.625	1310.01
473.997	1322.66
474.369	1345.04
474.74	1357.69
475.112	1328.99
475.484	1384.36
475.855	1412.83
476.227	1414.64
476.598	1432.72
476.97	1441.76
477.341	1469.78
477.713	1503.68
478.084	1507.52
478.455	1552.26
478.827	1547.29
479.198	1576.89
479.569	1591.58
479.94	1622.54
480.311	1629.1
480.682	1655.08
481.053	1735.99
481.424	1727.4
481.795	1735.08
482.166	1737.34
482.537	1798.58
482.908	1845.36
483.279	1859.6
483.65	1871.35
484.021	1915.64
484.391	1887.85
484.762	1926.04
485.133	1936.43
485.503	1968.97
485.874	1982.98
486.244	2013.49
486.615	2051.01
486.985	2063.21
487.356	2075.41
487.726	2112.7
488.097	2172.13
488.467	2146.82
488.837	2201.51
489.207	2213.49
489.578	2269.76
489.948	2265.91
490.318	2303.43
490.688	2275.18
491.058	2321.51
491.428	2379.13
491.798	2374.39
492.168	2413.93
492.538	2479.02
492.908	2488.73
493.278	2467.04
493.648	2484.44
494.017	2528.96
494.387	2554.04
494.757	2557.21
495.126	2599.69
495.496	2583.19
495.866	2629.52
496.235	2683.08
496.605	2652.8
496.974	2716.75
497.344	2697.32
497.713	2676.75
498.082	2759.24
498.452	2774.38
498.821	2817.31
499.19	2785.68
499.559	2824.77
499.928	2824.77
500.298	2880.36
500.667	2875.16
501.036	2880.59
501.405	2956.74
501.774	2942.51
502.143	2926.69
502.512	2968.95
502.88	2960.59
503.249	2978.89
503.618	3024.54
503.987	3032.45
504.356	3026.8
504.724	3090.75
505.093	3101.15
505.462	3116.29
505.83	3151.32
506.199	3149.51
506.567	3208.94
506.936	3202.84
507.304	3188.15
507.672	3256.4
508.041	3251.88
508.409	3290.75
508.777	3335.94
509.145	3332.78
509.514	3352.44
509.882	3346.56
510.25	3362.84
510.618	3417.52
510.986	3417.07
511.354	3471.98
511.722	3461.82
512.09	3531.42
512.458	3514.24
512.826	3548.82
513.193	3591.98
513.561	3559.89
513.929	3638.99
514.297	3616.84
514.664	3710.4
515.032	3727.12
515.4	3735.03
515.767	3740.23
516.135	3791.52
516.502	3758.31
516.869	3809.83
517.237	3831.07
517.604	3862.94
517.972	3907.23
518.339	3932.99
518.706	3935.02
519.073	3960.79
519.44	4022.48
519.808	4015.47
520.175	4069.71
520.542	4058.18
520.909	4099.77
521.276	4155.58
521.643	4185.86
522.009	4177.5
522.376	4253.21
522.743	4243.72
523.11	4330.04
523.477	4318.06
523.843	4372.98
524.21	4420.21
524.577	4422.47
524.943	4492.75
525.31	4503.82
525.676	4564.84
526.043	4573.42
526.409	4595.57
526.776	4646.19
527.142	4704.95
527.508	4681.67
527.874	4715.57
528.241	4805.96
528.607	4818.62
528.973	4825.62
529.339	4853.42
529.705	4905.62
530.071	4958.27
530.437	5015.67
530.803	4971.38
531.169	5026.75
531.535	5052.96
531.901	5028.33
532.267	5122.56
532.632	5094.32
532.998	5212.28
533.364	5219.06
533.73	5276.01
534.095	5292.95
534.461	5347.87
534.826	5321.2
535.192	5377.25
535.557	5439.39
535.923	5391.93
536.288	5442.1
536.653	5471.25
537.019	5440.29
537.384	5551.7
537.749	5573.17
538.114	5610.23
538.479	5620.86
538.845	5667.63
539.21	5610.69
539.575	5671.25
539.94	5704.02
540.305	5790.34
540.67	5775.65
541.034	5826.05
541.399	5824.92
541.764	5856.33
542.129	5913.95
542.494	5878.02
542.858	6002.31
543.223	6014.29
543.587	6054.52
543.952	6024.23
544.316	6112.82
544.681	6092.93
545.045	6207.05
545.41	6181.97
545.774	6209.09
546.138	6225.13
546.503	6264.91
546.867	6306.94
547.231	6369.31
547.595	6391.68
547.959	6461.74
548.324	6520.04
548.688	6478.23
549.052	6538.8
549.416	6623.09
549.779	6637.55
550.143	6630.32
550.507	6739.7
550.871	6800.03
551.235	6772.92
551.599	6860.82
551.962	6910.99
552.326	6960.93
552.689	7024.21
553.053	6944.44
553.417	7072.57
553.78	7110.53
554.143	7120.93
554.507	7251.32
554.87	7242.73
555.234	7322.05
555.597	7377.87
555.96	7438.89
556.323	7510.3
556.686	7508.04
557.05	7619.67
557.413	7697.64
557.776	7714.59
558.139	7796.84
558.502	7759.1
558.865	7848.82
559.228	7927.91
559.59	8009.49
559.953	8036.38
560.316	8166.78
560.679	8240.22
561.041	8352.53
561.404	8342.14
561.767	8437.5
562.129	8440.89
562.492	8593.66
562.854	8628.91
563.217	8689.7
563.579	8734.9
563.941	8862.35
564.304	8840.43
564.666	9031.39
565.028	9053.99
565.39	9119.75
565.753	9214.88
566.115	9271.83
566.477	9361.77
566.839	9416.01
567.201	9534.42
567.563	9575.1
567.925	9711.59
568.287	9720.41
568.648	9739.39
569.01	9840.63
569.372	9984.13
569.734	10039.95
570.095	10186.38
570.457	10252.37
570.819	10250.56
571.18	10282.2
571.542	10432.71
571.903	10536.66
572.265	10588.63
572.626	10670.67
572.987	10792.7
573.349	10880.83
573.71	10867.27
574.071	10958.57
574.432	11098
574.794	11236.98
575.155	11249.63
575.516	11188.17
575.877	11370.31
576.238	11443.75
576.599	11490.31
576.96	11587.48
577.32	11624.54
577.681	11733.24
578.042	11833.12
578.403	11817.98
578.763	11843.06
579.124	11904.08
579.485	12028.37
579.845	12092.1
580.206	12121.48
580.566	12215.71
580.927	12323.73
581.287	12303.39
581.648	12285.09
582.008	12445.08
582.368	12456.61
582.728	12540
583.089	12602.82
583.449	12677.62
583.809	12648.92
584.169	12703.38
584.529	12785.19
584.889	12918.97
585.249	12921.91
585.609	12850.27
585.969	13045.52
586.329	13041.22
586.688	13081.45
587.048	13094.1
587.408	13166.19
587.768	13220.66
588.127	13209.36
588.487	13205.06
588.846	13346.98
589.206	13323.48
589.565	13366.41
589.925	13369.13
590.284	13407.77
590.643	13543.36
591.003	13518.05
591.362	13626.07
591.721	13611.61
592.08	13565.28
592.44	13694.32
592.799	13733.41
593.158	13743.35
593.517	13701.55
593.876	13877.36
594.235	13851.15
594.593	13899.73
594.952	13918.72
595.311	13940.41
595.67	14090.69
596.029	14098.37
596.387	14096.11
596.746	14154.64
597.104	14135.21
597.463	14141.76
597.822	14294.98
598.18	14291.14
598.538	14276.22
598.897	14436.67
599.255	14272.83
599.613	14546.27
599.972	14469.21
600.33	14514.63
600.688	14455.2
601.046	14630.79
601.404	14602.77
601.762	14570
602.12	14716.44
602.478	14708.75
602.836	14767.96
603.194	14751.69
603.552	14715.53
603.91	14765.25
604.268	14865.13
604.625	14873.72
604.983	14932.02
605.341	14893.83
605.698	14968.63
606.056	15004.11
606.413	14964.11
606.771	15041.4
607.128	15131.34
607.485	15059.48
607.843	15128.85
608.2	15214.28
608.557	15232.58
608.914	15228.51
609.272	15308.74
609.629	15348.96
609.986	15425.12
610.343	15303.09
610.7	15466.47
611.057	15437.09
611.414	15503.98
611.771	15516.64
612.127	15596.19
612.484	15631.89
612.841	15629.18
613.198	15546.7
613.554	15607.49
613.911	15658.33
614.267	15714.83
614.624	15620.59
614.98	15745.56
615.337	15790.53
615.693	15762.74
616.05	15807.03
616.406	16012.45
616.762	15834.6
617.118	15803.64
617.475	15939
617.831	15947.82
618.187	16007.25
618.543	16021.03
618.899	16115.27
619.255	16050.64
619.611	16009.28
619.967	16132.22
620.323	16157.53
620.678	16063.52
621.034	16076.4
621.39	16176.06
621.746	16010.41
622.101	16281.82
622.457	16103.29
622.812	16147.13
623.168	16253.57
623.523	16192.55
623.879	16328.82
624.234	16134.93
624.589	16261.48
624.945	16262.16
625.3	16327.69
625.655	16261.25
626.01	16245.43
626.365	16266.68
626.72	16304.64
627.075	16188.71
627.43	16244.3
627.785	16275.72
628.14	16295.6
628.495	16194.14
628.85	16312.33
629.205	16204.53
629.559	16322.72
629.914	16263.06
630.269	16261.48
630.623	16205.66
630.978	16285.66
631.332	16272.55
631.687	16340.57
632.041	16275.72
632.396	16312.78
632.75	16227.81
633.104	16241.82
633.459	16179.9
633.813	16225.77
634.167	16218.54
634.521	16195.04
634.875	16177.19
635.229	16198.88
635.583	16105.55
635.937	16119.79
636.291	16065.78
636.645	16083.86
636.999	16066.91
637.352	16129.73
637.706	15970.41
638.06	16118.66
638.413	16148.04
638.767	16048.6
639.121	16067.81
639.474	15929.51
639.828	15957.31
640.181	15989.85
640.534	16043.41
640.888	15989.4
641.241	15856.07
641.594	15949.4
641.947	15963.41
642.301	15972
642.654	15978.32
643.007	15959.79
643.36	15998.89
643.713	15885.44
644.066	15967.02
644.419	15783.75
644.771	15725.45
645.124	15615.85
645.477	15736.3
645.83	15515.51
646.182	15489.3
646.535	15519.8
646.888	15390.77
647.24	15368.17
647.593	15459.24
647.945	15492.01
648.298	15288.85
648.65	15388.28
649.002	15306.93
649.355	15339.47
649.707	15325.68
650.059	15434.16
650.411	15616.98
650.763	15530.65
651.115	15780.36
651.467	15744.66
651.819	15632.8
652.171	15602.97
652.523	15683.42
652.875	15676.64
653.227	15629.18
653.578	15637.09
653.93	15688.39
654.282	15644.55
654.633	15642.74
654.985	15592.12
655.337	15527.04
655.688	15675.73
656.039	15733.36
656.391	15523.42
656.742	15539.46
657.094	15579.01
657.445	15580.59
657.796	15566.13
658.147	15514.83
658.498	15554.38
658.849	15626.92
659.2	15619.01
659.551	15600.25
659.902	15518.67
660.253	15630.76
660.604	15616.07
660.955	15562.29
661.306	15638.9
661.656	15591.21
662.007	15547.37
662.358	15683.19
662.708	15607.94
663.059	15595.28
663.409	15585.79
663.76	15711.21
664.11	15659.01
664.461	15701.72
664.811	15625.79
665.161	15725.67
665.511	15604.77
665.862	15679.8
666.212	15728.61
666.562	15753.24
666.912	15673.25
667.262	15654.26
667.612	15678.67
667.962	15767.93
668.312	15709.18
668.662	15716.63
669.011	15687.48
669.361	15680.25
669.711	15670.31
670.06	15703.3
670.41	15573.59
670.76	15616.98
671.109	15701.27
671.459	15680.93
671.808	15712.34
672.157	15770.42
672.507	15596.19
672.856	15690.42
673.205	15648.39
673.554	15722.06
673.904	15591.44
674.253	15705.79
674.602	15573.81
674.951	15528.17
675.3	15370.2
675.649	15699.91
675.998	15702.62
676.346	15605.23
676.695	15757.54
677.044	15667.14
677.393	15659.69
677.741	15667.14
678.09	15658.11
678.438	15596.64
678.787	15714.37
679.135	15605.9
679.484	15540.59
679.832	15673.02
680.181	15568.39
680.529	15626.24
680.877	15602.06
681.225	15523.19
681.573	15706.92
681.922	15457.88
682.27	15526.58
682.618	15595.28
682.966	15592.34
683.314	15515.74
683.661	15469.64
684.009	15421.73
684.357	15440.03
684.705	15441.39
685.053	15439.58
685.4	15443.42
685.748	15402.29
686.095	15411.11
686.443	15334.72
686.79	15369.07
687.138	15435.29
687.485	15411.11
687.832	15425.79
688.18	15348.28
688.527	15386.02
688.874	15299.7
689.221	15287.72
689.568	15250.43
689.915	15214.05
690.262	15285.69
690.609	15221.73
690.956	15216.99
691.303	15184.45
691.65	15125.46
691.997	15025.13
692.344	14991.23
692.69	15041.4
693.037	15079.82
693.383	14943.32
693.73	14948.97
694.077	14880.95
694.423	14909.88
694.769	14866.04
695.116	14902.42
695.462	14842.99
695.808	14783.78
696.155	14815.42
696.501	14717.56
696.847	14762.76
697.193	14660.62
697.539	14728.64
697.885	14658.58
698.231	14564.57
698.577	14597.12
698.923	14642.54
699.269	14540.85
699.614	14542.43
699.96	14485.93
700.306	14504.24
700.651	14524.58
700.997	14435.09
701.342	14344.47
701.688	14411.13
702.033	14394.86
702.379	14381.08
702.724	14349.89
703.069	14473.05
703.415	14229.89
703.76	14203.91
704.105	14214.75
704.45	14177.24
704.795	14099.5
705.14	14129.78
705.485	14087.3
705.83	14112.16
706.175	14031.93
706.52	14029
706.865	14017.24
707.209	13985.38
707.554	14013.63
707.899	14008.88
708.243	13972.5
708.588	13865.84
708.932	13890.69
709.277	13837.59
709.621	13898.15
709.966	13853.86
710.31	13870.36
710.654	13745.39
710.998	13772.28
711.342	13810.02
711.687	13785.39
712.031	13737.48
712.375	13626.97
712.719	13686.63
713.063	13725.95
713.407	13702
713.75	13672.85
714.094	13686.63
714.438	13629.23
714.782	13603.02
715.125	13544.26
715.469	13575.67
715.812	13478.5
716.156	13542
716.499	13478.5
716.843	13577.93
717.186	13428.33
717.53	13467.2
717.873	13490.7
718.216	13488.22
718.559	13408.45
718.902	13355.57
719.246	13414.32
719.589	13359.86
719.932	13368.9
720.275	13326.64
720.617	13326.19
720.96	13330.03
721.303	13361.89
721.646	13284.83
721.989	13257.26
722.331	13229.47
722.674	13245.06
723.016	13261.56
723.359	13139.53
723.701	13293.42
724.044	13156.02
724.386	13148.79
724.729	13225.85
725.071	13081
725.413	13118.06
725.755	13235.8
726.097	13137.49
726.439	13029.93
726.782	13042.81
727.124	13092.52
727.465	13085.74
727.807	13047.55
728.149	13116.48
728.491	13032.19
728.833	13027.67
729.175	13039.19
729.516	13008.23
729.858	12907.44
730.199	13015.01
730.541	12977.72
730.882	12978.85
731.224	12930.95
731.565	12821.8
731.906	12872.87
732.248	12927.1
732.589	12921
732.93	12784.51
733.271	12788.12
733.612	12867.22
733.953	12785.41
734.294	12822.93
734.635	12766.66
734.976	12903.6
735.317	12834.9
735.658	12744.74
735.999	12759.88
736.339	12775.92
736.68	12750.16
737.021	12679.2
737.361	12741.57
737.702	12699.31
738.042	12702.93
738.383	12646.21
738.723	12651.63
739.063	12677.39
739.404	12674.45
739.744	12578.19
740.084	12550.16
740.424	12562.37
740.764	12555.59
741.104	12573.44
741.444	12516.04
741.784	12564.85
742.124	12544.74
742.464	12510.39
742.804	12485.08
743.143	12490.96
743.483	12465.87
743.823	12371.64
744.162	12332.54
744.502	12400.56
744.841	12349.72
745.181	12338.64
745.52	12304.3
745.86	12332.09
746.199	12386.55
746.538	12256.39
746.877	12383.84
747.216	12339.55
747.556	12285.76
747.895	12318.98
748.234	12173.45
748.573	12220.23
748.911	12163.28
749.25	12196.28
749.589	12101.36
749.928	12114.92
750.267	12093.68
750.605	12102.94
750.944	12032.21
751.283	12017.07
751.621	12095.94
751.96	11888.94
752.298	12006.45
752.636	11966.22
752.975	11838.09
753.313	11904.53
753.651	11948.82
753.989	11864.31
754.327	11828.83
754.666	11708.83
755.004	11716.97
755.342	11744.76
755.679	11686.01
756.017	11705.67
756.355	11618.66
756.693	11647.59
757.031	11679.9
757.368	11575.5
757.706	11515.84
758.044	11513.81
758.381	11550.19
758.719	11473.58
759.056	11509.29
759.394	11377.09
759.731	11352.91
760.068	11365.79
760.405	11263.87
