Data from brown_tile_FLMS001491_093.txt Node
Date: Tue Feb 07 10:38:16 GMT 2017
User: dcchb
Spectrometer: FLMS00149
Trigger mode: 0
Integration Time (sec): 2.000000E-2
Scans to average: 10
Electric dark correction enabled: true
Nonlinearity correction enabled: false
Boxcar width: 0
XAxis mode: Wavelengths
Number of Pixels in Spectrum: 2048
>>>>>Begin Spectral Data<<<<<
341.393	-12.94
341.776	-12.94
342.16	-12.94
342.543	-69.89
342.927	-64.01
343.31	-71.47
343.693	-77.12
344.077	-55.87
344.46	-76.89
344.843	-41.86
345.226	-45.71
345.61	-21.98
345.993	-16.1
346.376	9.66
346.759	26.38
347.142	18.7
347.525	40.39
347.908	55.99
348.291	76.78
348.674	89.66
349.057	89.43
349.44	139.37
349.823	158.36
350.206	135.99
350.588	191.8
350.971	197.9
351.354	206.94
351.737	205.81
352.119	243.1
352.502	247.62
352.884	238.58
353.267	252.14
353.65	292.14
354.032	279.03
354.414	284.23
354.797	292.14
355.179	302.76
355.562	314.51
355.944	302.76
356.326	331.46
356.709	330.56
357.091	325.36
357.473	302.76
357.855	285.81
358.238	316.77
358.62	329.88
359.002	321.29
359.384	310.22
359.766	315.87
360.148	319.94
360.53	309.54
360.912	305.47
361.294	322.42
361.676	310.9
362.057	309.77
362.439	311.12
362.821	333.04
363.203	307.28
363.584	312.48
363.966	298.69
364.348	283.55
364.729	309.77
365.111	308.86
365.493	321.74
365.874	316.09
366.256	318.13
366.637	302.31
367.019	307.73
367.4	307.05
367.781	293.04
368.163	277.9
368.544	294.17
368.925	300.27
369.306	305.92
369.688	305.7
370.069	308.18
370.45	317
370.831	291.01
371.212	288.3
371.593	284
371.974	298.24
372.355	306.38
372.736	303.89
373.117	274.74
373.498	308.86
373.879	290.33
374.26	284.23
374.641	277.68
375.021	294.17
375.402	302.08
375.783	305.25
376.163	291.69
376.544	305.47
376.925	293.95
377.305	312.7
377.686	298.24
378.066	311.12
378.447	324.23
378.827	332.36
379.208	303.89
379.588	317.22
379.968	330.33
380.349	326.26
380.729	318.58
381.109	314.51
381.489	319.94
381.87	330.1
382.25	281.52
382.63	317.22
383.01	319.48
383.39	325.13
383.77	323.78
384.15	309.09
384.53	323.32
384.91	325.13
385.29	311.35
385.67	327.39
386.049	338.47
386.429	315.42
386.809	336.88
387.189	337.79
387.568	321.29
387.948	343.21
388.328	331.46
388.707	363.1
389.087	340.27
389.466	338.92
389.846	337.11
390.225	340.05
390.605	322.19
390.984	339.37
391.363	337.79
391.743	345.92
392.122	340.5
392.501	340.73
392.881	361.52
393.26	331.69
393.639	338.47
394.018	352.48
394.397	338.24
394.776	343.89
395.155	338.01
395.534	384.34
395.913	370.1
396.292	358.35
396.671	351.12
397.05	366.26
397.429	354.96
397.808	382.53
398.186	352.7
398.565	393.38
398.944	364.68
399.323	360.16
399.701	393.15
400.08	371.69
400.458	378.92
400.837	377.56
401.215	383.89
401.594	369.88
401.972	375.53
402.351	394.06
402.729	403.32
403.107	396.32
403.486	380.05
403.864	395.41
404.242	378.69
404.62	387.28
404.999	387.05
405.377	378.46
405.755	371.69
406.133	399.71
406.511	394.06
406.889	396.77
407.267	393.83
407.645	407.39
408.023	382.08
408.401	404.68
408.779	417.33
409.156	424.57
409.534	426.6
409.912	418.01
410.29	418.24
410.667	405.13
411.045	417.56
411.422	430.21
411.8	435.19
412.178	437.67
412.555	444.23
412.933	451.46
413.31	440.38
413.687	448.52
414.065	439.48
414.442	438.8
414.819	447.16
415.197	455.75
415.574	452.81
415.951	433.15
416.328	454.85
416.705	444.23
417.082	443.77
417.46	478.12
417.837	451.68
418.214	454.39
418.591	461.4
418.967	464.79
419.344	459.59
419.721	474.73
420.098	458.91
420.475	481.96
420.852	470.89
421.228	479.48
421.605	465.92
421.982	489.65
422.358	499.14
422.735	481.96
423.111	513.38
423.488	485.35
423.864	493.94
424.241	514.28
424.617	494.39
424.994	511.57
425.37	514.05
425.746	462.98
426.123	547.95
426.499	530.33
426.875	537.33
427.251	536.43
427.627	532.13
428.003	548.86
428.379	553.15
428.756	546.6
429.132	551.12
429.507	539.82
429.883	562.41
430.259	566.48
430.635	575.97
431.011	550.66
431.387	561.06
431.763	585.92
432.138	594.96
432.514	588.4
432.89	601.06
433.265	591.11
433.641	589.53
434.016	609.87
434.392	620.27
434.767	615.07
435.143	598.57
435.518	613.49
435.894	638.57
436.269	666.82
436.644	646.25
437.02	633.15
437.395	629.98
437.77	652.36
438.145	632.7
438.52	653.03
438.895	639.93
439.271	629.08
439.646	668.85
440.021	675.18
440.395	653.94
440.77	661.85
441.145	670.89
441.52	691.68
441.895	703.88
442.27	695.74
442.645	683.09
443.019	707.5
443.394	687.84
443.769	691.45
444.143	695.07
444.518	717.21
444.892	690.77
445.267	734.84
445.641	713.37
446.016	714.73
446.39	757.44
446.764	726.7
447.139	744.1
447.513	727.61
447.887	724.44
448.262	738
448.636	732.13
449.01	752.24
449.384	753.6
449.758	738.68
450.132	744.78
450.506	752.01
450.88	756.99
451.254	771.9
451.628	788.85
452.002	784.33
452.376	794.27
452.75	802.18
453.123	791.11
453.497	819.36
453.871	832.24
454.244	818.45
454.618	813.03
454.992	836.76
455.365	825.68
455.739	857.32
456.112	860.49
456.486	870.66
456.859	858.68
457.232	887.38
457.606	880.6
457.979	887.83
458.352	899.58
458.725	889.19
459.099	874.72
459.472	928.73
459.845	929.86
460.218	952.01
460.591	939.35
460.964	934.83
461.337	948.62
461.71	973.7
462.083	992.69
462.456	988.17
462.829	980.71
463.201	989.75
463.574	996.08
463.947	997.88
464.32	1027.49
464.692	1001.73
465.065	1060.71
465.438	1044.66
465.81	1068.84
466.183	1063.19
466.555	1070.65
466.928	1084.21
467.3	1099.58
467.672	1121.04
468.045	1144.77
468.417	1123.08
468.789	1143.64
469.161	1140.7
469.534	1199.69
469.906	1200.36
470.278	1205.79
470.65	1212.79
471.022	1244.43
471.394	1223.64
471.766	1240.81
472.138	1266.35
472.51	1272.45
472.882	1280.59
473.253	1307.48
473.625	1332.34
473.997	1323.98
474.369	1373.69
474.74	1375.95
475.112	1363.98
475.484	1401.26
475.855	1426.57
476.227	1431.77
476.598	1476.51
476.97	1468.83
477.341	1473.35
477.713	1540.02
478.084	1546.8
478.455	1581.82
478.827	1568.26
479.198	1617.75
479.569	1623.18
479.94	1660.92
480.311	1687.36
480.682	1683.06
481.053	1682.61
481.424	1730.52
481.795	1771.42
482.166	1763.96
482.537	1801.7
482.908	1827.92
483.279	1844.19
483.65	1901.36
484.021	1914.47
484.391	1899.1
484.762	1949.95
485.133	1962.6
485.503	1976.39
485.874	2034.47
486.244	2037.63
486.615	2062.26
486.985	2109.04
487.356	2099.32
487.726	2105.42
488.097	2210.51
488.467	2189.72
488.837	2263.61
489.207	2297.28
489.578	2258.19
489.948	2296.61
490.318	2328.47
490.688	2346.77
491.058	2371.41
491.428	2381.58
491.798	2418.64
492.168	2454.79
492.538	2457.96
492.908	2515.81
493.278	2512.65
493.648	2512.87
494.017	2538.18
494.387	2571.63
494.757	2600.1
495.126	2626.32
495.496	2636.48
495.866	2683.49
496.235	2687.56
496.605	2707.22
496.974	2717.16
497.344	2775.46
497.713	2763.03
498.082	2819.3
498.452	2830.15
498.821	2845.07
499.19	2832.64
499.559	2841.22
499.928	2886.65
500.298	2926.19
500.667	2897.95
501.036	2928.23
501.405	2960.77
501.774	2971.84
502.143	2994.89
502.512	2989.47
502.88	3009.58
503.249	3038.96
503.618	3043.25
503.987	3098.85
504.356	3073.08
504.724	3105.17
505.093	3144.95
505.462	3160.31
505.83	3185.17
506.199	3230.59
506.567	3223.81
506.936	3233.08
507.304	3282.8
507.672	3270.59
508.041	3299.74
508.409	3299.29
508.777	3347.43
509.145	3368.89
509.514	3390.81
509.882	3433.75
510.25	3417.48
510.618	3489.8
510.986	3465.39
511.354	3529.12
511.722	3542.9
512.09	3576.57
512.458	3558.04
512.826	3594.88
513.193	3621.09
513.561	3666.74
513.929	3680.75
514.297	3714.42
514.664	3783.57
515.032	3695.67
515.4	3782.67
515.767	3753.74
516.135	3852.72
516.502	3824.25
516.869	3887.3
517.237	3866.51
517.604	3951.25
517.972	3954.19
518.339	3941.76
518.706	3970.91
519.073	4012.04
519.44	4031.02
519.808	4106.73
520.175	4054.53
520.542	4158.03
520.909	4228.53
521.276	4207.52
521.643	4243.67
522.009	4271.02
522.376	4275.76
522.743	4293.39
523.11	4347.4
523.477	4397.12
523.843	4416.1
524.21	4487.28
524.577	4525.02
524.943	4509.43
525.31	4562.76
525.676	4595.53
526.043	4654.28
526.409	4668.52
526.776	4696.09
527.142	4753.26
527.508	4768.86
527.874	4809.08
528.241	4845.01
528.607	4896.09
528.973	4932.92
529.339	4885.92
529.705	5017.44
530.071	5050.21
530.437	5037.1
530.803	5118
531.169	5148.28
531.535	5111.45
531.901	5167.94
532.267	5172.46
532.632	5237.32
532.998	5271.9
533.364	5302.4
533.73	5287.49
534.095	5374.49
534.461	5321.39
534.826	5419.69
535.192	5463.3
535.557	5467.82
535.923	5513.02
536.288	5509.4
536.653	5568.38
537.019	5556.41
537.384	5612.68
537.749	5622.17
538.114	5686.35
538.479	5702.17
538.845	5706.23
539.21	5725.44
539.575	5844.99
539.94	5834.59
540.305	5848.15
540.67	5852.22
541.034	5894.93
541.399	5950.75
541.764	5964.98
542.129	6012.89
542.494	5999.79
542.858	6100.8
543.223	6087.24
543.587	6113.68
543.952	6167.69
544.316	6199.55
544.681	6181.7
545.045	6224.41
545.41	6277.07
545.774	6332.43
546.138	6384.63
546.503	6397.97
546.867	6405.65
547.231	6469.15
547.595	6522.26
547.959	6510.05
548.324	6539.66
548.688	6644.74
549.052	6668.47
549.416	6693.55
549.779	6764.74
550.143	6808.8
550.507	6812.19
550.871	6896.71
551.235	6868.24
551.599	6986.43
551.962	7044.73
552.326	7045.86
552.689	7161.56
553.053	7125.86
553.417	7146.65
553.78	7275.01
554.143	7254.67
554.507	7326.98
554.87	7436.58
555.234	7497.6
555.597	7509.35
555.96	7565.39
556.323	7620.08
556.686	7675.67
557.05	7806.97
557.413	7760.42
557.776	7872.05
558.139	7971.94
558.502	7961.09
558.865	8078.83
559.228	8149.11
559.59	8152.72
559.953	8175.32
560.316	8298.48
560.679	8432.49
561.041	8520.62
561.404	8574.63
561.767	8615.31
562.129	8679.04
562.492	8764.01
562.854	8788.19
563.217	8898.01
563.579	8945.02
563.941	9060.95
564.304	9145.92
564.666	9238.57
565.028	9366.25
565.39	9354.95
565.753	9429.98
566.115	9513.37
566.477	9609.63
566.839	9644.21
567.201	9737.99
567.563	9753.81
567.925	9900.02
568.287	9991.77
568.648	9989.29
569.01	10152.9
569.372	10260.01
569.734	10286
570.095	10435.6
570.457	10467.01
570.819	10572.09
571.18	10618.65
571.542	10753.33
571.903	10878.08
572.265	10861.8
572.626	11020.9
572.987	10986.1
573.349	11104.96
573.71	11179.99
574.071	11316.93
574.432	11405.07
574.794	11468.12
575.155	11558.51
575.516	11527.78
575.877	11660.65
576.238	11810.93
576.599	11877.15
576.96	11929.35
577.32	11964.6
577.681	12076.24
578.042	12139.96
578.403	12198.94
578.763	12320.52
579.124	12276.68
579.485	12431.03
579.845	12515.32
580.206	12463.8
580.566	12518.03
580.927	12690.23
581.287	12718.25
581.648	12772.94
582.008	12791.47
582.368	12825.37
582.728	12922.32
583.089	12969.77
583.449	13028.53
583.809	13078.92
584.169	13139.71
584.529	13183.33
584.889	13342.64
585.249	13315.75
585.609	13309.65
585.969	13402.98
586.329	13374.73
586.688	13533.82
587.048	13539.25
587.408	13605.69
587.768	13670.09
588.127	13659.25
588.487	13742.18
588.846	13812.91
589.206	13766.36
589.565	13857.66
589.925	13917.77
590.284	14013.59
590.643	14041.83
591.003	14095.62
591.362	14176.52
591.721	14223.98
592.08	14184.43
592.44	14258.33
592.799	14298.55
593.158	14359.11
593.517	14310.3
593.876	14397.98
594.235	14418.77
594.593	14552.78
594.952	14473.91
595.311	14506.68
595.67	14635.26
596.029	14635.72
596.387	14767.46
596.746	14792.32
597.104	14729.95
597.463	14766.79
597.822	14780.57
598.18	14841.14
598.538	14832.77
598.897	14956.61
599.255	14835.94
599.613	15087
599.972	14995.93
600.33	15029.6
600.688	14974.47
601.046	15089.04
601.404	15178.3
601.762	15185.53
602.12	15283.16
602.478	15307.34
602.836	15345.08
603.194	15276.15
603.552	15372.42
603.91	15338.75
604.268	15457.62
604.625	15437.5
604.983	15515.69
605.341	15492.19
605.698	15599.08
606.056	15513.21
606.413	15651.51
606.771	15617.39
607.128	15750.72
607.485	15749.81
607.843	15718.85
608.2	15883.14
608.557	15951.61
608.914	15812.41
609.272	15903.71
609.629	15944.38
609.986	15986.19
610.343	15927.89
610.7	16110.25
611.057	16122.23
611.414	16093.08
611.771	16110.71
612.127	16267.76
612.484	16162.23
612.841	16291.27
613.198	16217.14
613.554	16262.79
613.911	16374.88
614.267	16359.97
614.624	16496.01
614.98	16388.44
615.337	16533.52
615.693	16522.22
616.05	16442.9
616.406	16510.92
616.762	16519.28
617.118	16494.65
617.475	16612.39
617.831	16557.02
618.187	16574.2
618.543	16599.28
618.899	16773.29
619.255	16723.8
619.611	16755.66
619.967	16805.38
620.323	16848.77
620.678	16769.9
621.034	16797.24
621.39	16750.01
621.746	16702.33
622.101	16914.75
622.457	16811.25
622.812	16803.57
623.168	16815.32
623.523	16918.37
623.879	16959.72
624.234	16903
624.589	16912.27
624.945	16941.19
625.3	17005.37
625.655	17023.45
626.01	17041.3
626.365	17099.61
626.72	16994.07
627.075	16998.82
627.43	16921.53
627.785	16903.91
628.14	16952.04
628.495	17018.48
628.85	16979.38
629.205	16942.55
629.559	17006.28
629.914	16960.85
630.269	16943.9
630.623	17038.59
630.978	16957.24
631.332	16987.52
631.687	16980.51
632.041	17004.69
632.396	16990.46
632.75	16934.19
633.104	16910.01
633.459	16843.79
633.813	16860.74
634.167	16935.77
634.521	16800.41
634.875	16967.18
635.229	16943.23
635.583	16853.51
635.937	16833.17
636.291	16884.7
636.645	16865.94
636.999	16747.98
637.352	16864.13
637.706	16702.33
638.06	16864.13
638.413	16771.71
638.767	16770.58
639.121	16785.26
639.474	16719.28
639.828	16752.05
640.181	16755.44
640.534	16780.29
640.888	16660.97
641.241	16591.37
641.594	16613.07
641.947	16671.14
642.301	16738.03
642.654	16681.31
643.007	16560.19
643.36	16594.54
643.713	16646.06
644.066	16604.48
644.419	16596.8
644.771	16398.83
645.124	16317.03
645.477	16270.7
645.83	16207.43
646.182	16059.41
646.535	16064.61
646.888	16184.15
647.24	16070.03
647.593	16184.38
647.945	16136.47
648.298	15977.38
648.65	15966.76
649.002	16003.14
649.355	16019.41
649.707	15969.47
650.059	16109.58
650.411	16287.42
650.763	16351.83
651.115	16423.69
651.467	16489
651.819	16511.6
652.171	16357.48
652.523	16426.18
652.875	16427.53
653.227	16409.68
653.578	16424.6
653.93	16403.13
654.282	16311.38
654.633	16354.54
654.985	16275
655.337	16409.46
655.688	16350.02
656.039	16392.73
656.391	16284.49
656.742	16310.02
657.094	16328.1
657.445	16344.37
657.796	16292.17
658.147	16393.18
658.498	16263.47
658.849	16456.46
659.2	16296.92
659.551	16279.52
659.902	16386.18
660.253	16357.03
660.604	16383.69
660.955	16292.62
661.306	16412.39
661.656	16328.55
662.007	16364.03
662.358	16306.41
662.708	16265.05
663.059	16233.19
663.409	16283.81
663.76	16340.98
664.11	16405.61
664.461	16395.22
664.811	16332.17
665.161	16344.15
665.511	16355.9
665.862	16450.58
666.212	16521.99
666.562	16438.61
666.912	16409
667.262	16324.71
667.612	16404.71
667.962	16422.56
668.312	16400.19
668.662	16458.72
669.011	16441.77
669.361	16424.82
669.711	16432.51
670.06	16450.81
670.41	16434.99
670.76	16337.82
671.109	16385.95
671.459	16493.07
671.808	16353.19
672.157	16374.88
672.507	16297.59
672.856	16419.4
673.205	16407.65
673.554	16482.67
673.904	16447.19
674.253	16472.28
674.602	16447.87
674.951	16228.9
675.3	16131.5
675.649	16340.3
675.998	16441.55
676.346	16438.16
676.695	16550.69
677.044	16325.16
677.393	16444.71
677.741	16405.39
678.09	16438.16
678.438	16302.57
678.787	16484.71
679.135	16401.09
679.484	16289.68
679.832	16410.59
680.181	16308.44
680.529	16388.89
680.877	16373.07
681.225	16293.53
681.573	16510.02
681.922	16364.71
682.27	16244.49
682.618	16380.08
682.966	16253.98
683.314	16350.25
683.661	16258.73
684.009	16250.14
684.357	16196.35
684.705	16183.25
685.053	16218.05
685.4	16196.35
685.748	16063.7
686.095	16152.51
686.443	16035
686.79	16071.84
687.138	16145.73
687.485	16129.69
687.832	15998.17
688.18	16080.2
688.527	16044.72
688.874	15945.29
689.221	15963.37
689.568	15945.96
689.915	15913.88
690.262	15845.18
690.609	15898.73
690.956	15814.67
691.303	15888.11
691.65	15915.23
691.997	15826.19
692.344	15678.63
692.69	15731.96
693.037	15714.33
693.383	15701.9
693.73	15804.73
694.077	15656.48
694.423	15647.44
694.769	15563.38
695.116	15604.28
695.462	15633.88
695.808	15580.1
696.155	15586.88
696.501	15521.34
696.847	15481.34
697.193	15347.56
697.539	15475.47
697.885	15368.35
698.231	15352.08
698.577	15369.26
698.923	15314.8
699.269	15320.44
699.614	15198.41
699.96	15264.4
700.306	15239.99
700.651	15121.13
700.997	15079.1
701.342	15133.1
701.688	15108.7
702.033	15055.14
702.379	15071.19
702.724	15102.6
703.069	15074.8
703.415	14888.59
703.76	14914.58
704.105	14880.91
704.45	14957.52
704.795	14874.81
705.14	14784.87
705.485	14881.81
705.83	14785.09
706.175	14820.8
706.52	14760.01
706.865	14738.54
707.209	14720.46
707.554	14712.55
707.899	14691.99
708.243	14677.98
708.588	14643.63
708.932	14540.8
709.277	14558.43
709.621	14597.98
709.966	14411.32
710.31	14481.6
710.654	14485.21
710.998	14487.7
711.342	14520.69
711.687	14451.99
712.031	14393.46
712.375	14400.02
712.719	14473.01
713.063	14349.17
713.407	14475.27
713.75	14372.67
714.094	14335.16
714.438	14294.71
714.782	14392.79
715.125	14264.43
715.469	14354.82
715.812	14199.34
716.156	14146.69
716.499	14198.67
716.843	14176.52
717.186	14138.78
717.53	14145.79
717.873	14189.4
718.216	14194.15
718.559	14127.03
718.902	14054.94
719.246	14008.84
719.589	14002.51
719.932	13967.94
720.275	14056.75
720.617	14021.72
720.96	13983.08
721.303	13915.96
721.646	13937.66
721.989	13919.8
722.331	13928.84
722.674	13986.24
723.016	13952.57
723.359	13945.79
723.701	13916.64
724.044	13828.05
724.386	13893.59
724.729	13837.55
725.071	13779.02
725.413	13862.4
725.755	13769.75
726.097	13736.31
726.439	13744.44
726.782	13827.38
727.124	13825.34
727.465	13719.58
727.807	13777.21
728.149	13619.25
728.491	13709.64
728.833	13790.09
729.175	13681.84
729.516	13617.21
729.858	13662.18
730.199	13646.36
730.541	13721.39
730.882	13651.79
731.224	13692.69
731.565	13597.1
731.906	13593.94
732.248	13591.9
732.589	13535.63
732.93	13492.02
733.271	13547.16
733.612	13559.14
733.953	13517.33
734.294	13464.22
734.635	13454.05
734.976	13525.92
735.317	13374.06
735.658	13468.06
735.999	13436.43
736.339	13287.5
736.68	13386.48
737.021	13424
737.361	13322.98
737.702	13414.51
738.042	13371.12
738.383	13339.71
738.723	13354.39
739.063	13403.43
739.404	13445.47
739.744	13275.98
740.084	13241.63
740.424	13240.5
740.764	13247.5
741.104	13228.52
741.444	13191.46
741.784	13223.32
742.124	13191.69
742.464	13207.73
742.804	13236.43
743.143	13052.71
743.483	13092.48
743.823	13062.42
744.162	13068.75
744.502	13038.02
744.841	13052.93
745.181	13029.66
745.52	12931.13
745.86	13030.11
746.199	12948.76
746.538	12978.36
746.877	13006.16
747.216	12971.58
747.556	12886.84
747.895	12995.53
748.234	12927.97
748.573	12824.47
748.911	12878.47
749.25	12782.66
749.589	12710.8
749.928	12794.18
750.267	12797.8
750.605	12713.96
750.944	12690.23
751.283	12723.22
751.621	12685.94
751.96	12672.83
752.298	12650.46
752.636	12587.41
752.975	12509.67
753.313	12549.44
753.651	12667.63
753.989	12585.15
754.327	12453.85
754.666	12457.24
755.004	12442.78
755.342	12351.48
755.679	12398.04
756.017	12381.99
756.355	12341.77
756.693	12337.02
757.031	12271.03
757.368	12194.2
757.706	12123.69
758.044	12147.42
758.381	12165.5
758.719	12104.48
759.056	12079.63
759.394	12049.57
759.731	11922.34
760.068	11993.75
760.405	11952.17
