Data from brown_tile_FLMS001491_014.txt Node
Date: Tue Feb 07 10:37:08 GMT 2017
User: dcchb
Spectrometer: FLMS00149
Trigger mode: 0
Integration Time (sec): 2.000000E-2
Scans to average: 10
Electric dark correction enabled: true
Nonlinearity correction enabled: false
Boxcar width: 0
XAxis mode: Wavelengths
Number of Pixels in Spectrum: 2048
>>>>>Begin Spectral Data<<<<<
341.393	-19
341.776	-19
342.16	-19
342.543	-82.05
342.927	-63.74
343.31	-59.45
343.693	-87.47
344.077	-82.5
344.46	-52.89
344.843	-48.37
345.226	-36.17
345.61	-45.44
345.993	-15.38
346.376	-16.06
346.759	30.27
347.142	33.43
347.525	35.01
347.908	58.97
348.291	61.91
348.674	89.7
349.057	134.45
349.44	104.16
349.823	134.9
350.206	169.92
350.588	193.43
350.971	173.99
351.354	232.3
351.737	209.92
352.119	227.55
352.502	228.68
352.884	263.93
353.267	276.59
353.65	274.33
354.032	278.85
354.414	279.07
354.797	285.18
355.179	292.41
355.562	336.47
355.944	326.53
356.326	299.19
356.709	308.45
357.091	308
357.473	309.81
357.855	313.2
358.238	322.46
358.62	322.69
359.002	338.06
359.384	305.51
359.766	337.83
360.148	317.27
360.53	299.64
360.912	320.2
361.294	328.11
361.676	310.94
362.057	307.1
362.439	326.53
362.821	333.99
363.203	320.2
363.584	300.77
363.966	320.66
364.348	289.24
364.729	295.35
365.111	308
365.493	296.25
365.874	300.99
366.256	295.12
366.637	289.47
367.019	285.18
367.4	281.33
367.781	303.25
368.163	303.71
368.544	289.02
368.925	310.26
369.306	307.1
369.688	293.54
370.069	312.97
370.45	289.02
370.831	294.67
371.212	294.89
371.593	290.37
371.974	318.4
372.355	292.41
372.736	305.51
373.117	289.02
373.498	309.81
373.879	323.59
374.26	302.8
374.641	282.01
375.021	289.92
375.402	323.82
375.783	300.54
376.163	323.14
376.544	311.16
376.925	287.66
377.305	296.48
377.686	302.35
378.066	303.48
378.447	326.08
378.827	334.67
379.208	291.96
379.588	307.55
379.968	327.43
380.349	319.98
380.729	332.18
381.109	335.8
381.489	319.75
381.87	305.97
382.25	340.09
382.63	322.69
383.01	338.51
383.39	323.59
383.77	327.66
384.15	319.3
384.53	339.86
384.91	333.76
385.29	321.79
385.67	341.9
386.049	342.58
386.429	351.84
386.809	347.1
387.189	345.74
387.568	332.18
387.948	334.67
388.328	342.8
388.707	353.2
389.087	351.62
389.466	357.49
389.846	327.66
390.225	344.16
390.605	346.64
390.984	380.09
391.363	349.13
391.743	363.82
392.122	347.77
392.501	367.43
392.881	383.93
393.26	361.11
393.639	381.9
394.018	341.22
394.397	370.15
394.776	375.57
395.155	354.33
395.534	362.24
395.913	359.75
396.292	374.21
396.671	366.53
397.05	371.05
397.429	372.86
397.808	369.24
398.186	376.02
398.565	372.41
398.944	378.06
399.323	388
399.701	394.78
400.08	375.8
400.458	393.2
400.837	383.25
401.215	386.42
401.594	393.2
401.972	403.82
402.351	390.94
402.729	394.78
403.107	396.59
403.486	402.46
403.864	413.53
404.242	411.05
404.62	411.95
404.999	396.81
405.377	406.53
405.755	413.31
406.133	425.51
406.511	413.76
406.889	416.47
407.267	439.3
407.645	427.09
408.023	441.56
408.401	401.56
408.779	440.65
409.156	426.64
409.534	434.32
409.912	440.88
410.29	437.04
410.667	446.75
411.045	441.56
411.422	441.78
411.8	458.73
412.178	451.05
412.555	443.59
412.933	449.01
413.31	463.02
413.687	466.64
414.065	477.49
414.442	471.84
414.819	484.27
415.197	471.61
415.574	487.2
415.951	493.08
416.328	487.66
416.705	497.15
417.082	483.36
417.46	505.96
417.837	479.07
418.214	474.55
418.591	504.15
418.967	499.41
419.344	489.01
419.721	509.8
420.098	512.06
420.475	537.15
420.852	534.44
421.228	517.94
421.605	526.07
421.982	530.82
422.358	545.28
422.735	530.59
423.111	526.75
423.488	548.9
423.864	543.47
424.241	542.34
424.617	554.1
424.994	545.28
425.37	546.41
425.746	569.46
426.123	542.12
426.499	585.28
426.875	581.89
427.251	564.26
427.627	573.76
428.003	607.88
428.379	588.22
428.756	599.74
429.132	589.35
429.507	614.43
429.883	600.2
430.259	628.44
430.635	617.37
431.011	621.66
431.387	634.32
431.763	644.71
432.138	620.53
432.514	654.88
432.89	644.94
433.265	639.74
433.641	653.75
434.016	663.25
434.392	665.05
434.767	652.85
435.143	671.15
435.518	683.58
435.894	691.95
436.269	698.27
436.644	710.25
437.02	705.05
437.395	682.68
437.77	713.87
438.145	710.25
438.52	717.71
438.895	742.11
439.271	739.4
439.646	752.28
440.021	736.69
440.395	749.34
440.77	721.32
441.145	771.94
441.52	771.49
441.895	764.71
442.27	769.23
442.645	745.95
443.019	789.34
443.394	763.81
443.769	781.21
444.143	747.54
444.518	771.72
444.892	754.54
445.267	801.55
445.641	804.48
446.016	824.14
446.39	801.32
446.764	783.24
447.139	809
447.513	818.5
447.887	813.07
448.262	844.48
448.636	821.89
449.01	855.1
449.384	848.1
449.758	855.78
450.132	881.09
450.506	854.88
450.88	856.91
451.254	851.04
451.628	877.93
452.002	879.74
452.376	897.14
452.75	903.46
453.123	909.57
453.497	902.11
453.871	905.27
454.244	922.22
454.618	938.72
454.992	939.4
455.365	947.76
455.739	973.29
456.112	974.2
456.486	995.21
456.859	1001.54
457.232	1025.27
457.606	986.4
457.979	1017.13
458.352	1032.28
458.725	1032.95
459.099	1033.18
459.472	1058.04
459.845	1073.63
460.218	1087.87
460.591	1036.57
460.964	1091.93
461.337	1086.74
461.71	1106.17
462.083	1111.14
462.456	1107.08
462.829	1148.2
463.201	1155.66
463.574	1138.04
463.947	1172.84
464.32	1178.94
464.692	1178.94
465.065	1195.89
465.438	1206.51
465.81	1194.08
466.183	1213.51
466.555	1262.33
466.928	1255.32
467.3	1271.36
467.672	1276.56
468.045	1321.31
468.417	1321.76
468.789	1321.99
469.161	1319.27
469.534	1364.92
469.906	1372.38
470.278	1376.22
470.65	1418.93
471.022	1400.85
471.394	1451.7
471.766	1444.92
472.138	1438.14
472.51	1480.17
472.882	1510.91
473.253	1522.88
473.625	1545.93
473.997	1556.56
474.369	1587.06
474.74	1615.76
475.112	1625.25
475.484	1630
475.855	1687.17
476.227	1685.14
476.598	1695.76
476.97	1726.49
477.341	1746.83
477.713	1753.61
478.084	1775.31
478.455	1811.69
478.827	1823.21
479.198	1866.83
479.569	1892.59
479.94	1946.15
480.311	1956.09
480.682	1991.12
481.053	2011.46
481.424	2051.46
481.795	2066.37
482.166	2100.04
482.537	2118.12
482.908	2164.9
483.279	2172.36
483.65	2206.26
484.021	2247.38
484.391	2274.73
484.762	2318.12
485.133	2314.28
485.503	2298.23
485.874	2382.97
486.244	2438.57
486.615	2432.01
486.985	2456.19
487.356	2523.76
487.726	2565.12
488.097	2565.57
488.467	2600.14
488.837	2642.4
489.207	2622.29
489.578	2702.06
489.948	2710.88
490.318	2757.2
490.688	2770.08
491.058	2792
491.428	2848.95
491.798	2853.47
492.168	2947.7
492.538	2950.87
492.908	2959.91
493.278	3009.85
493.648	2970.08
494.017	3076.06
494.387	3108.83
494.757	3071.77
495.126	3111.09
495.496	3149.28
495.866	3169.17
496.235	3193.8
496.605	3230.41
496.974	3234.48
497.344	3231.09
497.713	3279.45
498.082	3320.12
498.452	3379.33
498.821	3375.72
499.19	3365.32
499.559	3401.25
499.928	3426.79
500.298	3456.62
500.667	3511.31
501.036	3453
501.405	3551.98
501.774	3536.62
502.143	3555.82
502.512	3580.68
502.88	3630.4
503.249	3647.35
503.618	3682.6
503.987	3660.91
504.356	3684.18
504.724	3735.03
505.093	3724.18
505.462	3768.02
505.83	3830.85
506.199	3777.06
506.567	3874.01
506.936	3864.07
507.304	3923.27
507.672	3925.31
508.041	3932.31
508.409	3982.93
508.777	4005.3
509.145	4010.95
509.514	4034
509.882	4103.15
510.25	4082.59
510.618	4121.46
510.986	4109.71
511.354	4233.55
511.722	4190.61
512.09	4228.12
512.458	4218.18
512.826	4268.57
513.193	4307.9
513.561	4356.03
513.929	4362.58
514.297	4386.09
514.664	4423.82
515.032	4488
515.4	4525.97
515.767	4539.98
516.135	4601.22
516.502	4556.02
516.869	4673.99
517.237	4660.88
517.604	4635.57
517.972	4755.57
518.339	4798.5
518.706	4764.15
519.073	4785.4
519.44	4829.01
519.808	4885.06
520.175	4890.03
520.542	4927.54
520.909	4968.44
521.276	5006.86
521.643	5049.57
522.009	5047.76
522.376	5138.61
522.743	5137.25
523.11	5209.79
523.477	5283.01
523.843	5312.61
524.21	5356.68
524.577	5387.87
524.943	5441.2
525.31	5443.23
525.676	5498.37
526.043	5583.12
526.409	5603
526.776	5672.61
527.142	5641.65
527.508	5717.35
527.874	5720.97
528.241	5811.81
528.607	5840.96
528.973	5902.66
529.339	5867.4
529.705	5912.37
530.071	6024.69
530.437	6006.61
530.803	6053.84
531.169	6102.88
531.535	6092.48
531.901	6115.76
532.267	6174.06
532.632	6224.68
532.998	6235.3
533.364	6332.47
533.73	6334.28
534.095	6427.61
534.461	6448.18
534.826	6447.73
535.192	6480.27
535.557	6517.55
535.923	6549.19
536.288	6572.47
536.653	6621.73
537.019	6648.17
537.384	6670.77
537.749	6744.89
538.114	6794.61
538.479	6753.48
538.845	6854.27
539.21	6853.36
539.575	6829.41
539.94	6950.99
540.305	6997.32
540.67	6955.28
541.034	7029.86
541.399	7094.04
541.764	7110.76
542.129	7132
542.494	7218.1
542.858	7233.02
543.223	7240.93
543.587	7328.61
543.952	7321.83
544.316	7327.93
544.681	7402.73
545.045	7414.25
545.41	7532.44
545.774	7541.93
546.138	7588.71
546.503	7622.61
546.867	7590.52
547.231	7794.81
547.595	7769.5
547.959	7835.94
548.324	7905.31
548.688	7871.42
549.052	7913.45
549.416	7987.35
549.779	8033.45
550.143	8049.27
550.507	8105.08
550.871	8174.69
551.235	8203.39
551.599	8330.61
551.962	8323.38
552.326	8345.53
552.689	8437.96
553.053	8479.76
553.417	8503.72
553.78	8654
554.143	8649.93
554.507	8694.9
554.87	8773.99
555.234	8908.9
555.597	8868.68
555.96	8936.47
556.323	8970.15
556.686	9033.87
557.05	9144.15
557.413	9257.6
557.776	9271.61
558.139	9344.37
558.502	9414.43
558.865	9444.71
559.228	9546.63
559.59	9623.46
559.953	9694.87
560.316	9738.94
560.679	9902.55
561.041	9996.79
561.404	10036.11
561.767	10171.7
562.129	10221.64
562.492	10357.91
562.854	10364.01
563.217	10483.1
563.579	10481.52
563.941	10598.58
564.304	10726.94
564.666	10847.61
565.028	10882.41
565.39	10877.67
565.753	11030.88
566.115	11173.7
566.477	11236.53
566.839	11308.84
567.201	11511.55
567.563	11532.34
567.925	11560.81
568.287	11766
568.648	11693.69
569.01	11853.91
569.372	11955.83
569.734	11992.89
570.095	12150.17
570.457	12270.17
570.819	12316.05
571.18	12421.81
571.542	12494.57
571.903	12591.07
572.265	12697.96
572.626	12757.39
572.987	12823.38
573.349	12919.87
573.71	13081.22
574.071	13049.59
574.432	13190.83
574.794	13396.47
575.155	13372.74
575.516	13378.62
575.877	13583.36
576.238	13660.87
576.599	13780.64
576.96	13874.42
577.32	13873.75
577.681	14070.35
578.042	13989.67
578.403	14145.15
578.763	14198.71
579.124	14216.34
579.485	14367.07
579.845	14454.75
580.206	14478.02
580.566	14541.52
580.927	14541.3
581.287	14698.58
581.648	14732.71
582.008	14778.81
582.368	14816.32
582.728	14894.96
583.089	15018.12
583.449	15036.43
583.809	15003.43
584.169	15132.24
584.529	15189.19
584.889	15360.26
585.249	15218.79
585.609	15230.09
585.969	15455.62
586.329	15486.58
586.688	15518.45
587.048	15553.93
587.408	15580.82
587.768	15636.64
588.127	15718.22
588.487	15682.06
588.846	15850.87
589.206	15833.02
589.565	15837.08
589.925	15944.88
590.284	16002.28
590.643	16016.06
591.003	16040.69
591.362	16171.54
591.721	16074.82
592.08	16160.46
592.44	16243.85
592.799	16283.85
593.158	16284.3
593.517	16330.86
593.876	16489.27
594.235	16415.37
594.593	16494.24
594.952	16555.48
595.311	16564.52
595.67	16640.9
596.029	16734.91
596.387	16759.09
596.746	16857.62
597.104	16741.92
597.463	16847.23
597.822	16896.94
598.18	16869.15
598.538	16933.1
598.897	17057.84
599.255	16771.52
599.613	17185.75
599.972	17071.4
600.33	17172.19
600.688	17193.21
601.046	17286.99
601.404	17261.45
601.762	17350.94
602.12	17470.94
602.478	17474.78
602.836	17382.13
603.194	17449.7
603.552	17419.19
603.91	17416.7
604.268	17551.61
604.625	17536.25
604.983	17633.42
605.341	17500.77
605.698	17616.47
606.056	17739.18
606.413	17748.9
606.771	17865.05
607.128	17965.39
607.485	17856.01
607.843	17767.43
608.2	18027.53
608.557	18159.06
608.914	17947.31
609.272	18094.88
609.629	18193.18
609.986	18208.55
610.343	18044.94
610.7	18309.33
611.057	18204.03
611.414	18241.54
611.771	18261.65
612.127	18236.34
612.484	18428.65
612.841	18440.63
613.198	18397.69
613.554	18391.82
613.911	18604.02
614.267	18559.72
614.624	18573.28
614.98	18555.88
615.337	18684.01
615.693	18672.72
616.05	18698.7
616.406	18860.96
616.762	18766.72
617.118	18743.67
617.475	18777.35
617.831	18793.39
618.187	18895.31
618.543	18905.03
618.899	19063.21
619.255	18918.13
619.611	18956.78
619.967	19029.54
620.323	19067.28
620.678	18973.27
621.034	19005.36
621.39	18913.84
621.746	18980.73
622.101	19157.45
622.457	19100.95
622.812	19154.74
623.168	19071.35
623.523	19150.89
623.879	19207.39
624.234	19058.02
624.589	19134.17
624.945	19189.09
625.3	19180.27
625.655	19242.19
626.01	19302.98
626.365	19247.84
626.72	19209.65
627.075	19227.5
627.43	19298.91
627.785	19211.68
628.14	19260.27
628.495	19180.05
628.85	19211.23
629.205	19204.45
629.559	19340.95
629.914	19194.96
630.269	19251.23
630.623	19118.35
630.978	19182.31
631.332	19389.31
631.687	19230.21
632.041	19238.35
632.396	19228.18
632.75	19180.95
633.104	19147.96
633.459	19247.62
633.813	19144.57
634.167	19095.08
634.521	19091.69
634.875	19110.22
635.229	19107.51
635.583	18993.38
635.937	19030.45
636.291	18942.54
636.645	18988.64
636.999	18949.09
637.352	19058.69
637.706	18926.72
638.06	18922.88
638.413	19037.23
638.767	18903.67
639.121	18956.32
639.474	18822.54
639.828	18787.06
640.181	18867.74
640.534	18943.44
640.888	18755.88
641.241	18768.08
641.594	18787.74
641.947	18768.98
642.301	18877
642.654	18832.26
643.007	18810.34
643.36	18780.96
643.713	18753.39
644.066	18794.75
644.419	18700.06
644.771	18563.34
645.124	18455.77
645.477	18391.59
645.83	18336.45
646.182	18262.56
646.535	18166.51
646.888	18211.71
647.24	18114.99
647.593	18177.36
647.945	18192.73
648.298	18080.41
648.65	18110.92
649.002	18040.64
649.355	18139.62
649.707	18135.33
650.059	18186.4
650.411	18357.47
650.763	18445.15
651.115	18534.19
651.467	18633.17
651.819	18507.97
652.171	18490.12
652.523	18485.38
652.875	18410.12
653.227	18422.55
653.578	18543.45
653.93	18525.6
654.282	18402.89
654.633	18339.62
654.985	18391.82
655.337	18430.01
655.688	18408.32
656.039	18559.5
656.391	18381.2
656.742	18370.12
657.094	18448.99
657.445	18537.13
657.796	18357.92
658.147	18400.63
658.498	18391.82
658.849	18383.23
659.2	18357.7
659.551	18366.73
659.902	18432.5
660.253	18324.7
660.604	18339.84
660.955	18247.64
661.306	18341.65
661.656	18344.36
662.007	18300.52
662.358	18392.04
662.708	18339.16
663.059	18408.77
663.409	18236.12
663.76	18420.97
664.11	18330.58
664.461	18325.38
664.811	18423.46
665.161	18413.29
665.511	18303.91
665.862	18367.64
666.212	18514.75
666.562	18446.28
666.912	18518.14
667.262	18488.09
667.612	18441.76
667.962	18468.88
668.312	18364.7
668.662	18463.46
669.011	18413.96
669.361	18470.69
669.711	18364.93
670.06	18327.19
670.41	18364.25
670.76	18300.97
671.109	18468.43
671.459	18443.12
671.808	18436.79
672.157	18527.41
672.507	18380.07
672.856	18307.53
673.205	18408.09
673.554	18464.59
673.904	18395.89
674.253	18566.96
674.602	18517.69
674.951	18328.32
675.3	18183.69
675.649	18544.81
675.998	18361.76
676.346	18430.46
676.695	18510.23
677.044	18418.48
677.393	18444.92
677.741	18392.5
678.09	18464.59
678.438	18423.91
678.787	18513.85
679.135	18430.69
679.484	18375.55
679.832	18358.83
680.181	18308.21
680.529	18351.82
680.877	18305.72
681.225	18402.89
681.573	18376.9
681.922	18324.02
682.27	18310.01
682.618	18333.97
682.966	18318.83
683.314	18252.39
683.661	18240.64
684.009	18284.48
684.357	18122.9
684.705	18218.72
685.053	18209
685.4	18228.66
685.748	18148.44
686.095	18172.62
686.443	18123.35
686.79	18085.16
687.138	18058.49
687.485	18177.36
687.832	18011.94
688.18	18026.18
688.527	17991.38
688.874	18022.56
689.221	17912.28
689.568	17976.01
689.915	17812.85
690.262	17863.24
690.609	17840.87
690.956	17710.71
691.303	17776.69
691.65	17750.71
691.997	17783.93
692.344	17691.72
692.69	17626.42
693.037	17670.71
693.383	17653.31
693.73	17640.2
694.077	17513.42
694.423	17606.53
694.769	17501.45
695.116	17431.39
695.462	17427.55
695.808	17487.44
696.155	17400.66
696.501	17294.9
696.847	17363.82
697.193	17287.89
697.539	17299.64
697.885	17217.61
698.231	17159.99
698.577	17179.87
698.923	16996.15
699.269	17078.86
699.614	17028.46
699.96	17117.05
700.306	17018.52
700.651	16989.37
700.997	16923.61
701.342	16904.4
701.688	16929.48
702.033	16865.53
702.379	16881.58
702.724	16803.61
703.069	16795.7
703.415	16716.61
703.76	16698.98
704.105	16717.74
704.45	16668.47
704.795	16586.22
705.14	16558.19
705.485	16546.9
705.83	16512.77
706.175	16495.15
706.52	16548.93
706.865	16492.21
707.209	16351.87
707.554	16383.28
707.899	16376.96
708.243	16388.71
708.588	16380.8
708.932	16221.03
709.277	16316.84
709.621	16283.4
709.966	16157.75
710.31	16146.91
710.654	16077.3
710.998	16153.91
711.342	16143.74
711.687	16099.45
712.031	16086.34
712.375	16062.39
712.719	16069.85
713.063	16046.8
713.407	15977.87
713.75	15918.21
714.094	15945.33
714.438	15916.86
714.782	15926.12
715.125	15937.65
715.469	15861.04
715.812	15872.11
716.156	15731.1
716.499	15772
716.843	15873.24
717.186	15699.46
717.53	15781.49
717.873	15827.59
718.216	15723.19
718.559	15743.75
718.902	15597.99
719.246	15583.98
719.589	15599.12
719.932	15521.61
720.275	15517.77
720.617	15606.81
720.96	15558.67
721.303	15604.55
721.646	15601.84
721.989	15448.85
722.331	15518.22
722.674	15448.39
723.016	15489.3
723.359	15430.54
723.701	15503.08
724.044	15492.23
724.386	15347.83
724.729	15401.84
725.071	15424.44
725.413	15363.88
725.755	15355.97
726.097	15310.32
726.439	15327.27
726.782	15302.86
727.124	15353.03
727.465	15329.53
727.807	15179.7
728.149	15240.04
728.491	15189.42
728.833	15301.96
729.175	15262.64
729.516	15198
729.858	15234.16
730.199	15256.08
730.541	15172.92
730.882	15207.04
731.224	15208.4
731.565	15094.73
731.906	15071.91
732.248	15189.87
732.589	15013.15
732.93	15078.46
733.271	14984
733.612	15019.25
733.953	15041.62
734.294	14984.9
734.635	14950.1
734.976	15021.29
735.317	14899.93
735.658	14934.06
735.999	14919.59
736.339	14947.39
736.68	14944
737.021	14821.52
737.361	14860.84
737.702	14877.33
738.042	14861.52
738.383	14788.98
738.723	14919.82
739.063	14800.27
739.404	14824.68
739.744	14795.76
740.084	14707.4
740.424	14784.23
740.764	14646.83
741.104	14794.17
741.444	14692.93
741.784	14586.49
742.124	14663.33
742.464	14643.44
742.804	14563.44
743.143	14617.45
743.483	14545.37
743.823	14558.02
744.162	14515.99
744.502	14483.45
744.841	14455.65
745.181	14448.42
745.52	14454.3
745.86	14451.81
746.199	14377.23
746.538	14377.91
746.877	14431.47
747.216	14370.23
747.556	14352.15
747.895	14383.34
748.234	14269.44
748.573	14227.18
748.911	14253.4
749.25	14198.93
749.589	14118.03
749.928	14281.64
750.267	14203.68
750.605	14178.14
750.944	14187.86
751.283	14128.2
751.621	14125.72
751.96	14080.75
752.298	13996.91
752.636	14057.02
752.975	13934.99
753.313	13834.2
753.651	13927.76
753.989	13788.78
754.327	13805.5
754.666	13796.23
755.004	13777.02
755.342	13806.63
755.679	13723.24
756.017	13681.43
756.355	13727.99
756.693	13619.29
757.031	13640.31
757.368	13603.24
757.706	13521.44
758.044	13542
758.381	13550.82
758.719	13443.02
759.056	13464.26
759.394	13363.48
759.731	13369.58
760.068	13209.36
