Data from brown_tile_FLMS001491_059.txt Node
Date: Tue Feb 07 10:37:43 GMT 2017
User: dcchb
Spectrometer: FLMS00149
Trigger mode: 0
Integration Time (sec): 2.000000E-2
Scans to average: 10
Electric dark correction enabled: true
Nonlinearity correction enabled: false
Boxcar width: 0
XAxis mode: Wavelengths
Number of Pixels in Spectrum: 2048
>>>>>Begin Spectral Data<<<<<
341.393	-7.87
341.776	-7.87
342.16	-7.87
342.543	-40.63
342.927	-46.06
343.31	-63.68
343.693	-51.71
344.077	-82.67
344.46	-53.06
344.843	-59.84
345.226	-38.15
345.61	-21.88
345.993	-37.02
346.376	-7.64
346.759	26.03
347.142	23.54
347.525	28.74
347.908	59.25
348.291	88.63
348.674	77.1
349.057	112.36
349.44	133.6
349.823	171.56
350.206	158
350.588	178.57
350.971	191.22
351.354	193.48
351.737	231.67
352.119	233.26
352.502	264.67
352.884	262.18
353.267	272.8
353.65	276.65
354.032	267.83
354.414	309.19
354.797	298.34
355.179	292.69
355.562	298.11
355.944	298.79
356.326	312.35
356.709	324.78
357.091	308.06
357.473	334.5
357.855	322.75
358.238	318.45
358.62	348.28
359.002	307.38
359.384	317.77
359.766	335.4
360.148	326.36
360.53	334.72
360.912	326.36
361.294	340.82
361.676	304.22
362.057	320.03
362.439	331.33
362.821	304.67
363.203	310.32
363.584	324.78
363.966	315.06
364.348	304.89
364.729	310.54
365.111	320.26
365.493	287.94
365.874	306.25
366.256	310.99
366.637	310.32
367.019	305.57
367.4	303.54
367.781	295.63
368.163	307.38
368.544	298.11
368.925	310.09
369.306	294.05
369.688	308.06
370.069	287.04
370.45	290.43
370.831	298.57
371.212	304.44
371.593	299.7
371.974	301.96
372.355	288.17
372.736	301.28
373.117	299.24
373.498	273.48
373.879	299.24
374.26	302.41
374.641	304.22
375.021	305.57
375.402	327.72
375.783	302.41
376.163	299.7
376.544	329.3
376.925	318.9
377.305	322.52
377.686	322.29
378.066	308.06
378.447	306.7
378.827	337.43
379.208	327.94
379.588	330.43
379.968	320.94
380.349	311.9
380.729	337.89
381.109	304.22
381.489	308.51
381.87	334.04
382.25	308.28
382.63	350.54
383.01	334.27
383.39	318
383.77	328.4
384.15	329.3
384.53	338.79
384.91	348.51
385.29	339.92
385.67	332.69
386.049	329.07
386.429	336.08
386.809	348.73
387.189	346.25
387.568	342.86
387.948	334.95
388.328	331.33
388.707	347.15
389.087	336.3
389.466	331.56
389.846	360.26
390.225	352.58
390.605	347.83
390.984	351.45
391.363	342.63
391.743	345.34
392.122	346.02
392.501	354.61
392.881	347.83
393.26	345.8
393.639	359.81
394.018	343.08
394.397	345.57
394.776	371.11
395.155	355.74
395.534	364.55
395.913	369.52
396.292	372.91
396.671	371.78
397.05	352.58
397.429	360.48
397.808	363.87
398.186	379.02
398.565	373.59
398.944	355.51
399.323	372.01
399.701	360.94
400.08	344.44
400.458	363.65
400.837	380.6
401.215	387.83
401.594	382.86
401.972	394.16
402.351	390.99
402.729	360.26
403.107	361.39
403.486	383.54
403.864	389.41
404.242	410.43
404.62	402.07
404.999	409.75
405.377	387.83
405.755	370.2
406.133	407.72
406.511	405
406.889	412.46
407.267	421.73
407.645	405.46
408.023	425.12
408.401	411.33
408.779	396.87
409.156	418.11
409.534	406.13
409.912	417.21
410.29	421.5
410.667	425.57
411.045	415.62
411.422	421.73
411.8	433.03
412.178	428.96
412.555	440.26
412.933	433.25
413.31	434.16
413.687	443.19
414.065	453.36
414.442	457.43
414.819	453.14
415.197	463.31
415.574	447.26
415.951	447.26
416.328	442.29
416.705	445
417.082	445.91
417.46	461.5
417.837	475.51
418.214	458.11
418.591	479.58
418.967	473.48
419.344	466.02
419.721	481.39
420.098	475.51
420.475	487.71
420.852	474.38
421.228	467.37
421.605	485
421.982	477.77
422.358	498.56
422.735	496.3
423.111	490.65
423.488	521.38
423.864	501.72
424.241	506.47
424.617	506.7
424.994	495.17
425.37	517.32
425.746	528.39
426.123	509.41
426.499	506.02
426.875	518.67
427.251	503.98
427.627	548.73
428.003	514.61
428.379	519.35
428.756	551.21
429.132	551.89
429.507	534.49
429.883	540.37
430.259	535.17
430.635	571.55
431.011	553.93
431.387	574.94
431.763	595.28
432.138	594.15
432.514	570.65
432.89	574.04
433.265	585.34
433.641	585.11
434.016	588.73
434.392	599.35
434.767	600.48
435.143	602.96
435.518	623.53
435.894	621.95
436.269	630.76
436.644	635.73
437.02	626.92
437.395	641.38
437.77	610.65
438.145	614.94
438.52	643.42
438.895	666.92
439.271	647.93
439.646	669.63
440.021	657.2
440.395	656.97
440.77	682.06
441.145	674.15
441.52	682.06
441.895	670.53
442.27	681.15
442.645	682.74
443.019	678.22
443.394	673.92
443.769	708.72
444.143	679.8
444.518	698.33
444.892	713.02
445.267	706.69
445.641	686.58
446.016	718.22
446.39	703.75
446.764	758.44
447.139	734.94
447.513	698.56
447.887	709.85
448.262	739.46
448.636	741.49
449.01	735.84
449.384	761.15
449.758	737.65
450.132	771.55
450.506	732.68
450.88	755.73
451.254	752.34
451.628	768.61
452.002	751.21
452.376	779.23
452.75	800.25
453.123	785.11
453.497	787.37
453.871	786.24
454.244	817.2
454.618	816.29
454.992	805.22
455.365	802.06
455.739	823.52
456.112	834.82
456.486	841.83
456.859	869.4
457.232	866.01
457.606	877.99
457.979	857.42
458.352	865.33
458.725	888.83
459.099	904.2
459.472	902.17
459.845	910.3
460.218	919.57
460.591	930.64
460.964	934.48
461.337	955.72
461.71	961.6
462.083	954.37
462.456	940.81
462.829	986.91
463.201	995.04
463.574	1008.83
463.947	995.04
464.32	1014.25
464.692	1036.63
465.065	1009.28
465.438	1057.42
465.81	1044.31
466.183	1054.03
466.555	1076.17
466.928	1097.64
467.3	1058.09
467.672	1087.47
468.045	1106.91
468.417	1127.92
468.789	1124.31
469.161	1165.21
469.534	1139.67
469.906	1162.5
470.278	1160.92
470.65	1215.15
471.022	1204.3
471.394	1229.61
471.766	1215.83
472.138	1238.65
472.51	1250.63
472.882	1281.82
473.253	1291.31
473.625	1319.33
473.997	1321.82
474.369	1329.5
474.74	1341.93
475.112	1389.16
475.484	1367.92
475.855	1387.35
476.227	1405.66
476.598	1402.94
476.97	1432.32
477.341	1462.38
477.713	1482.72
478.084	1509.16
478.455	1527.69
478.827	1508.03
479.198	1558.87
479.569	1566.78
479.94	1624.86
480.311	1622.37
480.682	1662.82
481.053	1697.4
481.424	1723.84
481.795	1726.32
482.166	1773.56
482.537	1771.3
482.908	1791.86
483.279	1807.68
483.65	1843.38
484.021	1833.21
484.391	1868.02
484.762	1921.35
485.133	1921.35
485.503	1948.47
485.874	1928.13
486.244	2002.02
486.615	2022.59
486.985	2020.1
487.356	2092.87
487.726	2101.23
488.097	2140.55
488.467	2130.61
488.837	2166.31
489.207	2215.13
489.578	2222.36
489.948	2214.67
490.318	2247.21
490.688	2284.95
491.058	2326.08
491.428	2347.1
491.798	2337.61
492.168	2391.39
492.538	2452.41
492.908	2477.27
493.278	2445.85
493.648	2494.67
494.017	2519.52
494.387	2520.2
494.757	2548
495.126	2545.51
495.496	2571.05
495.866	2591.39
496.235	2639.97
496.605	2649.01
496.974	2644.27
497.344	2679.07
497.713	2683.14
498.082	2709.8
498.452	2749.12
498.821	2749.35
499.19	2759.29
499.559	2841.32
499.928	2816.69
500.298	2808.1
500.667	2895.56
501.036	2867.99
501.405	2892.17
501.774	2914.77
502.143	2953.19
502.512	2991.6
502.88	2973.75
503.249	2989.34
503.618	2973.98
503.987	2985.95
504.356	3025.73
504.724	3058.94
505.093	3057.36
505.462	3105.5
505.83	3106.85
506.199	3121.99
506.567	3190.24
506.936	3173.74
507.304	3205.38
507.672	3213.74
508.041	3234.08
508.409	3236.34
508.777	3276.57
509.145	3289.9
509.514	3290.13
509.882	3307.07
510.25	3364.02
510.618	3333.97
510.986	3404.7
511.354	3417.58
511.722	3443.79
512.09	3527.41
512.458	3492.83
512.826	3506.62
513.193	3537.8
513.561	3575.99
513.929	3611.92
514.297	3647.18
514.664	3628.87
515.032	3656.67
515.4	3700.28
515.767	3714.52
516.135	3746.38
516.502	3721.53
516.869	3789.1
517.237	3803.33
517.604	3812.6
517.972	3887.4
518.339	3863.67
518.706	3877.23
519.073	3945.93
519.44	3952.93
519.808	3995.64
520.175	4014.4
520.542	4070.44
520.909	4077
521.276	4062.53
521.643	4149.76
522.009	4168.75
522.376	4223.89
522.743	4222.08
523.11	4326.93
523.477	4309.99
523.843	4291
524.21	4395.41
524.577	4422.75
524.943	4497.78
525.31	4451.22
525.676	4480.38
526.043	4502.97
526.409	4560.83
526.776	4596.76
527.142	4598.34
527.508	4606.47
527.874	4723.76
528.241	4782.74
528.607	4737.32
528.973	4781.16
529.339	4795.85
529.705	4854.6
530.071	4870.65
530.437	4894.6
530.803	4966.47
531.169	5001.72
531.535	4989.74
531.901	4966.24
532.267	5059.34
532.632	5051.21
532.998	5113.58
533.364	5143.41
533.73	5151.09
534.095	5203.97
534.461	5248.27
534.826	5252.33
535.192	5314.48
535.557	5342.05
535.923	5345.21
536.288	5331.65
536.653	5413.23
537.019	5431.99
537.384	5441.93
537.749	5506.34
538.114	5501.14
538.479	5526.22
538.845	5584.08
539.21	5528.71
539.575	5622.49
539.94	5597.18
540.305	5704.75
540.67	5661.59
541.034	5762.83
541.399	5765.99
541.764	5792.21
542.129	5857.29
542.494	5866.33
542.858	5908.36
543.223	5900.45
543.587	5975.03
543.952	6044.63
544.316	6001.47
544.681	6013.9
545.045	6119.43
545.41	6132.54
545.774	6126.66
546.138	6141.58
546.503	6200.11
546.867	6241.01
547.231	6311.97
547.595	6333.21
547.959	6387.45
548.324	6382.7
548.688	6404.39
549.052	6478.97
549.416	6488.46
549.779	6459.76
550.143	6583.15
550.507	6611.62
550.871	6635.57
551.235	6705.85
551.599	6694.1
551.962	6792.18
552.326	6873.53
552.689	6928.9
553.053	6883.93
553.417	6941.1
553.78	7057.94
554.143	7032.4
554.507	7106.75
554.87	7120.53
555.234	7280.08
555.597	7183.13
555.96	7341.54
556.323	7392.84
556.686	7366.63
557.05	7524.36
557.413	7613.63
557.776	7653.63
558.139	7733.17
558.502	7685.26
558.865	7785.37
559.228	7856.11
559.59	7956.44
559.953	7951.47
560.316	8038.02
560.679	8102.88
561.041	8206.61
561.404	8222.2
561.767	8310.33
562.129	8369.09
562.492	8459.48
562.854	8544.45
563.217	8588.52
563.579	8657.22
563.941	8739.47
564.304	8804.78
564.666	8897.66
565.028	9003.65
565.39	8996.42
565.753	9130.88
566.115	9224.88
566.477	9241.83
566.839	9397.76
567.201	9402.96
567.563	9541.71
567.925	9641.82
568.287	9686.57
568.648	9703.06
569.01	9856.51
569.372	9919.78
569.734	10000.46
570.095	10128.14
570.457	10183.5
570.819	10227.34
571.18	10287.68
571.542	10470.28
571.903	10399.77
572.265	10477.96
572.626	10628.69
572.987	10642.93
573.349	10741.23
573.71	10864.16
574.071	10864.84
574.432	11035.01
574.794	11093.54
575.155	11140.77
575.516	11209.69
575.877	11241.1
576.238	11356.58
576.599	11340.08
576.96	11486.52
577.32	11562
577.681	11702.11
578.042	11745.5
578.403	11748.43
578.763	11810.13
579.124	11887.41
579.485	11955.43
579.845	12099.61
580.206	12115.66
580.566	12172.38
580.927	12244.47
581.287	12366.27
581.648	12373.73
582.008	12375.54
582.368	12445.14
582.728	12481.52
583.089	12578.24
583.449	12631.57
583.809	12632.48
584.169	12775.75
584.529	12676.77
584.889	12888.97
585.249	12791.57
585.609	12854.62
585.969	13087.38
586.329	13003.09
586.688	13035.41
587.048	13116.31
587.408	13087.38
587.768	13149.53
588.127	13126.7
588.487	13191.79
588.846	13361.05
589.206	13242.18
589.565	13307.72
589.925	13420.03
590.284	13456.41
590.643	13481.27
591.003	13577.09
591.362	13619.57
591.721	13617.99
592.08	13640.59
592.44	13700.7
592.799	13727.59
593.158	13703.86
593.517	13837.42
593.876	13880.58
594.235	13890.98
594.593	13964.19
594.952	13968.71
595.311	13990.63
595.67	13963.07
596.029	14180.69
596.387	14174.36
596.746	14179.33
597.104	14205.32
597.463	14190.86
597.822	14303.85
598.18	14297.29
598.538	14222.72
598.897	14349.5
599.255	14294.13
599.613	14553.78
599.972	14460.68
600.33	14455.71
600.688	14476.5
601.046	14586.1
601.404	14570.96
601.762	14593.1
602.12	14751.52
602.478	14786.09
602.836	14765.53
603.194	14753.1
603.552	14796.04
603.91	14728.92
604.268	14832.65
604.625	14911.74
604.983	14912.19
605.341	14852.53
605.698	15010.72
606.056	15045.07
606.413	15016.6
606.771	15096.82
607.128	15196.7
607.485	15067.67
607.843	15137.05
608.2	15088.46
608.557	15294.78
608.914	15230.83
609.272	15280.32
609.629	15355.8
609.986	15423.14
610.343	15263.6
610.7	15535.45
611.057	15376.81
611.414	15533.42
611.771	15468.34
612.127	15526.19
612.484	15565.51
612.841	15639.86
613.198	15618.39
613.554	15649.57
613.911	15720.98
614.267	15646.86
614.624	15812.06
614.98	15773.64
615.337	15813.19
615.693	15898.16
616.05	15861.32
616.406	15970.7
616.762	15992.39
617.118	15856.8
617.475	15904.93
617.831	15978.83
618.187	15951.49
618.543	15979.74
618.899	16094.99
619.255	16009.34
619.611	16141.99
619.967	16067.87
620.323	16131.37
620.678	16123.01
621.034	16071.71
621.39	16115.1
621.746	16080.52
622.101	16289.11
622.457	16181.76
622.812	16239.16
623.168	16229.45
623.523	16261.31
623.879	16304.47
624.234	16194.42
624.589	16312.38
624.945	16325.26
625.3	16357.13
625.655	16254.76
626.01	16265.83
626.365	16376.11
626.72	16305.38
627.075	16337.01
627.43	16357.35
627.785	16371.36
628.14	16308.99
628.495	16326.17
628.85	16447.97
629.205	16265.6
629.559	16313.51
629.914	16241.65
630.269	16311.93
630.623	16214.98
630.978	16246.62
631.332	16332.04
631.687	16349.44
632.041	16284.36
632.396	16328.88
632.75	16220.86
633.104	16233.97
633.459	16220.63
633.813	16168.2
634.167	16106.06
634.521	16167.07
634.875	16236.9
635.229	16233.29
635.583	16151.26
635.937	16098.83
636.291	16076.68
636.645	16165.04
636.999	16101.09
637.352	16119.17
637.706	15985.61
638.06	16086.4
638.413	16112.39
638.767	15959.62
639.121	16043.91
639.474	16029.9
639.828	15992.84
640.181	15974.54
640.534	15957.59
640.888	16005.95
641.241	15861.77
641.594	15936.8
641.947	16122.33
642.301	15923.24
642.654	15928.89
643.007	15962.11
643.36	15889.57
643.713	15915.56
644.066	15965.27
644.419	15812.96
644.771	15697.48
645.124	15582.23
645.477	15581.33
645.83	15530.03
646.182	15466.08
646.535	15376.81
646.888	15449.81
647.24	15374.1
647.593	15375.46
647.945	15326.19
648.298	15270.83
648.65	15260.43
649.002	15199.64
649.355	15380.2
649.707	15159.42
650.059	15348.57
650.411	15577.03
650.763	15553.08
651.115	15780.87
651.467	15673.3
651.819	15716.92
652.171	15758.72
652.523	15646.18
652.875	15640.31
653.227	15551.27
653.578	15665.62
653.93	15662.23
654.282	15581.1
654.633	15582.46
654.985	15552.63
655.337	15601.21
655.688	15635.34
656.039	15637.15
656.391	15557.15
656.742	15570.48
657.094	15530.26
657.445	15667.88
657.796	15559.86
658.147	15604.6
658.498	15555.11
658.849	15542.68
659.2	15611.16
659.551	15557.15
659.902	15605.73
660.253	15521.22
660.604	15618.61
660.955	15557.37
661.306	15631.5
661.656	15616.81
662.007	15642.34
662.358	15646.41
662.708	15643.92
663.059	15613.64
663.409	15484.16
663.76	15612.97
664.11	15563.47
664.461	15700.42
664.811	15655.68
665.161	15668.56
665.511	15603.7
665.862	15614.1
666.212	15709.91
666.562	15717.82
666.912	15642.12
667.262	15581.55
667.612	15763.24
667.962	15660.87
668.312	15720.53
668.662	15795.11
669.011	15769.8
669.361	15710.14
669.711	15633.76
670.06	15692.96
670.41	15616.58
670.76	15629.01
671.109	15685.28
671.459	15618.61
671.808	15589.01
672.157	15739.29
672.507	15625.85
672.856	15720.76
673.205	15629.24
673.554	15746.75
673.904	15603.25
674.253	15766.41
674.602	15740.42
674.951	15415
675.3	15397.6
675.649	15705.84
675.998	15642.57
676.346	15666.52
676.695	15636.92
677.044	15698.39
677.393	15663.13
677.741	15749.01
678.09	15774.77
678.438	15691.38
678.787	15629.24
679.135	15662.91
679.484	15629.91
679.832	15671.49
680.181	15592.63
680.529	15704.94
680.877	15582.01
681.225	15600.08
681.573	15669.91
681.922	15639.41
682.27	15573.19
682.618	15511.05
682.966	15601.21
683.314	15648.9
683.661	15532.29
684.009	15456.59
684.357	15474.89
684.705	15522.8
685.053	15415.23
685.4	15453.42
685.748	15394.67
686.095	15478.05
686.443	15444.38
686.79	15426.08
687.138	15466.53
687.485	15519.18
687.832	15388.56
688.18	15383.37
688.527	15316.93
688.874	15369.13
689.221	15351.96
689.568	15264.05
689.915	15343.37
690.262	15270.15
690.609	15213.65
690.956	15197.83
691.303	15269.92
691.65	15151.51
691.997	15128.01
692.344	15043.04
692.69	15090.27
693.037	14970.04
693.383	14934.79
693.73	15039.87
694.077	14936.37
694.423	14984.96
694.769	14892.31
695.116	14895.47
695.462	14865.87
695.808	14823.38
696.155	14834
696.501	14737.96
696.847	14736.83
697.193	14751.97
697.539	14771.41
697.885	14657.06
698.231	14641.47
698.577	14604.63
698.923	14692.54
699.269	14581.81
699.614	14486.44
699.96	14487.12
700.306	14411.87
700.651	14433.56
700.997	14412.77
701.342	14415.93
701.688	14344.98
702.033	14358.31
702.379	14357.18
702.724	14382.94
703.069	14365.31
703.415	14206.67
703.76	14334.35
704.105	14290.97
704.45	14208.48
704.795	14119.45
705.14	14147.69
705.485	14054.36
705.83	14116.28
706.175	14168.03
706.52	14074.25
706.865	14078.99
707.209	14083.29
707.554	13985.66
707.899	14093.46
708.243	14055.04
708.588	14008.71
708.932	13924.42
709.277	13949.28
709.621	13887.59
709.966	13882.39
710.31	13837.19
710.654	13749.74
710.998	13842.62
711.342	13831.54
711.687	13876.74
712.031	13795.61
712.375	13652.11
712.719	13835.38
713.063	13663.64
713.407	13701.6
713.75	13690.3
714.094	13692.11
714.438	13640.36
714.782	13702.73
715.125	13514.49
715.469	13608.5
715.812	13513.36
716.156	13475.17
716.499	13525.79
716.843	13518.11
717.186	13504.09
717.53	13480.59
717.873	13545.67
718.216	13462.97
718.559	13439.01
718.902	13438.33
719.246	13478.33
719.589	13391.1
719.932	13335.06
720.275	13344.78
720.617	13382.52
720.96	13383.65
721.303	13357.21
721.646	13346.81
721.989	13252.58
722.331	13391.78
722.674	13298.9
723.016	13267.94
723.359	13344.1
723.701	13275.4
724.044	13209.41
724.386	13121.96
724.729	13179.13
725.071	13262.74
725.413	13238.79
725.755	13111.34
726.097	13103.2
726.439	13093.94
726.782	13137.1
727.124	13182.29
727.465	13117.89
727.807	13100.71
728.149	13060.26
728.491	13070.89
728.833	13070.89
729.175	13019.59
729.516	12991.57
729.858	12980.49
730.199	13020.04
730.541	12935.07
730.882	12970.55
731.224	13032.24
731.565	12950.21
731.906	12955.18
732.248	12961.74
732.589	12855.07
732.93	12857.56
733.271	12861.85
733.612	12881.29
733.953	12828.18
734.294	12881.74
734.635	12875.86
734.976	12867.27
735.317	12808.29
735.658	12785.47
735.999	12669.77
736.339	12801.29
736.68	12784.56
737.021	12719.26
737.361	12649.88
737.702	12685.58
738.042	12691.91
738.383	12713.15
738.723	12658.92
739.063	12619.82
739.404	12705.47
739.744	12662.99
740.084	12632.93
740.424	12660.73
740.764	12550.45
741.104	12562.2
741.444	12533.72
741.784	12503.44
742.124	12540.96
742.464	12534.4
742.804	12537.57
743.143	12446.04
743.483	12530.11
743.823	12435.87
744.162	12441.98
744.502	12408.76
744.841	12344.35
745.181	12372.37
745.52	12384.35
745.86	12392.71
746.199	12337.57
746.538	12314.29
746.877	12360.62
747.216	12294.63
747.556	12258.03
747.895	12273.39
748.234	12148.2
748.573	12228.87
748.911	12212.83
749.25	12168.99
749.589	12101.19
749.928	12065.71
750.267	12133.51
750.605	12112.04
750.944	12094.19
751.283	12054.19
751.621	12010.8
751.96	11996.56
752.298	12001.53
752.636	11988.65
752.975	11928.99
753.313	11891.03
753.651	11871.14
753.989	11899.16
754.327	11831.82
754.666	11776.23
755.004	11751.15
755.342	11766.74
755.679	11766.74
756.017	11668.44
756.355	11725.16
756.693	11686.74
757.031	11628.21
757.368	11590.7
757.706	11548.21
758.044	11544.82
758.381	11519.97
758.719	11427.09
759.056	11483.36
759.394	11406.97
759.731	11356.13
760.068	11301.67
760.405	11342.57
