Data from brown_tile_FLMS001491_013.txt Node
Date: Tue Feb 07 10:37:08 GMT 2017
User: dcchb
Spectrometer: FLMS00149
Trigger mode: 0
Integration Time (sec): 2.000000E-2
Scans to average: 10
Electric dark correction enabled: true
Nonlinearity correction enabled: false
Boxcar width: 0
XAxis mode: Wavelengths
Number of Pixels in Spectrum: 2048
>>>>>Begin Spectral Data<<<<<
341.393	-26.69
341.776	-26.69
342.16	-26.69
342.543	-58.11
342.927	-77.31
343.31	-82.74
343.693	-85.9
344.077	-49.52
344.46	-70.76
344.843	-53.81
345.226	-26.02
345.61	-17.65
345.993	-23.08
346.376	-23.98
346.759	5.62
347.142	29.12
347.525	50.37
347.908	64.15
348.291	76.81
348.674	89.01
349.057	118.39
349.44	110.93
349.823	141.21
350.206	150.48
350.588	162.45
350.971	193.19
351.354	210.81
351.737	225.05
352.119	233.86
352.502	256.46
352.884	245.62
353.267	251.26
353.65	278.38
354.032	293.07
354.414	297.82
354.797	302.56
355.179	312.51
355.562	307.53
355.944	308.89
356.326	306.63
356.709	303.47
357.091	312.51
357.473	328.55
357.855	312.96
358.238	296.69
358.62	332.62
359.002	335.33
359.384	296.91
359.766	312.05
360.148	335.1
360.53	317.25
360.912	320.87
361.294	307.53
361.676	309.79
362.057	304.82
362.439	295.56
362.821	307.31
363.203	317.48
363.584	307.76
363.966	308.89
364.348	307.76
364.729	291.49
365.111	290.13
365.493	305.5
365.874	302.11
366.256	299.62
366.637	305.5
367.019	296.46
367.4	323.81
367.781	306.18
368.163	269.12
368.544	314.31
368.925	304.6
369.306	290.36
369.688	298.72
370.069	303.92
370.45	302.56
370.831	295.78
371.212	317.03
371.593	275.67
371.974	296.91
372.355	281.77
372.736	306.18
373.117	305.95
373.498	306.18
373.879	305.95
374.26	295.33
374.641	312.73
375.021	290.59
375.402	283.58
375.783	311.15
376.163	309.79
376.544	317.03
376.925	329.45
377.305	320.19
377.686	309.57
378.066	307.53
378.447	306.63
378.827	326.29
379.208	309.79
379.588	290.59
379.968	290.36
380.349	319.29
380.729	326.29
381.109	298.95
381.489	321.77
381.87	330.36
382.25	305.73
382.63	334.2
383.01	336.01
383.39	341.66
383.77	351.6
384.15	324.71
384.53	340.08
384.91	335.78
385.29	309.79
385.67	349.34
386.049	349.12
386.429	339.62
386.809	328.1
387.189	334.43
387.568	327.65
387.948	355.89
388.328	341.88
388.707	343.01
389.087	328.1
389.466	345.27
389.846	343.69
390.225	355.67
390.605	360.64
390.984	338.27
391.363	352.73
391.743	357.7
392.122	357.25
392.501	370.13
392.881	367.65
393.26	363.35
393.639	368.78
394.018	365.39
394.397	359.51
394.776	352.5
395.155	367.87
395.534	386.63
395.913	372.17
396.292	411.03
396.671	388.44
397.05	383.24
397.429	380.3
397.808	394.76
398.186	377.14
398.565	390.47
398.944	391.83
399.323	402.67
399.701	381.2
400.08	387.08
400.458	390.92
400.837	392.05
401.215	390.02
401.594	397.48
401.972	403.12
402.351	404.03
402.729	400.64
403.107	395.89
403.486	411.03
403.864	399.06
404.242	383.46
404.62	413.29
404.999	429.34
405.377	410.58
405.755	422.11
406.133	415.78
406.511	422.33
406.889	416.01
407.267	428.66
407.645	414.65
408.023	431.37
408.401	431.37
408.779	445.61
409.156	452.84
409.534	453.97
409.912	441.77
410.29	430.02
410.667	441.09
411.045	469.11
411.422	465.5
411.8	453.52
412.178	448.1
412.555	456.68
412.933	477.25
413.31	456.91
413.687	456.46
414.065	474.31
414.442	477.7
414.819	478.6
415.197	455.78
415.574	471.6
415.951	489.45
416.328	474.99
416.705	502.11
417.082	499.62
417.46	496.46
417.837	511.14
418.214	485.61
418.591	529
418.967	492.84
419.344	505.04
419.721	505.5
420.098	497.36
420.475	517.7
420.852	512.73
421.228	517.7
421.605	537.13
421.982	525.83
422.358	530.81
422.735	545.04
423.111	533.74
423.488	549.56
423.864	556.57
424.241	568.09
424.617	555.66
424.994	534.42
425.37	568.32
425.746	567.41
426.123	568.09
426.499	568.09
426.875	565.38
427.251	572.84
427.627	592.5
428.003	597.02
428.379	564.02
428.756	609.22
429.132	579.84
429.507	611.93
429.883	641.76
430.259	616.45
430.635	616
431.011	614.42
431.387	633.4
431.763	656
432.138	627.07
432.514	648.09
432.89	648.77
433.265	664.36
433.641	644.25
434.016	662.55
434.392	664.59
434.767	693.51
435.143	667.75
435.518	686.73
435.894	689.22
436.269	693.74
436.644	711.59
437.02	732.61
437.395	715.43
437.77	706.85
438.145	714.53
438.52	719.05
438.895	752.04
439.271	736
439.646	723.79
440.021	726.96
440.395	728.99
440.77	748.65
441.145	746.62
441.52	760.86
441.895	772.61
442.27	770.8
442.645	777.58
443.019	765.15
443.394	794.3
443.769	768.77
444.143	760.4
444.518	778.93
444.892	794.98
445.267	801.31
445.641	807.63
446.016	811.02
446.39	806.73
446.764	804.47
447.139	814.87
447.513	825.94
447.887	848.09
448.262	830.01
448.636	820.52
449.01	837.01
449.384	822.32
449.758	833.17
450.132	870.46
450.506	855.77
450.88	840.63
451.254	843.11
451.628	874.98
452.002	873.85
452.376	882.89
452.75	896.67
453.123	907.52
453.497	912.26
453.871	906.84
454.244	932.15
454.618	903
454.992	943.22
455.365	937.57
455.739	977.35
456.112	971.02
456.486	968.76
456.859	1012.83
457.232	1013.5
457.606	1021.41
457.979	1019.61
458.352	1039.04
458.725	1032.26
459.099	1021.64
459.472	1053.28
459.845	1039.72
460.218	1070.45
460.591	1086.95
460.964	1107.74
461.337	1119.72
461.71	1120.39
462.083	1121.07
462.456	1137.34
462.829	1117.91
463.201	1164.46
463.574	1158.81
463.947	1143.22
464.32	1192.48
464.692	1185.93
465.065	1219.6
465.438	1204.01
465.81	1231.35
466.183	1236.1
466.555	1260.28
466.928	1257.79
467.3	1256.66
467.672	1314.06
468.045	1314.51
468.417	1275.42
468.789	1334.4
469.161	1354.74
469.534	1347.28
469.906	1359.48
470.278	1390.9
470.65	1344.12
471.022	1405.81
471.394	1452.59
471.766	1434.28
472.138	1485.58
472.51	1494.62
472.882	1493.72
473.253	1520.38
473.625	1535.07
473.997	1564
474.369	1552.25
474.74	1591.12
475.112	1617.33
475.484	1648.97
475.855	1664.11
476.227	1687.39
476.598	1710.44
476.97	1705.69
477.341	1722.86
477.713	1765.8
478.084	1805.8
478.455	1829.53
478.827	1839.02
479.198	1899.36
479.569	1878.11
479.94	1939.13
480.311	1950.43
480.682	1970.54
481.053	2019.13
481.424	2053.7
481.795	2054.83
482.166	2104.1
482.537	2122.63
482.908	2177.54
483.279	2192
483.65	2223.64
484.021	2236.98
484.391	2266.58
484.762	2333.92
485.133	2305.45
485.503	2350.87
485.874	2379.34
486.244	2403.75
486.615	2467.25
486.985	2479
487.356	2542.28
487.726	2534.82
488.097	2566.91
488.467	2590.64
488.837	2623.86
489.207	2664.76
489.578	2659.56
489.948	2739.11
490.318	2766
490.688	2772.55
491.058	2816.85
491.428	2843.96
491.798	2866.56
492.168	2880.12
492.538	2935.49
492.908	2976.16
493.278	2981.36
493.648	3022.04
494.017	3048.71
494.387	3079.89
494.757	3112.43
495.126	3109.27
495.496	3149.04
495.866	3184.75
496.235	3186.55
496.605	3239.66
496.974	3209.83
497.344	3263.84
497.713	3258.42
498.082	3323.27
498.452	3333.67
498.821	3354.46
499.19	3348.58
499.559	3401.69
499.928	3450.28
500.298	3432.65
500.667	3504.74
501.036	3459.09
501.405	3560.56
501.774	3524.17
502.143	3559.88
502.512	3615.24
502.88	3641.46
503.249	3628.35
503.618	3681.68
503.987	3648.24
504.356	3710.61
504.724	3757.84
505.093	3759.65
505.462	3754.9
505.83	3761.91
506.199	3815.92
506.567	3865.86
506.936	3897.04
507.304	3901.79
507.672	3907.44
508.041	3981.34
508.409	3943.82
508.777	3980.88
509.145	3987.89
509.514	4041.45
509.882	4059.07
510.25	4126.87
510.618	4149.02
510.986	4152.86
511.354	4203.93
511.722	4194.21
512.09	4223.59
512.458	4266.53
512.826	4297.03
513.193	4353.08
513.561	4329.35
513.929	4370.48
514.297	4390.14
514.664	4470.14
515.032	4449.12
515.4	4474.88
515.767	4512.4
516.135	4589.91
516.502	4558.04
516.869	4640.98
517.237	4640.08
517.604	4649.79
517.972	4687.31
518.339	4720.98
518.706	4753.75
519.073	4759.85
519.44	4852.95
519.808	4869
520.175	4899.05
520.542	4966.39
520.909	4973.17
521.276	4986.28
521.643	5059.27
522.009	5068.09
522.376	5145.15
522.743	5157.58
523.11	5222.43
523.477	5311.24
523.843	5289.55
524.21	5412.03
524.577	5398.25
524.943	5462.65
525.31	5475.53
525.676	5513.5
526.043	5516.89
526.409	5612.48
526.776	5655.87
527.142	5627.17
527.508	5726.37
527.874	5776.09
528.241	5786.49
528.607	5825.81
528.973	5882.98
529.339	5903.55
529.705	5934.96
530.071	6008.4
530.437	6034.84
530.803	6094.5
531.169	6145.12
531.535	6112.58
531.901	6156.65
532.267	6225.57
532.632	6210.2
532.998	6292.24
533.364	6302.86
533.73	6340.14
534.095	6401.61
534.461	6458.56
534.826	6438.22
535.192	6515.51
535.557	6542.17
535.923	6551.66
536.288	6620.59
536.653	6662.4
537.019	6656.29
537.384	6678.67
537.749	6745.33
538.114	6789.17
538.479	6762.05
538.845	6829.62
539.21	6881.37
539.575	6924.99
539.94	6979.45
540.305	7017.19
540.67	6958.88
541.034	6971.54
541.399	7052.89
541.764	7098.77
542.129	7152.78
542.494	7175.15
542.858	7211.53
543.223	7206.56
543.587	7338.54
543.952	7362.49
544.316	7410.62
544.681	7360.23
545.045	7426.9
545.41	7535.82
545.774	7563.84
546.138	7589.83
546.503	7613.56
546.867	7662.37
547.231	7766.55
547.595	7777.62
547.959	7821.46
548.324	7848.58
548.688	7930.61
549.052	7913.21
549.416	7978.07
549.779	8019.87
550.143	8071.17
550.507	8150.49
550.871	8136.03
551.235	8248.79
551.599	8277.95
551.962	8385.29
552.326	8345.74
552.689	8417.83
553.053	8381.9
553.417	8573.76
553.78	8630.03
554.143	8611.95
554.507	8709.8
554.87	8734.66
555.234	8898.72
555.597	8794.77
555.96	8953.41
556.323	8997.93
556.686	9071.15
557.05	9142.33
557.413	9213.51
557.776	9247.86
558.139	9352.27
558.502	9369.89
558.865	9424.36
559.228	9599.27
559.59	9628.19
559.953	9714.29
560.316	9830.45
560.679	9877.9
561.041	9917.23
561.404	10072.7
561.767	10100.72
562.129	10164.68
562.492	10311.57
562.854	10379.13
563.217	10395.4
563.579	10491
563.941	10607.6
564.304	10687.37
564.666	10847.37
565.028	10892.34
565.39	10956.97
565.753	11040.59
566.115	11086.91
566.477	11183.86
566.839	11231.09
567.201	11414.59
567.563	11515.38
567.925	11576.84
568.287	11624.3
568.648	11744.97
569.01	11818.42
569.372	12056.15
569.734	11978.87
570.095	12161.23
570.457	12266.09
570.819	12299.31
571.18	12340.66
571.542	12562.81
571.903	12530.94
572.265	12699.3
572.626	12798.96
572.987	12811.39
573.349	12928.67
573.71	12992.85
574.071	13072.85
574.432	13251.15
574.794	13415.44
575.155	13378.6
575.516	13328.66
575.877	13559.39
576.238	13606.85
576.599	13635.77
576.96	13783.79
577.32	13853.84
577.681	13902.66
578.042	14050.9
578.403	14158.47
578.763	14183.1
579.124	14262.2
579.485	14341.06
579.845	14450.44
580.206	14445.02
580.566	14504.22
580.927	14712.58
581.287	14684.11
581.648	14668.96
582.008	14880.26
582.368	14841.39
582.728	14961.39
583.089	14980.59
583.449	15015.4
583.809	15053.36
584.169	15131.33
584.529	15180.36
584.889	15404.09
585.249	15274.82
585.609	15277.99
585.969	15433.69
586.329	15449.06
586.688	15550.52
587.048	15573.12
587.408	15645.21
587.768	15628.71
588.127	15716.39
588.487	15741.93
588.846	15770.4
589.206	15822.83
589.565	15804.98
589.925	16056.95
590.284	16056.05
590.643	15934.47
591.003	16143.28
591.362	16217.4
591.721	16186.89
592.08	16178.76
592.44	16304.63
592.799	16278.87
593.158	16337.85
593.517	16531.51
593.876	16424.17
594.235	16395.7
594.593	16469.14
594.952	16574.68
595.311	16572.64
595.67	16543.72
596.029	16743.03
596.387	16734.9
596.746	16834.11
597.104	16787.55
597.463	16841.34
597.822	16922.46
598.18	16867.78
598.538	16967.44
598.897	17075.23
599.255	16873.2
599.613	17125.62
599.972	17122.91
600.33	17196.81
600.688	17112.06
601.046	17278.16
601.404	17304.83
601.762	17286.07
602.12	17469.34
602.478	17377.59
602.836	17392.96
603.194	17390.93
603.552	17364.03
603.91	17419.85
604.268	17519.06
604.625	17580.75
604.983	17648.55
605.341	17561.32
605.698	17715.44
606.056	17808.09
606.413	17773.97
606.771	17878.82
607.128	17871.59
607.485	17806.96
607.843	17919.73
608.2	18008.99
608.557	17991.36
608.914	17994.3
609.272	18027.07
609.629	18126.95
609.986	18220.96
610.343	18114.75
610.7	18216.22
611.057	18166.95
611.414	18257.12
611.771	18318.36
612.127	18402.88
612.484	18404.69
612.841	18382.77
613.198	18504.57
613.554	18455.08
613.911	18556.32
614.267	18560.16
614.624	18467.96
614.98	18606.26
615.337	18762.42
615.693	18735.98
616.05	18642.65
616.406	18780.04
616.762	18697.33
617.118	18714.51
617.475	18829.76
617.831	18855.75
618.187	18891.68
618.543	18884.67
618.899	19095.29
619.255	18998.34
619.611	18853.71
619.967	19044.89
620.323	19047.38
620.678	18961.96
621.034	19006.03
621.39	18975.52
621.746	19031.34
622.101	19241.95
622.457	19074.05
622.812	19093.03
623.168	19182.97
623.523	19110.43
623.879	19243.99
624.234	19096.42
624.589	19134.16
624.945	19161.05
625.3	19188.62
625.655	19115.18
626.01	19215.74
626.365	19177.55
626.72	19272.23
627.075	19208.51
627.43	19264.78
627.785	19165.34
628.14	19324.89
628.495	19302.29
628.85	19231.56
629.205	19119.92
629.559	19314.49
629.914	19129.86
630.269	19246.47
630.623	19156.76
630.978	19093.03
631.332	19181.61
631.687	19240.6
632.041	19243.53
632.396	19170.77
632.75	19161.28
633.104	19195.4
633.459	19046.7
633.813	19171.9
634.167	19109.3
634.521	19058.68
634.875	19155.63
635.229	19044.44
635.583	19006.25
635.937	19075.4
636.291	18948.63
636.645	19002.18
636.999	18969.64
637.352	18944.56
637.706	18890.32
638.06	19013.71
638.413	18935.07
638.767	18872.92
639.121	18875.18
639.474	18796.09
639.828	18888.97
640.181	18889.87
640.534	18865.24
640.888	18803.32
641.241	18778.01
641.594	18795.18
641.947	18743.66
642.301	18753.15
642.654	18825.24
643.007	18822.3
643.36	18866.37
643.713	18755.41
644.066	18790.44
644.419	18745.69
644.771	18518.35
645.124	18413.5
645.477	18333.73
645.83	18261.86
646.182	18205.59
646.535	18155.2
646.888	18213.5
647.24	18119.95
647.593	18247.85
647.945	18178.7
648.298	18080.85
648.65	18109.55
649.002	18050.8
649.355	18060.97
649.707	18050.57
650.059	18226.39
650.411	18372.14
650.763	18404.46
651.115	18585.47
651.467	18453.5
651.819	18520.84
652.171	18521.97
652.523	18499.6
652.875	18440.62
653.227	18428.19
653.578	18562.87
653.93	18454.18
654.282	18375.99
654.633	18366.49
654.985	18549.31
655.337	18377.34
655.688	18398.58
656.039	18416.44
656.391	18273.39
656.742	18466.83
657.094	18349.32
657.445	18422.31
657.796	18381.18
658.147	18373.5
658.498	18355.2
658.849	18486.49
659.2	18309.55
659.551	18266.84
659.902	18449.43
660.253	18335.76
660.604	18362.65
660.955	18308.87
661.306	18455.53
661.656	18327.17
662.007	18368.08
662.358	18336.44
662.708	18355.87
663.059	18257.12
663.409	18258.47
663.76	18452.37
664.11	18331.24
664.461	18368.3
664.811	18486.49
665.161	18421.41
665.511	18326.95
665.862	18364.91
666.212	18328.76
666.562	18381.41
666.912	18360.84
667.262	18368.98
667.612	18333.05
667.962	18394.52
668.312	18403.56
668.662	18530.11
669.011	18457.79
669.361	18362.65
669.711	18437
670.06	18317.46
670.41	18382.54
670.76	18446.72
671.109	18443.55
671.459	18400.62
671.808	18342.54
672.157	18408.98
672.507	18354.07
672.856	18455.31
673.205	18414.18
673.554	18487.62
673.904	18399.94
674.253	18622.08
674.602	18511.58
674.951	18204.69
675.3	18127.86
675.649	18488.3
675.998	18445.81
676.346	18479.49
676.695	18534.17
677.044	18402.88
677.393	18429.77
677.741	18481.52
678.09	18473.16
678.438	18343.22
678.787	18396.78
679.135	18492.59
679.484	18322.43
679.832	18471.12
680.181	18307.29
680.529	18357.23
680.877	18365.36
681.225	18421.86
681.573	18404.23
681.922	18340.73
682.27	18253.05
682.618	18305.03
682.966	18264.58
683.314	18398.81
683.661	18235.2
684.009	18230
684.357	18192.26
684.705	18174.41
685.053	18238.59
685.4	18204.01
685.748	18161.53
686.095	18123.56
686.443	18055.77
686.79	18097.57
687.138	18105.71
687.485	18274.07
687.832	18042.44
688.18	18037.92
688.527	17987.75
688.874	17900.29
689.221	18014.87
689.568	17898.94
689.915	17854.19
690.262	17874.53
690.609	17837.02
690.956	17794.08
691.303	17721.31
691.65	17694.65
691.997	17734.19
692.344	17637.25
692.69	17684.48
693.037	17630.24
693.383	17535.1
693.73	17647.19
694.077	17567.87
694.423	17545.5
694.769	17484.94
695.116	17441.77
695.462	17395.22
695.808	17434.54
696.155	17435.67
696.501	17336.24
696.847	17330.59
697.193	17241.78
697.539	17308.9
697.885	17181.67
698.231	17200.88
698.577	17265.05
698.923	17132.63
699.269	17006.53
699.614	16999.07
699.96	16956.36
700.306	17022.58
700.651	16928.34
700.997	16888.57
701.342	16921.33
701.688	16832.52
702.033	16804.95
702.379	16795.91
702.724	16809.93
703.069	16860.32
703.415	16675.47
703.76	16676.82
704.105	16728.8
704.45	16624.62
704.795	16617.39
705.14	16593.66
705.485	16532.64
705.83	16477.96
706.175	16512.08
706.52	16503.27
706.865	16396.83
707.209	16407.45
707.554	16420.33
707.899	16374.91
708.243	16412.42
708.588	16358.41
708.932	16195.25
709.277	16298.3
709.621	16214.23
709.966	16119.1
710.31	16127.01
710.654	16041.81
710.998	16119.1
711.342	16157.06
711.687	16103.05
712.031	16015.14
712.375	16008.36
712.719	16050.62
713.063	16025.54
713.407	16114.58
713.75	16016.95
714.094	15948.48
714.438	15867.35
714.782	15905.32
715.125	15815.38
715.469	15930.63
715.812	15851.76
716.156	15780.8
716.499	15771.08
716.843	15878.65
717.186	15726.11
717.53	15866.9
717.873	15774.02
718.216	15755.72
718.559	15758.2
718.902	15633.68
719.246	15661.25
719.589	15582.39
719.932	15604.99
720.275	15618.54
720.617	15615.83
720.96	15579.68
721.303	15539.68
721.646	15526.57
721.989	15442.28
722.331	15536.74
722.674	15521.15
723.016	15529.51
723.359	15495.38
723.701	15506.68
724.044	15388.95
724.386	15395.95
724.729	15418.32
725.071	15363.64
725.413	15441.15
725.755	15362.96
726.097	15331.32
726.439	15268.95
726.782	15296.29
727.124	15351.88
727.465	15262.17
727.807	15254.03
728.149	15275.05
728.491	15246.58
728.833	15243.64
729.175	15258.1
729.516	15202.74
729.858	15178.56
730.199	15257.42
730.541	15209.97
730.882	15107.6
731.224	15213.58
731.565	15003.42
731.906	15148.95
732.248	15109.86
732.589	15040.48
732.93	14989.86
733.271	15088.61
733.612	15157.31
733.953	15063.98
734.294	14999.13
734.635	15001.39
734.976	14948.73
735.317	14901.95
735.658	14945.57
735.999	14917.77
736.339	14867.83
736.68	14888.39
737.021	14969.07
737.361	14887.26
737.702	14915.51
738.042	14837.55
738.383	14824.89
738.723	14833.48
739.063	14765.69
739.404	14809.75
739.744	14811.11
740.084	14803.2
740.424	14707.83
740.764	14645.91
741.104	14697.66
741.444	14654.95
741.784	14610.21
742.124	14699.25
742.464	14612.02
742.804	14630.55
743.143	14593.71
743.483	14530.44
743.823	14527.27
744.162	14463.09
744.502	14483.88
744.841	14446.15
745.181	14422.19
745.52	14427.16
745.86	14468.74
746.199	14459.03
746.538	14351.23
746.877	14467.16
747.216	14404.34
747.556	14357.56
747.895	14296.32
748.234	14239.37
748.573	14236.66
748.911	14231.01
749.25	14317.34
749.589	14189.2
749.928	14245.02
750.267	14155.53
750.605	14181.97
750.944	14088.87
751.283	14050
751.621	14043.44
751.96	13982.88
752.298	13940.62
752.636	14053.16
752.975	13890
753.313	13922.32
753.651	13913.05
753.989	14023.11
754.327	13785.6
754.666	13737.01
755.004	13794.86
755.342	13774.52
755.679	13795.77
756.017	13732.72
756.355	13742.66
756.693	13637.35
757.031	13604.13
757.368	13591.03
757.706	13570.24
758.044	13518.71
758.381	13515.32
758.719	13457.02
759.056	13420.41
759.394	13409.11
759.731	13284.14
