Data from brown_tile_FLMS001491_053.txt Node
Date: Tue Feb 07 10:37:41 GMT 2017
User: dcchb
Spectrometer: FLMS00149
Trigger mode: 0
Integration Time (sec): 2.000000E-2
Scans to average: 10
Electric dark correction enabled: true
Nonlinearity correction enabled: false
Boxcar width: 0
XAxis mode: Wavelengths
Number of Pixels in Spectrum: 2048
>>>>>Begin Spectral Data<<<<<
341.393	-9.46
341.776	-9.46
342.16	-9.46
342.543	-42.68
342.927	-64.6
343.31	-64.38
343.693	-70.7
344.077	-62.57
344.46	-58.05
344.843	-66.64
345.226	-35.9
345.61	-32.29
345.993	-13.08
346.376	0.03
346.759	11.1
347.142	19.69
347.525	34.38
347.908	32.57
348.291	92
348.674	99.23
349.057	114.6
349.44	108.27
349.823	136.97
350.206	160.93
350.588	181.72
350.971	200.47
351.354	201.15
351.737	206.35
352.119	237.76
352.502	235.28
352.884	263.07
353.267	276.18
353.65	283.86
354.032	275.73
354.414	275.95
354.797	305.78
355.179	292
355.562	322.96
355.944	314.6
356.326	333.35
356.709	302.85
357.091	312.11
357.473	304.88
357.855	312.79
358.238	325.67
358.62	337.87
359.002	322.51
359.384	321.6
359.766	317.31
360.148	314.82
360.53	330.64
360.912	323.41
361.294	318.44
361.676	321.83
362.057	338.78
362.439	304.2
362.821	319.34
363.203	315.73
363.584	310.08
363.966	295.16
364.348	312.56
364.729	310.3
365.111	286.35
365.493	325.67
365.874	295.16
366.256	297.87
366.637	294.26
367.019	322.73
367.4	305.78
367.781	297.42
368.163	299
368.544	310.53
368.925	309.62
369.306	300.81
369.688	301.49
370.069	292.68
370.45	289.29
370.831	285.44
371.212	283.64
371.593	311.43
371.974	306.91
372.355	303.07
372.736	299.23
373.117	294.48
373.498	323.41
373.879	306.01
374.26	315.73
374.641	273.69
375.021	291.32
375.402	308.72
375.783	309.85
376.163	303.75
376.544	317.08
376.925	302.17
377.305	307.82
377.686	292.9
378.066	318.21
378.447	306.23
378.827	322.05
379.208	316.18
379.588	300.13
379.968	323.64
380.349	324.31
380.729	338.55
381.109	301.94
381.489	313.92
381.87	326.35
382.25	311.88
382.63	317.31
383.01	314.6
383.39	320.25
383.77	317.08
384.15	328.16
384.53	332.9
384.91	332
385.29	319.12
385.67	327.7
386.049	346.01
386.429	346.91
386.809	330.19
387.189	334.26
387.568	336.52
387.948	332.45
388.328	347.82
388.707	342.62
389.087	344.88
389.466	338.1
389.846	321.83
390.225	344.43
390.605	328.16
390.984	331.09
391.363	345.78
391.743	341.04
392.122	343.3
392.501	332.22
392.881	358.44
393.26	346.23
393.639	355.73
394.018	346.01
394.397	366.57
394.776	368.61
395.155	352.79
395.534	351.21
395.913	363.41
396.292	352.11
396.671	349.85
397.05	355.05
397.429	356.4
397.808	344.65
398.186	381.94
398.565	373.35
398.944	373.8
399.323	376.29
399.701	379.23
400.08	367.25
400.458	378.78
400.837	372.9
401.215	390.3
401.594	397.08
401.972	345.33
402.351	346.46
402.729	378.32
403.107	383.07
403.486	383.3
403.864	398.66
404.242	389.4
404.62	388.94
404.999	385.1
405.377	399.34
405.755	404.31
406.133	389.4
406.511	416.06
406.889	397.98
407.267	403.86
407.645	413.35
408.023	385.1
408.401	402.5
408.779	401.6
409.156	416.29
409.534	425.33
409.912	381.71
410.29	410.86
410.667	421.26
411.045	403.41
411.422	410.64
411.8	387.14
412.178	401.83
412.555	431.66
412.933	444.54
413.31	434.82
413.687	434.37
414.065	437.98
414.442	431.88
414.819	442.95
415.197	452.45
415.574	442.95
415.951	446.57
416.328	442.28
416.705	465.1
417.082	488.15
417.46	467.36
417.837	454.03
418.214	448.38
418.591	472.78
418.967	454.71
419.344	494.03
419.721	478.43
420.098	482.95
420.475	464.87
420.852	469.39
421.228	478.66
421.605	484.08
421.982	486.8
422.358	498.77
422.735	487.02
423.111	499.9
423.488	491.77
423.864	484.31
424.241	500.81
424.617	510.07
424.994	500.35
425.37	500.81
425.746	506.91
426.123	531.31
426.499	538.77
426.875	526.12
427.251	531.31
427.627	526.12
428.003	548.04
428.379	539.9
428.756	543.06
429.132	554.14
429.507	544.87
429.883	549.39
430.259	577.41
430.635	552.1
431.011	550.3
431.387	556.4
431.763	573.8
432.138	581.26
432.514	587.13
432.89	585.55
433.265	574.7
433.641	598.43
434.016	591.2
434.392	612.22
434.767	596.62
435.143	591.88
435.518	607.92
435.894	602.95
436.269	605.44
436.644	630.52
437.02	624.42
437.395	625.77
437.77	626.45
438.145	650.86
438.52	637.07
438.895	624.64
439.271	648.6
439.646	651.54
440.021	663.06
440.395	677.75
440.77	648.15
441.145	658.54
441.52	678.65
441.895	681.14
442.27	694.02
442.645	673
443.019	699.67
443.394	680.91
443.769	685.89
444.143	671.2
444.518	710.97
444.892	713.68
445.267	718.88
445.641	705.55
446.016	693.34
446.39	727.92
446.764	726.34
447.139	728.6
447.513	738.09
447.887	707.35
448.262	727.24
448.636	729.27
449.01	733.79
449.384	748.94
449.758	734.47
450.132	768.37
450.506	753.68
450.88	736.96
451.254	795.04
451.628	751.19
452.002	762.27
452.376	804.07
452.75	776.73
453.123	782.61
453.497	789.39
453.871	807.69
454.244	821.7
454.618	816.28
454.992	809.05
455.365	814.02
455.739	861.25
456.112	856.05
456.486	845.2
456.859	843.17
457.232	850.4
457.606	867.8
457.979	875.71
458.352	883.85
458.725	862.15
459.099	901.47
459.472	910.29
459.845	894.24
460.218	930.17
460.591	946.44
460.964	940.79
461.337	938.31
461.71	940.79
462.083	974.69
462.456	979.66
462.829	967.46
463.201	971.3
463.574	988.93
463.947	999.1
464.32	999.78
464.692	1011.98
465.065	1030.06
465.438	1021.24
465.81	1036.84
466.183	1069.38
466.555	1074.35
466.928	1084.52
467.3	1073.9
467.672	1094.91
468.045	1116.84
468.417	1112.54
468.789	1133.56
469.161	1126.78
469.534	1139.43
469.906	1174.91
470.278	1162.03
470.65	1191.64
471.022	1199.09
471.394	1245.87
471.766	1206.55
472.138	1260.11
472.51	1270.05
472.882	1254.68
473.253	1272.54
473.625	1299.66
473.997	1320.67
474.369	1331.07
474.74	1345.3
475.112	1377.39
475.484	1390.27
475.855	1403.61
476.227	1414.45
476.598	1431.63
476.97	1436.15
477.341	1450.84
477.713	1475.92
478.084	1474.11
478.455	1519.08
478.827	1540.55
479.198	1572.64
479.569	1582.13
479.94	1628.91
480.311	1614
480.682	1655.35
481.053	1632.75
481.424	1711.4
481.795	1716.82
482.166	1752.3
482.537	1757.5
482.908	1812.86
483.279	1811.28
483.65	1836.82
484.021	1868.45
484.391	1855.8
484.762	1923.37
485.133	1891.05
485.503	1946.87
485.874	1973.31
486.244	1976.93
486.615	2011.27
486.985	2038.39
487.356	2079.07
487.726	2076.58
488.097	2143.93
488.467	2157.94
488.837	2178.05
489.207	2200.87
489.578	2212.63
489.948	2275.67
490.318	2290.36
490.688	2283.36
491.058	2330.59
491.428	2349.12
491.798	2374.88
492.168	2436.57
492.538	2422.34
492.908	2445.84
493.278	2477.25
493.648	2460.75
494.017	2502.34
494.387	2538.27
494.757	2550.24
495.126	2560.41
495.496	2592.05
495.866	2574.2
496.235	2591.82
496.605	2651.03
496.974	2667.3
497.344	2660.3
497.713	2696.91
498.082	2728.09
498.452	2732.61
498.821	2769.45
499.19	2791.14
499.559	2782.33
499.928	2805.15
500.298	2864.36
500.667	2855.09
501.036	2845.6
501.405	2858.71
501.774	2892.61
502.143	2899.84
502.512	2930.57
502.88	2948.2
503.249	2965.15
503.618	3003.34
503.987	2977.13
504.356	3062.32
504.724	3068.65
505.093	3064.81
505.462	3107.07
505.83	3112.49
506.199	3120.62
506.567	3157.46
506.936	3208.31
507.304	3215.99
507.672	3207.63
508.041	3216.67
508.409	3270.9
508.777	3305.7
509.145	3316.78
509.514	3303.22
509.882	3368.08
510.25	3368.53
510.618	3387.96
510.986	3377.11
511.354	3390.45
511.722	3442.2
512.09	3469.32
512.458	3486.04
512.826	3536.43
513.193	3533.04
513.561	3560.16
513.929	3605.36
514.297	3599.26
514.664	3658.01
515.032	3656.43
515.4	3714.73
515.767	3722.42
516.135	3746.6
516.502	3722.19
516.869	3817.78
517.237	3832.47
517.604	3790.44
517.972	3854.84
518.339	3870.43
518.706	3893.03
519.073	3897.33
519.44	3944.56
519.808	3996.76
520.175	4051.9
520.542	4051.67
520.909	4086.47
521.276	4071.79
521.643	4151.78
522.009	4162.4
522.376	4176.42
522.743	4239.24
523.11	4293.25
523.477	4339.12
523.843	4331.89
524.21	4376.64
524.577	4383.87
524.943	4399.46
525.31	4457.31
525.676	4533.69
526.043	4526.46
526.409	4592
526.776	4593.35
527.142	4608.27
527.508	4676.52
527.874	4655.5
528.241	4742.05
528.607	4759.23
528.973	4820.92
529.339	4770.98
529.705	4858.43
530.071	4897.98
530.437	4932.55
530.803	4912.22
531.169	5028.37
531.535	5002.83
531.901	5009.61
532.267	5082.61
532.632	5088.71
532.998	5113.79
533.364	5188.82
533.73	5203.73
534.095	5253.22
534.461	5228.37
534.826	5278.99
535.192	5266.33
535.557	5330.06
535.923	5328.48
536.288	5327.8
536.653	5445.76
537.019	5437.63
537.384	5453.9
537.749	5515.59
538.114	5509.26
538.479	5577.51
538.845	5573.67
539.21	5549.03
539.575	5608.69
539.94	5657.51
540.305	5660.44
540.67	5687.11
541.034	5719.88
541.399	5775.7
541.764	5745.19
542.129	5856.82
542.494	5893.88
542.858	5921.91
543.223	5937.05
543.587	5993.09
543.952	5984.73
544.316	5952.87
544.681	6046.42
545.045	6069.25
545.41	6121
545.774	6166.42
546.138	6143.37
546.503	6226.53
546.867	6232.86
547.231	6272.41
547.595	6349.24
547.959	6351.27
548.324	6420.42
548.688	6443.93
549.052	6436.47
549.416	6489.35
549.779	6563.7
550.143	6516.47
550.507	6634.2
550.871	6654.32
551.235	6619.29
551.599	6763.01
551.962	6743.81
552.326	6813.41
552.689	6866.74
553.053	6858.6
553.417	6931.37
553.78	7044.59
554.143	7115.32
554.507	7139.95
554.87	7159.16
555.234	7248.43
555.597	7257.92
555.96	7306.05
556.323	7436.44
556.686	7469.44
557.05	7519.6
557.413	7558.02
557.776	7585.82
558.139	7758.92
558.502	7791.69
558.865	7782.65
559.228	7873.49
559.59	7909.42
559.953	7930.22
560.316	8109.42
560.679	8096.76
561.041	8214.95
561.404	8276.42
561.767	8327.27
562.129	8349.64
562.492	8556.87
562.854	8541.5
563.217	8566.81
563.579	8672.79
563.941	8755.05
564.304	8860.36
564.666	8919.57
565.028	9004.76
565.39	9038.43
565.753	9181.93
566.115	9174.25
566.477	9285.21
566.839	9303.06
567.201	9410.63
567.563	9545.31
567.925	9617.63
568.287	9697.4
568.648	9761.81
569.01	9853.33
569.372	9910.05
569.734	9887.23
570.095	10005.64
570.457	10167.22
570.819	10185.98
571.18	10263.04
571.542	10426.65
571.903	10440.21
572.265	10546.87
572.626	10573.31
572.987	10677.94
573.349	10765.85
573.71	10849.23
574.071	10938.95
574.432	11053.75
574.794	11074.54
575.155	11090.36
575.516	11127.65
575.877	11293.29
576.238	11354.98
576.599	11446.96
576.96	11548.43
577.32	11554.75
577.681	11704.35
578.042	11702.77
578.403	11711.81
578.763	11827.51
579.124	11876.55
579.485	11989.77
579.845	11994.97
580.206	12101.86
580.566	12117
580.927	12187.28
581.287	12322.19
581.648	12285.58
582.008	12481.73
582.368	12425.92
582.728	12462.3
583.089	12545.24
583.449	12629.98
583.809	12589.98
584.169	12746.13
584.529	12748.85
584.889	12912.91
585.249	12877.43
585.609	12803.08
585.969	12994.71
586.329	12948.16
586.688	12979.8
587.048	13094.15
587.408	13152.22
587.768	13153.81
588.127	13184.54
588.487	13215.27
588.846	13321.03
589.206	13288.94
589.565	13297.76
589.925	13402.39
590.284	13398.77
590.643	13463.18
591.003	13673.57
591.362	13623.4
591.721	13604.42
592.08	13683.51
592.44	13624.98
592.799	13738.65
593.158	13724.19
593.517	13834.69
593.876	13817.97
594.235	13905.43
594.593	13940.9
594.952	13987.91
595.311	14010.73
595.67	13955.82
596.029	14119.88
596.387	14206.89
596.746	14205.76
597.104	14151.97
597.463	14213.21
597.822	14227.9
598.18	14277.17
598.538	14357.16
598.897	14305.64
599.255	14277.62
599.613	14513.77
599.972	14447.11
600.33	14508.35
600.688	14433.55
601.046	14579.98
601.404	14719.19
601.762	14610.49
602.12	14759.87
602.478	14689.81
602.836	14775.68
603.194	14705.18
603.552	14801
603.91	14766.65
604.268	14914.89
604.625	14780.66
604.983	14926.64
605.341	14874.21
605.698	14978.62
606.056	14971.39
606.413	15030.82
606.771	14979.52
607.128	15097.03
607.485	15027.66
607.843	15112.85
608.2	15235.56
608.557	15307.87
608.914	15144.94
609.272	15302
609.629	15284.37
609.986	15395.33
610.343	15309.46
610.7	15454.31
611.057	15424.71
611.414	15508.32
611.771	15513.74
612.127	15503.35
612.484	15567.08
612.841	15731.59
613.198	15629.9
613.554	15633.97
613.911	15735.21
614.267	15765.26
614.624	15763.68
614.98	15763.23
615.337	15791.7
615.693	15854.98
616.05	15745.38
616.406	15859.05
616.762	15970.23
617.118	15898.82
617.475	15886.62
617.831	15906.95
618.187	15971.36
618.543	15940.85
618.899	16158.25
619.255	16036.67
619.611	16078.93
619.967	16072.83
620.323	16204.35
620.678	16067.85
621.034	16069.21
621.39	16102.2
621.746	16053.39
622.101	16303.1
622.457	16179.04
622.812	16144.69
623.168	16266.49
623.523	16345.81
623.879	16295.87
624.234	16261.3
624.589	16248.64
624.945	16321.63
625.3	16301.52
625.655	16312.82
626.01	16359.15
626.365	16312.82
626.72	16337.68
627.075	16289.54
627.43	16327.51
627.785	16294.29
628.14	16324.57
628.495	16321.18
628.85	16294.29
629.205	16254.06
629.559	16382.87
629.914	16301.29
630.269	16254.97
630.623	16316.89
630.978	16223.33
631.332	16324.57
631.687	16416.55
632.041	16305.81
632.396	16289.32
632.75	16339.03
633.104	16237.79
633.459	16214.74
633.813	16173.16
634.167	16211.58
634.521	16174.52
634.875	16239.15
635.229	16171.58
635.583	16141.52
635.937	16172.48
636.291	16104.92
636.645	16097.23
636.999	16160.06
637.352	16158.02
637.706	16146.27
638.06	16063.79
638.413	16061.07
638.767	16085.26
639.121	16015.43
639.474	15991.25
639.828	15957.35
640.181	16040.28
640.534	15993.96
640.888	15972.26
641.241	15846.84
641.594	15906.5
641.947	15920.97
642.301	15845.49
642.654	15958.93
643.007	15914.86
643.36	16041.64
643.713	15828.54
644.066	15988.08
644.419	15871.7
644.771	15821.76
645.124	15570.47
645.477	15564.14
645.83	15551.26
646.182	15492.73
646.535	15458.15
646.888	15434.65
647.24	15354.43
647.593	15442.33
647.945	15412.05
648.298	15327.99
648.65	15335.22
649.002	15304.48
649.355	15331.38
649.707	15302
650.059	15395.78
650.411	15608.21
650.763	15575.44
651.115	15700.41
651.467	15706.51
651.819	15736.56
652.171	15592.39
652.523	15639.84
652.875	15709.9
653.227	15555.55
653.578	15652.72
653.93	15653.85
654.282	15640.52
654.633	15583.35
654.985	15547.64
655.337	15555.78
655.688	15644.81
656.039	15671.25
656.391	15455.44
656.742	15569.79
657.094	15538.38
657.445	15665.38
657.796	15629
658.147	15595.32
658.498	15559.39
658.849	15551.26
659.2	15611.6
659.551	15558.26
659.902	15581.09
660.253	15589.9
660.604	15613.18
660.955	15493.18
661.306	15604.36
661.656	15624.93
662.007	15622.22
662.358	15575.44
662.708	15661.99
663.059	15611.14
663.409	15639.39
663.76	15660.86
664.11	15598.71
664.461	15712.16
664.811	15653.4
665.161	15677.58
665.511	15624.02
665.862	15596
666.212	15705.6
666.562	15777.69
666.912	15683.68
667.262	15626.96
667.612	15657.92
667.962	15674.64
668.312	15606.17
668.662	15746.73
669.011	15621.76
669.361	15673.74
669.711	15776.56
670.06	15643.01
670.41	15722.55
670.76	15573.63
671.109	15650.01
671.459	15639.17
671.808	15673.51
672.157	15755.09
672.507	15660.86
672.856	15631.48
673.205	15602.33
673.554	15667.86
673.904	15631.71
674.253	15766.85
674.602	15764.59
674.951	15432.39
675.3	15459.06
675.649	15686.4
675.998	15670.12
676.346	15676.23
676.695	15780.86
677.044	15565.95
677.393	15714.42
677.741	15688.2
678.09	15733.4
678.438	15627.64
678.787	15695.66
679.135	15730.91
679.484	15559.39
679.832	15671.71
680.181	15629
680.529	15690.92
680.877	15594.65
681.225	15573.63
681.573	15607.53
681.922	15562.56
682.27	15570.24
682.618	15503.35
682.966	15603.23
683.314	15679.16
683.661	15535.89
684.009	15452.05
684.357	15488.43
684.705	15513.07
685.053	15511.71
685.4	15417.48
685.748	15381.54
686.095	15418.38
686.443	15413.18
686.79	15401.43
687.138	15467.64
687.485	15434.2
687.832	15314.65
688.18	15369.12
688.527	15327.31
688.874	15297.03
689.221	15242.79
689.568	15328.89
689.915	15273.07
690.262	15225.16
690.609	15175.22
690.956	15223.58
691.303	15308.55
691.65	15218.84
691.997	15100.2
692.344	15046.19
692.69	15024.27
693.037	15146.3
693.383	14941.56
693.73	15026.3
694.077	14985.17
694.423	15003.02
694.769	14942.01
695.116	14848.23
695.462	14930.26
695.808	14922.12
696.155	14768.23
696.501	14774.78
696.847	14723.93
697.193	14731.17
697.539	14712.41
697.885	14695.24
698.231	14618.85
698.577	14662.47
698.923	14622.24
699.269	14554
699.614	14544.28
699.96	14508.8
700.306	14422.02
700.651	14463.38
700.997	14434.68
701.342	14426.99
701.688	14386.32
702.033	14409.14
702.379	14408.46
702.724	14366.66
703.069	14357.62
703.415	14247.34
703.76	14252.31
704.105	14267.22
704.45	14288.69
704.795	14220.67
705.14	14074.23
705.485	14140.45
705.83	14070.39
706.175	14153.1
706.52	14083.95
706.865	14077.62
707.209	14054.57
707.554	13969.38
707.899	14017.29
708.243	13963.95
708.588	14051.18
708.932	13923.73
709.277	13922.15
709.621	13955.14
709.966	13874.47
710.31	13950.62
710.654	13797.18
710.998	13860.68
711.342	13821.59
711.687	13845.99
712.031	13777.07
712.375	13699.56
712.719	13757.86
713.063	13784.07
713.407	13808.25
713.75	13617.07
714.094	13690.52
714.438	13651.19
714.782	13679.22
715.125	13567.36
715.469	13673.12
715.812	13509.96
716.156	13448.26
716.499	13523.74
716.843	13541.59
717.186	13463.86
717.53	13546.79
717.873	13514.25
718.216	13532.55
718.559	13479.22
718.902	13371.2
719.246	13440.13
719.589	13315.38
719.932	13325.78
720.275	13331.2
720.617	13435.83
720.96	13324.2
721.303	13366.23
721.646	13304.54
721.989	13289.85
722.331	13240.13
722.674	13302.96
723.016	13418.21
723.359	13295.27
723.701	13263.63
724.044	13139.8
724.386	13167.59
724.729	13267.7
725.071	13245.78
725.413	13180.92
725.755	13265.22
726.097	13225.67
726.439	13108.61
726.782	13113.58
727.124	13184.99
727.465	13065.67
727.807	13113.81
728.149	13138.44
728.491	13088.27
728.833	13135.28
729.175	13051.66
729.516	12969.18
729.858	12977.77
730.199	12967.14
730.541	12979.57
730.882	12906.81
731.224	13022.96
731.565	12928.95
731.906	12912.46
732.248	12944.32
732.589	12924.21
732.93	12832.46
733.271	12928.28
733.612	12932.8
733.953	12909.52
734.294	12877.2
734.635	12802.86
734.976	12869.75
735.317	12780.48
735.658	12755.4
735.999	12812.35
736.339	12693.25
736.68	12795.62
737.021	12683.31
737.361	12761.95
737.702	12723.76
738.042	12662.29
738.383	12712.01
738.723	12691.45
739.063	12571.9
739.404	12676.98
739.744	12690.77
740.084	12651.67
740.424	12585.91
740.764	12616.87
741.104	12620.26
741.444	12505.69
741.784	12503.2
742.124	12525.12
742.464	12489.64
742.804	12486.03
743.143	12544.33
743.483	12506.37
743.823	12449.87
744.162	12425.92
744.502	12425.24
744.841	12443.09
745.181	12412.81
745.52	12358.35
745.86	12397.67
746.199	12357.9
746.538	12387.5
746.877	12349.31
747.216	12313.6
747.556	12311.79
747.895	12326.71
748.234	12210.1
748.573	12252.59
748.911	12192.02
749.25	12189.31
749.589	12096.21
749.928	12166.26
750.267	12162.87
750.605	12146.38
750.944	12114.51
751.283	12011.46
751.621	12056.21
751.96	11990.45
752.298	11998.36
752.636	12016.44
752.975	11884.91
753.313	11890.11
753.651	11914.52
753.989	11818.7
754.327	11796.78
754.666	11734.86
755.004	11768.08
755.342	11854.18
755.679	11722.66
756.017	11688.76
756.355	11725.37
756.693	11698.25
757.031	11740.28
757.368	11597.01
757.706	11569.67
758.044	11554.98
758.381	11498.71
758.719	11471.37
759.056	11444.47
759.394	11386.62
759.731	11306.85
760.068	11320.41
760.405	11309.34
760.743	11241.54
761.08	11322.89
