Data from brown_tile_FLMS001491_037.txt Node
Date: Tue Feb 07 10:37:26 GMT 2017
User: dcchb
Spectrometer: FLMS00149
Trigger mode: 0
Integration Time (sec): 2.000000E-2
Scans to average: 10
Electric dark correction enabled: true
Nonlinearity correction enabled: false
Boxcar width: 0
XAxis mode: Wavelengths
Number of Pixels in Spectrum: 2048
>>>>>Begin Spectral Data<<<<<
341.393	-1.72
341.776	-1.72
342.16	-1.72
342.543	-71.55
342.927	-68.84
343.31	-69.74
343.693	-55.96
344.077	-74.94
344.46	-50.76
344.843	-45.56
345.226	-59.12
345.61	-29.29
345.993	-19.58
346.376	-10.76
346.759	-1.5
347.142	36.47
347.525	58.16
347.908	66.3
348.291	70.37
348.674	84.15
349.057	101.78
349.44	122.12
349.823	126.18
350.206	136.35
350.588	172.06
350.971	185.16
351.354	203.47
351.737	211.6
352.119	236.24
352.502	232.17
352.884	252.73
353.267	261.77
353.65	258.61
354.032	271.04
354.414	285.05
354.797	315.1
355.179	301.77
355.562	297.03
355.944	321.21
356.326	297.48
356.709	327.76
357.091	335.67
357.473	317.59
357.855	332.96
358.238	316.01
358.62	317.59
359.002	322.56
359.384	308.55
359.766	332.96
360.148	320.3
360.53	315.1
360.912	326.18
361.294	316.01
361.676	334.31
362.057	311.26
362.439	329.34
362.821	311.26
363.203	307.42
363.584	315.1
363.966	303.58
364.348	304.03
364.729	294.99
365.111	310.13
365.493	310.13
365.874	298.16
366.256	283.69
366.637	297.25
367.019	307.42
367.4	316.01
367.781	305.84
368.163	303.81
368.544	303.35
368.925	311.71
369.306	292.51
369.688	301.32
370.069	294.99
370.45	282.11
370.831	291.38
371.212	288.44
371.593	290.47
371.974	294.54
372.355	300.19
372.736	283.24
373.117	310.36
373.498	321.21
373.879	325.73
374.26	299.74
374.641	297.7
375.021	288.21
375.402	295.9
375.783	299.96
376.163	320.98
376.544	310.59
376.925	311.04
377.305	292.96
377.686	314.2
378.066	315.33
378.447	308.33
378.827	321.88
379.208	318.72
379.588	314.43
379.968	346.52
380.349	318.72
380.729	322.79
381.109	316.01
381.489	315.1
381.87	330.25
382.25	328.66
382.63	315.78
383.01	323.69
383.39	335.9
383.77	336.57
384.15	315.56
384.53	321.21
384.91	328.44
385.29	330.25
385.67	330.47
386.049	311.04
386.429	329.34
386.809	315.1
387.189	325.05
387.568	339.28
387.948	334.77
388.328	330.25
388.707	344.93
389.087	327.53
389.466	352.84
389.846	344.93
390.225	339.28
390.605	348.55
390.984	353.3
391.363	347.87
391.743	348.55
392.122	348.55
392.501	354.88
392.881	334.31
393.26	356.23
393.639	349.23
394.018	351.49
394.397	376.8
394.776	350.36
395.155	333.64
395.534	345.84
395.913	370.24
396.292	356.46
396.671	344.26
397.05	389.91
397.429	361.21
397.808	355.78
398.186	372.05
398.565	352.17
398.944	379.06
399.323	376.8
399.701	361.66
400.08	363.01
400.458	362.79
400.837	377.25
401.215	391.71
401.594	372.96
401.972	365.95
402.351	375.67
402.729	365.95
403.107	381.77
403.486	376.35
403.864	377.7
404.242	387.87
404.62	381.77
404.999	381.77
405.377	383.58
405.755	411.6
406.133	394.42
406.511	414.76
406.889	386.52
407.267	420.19
407.645	389
408.023	405.05
408.401	419.28
408.779	415.89
409.156	404.82
409.534	422.9
409.912	425.61
410.29	419.96
410.667	409.79
411.045	412.96
411.422	421.77
411.8	430.13
412.178	414.09
412.555	412.5
412.933	419.96
413.31	444.82
413.687	444.59
414.065	432.62
414.442	433.52
414.819	457.47
415.197	440.07
415.574	461.09
415.951	456.12
416.328	457.02
416.705	439.4
417.082	454.54
417.46	457.25
417.837	454.31
418.214	450.92
418.591	445.5
418.967	457.93
419.344	457.47
419.721	464.25
420.098	439.85
420.475	474.87
420.852	466.29
421.228	498.38
421.605	481.43
421.982	463.8
422.358	466.51
422.735	488.21
423.111	473.97
423.488	491.15
423.864	492.73
424.241	508.09
424.617	534.08
424.994	498.6
425.37	505.61
425.746	484.37
426.123	496.34
426.499	513.52
426.875	512.16
427.251	517.59
427.627	535.89
428.003	516
428.379	525.72
428.756	525.49
429.132	543.12
429.507	557.13
429.883	556.68
430.259	541.77
430.635	532.27
431.011	557.81
431.387	550.8
431.763	572.5
432.138	569.56
432.514	562.56
432.89	570.01
433.265	560.97
433.641	596
434.016	581.31
434.392	615.21
434.767	598.71
435.143	622.67
435.518	600.29
435.894	615.89
436.269	615.89
436.644	620.63
437.02	625.15
437.395	616.57
437.77	633.06
438.145	617.92
438.52	628.77
438.895	645.49
439.271	646.62
439.646	636
440.021	678.48
440.395	652.27
440.77	656.34
441.145	657.47
441.52	664.93
441.895	671.25
442.27	672.61
442.645	657.24
443.019	656.34
443.394	677.81
443.769	689.33
444.143	677.58
444.518	707.41
444.892	683.46
445.267	694.98
445.641	686.85
446.016	709.9
446.39	704.25
446.764	694.76
447.139	711.7
447.513	702.21
447.887	712.38
448.262	710.57
448.636	685.49
449.01	713.29
449.384	738.37
449.758	694.3
450.132	747.18
450.506	765.49
450.88	739.5
451.254	736.79
451.628	723.46
452.002	750.8
452.376	753.51
452.75	755.55
453.123	755.77
453.497	805.26
453.871	769.56
454.244	816.11
454.618	785.37
454.992	795.32
455.365	812.27
455.739	830.12
456.112	831.25
456.486	819.72
456.859	861.08
457.232	846.62
457.606	865.37
457.979	860.4
458.352	884.13
458.725	863.34
459.099	880.06
459.472	906.28
459.845	891.36
460.218	910.34
460.591	921.64
460.964	910.34
461.337	915.31
461.71	942.66
462.083	959.16
462.456	943.11
462.829	951.02
463.201	954.64
463.574	976.56
463.947	983.56
464.32	986.05
464.692	988.76
465.065	1009.1
465.438	995.31
465.81	1011.58
466.183	1014.07
466.555	1054.07
466.928	1056.55
467.3	1062.88
467.672	1082.99
468.045	1073.05
468.417	1100.17
468.789	1094.75
469.161	1125.03
469.534	1126.38
469.906	1142.43
470.278	1151.69
470.65	1175.87
471.022	1159.6
471.394	1210
471.766	1216.78
472.138	1219.04
472.51	1245.48
472.882	1236.21
473.253	1225.59
473.625	1256.77
473.997	1281.63
474.369	1290.9
474.74	1299.03
475.112	1350.33
475.484	1355.98
475.855	1379.94
476.227	1386.94
476.598	1393.72
476.97	1414.74
477.341	1442.76
477.713	1480.72
478.084	1469.65
478.455	1473.04
478.827	1497.22
479.198	1544
479.569	1534.96
479.94	1541.51
480.311	1594.39
480.682	1602.98
481.053	1655.63
481.424	1661.28
481.795	1683.2
482.166	1709.64
482.537	1710.1
482.908	1773.82
483.279	1755.97
483.65	1780.83
484.021	1821.05
484.391	1850.43
484.762	1833.48
485.133	1869.87
485.503	1926.14
485.874	1930.66
486.244	1952.8
486.615	1986.47
486.985	2028.73
487.356	2057.66
487.726	2056.08
488.097	2080.93
488.467	2110.54
488.837	2142.18
489.207	2182.85
489.578	2191.21
489.948	2222.17
490.318	2249.74
490.688	2246.81
491.058	2237.54
491.428	2313.92
491.798	2322.51
492.168	2329.29
492.538	2382.39
492.908	2382.17
493.278	2405.45
493.648	2404.77
494.017	2448.38
494.387	2470.3
494.757	2509.62
495.126	2527.93
495.496	2549.17
495.866	2591.66
496.235	2592.78
496.605	2608.38
496.974	2647.47
497.344	2623.07
497.713	2642.05
498.082	2667.13
498.452	2707.36
498.821	2721.82
499.19	2722.27
499.559	2748.94
499.928	2778.09
500.298	2793.68
500.667	2775.83
501.036	2793.68
501.405	2854.47
501.774	2794.36
502.143	2863.51
502.512	2904.19
502.88	2869.16
503.249	2920.23
503.618	2953
503.987	2962.94
504.356	2944.41
504.724	3013.79
505.093	3017.63
505.462	3048.59
505.83	3048.37
506.199	3006.33
506.567	3095.82
506.936	3085.88
507.304	3146.22
507.672	3138.99
508.041	3150.06
508.409	3152.09
508.777	3211.53
509.145	3253.56
509.514	3281.13
509.882	3254.69
510.25	3290.17
510.618	3305.31
510.986	3362.48
511.354	3398.19
511.722	3366.32
512.09	3435.7
512.458	3420.79
512.826	3420.33
513.193	3476.15
513.561	3452.42
513.929	3537.39
514.297	3567
514.664	3569.48
515.032	3560.22
515.4	3604.28
515.767	3641.34
516.135	3664.62
516.502	3646.09
516.869	3665.75
517.237	3746.43
517.604	3754.79
517.972	3776.03
518.339	3824.16
518.706	3842.92
519.073	3841.57
519.44	3844.05
519.808	3898.29
520.175	3952.98
520.542	3961.11
520.909	4011.5
521.276	4019.64
521.643	4022.58
522.009	4049.24
522.376	4097.15
522.743	4127.89
523.11	4190.48
523.477	4194.1
523.843	4234.55
524.21	4306.86
524.577	4324.72
524.943	4332.17
525.31	4384.6
525.676	4440.42
526.043	4432.51
526.409	4509.34
526.776	4513.86
527.142	4573.07
527.508	4567.65
527.874	4599.96
528.241	4634.31
528.607	4650.81
528.973	4734.65
529.339	4686.29
529.705	4775.1
530.071	4754.54
530.437	4843.12
530.803	4813.97
531.169	4891.03
531.535	4883.35
531.901	4901.65
532.267	4949.79
532.632	5016
532.998	5022.78
533.364	5030.91
533.73	5034.53
534.095	5096.45
534.461	5166.05
534.826	5118.82
535.192	5166.5
535.557	5240.17
535.923	5221.87
536.288	5278.82
536.653	5298.48
537.019	5308.42
537.384	5342.32
537.749	5385.25
538.114	5361.3
538.479	5455.31
538.845	5521.3
539.21	5477
539.575	5555.19
539.94	5526.27
540.305	5589.09
540.67	5601.97
541.034	5603.55
541.399	5672.93
541.764	5704.34
542.129	5721.06
542.494	5753.61
542.858	5807.62
543.223	5782.98
543.587	5825.47
543.952	5848.07
544.316	5896.65
544.681	5839.48
545.045	5940.49
545.41	6011
545.774	6025.69
546.138	6032.47
546.503	6084.44
546.867	6116.53
547.231	6216.87
547.595	6216.42
547.959	6225.46
548.324	6268.85
548.688	6294.38
549.052	6357.43
549.416	6389.3
549.779	6438.11
550.143	6431.1
550.507	6523.53
550.871	6565.11
551.235	6580.25
551.599	6630.42
551.962	6699.34
552.326	6750.87
552.689	6788.15
553.053	6791.09
553.417	6851.88
553.78	6951.31
554.143	6948.38
554.507	6981.82
554.87	7049.39
555.234	7157.41
555.597	7126.68
555.96	7249.16
556.323	7279.44
556.686	7282.83
557.05	7410.51
557.413	7480.79
557.776	7458.42
558.139	7584.07
558.502	7618.87
558.865	7683.5
559.228	7752.65
559.59	7748.36
559.953	7856.15
560.316	7960.78
560.679	7957.39
561.041	8069.03
561.404	8200.77
561.767	8249.81
562.129	8238.96
562.492	8417.26
562.854	8422.46
563.217	8474.66
563.579	8497.71
563.941	8643.93
564.304	8738.39
564.666	8812.73
565.028	8836.46
565.39	8939.74
565.753	9098.38
566.115	9114.87
566.477	9193.74
566.839	9223.35
567.201	9287.07
567.563	9374.08
567.925	9487.29
568.287	9570.68
568.648	9625.37
569.01	9716.89
569.372	9819.49
569.734	9903.55
570.095	9984.91
570.457	10038.69
570.819	10137.67
571.18	10155.98
571.542	10280.94
571.903	10365.01
572.265	10473.26
572.626	10533.14
572.987	10633.03
573.349	10619.69
573.71	10723.42
574.071	10794.83
574.432	10913.24
574.794	10994.82
575.155	11066.46
575.516	11056.07
575.877	11237.3
576.238	11214.48
576.599	11322.27
576.96	11434.36
577.32	11398.88
577.681	11593.23
578.042	11702.83
578.403	11651.3
578.763	11762.49
579.124	11799.32
579.485	11926.55
579.845	12002.93
580.206	12049.03
580.566	12108.69
580.927	12227.11
581.287	12208.13
581.648	12215.36
582.008	12343.26
582.368	12385.52
582.728	12469.14
583.089	12459.87
583.449	12552.52
583.809	12647.21
584.169	12735.34
584.529	12693.54
584.889	12849.01
585.249	12833.19
585.609	12836.13
585.969	12936.69
586.329	12946.86
586.688	13011.49
587.048	13111.83
587.408	13078.16
587.768	13055.56
588.127	13119.06
588.487	13284.26
588.846	13317.25
589.206	13323.12
589.565	13283.8
589.925	13432.05
590.284	13458.94
590.643	13450.35
591.003	13521.54
591.362	13575.55
591.721	13633.17
592.08	13645.6
592.44	13734.41
592.799	13780.74
593.158	13735.09
593.517	13839.49
593.876	13876.78
594.235	13900.06
594.593	13871.81
594.952	13985.48
595.311	13899.61
595.67	14113.39
596.029	14136.66
596.387	14173.27
596.746	14227.06
597.104	14164.01
597.463	14262.76
597.822	14345.47
598.18	14303.66
598.538	14248.52
598.897	14455.75
599.255	14298.92
599.613	14595.63
599.972	14490.78
600.33	14539.59
600.688	14645.8
601.046	14545.24
601.404	14669.3
601.762	14614.16
602.12	14721.05
602.478	14717.21
602.836	14755.63
603.194	14713.37
603.552	14812.58
603.91	14813.48
604.268	14963.53
604.625	14850.09
604.983	15015.06
605.341	14858.9
605.698	15008.96
606.056	15067.26
606.413	14976.64
606.771	15076.75
607.128	15133.02
607.485	15137.31
607.843	15122.17
608.2	15246.92
608.557	15286.91
608.914	15258.67
609.272	15331.21
609.629	15357.87
609.986	15410.3
610.343	15376.4
610.7	15569.84
611.057	15474.93
611.414	15493.46
611.771	15471.77
612.127	15585.44
612.484	15547.25
612.841	15598.77
613.198	15618.43
613.554	15664.08
613.911	15726
614.267	15727.81
614.624	15754.25
614.98	15802.83
615.337	15783.4
615.693	15831.31
616.05	15822.95
616.406	15963.51
616.762	15952.66
617.118	15794.25
617.475	15927.35
617.831	16061.36
618.187	15934.13
618.543	15987.01
618.899	16086.89
619.255	16045.76
619.611	16089.15
619.967	16159.89
620.323	16131.64
620.678	16133.45
621.034	16095.03
621.39	16047.8
621.746	16125.54
622.101	16272.65
622.457	16199.21
622.812	16194.01
623.168	16335.47
623.523	16278.3
623.879	16348.36
624.234	16224.06
624.589	16281.01
624.945	16346.55
625.3	16353.1
625.655	16338.86
626.01	16339.32
626.365	16360.78
626.72	16321.69
627.075	16419.99
627.43	16318.3
627.785	16320.79
628.14	16304.74
628.495	16352.65
628.85	16318.53
629.205	16340.67
629.559	16421.12
629.914	16265.87
630.269	16404.63
630.623	16253.89
630.978	16221.58
631.332	16343.61
631.687	16439.65
632.041	16320.33
632.396	16309.71
632.75	16290.73
633.104	16340.67
633.459	16268.13
633.813	16246.44
634.167	16259.09
634.521	16247.79
634.875	16327.11
635.229	16332.31
635.583	16202.6
635.937	16262.71
636.291	16174.12
636.645	16242.82
636.999	16149.04
637.352	16251.63
637.706	16061.36
638.06	16208.7
638.413	16163.28
638.767	15980.68
639.121	16149.26
639.474	16072.43
639.828	16128.25
640.181	16068.36
640.534	16084.86
640.888	16054.35
641.241	16032.21
641.594	15999.66
641.947	16084.41
642.301	15987.91
642.654	15976.84
643.007	16038.99
643.36	15988.82
643.713	16031.08
644.066	15991.53
644.419	15892.1
644.771	15834.92
645.124	15614.82
645.477	15733.68
645.83	15507.93
646.182	15499.11
646.535	15447.14
646.888	15460.24
647.24	15403.97
647.593	15605.32
647.945	15492.56
648.298	15353.58
648.65	15289.85
649.002	15355.16
649.355	15410.08
649.707	15391.09
650.059	15515.61
650.411	15617.98
650.763	15687.58
651.115	15891.19
651.467	15766
651.819	15805.77
652.171	15723.06
652.523	15814.36
652.875	15804.64
653.227	15635.61
653.578	15804.64
653.93	15733.46
654.282	15723.97
654.633	15738.65
654.985	15738.2
655.337	15713.12
655.688	15773.91
656.039	15817.3
656.391	15571.65
656.742	15613.23
657.094	15623.18
657.445	15746.56
657.796	15676.96
658.147	15563.07
658.498	15672.44
658.849	15748.82
659.2	15671.76
659.551	15751.76
659.902	15703.63
660.253	15687.81
660.604	15744.08
660.955	15736.39
661.306	15735.04
661.656	15717.41
662.007	15755.83
662.358	15695.49
662.708	15744.08
663.059	15719.9
663.409	15578.43
663.76	15729.39
664.11	15728.03
664.461	15782.95
664.811	15740.91
665.161	15737.52
665.511	15791.31
665.862	15795.38
666.212	15789.5
666.562	15794.47
666.912	15795.15
667.262	15738.65
667.612	15844.64
667.962	15864.3
668.312	15820.69
668.662	15956.05
669.011	15807.8
669.361	15769.61
669.711	15819.78
670.06	15798.31
670.41	15841.48
670.76	15813.23
671.109	15866.79
671.459	15861.14
671.808	15768.71
672.157	15807.8
672.507	15724.19
672.856	15739.33
673.205	15798.77
673.554	15819.1
673.904	15794.92
674.253	15931.87
674.602	15833.57
674.951	15604.87
675.3	15533.69
675.649	15770.07
675.998	15798.77
676.346	15808.71
676.695	15838.31
677.044	15765.09
677.393	15801.48
677.741	15822.04
678.09	15776.85
678.438	15807.35
678.787	15801.03
679.135	15789.73
679.484	15756.28
679.832	15781.14
680.181	15736.62
680.529	15780.91
680.877	15788.14
681.225	15669.73
681.573	15833.34
681.922	15732.33
682.27	15711.31
682.618	15689.84
682.966	15686.9
683.314	15754.92
683.661	15702.72
684.009	15636.51
684.357	15569.84
684.705	15578.66
685.053	15618.21
685.4	15700.01
685.748	15548.6
686.095	15574.82
686.443	15559.22
686.79	15528.94
687.138	15470.86
687.485	15496.63
687.832	15498.66
688.18	15528.49
688.527	15458.44
688.874	15564.42
689.221	15384.99
689.568	15378.89
689.915	15447.81
690.262	15448.04
690.609	15340.92
690.956	15256.86
691.303	15324.2
691.65	15260.93
691.997	15267.71
692.344	15231.55
692.69	15154.26
693.037	15145.45
693.383	15155.17
693.73	15218.22
694.077	15105.9
694.423	15069.75
694.769	15036.98
695.116	14966.24
695.462	14947.49
695.808	15015.06
696.155	14914.27
696.501	14876.76
696.847	14944.1
697.193	14849.41
697.539	14863.87
697.885	14758.79
698.231	14864.78
698.577	14742.07
698.923	14736.87
699.269	14677.21
699.614	14744.56
699.96	14603.54
700.306	14661.39
700.651	14681.51
700.997	14519.48
701.342	14521.96
701.688	14601.06
702.033	14560.15
702.379	14521.74
702.724	14456.65
703.069	14574.39
703.415	14291.46
703.76	14360.39
704.105	14410.33
704.45	14264.57
704.795	14234.96
705.14	14197
705.485	14274.51
705.83	14240.61
706.175	14240.39
706.52	14217.79
706.865	14142.09
707.209	14129.2
707.554	14175.98
707.899	14191.8
708.243	14156.77
708.588	14117.23
708.932	13957.01
709.277	13994.29
709.621	14048.53
709.966	13962.88
710.31	13944.35
710.654	13855.77
710.998	13886.05
711.342	13917.91
711.687	13961.3
712.031	13806.05
712.375	13863.9
712.719	13798.59
713.063	13902.09
713.407	13944.35
713.75	13832.49
714.094	13816.9
714.438	13815.31
714.782	13837.01
715.125	13702.1
715.469	13807.18
715.812	13708.65
716.156	13673.85
716.499	13676.79
716.843	13717.92
717.186	13607.41
717.53	13683.34
717.873	13692.61
718.216	13599.95
718.559	13630.91
718.902	13494.19
719.246	13529.9
719.589	13512.5
719.932	13459.84
720.275	13479.05
720.617	13552.04
720.96	13466.4
721.303	13421.65
721.646	13527.19
721.989	13397.92
722.331	13491.71
722.674	13437.47
723.016	13545.94
723.359	13376
723.701	13376.68
724.044	13393.86
724.386	13274.09
724.729	13284.71
725.071	13274.54
725.413	13389.11
725.755	13291.26
726.097	13343.01
726.439	13234.09
726.782	13264.82
727.124	13305.95
727.465	13257.59
727.807	13223.92
728.149	13136.24
728.491	13195.9
728.833	13252.62
729.175	13206.97
729.516	13064.83
729.858	13159.51
730.199	13199.96
730.541	13130.36
730.882	13169.46
731.224	13275.44
731.565	13067.09
731.906	13096.46
732.248	13151.6
732.589	13082.68
732.93	13029.12
733.271	13043.58
733.612	13072.06
733.953	13062.79
734.294	12976.24
734.635	12980.99
734.976	13096.24
735.317	12902.12
735.658	12931.95
735.999	12983.47
736.339	12926.98
736.68	13002.45
737.021	12925.39
737.361	12846.3
737.702	12938.28
738.042	12877.94
738.383	12864.38
738.723	12828.67
739.063	12799.3
739.404	12893.98
739.744	12747.32
740.084	12762.46
740.424	12798.39
740.764	12789.8
741.104	12774.66
741.444	12691.5
741.784	12663.25
742.124	12723.59
742.464	12699.86
742.804	12686.3
743.143	12649.02
743.483	12604.73
743.823	12581.9
744.162	12506.42
744.502	12569.47
744.841	12521.11
745.181	12602.69
745.52	12524.05
745.86	12497.38
746.199	12461.45
746.538	12475.69
746.877	12545.52
747.216	12456.71
747.556	12477.27
747.895	12449.25
748.234	12486.08
748.573	12372.19
748.911	12437.95
749.25	12370.38
749.589	12340.55
749.928	12299.65
750.267	12351.85
750.605	12248.35
750.944	12278.41
751.283	12164.28
751.621	12243.15
751.96	12136.71
752.298	12136.04
752.636	12103.72
752.975	12112.08
753.313	12055.14
753.651	12117.05
753.989	12005.64
754.327	12036.15
754.666	11950.73
755.004	11963.39
755.342	12012.42
755.679	11996.15
756.017	11870.73
756.355	11858.76
756.693	11894.46
757.031	11852.43
757.368	11765.65
757.706	11774.69
758.044	11753
758.381	11752.09
758.719	11651.3
759.056	11680
759.394	11651.53
759.731	11494.7
760.068	11461.25
760.405	11506.45
760.743	11391.88
