Data from brown_tile_FLMS001491_046.txt Node
Date: Tue Feb 07 10:37:34 GMT 2017
User: dcchb
Spectrometer: FLMS00149
Trigger mode: 0
Integration Time (sec): 2.000000E-2
Scans to average: 10
Electric dark correction enabled: true
Nonlinearity correction enabled: false
Boxcar width: 0
XAxis mode: Wavelengths
Number of Pixels in Spectrum: 2048
>>>>>Begin Spectral Data<<<<<
341.393	-10.49
341.776	-10.49
342.16	-10.49
342.543	-53.43
342.927	-82.36
343.31	-59.08
343.693	-76.93
344.077	-76.48
344.46	-59.98
344.843	-46.2
345.226	-37.84
345.61	-37.16
345.993	0.58
346.376	-19.08
346.759	4.42
347.142	29.05
347.525	27.47
347.908	61.14
348.291	75.15
348.674	109.5
349.057	105.44
349.44	123.06
349.823	126.9
350.206	140.91
350.588	162.61
350.971	190.63
351.354	188.14
351.737	208.71
352.119	229.5
352.502	239.44
352.884	249.39
353.267	255.71
353.65	265.88
354.032	269.05
354.414	277.63
354.797	296.16
355.179	307.24
355.562	300.46
355.944	311.76
356.326	309.27
356.709	334.81
357.091	317.86
357.473	317.63
357.855	317.63
358.238	332.32
358.62	307.46
359.002	354.47
359.384	326.22
359.766	329.16
360.148	319.44
360.53	321.25
360.912	316.5
361.294	328.93
361.676	322.6
362.057	310.63
362.439	314.7
362.821	288.03
363.203	293.23
363.584	293
363.966	304.75
364.348	298.42
364.729	309.72
365.111	306.33
365.493	316.5
365.874	298.42
366.256	306.79
366.637	295.03
367.019	288.93
367.4	295.71
367.781	302.49
368.163	294.13
368.544	296.16
368.925	294.58
369.306	318.54
369.688	290.51
370.069	262.49
370.45	300.91
370.831	292.1
371.212	269.05
371.593	294.81
371.974	300.91
372.355	302.27
372.736	282.61
373.117	296.84
373.498	314.24
373.879	306.79
374.26	302.27
374.641	281.93
375.021	282.15
375.402	289.61
375.783	302.49
376.163	297.97
376.544	302.94
376.925	299.1
377.305	310.18
377.686	313.11
378.066	309.27
378.447	323.96
378.827	310.4
379.208	322.38
379.588	322.83
379.968	310.18
380.349	312.89
380.729	311.53
381.109	316.73
381.489	304.53
381.87	322.38
382.25	327.8
382.63	321.25
383.01	321.02
383.39	315.6
383.77	327.12
384.15	320.57
384.53	312.21
384.91	322.38
385.29	349.04
385.67	326.22
386.049	332.77
386.429	324.19
386.809	316.05
387.189	303.17
387.568	319.89
387.948	346.78
388.328	337.29
388.707	342.94
389.087	342.94
389.466	345.43
389.846	326.9
390.225	333.45
390.605	332.77
390.984	359.21
391.363	327.58
391.743	344.3
392.122	356.05
392.501	326.67
392.881	363.96
393.26	341.36
393.639	354.69
394.018	359.21
394.397	357.41
394.776	364.19
395.155	362.15
395.534	357.18
395.913	343.17
396.292	363.73
396.671	369.83
397.05	342.49
397.429	366.22
397.808	365.09
398.186	374.81
398.565	361.93
398.944	381.81
399.323	366.22
399.701	362.38
400.08	383.39
400.458	359.21
400.837	376.84
401.215	370.29
401.594	363.96
401.972	356.5
402.351	360.8
402.729	367.58
403.107	401.7
403.486	392.89
403.864	386.11
404.242	376.61
404.62	373
404.999	395.37
405.377	406.9
405.755	401.47
406.133	395.6
406.511	373
406.889	398.76
407.267	378.2
407.645	399.44
408.023	409.83
408.401	399.21
408.779	382.94
409.156	404.41
409.534	404.41
409.912	402.38
410.29	415.26
410.667	431.08
411.045	417.97
411.422	432.88
411.8	432.88
412.178	440.12
412.555	416.39
412.933	424.3
413.31	426.33
413.687	422.04
414.065	438.76
414.442	436.73
414.819	452.32
415.197	440.57
415.574	461.13
415.951	442.15
416.328	451.64
416.705	475.14
417.082	457.97
417.46	469.95
417.837	481.47
418.214	471.75
418.591	485.76
418.967	461.81
419.344	482.37
419.721	464.97
420.098	466.33
420.475	472.66
420.852	486.44
421.228	494.8
421.605	490.06
421.982	492.77
422.358	471.3
422.735	482.15
423.111	480.79
423.488	496.61
423.864	495.26
424.241	503.62
424.617	523.5
424.994	527.8
425.37	507.91
425.746	506.33
426.123	510.17
426.499	521.24
426.875	526.89
427.251	539.77
427.627	531.19
428.003	514.69
428.379	528.25
428.756	530.73
429.132	514.01
429.507	522.83
429.883	562.82
430.259	546.78
430.635	553.56
431.011	552.88
431.387	556.5
431.763	572.99
432.138	565.76
432.514	575.48
432.89	583.61
433.265	607.79
433.641	598.08
434.016	596.04
434.392	601.02
434.767	606.21
435.143	608.92
435.518	597.63
435.894	618.19
436.269	617.74
436.644	611.18
437.02	631.75
437.395	640.56
437.77	636.72
438.145	651.64
438.52	641.47
438.895	649.83
439.271	630.84
439.646	650.96
440.021	662.03
440.395	661.8
440.77	668.81
441.145	666.32
441.52	663.39
441.895	685.53
442.27	687.57
442.645	664.74
443.019	670.62
443.394	692.99
443.769	685.76
444.143	706.55
444.518	715.14
444.892	685.08
445.267	715.81
445.641	722.37
446.016	677.62
446.39	710.39
446.764	712.65
447.139	714.91
447.513	718.07
447.887	727.11
448.262	725.31
448.636	735.48
449.01	712.88
449.384	752.65
449.758	746.77
450.132	760.11
450.506	770.95
450.88	773.67
451.254	750.16
451.628	755.59
452.002	766.21
452.376	754.91
452.75	788.58
453.123	784.74
453.497	789.71
453.871	798.07
454.244	789.71
454.618	803.95
454.992	832.65
455.365	827.68
455.739	836.04
456.112	857.28
456.486	878.97
456.859	849.37
457.232	866.09
457.606	864.74
457.979	874.91
458.352	862.03
458.725	895.47
459.099	904.96
459.472	910.16
459.845	920.55
460.218	912.65
460.591	925.3
460.964	939.99
461.337	964.4
461.71	947.22
462.083	957.16
462.456	990.61
462.829	962.81
463.201	994.9
463.574	988.35
463.947	1010.04
464.32	1030.61
464.692	1027.9
465.065	1020.21
465.438	1046.43
465.81	1045.98
466.183	1100.66
466.555	1081.45
466.928	1065.18
467.3	1098.86
467.672	1117.84
468.045	1127.78
468.417	1106.76
468.789	1127.33
469.161	1151.96
469.534	1151.74
469.906	1159.87
470.278	1185.86
470.65	1198.97
471.022	1194.22
471.394	1243.94
471.766	1212.98
472.138	1227.67
472.51	1276.25
472.882	1268.79
473.253	1292.75
473.625	1302.01
473.997	1335.01
474.369	1332.3
474.74	1336.14
475.112	1371.39
475.484	1371.62
475.855	1394.89
476.227	1393.99
476.598	1438.28
476.97	1472.86
477.341	1497.94
477.713	1513.31
478.084	1493.65
478.455	1552.85
478.827	1563.48
479.198	1612.06
479.569	1584.27
479.94	1600.31
480.311	1640.99
480.682	1674.66
481.053	1709.01
481.424	1715.56
481.795	1712.85
482.166	1772.74
482.537	1773.19
482.908	1817.48
483.279	1838.27
483.65	1833.98
484.021	1873.3
484.391	1915.78
484.762	1899.74
485.133	1934.54
485.503	1957.36
485.874	1996.68
486.244	1995.78
486.615	2052.95
486.985	2061.32
487.356	2097.93
487.726	2116.68
488.097	2134.76
488.467	2156.68
488.837	2183.35
489.207	2223.8
489.578	2238.49
489.948	2273.06
490.318	2310.8
490.688	2305.6
491.058	2312.38
491.428	2372.27
491.798	2356.68
492.168	2420.4
492.538	2471.02
492.908	2446.16
493.278	2476.9
493.648	2486.16
494.017	2536.56
494.387	2536.56
494.757	2577.23
495.126	2568.42
495.496	2594.64
495.866	2635.31
496.235	2614.3
496.605	2636.22
496.974	2689.77
497.344	2710.79
497.713	2712.6
498.082	2749.89
498.452	2798.25
498.821	2791.01
499.19	2808.87
499.559	2781.75
499.928	2841.41
500.298	2862.2
500.667	2873.72
501.036	2885.25
501.405	2913.27
501.774	2886.38
502.143	2936.77
502.512	2969.31
502.88	2992.59
503.249	2984
503.618	3014.29
503.987	3043.21
504.356	3068.07
504.724	3031.23
505.093	3116.88
505.462	3087.5
505.83	3104
506.199	3202.98
506.567	3230.78
506.936	3191
507.304	3257.89
507.672	3217.22
508.041	3296.76
508.409	3284.33
508.777	3294.05
509.145	3359.81
509.514	3361.62
509.882	3335.41
510.25	3354.39
510.618	3436.65
510.986	3453.82
511.354	3430.55
511.722	3499.24
512.09	3511.22
512.458	3508.51
512.826	3550.77
513.193	3594.38
513.561	3615.63
513.929	3614.72
514.297	3694.04
514.664	3643.2
515.032	3749.18
515.4	3708.05
515.767	3723.19
516.135	3758.45
516.502	3791.67
516.869	3814.49
517.237	3862.62
517.604	3842.51
517.972	3867.6
518.339	3869.63
518.706	3936.52
519.073	3947.82
519.44	3988.72
519.808	4055.16
520.175	4038.66
520.542	4081.83
520.909	4087.48
521.276	4134.48
521.643	4151.66
522.009	4168.61
522.376	4243.18
522.743	4261.48
523.11	4253.57
523.477	4375.83
523.843	4397.07
524.21	4429.84
524.577	4439.56
524.943	4479.33
525.31	4506.22
525.676	4525.21
526.043	4595.26
526.409	4570.4
526.776	4649.27
527.142	4709.61
527.508	4686.56
527.874	4719.55
528.241	4795.26
528.607	4802.94
528.973	4870.06
529.339	4858.53
529.705	4960.45
530.071	4919.77
530.437	4924.29
530.803	5003.16
531.169	5059.66
531.535	5055.81
531.901	5050.62
532.267	5116.6
532.632	5139.2
532.998	5143.72
533.364	5221.91
533.73	5199.54
534.095	5275.47
534.461	5317.28
534.826	5326.99
535.192	5352.08
535.557	5435.24
535.923	5394.34
536.288	5430.94
536.653	5452.19
537.019	5503.49
537.384	5569.92
537.749	5562.92
538.114	5565.86
538.479	5567.89
538.845	5598.17
539.21	5652.86
539.575	5648.57
539.94	5705.97
540.305	5712.29
540.67	5706.19
541.034	5796.81
541.399	5791.39
541.764	5867.09
542.129	5877.03
542.494	5917.49
542.858	5947.77
543.223	5996.81
543.587	6020.53
543.952	6087.88
544.316	6082.23
544.681	6070.93
545.045	6195.67
545.41	6183.92
545.774	6267.31
546.138	6248.78
546.503	6295.55
546.867	6325.61
547.231	6358.83
547.595	6408.55
547.959	6444.7
548.324	6467.75
548.688	6522.44
549.052	6581.42
549.416	6606.73
549.779	6635.21
550.143	6681.08
550.507	6692.15
550.871	6762.44
551.235	6761.31
551.599	6855.77
551.962	6893.73
552.326	6915.88
552.689	7011.92
553.053	6964.92
553.417	7037.91
553.78	7163.33
554.143	7142.09
554.507	7233.16
554.87	7273.38
555.234	7318.35
555.597	7381.85
555.96	7476.09
556.323	7516.99
556.686	7545.92
557.05	7642.41
557.413	7653.26
557.776	7671.79
558.139	7797.44
558.502	7823.88
558.865	7843.54
559.228	7987.71
559.59	8025
559.953	8049.63
560.316	8187.26
560.679	8178.9
561.041	8328.04
561.404	8353.13
561.767	8430.41
562.129	8500.47
562.492	8621.14
562.854	8662.5
563.217	8669.05
563.579	8715.6
563.941	8795.38
564.304	8922.38
564.666	8958.76
565.028	9027.01
565.39	9119.89
565.753	9260.9
566.115	9364.17
566.477	9317.4
566.839	9421.57
567.201	9520.55
567.563	9531.85
567.925	9728.91
568.287	9807.33
568.648	9742.24
569.01	9872.64
569.372	9960.77
569.734	10003.48
570.095	10144.49
570.457	10219.75
570.819	10260.2
571.18	10310.14
571.542	10466.52
571.903	10452.51
572.265	10594.2
572.626	10661.32
572.987	10755.55
573.349	10861.99
573.71	10862.21
574.071	10972.72
574.432	11092.49
574.794	11166.84
575.155	11253.39
575.516	11300.62
575.877	11330.68
576.238	11487.73
576.599	11523.44
576.96	11534.06
577.32	11612.48
577.681	11630.78
578.042	11791.46
578.403	11810.21
578.763	11908.29
579.124	11922.98
579.485	11963.43
579.845	12113.25
580.206	12170.2
580.566	12162.29
580.927	12252.01
581.287	12329.75
581.648	12398.45
582.008	12468.5
582.368	12477.77
582.728	12538.78
583.089	12542.4
583.449	12610.42
583.809	12644.77
584.169	12711.66
584.529	12692
584.889	12932.44
585.249	12892.22
585.609	12920.47
585.969	12961.59
586.329	12950.75
586.688	13051.31
587.048	13071.2
587.408	13120.01
587.768	13101.7
588.127	13198.65
588.487	13187.8
588.846	13381.24
589.206	13281.81
589.565	13357.06
589.925	13498.3
590.284	13460.11
590.643	13490.85
591.003	13579.88
591.362	13655.36
591.721	13591.18
592.08	13679.77
592.44	13723.61
592.799	13808.13
593.158	13795.02
593.517	13764.28
593.876	13856.49
594.235	13863.72
594.593	13945.52
594.952	13962.7
595.311	13919.31
595.67	14001.57
596.029	14093.09
596.387	14188.91
596.746	14166.08
597.104	14109.81
597.463	14142.13
597.822	14291.5
598.18	14206.76
598.538	14311.39
598.897	14388
599.255	14327.66
599.613	14538.28
599.972	14414.44
600.33	14465.96
600.688	14515.23
601.046	14528.33
601.404	14636.35
601.762	14622.79
602.12	14650.82
602.478	14732.62
602.836	14823.92
603.194	14733.53
603.552	14773.75
603.91	14756.35
604.268	14803.35
604.625	14807.2
604.983	14928.77
605.341	14839.96
605.698	14944.37
606.056	15018.49
606.413	14989.56
606.771	15152.72
607.128	15238.6
607.485	15060.75
607.843	15071.37
608.2	15178.71
608.557	15352.72
608.914	15261.42
609.272	15257.81
609.629	15291.7
609.986	15270.46
610.343	15419.61
610.7	15492.38
611.057	15448.53
611.414	15571.92
611.771	15427.97
612.127	15550.45
612.484	15604.01
612.841	15605.14
613.198	15650.56
613.554	15678.36
613.911	15686.04
614.267	15684.01
614.624	15687.17
614.98	15722.43
615.337	15813.95
615.693	15784.34
616.05	15812.14
616.406	15917.67
616.762	15787.28
617.118	15849.43
617.475	15890.1
617.831	15901.4
618.187	15970.55
618.543	15991.35
618.899	16008.97
619.255	16065.02
619.611	16043.1
619.967	16109.53
620.323	16103.43
620.678	16089.87
621.034	16001.51
621.39	16013.72
621.746	16138.69
622.101	16314.5
622.457	16177.78
622.812	16170.1
623.168	16265.46
623.523	16164.45
623.879	16268.17
624.234	16171.45
624.589	16194.05
624.945	16227.95
625.3	16284.22
625.655	16341.39
626.01	16296.42
626.365	16360.6
626.72	16305.46
627.075	16272.47
627.43	16285.8
627.785	16270.89
628.14	16314.5
628.495	16338.23
628.85	16393.59
629.205	16274.95
629.559	16311.34
629.914	16265.46
630.269	16270.66
630.623	16255.52
630.978	16234.73
631.332	16319.7
631.687	16429.3
632.041	16272.47
632.396	16335.06
632.75	16288.74
633.104	16308.4
633.459	16165.8
633.813	16177.33
634.167	16248.97
634.521	16160.61
634.875	16195.63
635.229	16054.85
635.583	16106.37
635.937	16184.79
636.291	16125.58
636.645	16037.67
636.999	16015.07
637.352	16117.67
637.706	15922.42
638.06	16105.47
638.413	16033.15
638.767	15998.58
639.121	16072.92
639.474	16019.14
639.828	16025.02
640.181	16032.93
640.534	16026.15
640.888	15950.44
641.241	15991.57
641.594	15931.01
641.947	15975.3
642.301	15896.21
642.654	15911.57
643.007	15973.94
643.36	15953.83
643.713	15961.52
644.066	16044
644.419	15822.31
644.771	15726.27
645.124	15621.41
645.477	15524.46
645.83	15598.14
646.182	15545.26
646.535	15445.6
646.888	15462.09
647.24	15390.68
647.593	15449.66
647.945	15463.68
648.298	15346.16
648.65	15350.01
649.002	15326.73
649.355	15349.33
649.707	15301.65
650.059	15425.48
650.411	15557.01
650.763	15606.72
651.115	15705.93
651.467	15677
651.819	15747.28
652.171	15704.8
652.523	15613.28
652.875	15681.75
653.227	15552.03
653.578	15662.99
653.93	15586.16
654.282	15605.14
654.633	15586.38
654.985	15622.09
655.337	15574.18
655.688	15667.96
656.039	15688.75
656.391	15533.73
656.742	15533.5
657.094	15580.06
657.445	15676.78
657.796	15698.7
658.147	15599.72
658.498	15551.58
658.849	15520.17
659.2	15574.41
659.551	15548.42
659.902	15667.51
660.253	15508.65
660.604	15654.18
660.955	15528.08
661.306	15675.87
661.656	15621.41
662.007	15616.44
662.358	15708.64
662.708	15609.66
663.059	15600.62
663.409	15510.23
663.76	15630.45
664.11	15599.72
664.461	15644.46
664.811	15649.89
665.161	15645.82
665.511	15674.29
665.862	15592.03
666.212	15670.9
666.562	15626.61
666.912	15654.18
667.262	15621.19
667.612	15620.73
667.962	15648.08
668.312	15651.47
668.662	15753.84
669.011	15674.52
669.361	15573.05
669.711	15645.37
670.06	15637.68
670.41	15594.07
670.76	15601.75
671.109	15753.61
671.459	15612.15
671.808	15548.42
672.157	15660.96
672.507	15553.39
672.856	15522.66
673.205	15755.42
673.554	15670
673.904	15609.21
674.253	15785.02
674.602	15709.09
674.951	15447.18
675.3	15315.66
675.649	15689.21
675.998	15681.75
676.346	15643.11
676.695	15697.34
677.044	15615.99
677.393	15669.09
677.741	15621.41
678.09	15632.71
678.438	15575.76
678.787	15676.55
679.135	15724.69
679.484	15590.9
679.832	15679.94
680.181	15556.55
680.529	15654.63
680.877	15569.21
681.225	15630.68
681.573	15642.65
681.922	15524.69
682.27	15532.83
682.618	15390.91
682.966	15522.88
683.314	15562.88
683.661	15561.98
684.009	15462.32
684.357	15447.18
684.705	15488.53
685.053	15429.78
685.4	15429.1
685.748	15353.62
686.095	15321.31
686.443	15326.96
686.79	15310.01
687.138	15421.19
687.485	15380.06
687.832	15345.03
688.18	15449.89
688.527	15282.66
688.874	15308.43
689.221	15185.26
689.568	15193.85
689.915	15183
690.262	15120.86
690.609	15148.88
690.956	15182.55
691.303	15150.46
691.65	15041.77
691.997	15065.27
692.344	15017.13
692.69	15087.87
693.037	14973.97
693.383	14872.5
693.73	14974.87
694.077	14895.33
694.423	14976.91
694.769	14855.56
695.116	14777.14
695.462	14823.24
695.808	14816.01
696.155	14825.05
696.501	14792.73
696.847	14844.48
697.193	14695.33
697.539	14787.53
697.885	14651.04
698.231	14576.02
698.577	14627.31
698.923	14558.84
699.269	14546.86
699.614	14460.31
699.96	14514.77
700.306	14518.39
700.651	14431.61
700.997	14419.41
701.342	14397.71
701.688	14375.57
702.033	14332.63
702.379	14297.83
702.724	14270.03
703.069	14415.79
703.415	14159.3
703.76	14202.92
704.105	14181
704.45	14219.19
704.795	14225.52
705.14	14153.43
705.485	14144.16
705.83	13982.36
706.175	14123.15
706.52	14012.64
706.865	14057.16
707.209	14076.59
707.554	13919.76
707.899	14073.2
708.243	13918.86
708.588	13918.63
708.932	13819.2
709.277	13840.44
709.621	13793.44
709.966	13800.22
710.31	13776.04
710.654	13726.55
710.998	13748.47
711.342	13778.75
711.687	13788.69
712.031	13752.99
712.375	13639.32
712.719	13708.02
713.063	13698.52
713.407	13725.19
713.75	13698.98
714.094	13631.63
714.438	13572.65
714.782	13628.02
715.125	13555.48
715.469	13570.39
715.812	13532.2
716.156	13529.26
716.499	13487.91
716.843	13501.24
717.186	13450.39
717.53	13485.65
717.873	13419.89
718.216	13446.33
718.559	13456.95
718.902	13396.61
719.246	13413.56
719.589	13348.7
719.932	13280.23
720.275	13324.52
720.617	13414.01
720.96	13353.22
721.303	13218.08
721.646	13362.71
721.989	13220.12
722.331	13316.61
722.674	13221.02
723.016	13237.52
723.359	13155.71
723.701	13265.09
724.044	13192.1
724.386	13195.71
724.729	13197.97
725.071	13157.52
725.413	13120.91
725.755	13180.12
726.097	13084.08
726.439	13042.5
726.782	13080.46
727.124	13143.28
727.465	13105.32
727.807	13087.01
728.149	13034.81
728.491	12951.65
728.833	13032.55
729.175	13042.95
729.516	12915.95
729.858	13009.28
730.199	12990.97
730.541	12980.58
730.882	12922.5
731.224	12920.47
731.565	12875.72
731.906	12933.57
732.248	12909.62
732.589	12844.08
732.93	12917.3
733.271	12851.31
733.612	12941.71
733.953	12871.65
734.294	12808.83
734.635	12775.61
734.976	12910.3
735.317	12716.18
735.658	12743.97
735.999	12756.18
736.339	12661.94
736.68	12734.03
737.021	12722.73
737.361	12690.87
737.702	12818.55
738.042	12597.08
738.383	12591.21
738.723	12652.22
739.063	12612.45
739.404	12656.52
739.744	12621.49
740.084	12581.72
740.424	12571.32
740.764	12550.08
741.104	12646.35
741.444	12475.96
741.784	12514.37
742.124	12513.24
742.464	12427.37
742.804	12449.29
743.143	12475.96
743.483	12434.83
743.823	12366.58
744.162	12415.85
744.502	12410.87
744.841	12293.82
745.181	12391.44
745.52	12370.65
745.86	12323.42
746.199	12381.5
746.538	12262.18
746.877	12376.75
747.216	12342.18
747.556	12291.56
747.895	12274.61
748.234	12143.76
748.573	12233.25
748.911	12201.61
749.25	12202.07
749.589	12173.82
749.928	12135.4
750.267	12172.24
750.605	12130.88
750.944	12034.16
751.283	12033.03
751.621	12080.04
751.96	12036.19
752.298	11916.42
752.636	11965.24
752.975	11852.24
753.313	11865.58
753.651	11885.69
753.989	11822.42
754.327	11774.96
754.666	11732.93
755.004	11803.43
755.342	11774.51
755.679	11744.23
756.017	11676.43
756.355	11671.68
756.693	11621.29
757.031	11575.87
757.368	11500.84
757.706	11485.7
758.044	11486.6
758.381	11553.95
758.719	11454.52
759.056	11463.33
759.394	11421.3
759.731	11385.82
760.068	11317.57
760.405	11260.62
