Data from brown_tile_FLMS001491_067.txt Node
Date: Tue Feb 07 10:37:50 GMT 2017
User: dcchb
Spectrometer: FLMS00149
Trigger mode: 0
Integration Time (sec): 2.000000E-2
Scans to average: 10
Electric dark correction enabled: true
Nonlinearity correction enabled: false
Boxcar width: 0
XAxis mode: Wavelengths
Number of Pixels in Spectrum: 2048
>>>>>Begin Spectral Data<<<<<
341.393	-4.96
341.776	-4.96
342.16	-4.96
342.543	-77.05
342.927	-85.18
343.31	-85.63
343.693	-62.36
344.077	-73.88
344.46	-50.15
344.843	-75.69
345.226	-49.48
345.61	-28.23
345.993	-5.64
346.376	-2.47
346.759	11.31
347.142	27.36
347.525	46.57
347.908	50.41
348.291	84.53
348.674	86.79
349.057	126.56
349.44	130.63
349.823	118.2
350.206	154.59
350.588	190.07
350.971	180.57
351.354	212.44
351.737	220.35
352.119	218.09
352.502	224.64
352.884	237.97
353.267	249.27
353.65	269.84
354.032	269.61
354.414	280.23
354.797	284.75
355.179	313.45
355.562	324.98
355.944	302.15
356.326	317.52
356.709	314.81
357.091	314.58
357.473	299.89
357.855	316.84
358.238	308.93
358.62	347.58
359.002	326.56
359.384	323.17
359.766	331.3
360.148	339.44
360.53	336.28
360.912	302.83
361.294	321.81
361.676	313.23
362.057	311.42
362.439	334.92
362.821	303.06
363.203	315.49
363.584	302.83
363.966	310.06
364.348	307.58
364.729	293.79
365.111	313
365.493	320.68
365.874	297.86
366.256	294.92
366.637	293.11
367.019	303.96
367.4	294.47
367.781	281.81
368.163	300.57
368.544	277.29
368.925	303.73
369.306	322.72
369.688	298.31
370.069	282.94
370.45	288.82
370.831	293.79
371.212	298.99
371.593	300.12
371.974	292.89
372.355	261.48
372.736	296.73
373.117	302.83
373.498	293.11
373.879	287.92
374.26	317.29
374.641	304.64
375.021	318.65
375.402	309.84
375.783	314.13
376.163	309.16
376.544	323.4
376.925	275.26
377.305	324.75
377.686	285.2
378.066	293.11
378.447	312.32
378.827	300.57
379.208	336.73
379.588	327.01
379.968	312.77
380.349	318.65
380.729	310.51
381.109	297.63
381.489	316.39
381.87	319.55
382.25	303.96
382.63	315.49
383.01	320.68
383.39	329.95
383.77	315.71
384.15	316.39
384.53	334.92
384.91	320.91
385.29	329.95
385.67	324.75
386.049	337.86
386.429	333.34
386.809	337.41
387.189	344.86
387.568	335.6
387.948	327.01
388.328	343.51
388.707	347.12
389.087	327.46
389.466	340.57
389.846	319.55
390.225	337.18
390.605	333.56
390.984	336.73
391.363	344.19
391.743	342.38
392.122	345.54
392.501	349.61
392.881	348.03
393.26	333.34
393.639	343.96
394.018	345.09
394.397	362.72
394.776	355.94
395.155	359.78
395.534	360.46
395.913	336.28
396.292	362.49
396.671	343.96
397.05	360
397.429	334.92
397.808	371.76
398.186	344.86
398.565	361.81
398.944	372.21
399.323	378.31
399.701	366.78
400.08	375.37
400.458	352.77
400.837	387.35
401.215	397.97
401.594	374.69
401.972	376.28
402.351	372.21
402.729	380.57
403.107	381.7
403.486	387.12
403.864	385.54
404.242	374.92
404.62	365.2
404.999	387.57
405.377	375.82
405.755	404.52
406.133	389.38
406.511	391.64
406.889	398.87
407.267	416.27
407.645	410.4
408.023	399.1
408.401	398.2
408.779	391.64
409.156	412.88
409.534	403.17
409.912	421.02
410.29	395.26
410.667	411.75
411.045	413.11
411.422	390.51
411.8	412.21
412.178	420.34
412.555	432.55
412.933	428.25
413.31	427.8
413.687	422.6
414.065	448.82
414.442	437.97
414.819	431.64
415.197	429.61
415.574	452.66
415.951	444.97
416.328	454.01
416.705	455.14
417.082	437.74
417.46	427.8
417.837	443.84
418.214	452.43
418.591	467.35
418.967	456.5
419.344	446.33
419.721	464.86
420.098	456.05
420.475	466.89
420.852	452.88
421.228	466.67
421.605	471.64
421.982	475.93
422.358	479.78
422.735	469.38
423.111	494.92
423.488	485.65
423.864	504.63
424.241	492.88
424.617	503.05
424.994	493.79
425.37	517.06
425.746	473.67
426.123	499.44
426.499	510.06
426.875	527.68
427.251	507.12
427.627	517.29
428.003	505.99
428.379	533.33
428.756	528.59
429.132	550.28
429.507	536.27
429.883	561.13
430.259	549.15
430.635	540.56
431.011	535.14
431.387	569.94
431.763	561.36
432.138	583.95
432.514	571.07
432.89	564.75
433.265	572.65
433.641	570.17
434.016	588.47
434.392	565.65
434.767	600.45
435.143	588.7
435.518	609.26
435.894	611.98
436.269	624.18
436.644	613.78
437.02	625.53
437.395	615.59
437.77	642.48
438.145	627.79
438.52	625.76
438.895	638.42
439.271	628.47
439.646	645.42
440.021	650.84
440.395	654.91
440.77	668.25
441.145	654.69
441.52	679.77
441.895	703.72
442.27	678.64
442.645	683.16
443.019	667.57
443.394	662.82
443.769	688.58
444.143	691.75
444.518	703.5
444.892	708.7
445.267	691.52
445.641	703.27
446.016	716.61
446.39	708.24
446.764	698.07
447.139	686.55
447.513	731.52
447.887	712.54
448.262	730.16
448.636	728.36
449.01	727
449.384	745.08
449.758	743.5
450.132	742.82
450.506	765.64
450.88	771.75
451.254	749.37
451.628	737.62
452.002	752.99
452.376	777.62
452.75	764.74
453.123	758.64
453.497	790.73
453.871	793.89
454.244	813.33
454.618	804.96
454.992	805.19
455.365	784.4
455.739	803.83
456.112	829.82
456.486	837.28
456.859	835.25
457.232	852.87
457.606	864.62
457.979	835.92
458.352	851.97
458.725	894.68
459.099	905.08
459.472	896.94
459.845	921.12
460.218	910.95
460.591	910.5
460.964	932.42
461.337	950.27
461.71	947.33
462.083	952.53
462.456	948.69
462.829	952.98
463.201	994.34
463.574	978.07
463.947	991.4
464.32	1011.29
464.692	1036.37
465.065	1023.94
465.438	1027.78
465.81	1027.56
466.183	1037.05
466.555	1056.26
466.928	1058.29
467.3	1080.21
467.672	1070.49
468.045	1110.27
468.417	1124.05
468.789	1130.83
469.161	1131.28
469.534	1127.67
469.906	1183.94
470.278	1161.34
470.65	1167.22
471.022	1196.59
471.394	1210.15
471.766	1215.35
472.138	1213.54
472.51	1246.31
472.882	1265.07
473.253	1270.49
473.625	1314.1
473.997	1314.1
474.369	1346.87
474.74	1355.91
475.112	1362.24
475.484	1377.38
475.855	1395.46
476.227	1408.79
476.598	1425.51
476.97	1466.87
477.341	1475
477.713	1498.73
478.084	1493.53
478.455	1533.31
478.827	1540.54
479.198	1575.57
479.569	1580.99
479.94	1604.72
480.311	1631.38
480.682	1659.18
481.053	1708.9
481.424	1710.25
481.795	1707.09
482.166	1757.03
482.537	1757.26
482.908	1792.74
483.279	1813.53
483.65	1820.31
484.021	1889
484.391	1869.34
484.762	1906.18
485.133	1922.22
485.503	1916.57
485.874	1966.52
486.244	1999.06
486.615	2036.12
486.985	2028.66
487.356	2070.24
487.726	2088.32
488.097	2129.22
488.467	2109.56
488.837	2146.85
489.207	2162.9
489.578	2181.43
489.948	2226.4
490.318	2262.33
490.688	2262.1
491.058	2296.68
491.428	2339.39
491.798	2356.79
492.168	2396.79
492.538	2419.61
492.908	2423
493.278	2466.16
493.648	2478.82
494.017	2483.79
494.387	2531.02
494.757	2542.09
495.126	2556.11
495.496	2585.93
495.866	2607.63
496.235	2630.23
496.605	2607.86
496.974	2655.54
497.344	2671.81
497.713	2693.28
498.082	2723.56
498.452	2740.73
498.821	2770.34
499.19	2800.62
499.559	2776.66
499.928	2821.86
500.298	2819.6
500.667	2870.67
501.036	2863.44
501.405	2874.29
501.774	2888.98
502.143	2942.54
502.512	2947.06
502.88	3001.07
503.249	2981.18
503.618	2988.64
503.987	3017.34
504.356	3034.96
504.724	3022.53
505.093	3050.78
505.462	3062.98
505.83	3094.17
506.199	3112.93
506.567	3124.23
506.936	3149.99
507.304	3206.03
507.672	3223.21
508.041	3204.45
508.409	3259.59
508.777	3260.49
509.145	3305.24
509.514	3311.57
509.882	3346.59
510.25	3364.45
510.618	3336.88
510.986	3376.2
511.354	3406.25
511.722	3443.09
512.09	3467.49
512.458	3452.13
512.826	3496.42
513.193	3569.64
513.561	3548.4
513.929	3564.89
514.297	3625
514.664	3646.25
515.032	3682.4
515.4	3696.19
515.767	3685.34
516.135	3700.03
516.502	3688.73
516.869	3734.83
517.237	3773.47
517.604	3762.63
517.972	3841.5
518.339	3852.57
518.706	3835.39
519.073	3962.17
519.44	3918.78
519.808	4029.29
520.175	3987.25
520.542	4053.01
520.909	4053.69
521.276	4035.61
521.643	4081.71
522.009	4128.04
522.376	4172.33
522.743	4231.09
523.11	4221.82
523.477	4326.91
523.843	4309.73
524.21	4346.11
524.577	4409.62
524.943	4456.17
525.31	4467.47
525.676	4484.64
526.043	4492.55
526.409	4524.19
526.776	4612.32
527.142	4676.05
527.508	4672.21
527.874	4672.43
528.241	4697.97
528.607	4746.56
528.973	4781.81
529.339	4826.55
529.705	4827.23
530.071	4876.04
530.437	4899.55
530.803	4954.69
531.169	4980
531.535	4997.4
531.901	5038.98
532.267	5081.46
532.632	5103.61
532.998	5101.35
533.364	5157.62
533.73	5184.96
534.095	5224.06
534.461	5218.63
534.826	5267.9
535.192	5330.95
535.557	5331.63
535.923	5406.88
536.288	5391.28
536.653	5454.11
537.019	5414.56
537.384	5478.06
537.749	5502.02
538.114	5469.02
538.479	5512.86
538.845	5574.56
539.21	5589.92
539.575	5628.11
539.94	5687.32
540.305	5676.02
540.67	5712.41
541.034	5729.58
541.399	5826.53
541.764	5806.87
542.129	5826.98
542.494	5884.15
542.858	5928.22
543.223	5949.46
543.587	5969.12
543.952	5962.12
544.316	6025.39
544.681	6060.42
545.045	6070.81
545.41	6139.51
545.774	6097.93
546.138	6169.57
546.503	6219.06
546.867	6213.41
547.231	6289.79
547.595	6300.41
547.959	6344.93
548.324	6426.29
548.688	6461.54
549.052	6419.51
549.416	6486.17
549.779	6530.92
550.143	6527.53
550.507	6617.47
550.871	6683
551.235	6707.18
551.599	6763.23
551.962	6779.95
552.326	6815.65
552.689	6940.85
553.053	6912.6
553.417	6952.37
553.78	7066.95
554.143	7037.34
554.507	7157.79
554.87	7146.72
555.234	7242.76
555.597	7255.87
555.96	7300.16
556.323	7401.4
556.686	7398.92
557.05	7515.75
557.413	7541.28
557.776	7631.68
558.139	7675.74
558.502	7733.37
558.865	7749.64
559.228	7856.76
559.59	7902.41
559.953	7986.92
560.316	8087.03
560.679	8130.42
561.041	8194.83
561.404	8258.1
561.767	8358.21
562.129	8369.51
562.492	8533.35
562.854	8523.41
563.217	8553.24
563.579	8703.51
563.941	8776.05
564.304	8860.8
564.666	8888.14
565.028	8884.75
565.39	9059.89
565.753	9141.47
566.115	9151.86
566.477	9223.73
566.839	9320.9
567.201	9421.01
567.563	9479.99
567.925	9576.71
568.287	9622.13
568.648	9775.35
569.01	9752.53
569.372	9933.99
569.734	9919.3
570.095	10018.51
570.457	10089.24
570.819	10197.94
571.18	10213.3
571.542	10272.96
571.903	10365.84
572.265	10437.48
572.626	10502.11
572.987	10584.37
573.349	10717.25
573.71	10786.85
574.071	10884.7
574.432	10971.7
574.794	11030.68
575.155	11044.92
575.516	11084.02
575.877	11239.49
576.238	11306.84
576.599	11451.69
576.96	11418.02
577.32	11477.68
577.681	11583.21
578.042	11684
578.403	11682.19
578.763	11714.28
579.124	11918.8
579.485	11922.64
579.845	12097.55
580.206	12085.12
580.566	12035.4
580.927	12151.33
581.287	12246.02
581.648	12291.67
582.008	12436.07
582.368	12430.87
582.728	12475.84
583.089	12444.66
583.449	12537.76
583.809	12579.12
584.169	12593.81
584.529	12591.1
584.889	12765.78
585.249	12801.03
585.609	12830.86
585.969	12962.61
586.329	12938.21
586.688	12998.09
587.048	13089.16
587.408	13010.29
587.768	13092.1
588.127	13093.46
588.487	13100.91
588.846	13301.36
589.206	13252.55
589.565	13287.8
589.925	13338.87
590.284	13404.41
590.643	13453.9
591.003	13500.22
591.362	13600.79
591.721	13609.83
592.08	13625.87
592.44	13675.13
592.799	13758.75
593.158	13655.02
593.517	13719.65
593.876	13798.3
594.235	13781.12
594.593	13840.1
594.952	13886.65
595.311	13904.96
595.67	14029.93
596.029	14001.68
596.387	14173.88
596.746	14214.78
597.104	14140.66
597.463	14125.52
597.822	14267.21
598.18	14228.34
598.538	14281.45
598.897	14316.02
599.255	14225.4
599.613	14367.09
599.972	14408.67
600.33	14468.56
600.688	14431.5
601.046	14539.52
601.404	14566.64
601.762	14614.55
602.12	14616.13
602.478	14685.5
602.836	14733.86
603.194	14638.73
603.552	14871.49
603.91	14732.06
604.268	14764.37
604.625	14758.5
604.983	14864.93
605.341	14843.92
605.698	14896.8
606.056	14966.85
606.413	15003.91
606.771	14923.01
607.128	15042.1
607.485	15011.37
607.843	14960.52
608.2	15133.63
608.557	15246.84
608.914	15182.21
609.272	15205.04
609.629	15287.75
609.986	15307.41
610.343	15285.04
610.7	15348.76
611.057	15431.02
611.414	15368.42
611.771	15403.9
612.127	15502.43
612.484	15457.23
612.841	15545.82
613.198	15476.22
613.554	15544.01
613.911	15654.52
614.267	15563.45
614.624	15542.2
614.98	15660.85
615.337	15611.58
615.693	15680.96
616.05	15635.99
616.406	15830.11
616.762	15676.66
617.118	15793.5
617.475	15810.9
617.831	15910.56
618.187	15932.7
618.543	15878.47
618.899	15986.26
619.255	15973.61
619.611	15928.63
619.967	15964.79
620.323	16046.82
620.678	16052.47
621.034	16035.75
621.39	16040.27
621.746	16104.22
622.101	16169.98
622.457	16057.45
622.812	16075.07
623.168	16183.77
623.523	16222.86
623.879	16190.32
624.234	16106.48
624.589	16205.01
624.945	16156.65
625.3	16202.3
625.655	16201.85
626.01	16148.74
626.365	16233.94
626.72	16282.75
627.075	16339.25
627.43	16236.88
627.785	16194.62
628.14	16189.42
628.495	16235.97
628.85	16253.15
629.205	16158.91
629.559	16282.75
629.914	16188.06
630.269	16127.05
630.623	16117.78
630.978	16144.9
631.332	16194.39
631.687	16278.46
632.041	16189.87
632.396	16171.57
632.75	16134.51
633.104	16113.49
633.459	16116.65
633.813	16170.66
634.167	16097.67
634.521	16116.65
634.875	16054.51
635.229	16052.25
635.583	15982.87
635.937	15983.1
636.291	16034.85
636.645	16099.7
636.999	16031.01
637.352	16091.57
637.706	15929.99
638.06	16032.36
638.413	15999.14
638.767	15970.89
639.121	15967.96
639.474	15918.01
639.828	15971.8
640.181	15924.79
640.534	15885.47
640.888	15945.81
641.241	15862.87
641.594	15822.42
641.947	15902.87
642.301	15859.03
642.654	15880.73
643.007	15871.46
643.36	15871.24
643.713	15780.84
644.066	15923.89
644.419	15810.9
644.771	15617.68
645.124	15641.86
645.477	15562.32
645.83	15447.29
646.182	15314.19
646.535	15309.67
646.888	15419.5
647.24	15210.24
647.593	15384.92
647.945	15387.41
648.298	15269.22
648.65	15285.26
649.002	15187.86
649.355	15280.74
649.707	15345.6
650.059	15383.34
650.411	15556.67
650.763	15539.72
651.115	15779.49
651.467	15651.13
651.819	15651.13
652.171	15631.02
652.523	15718.47
652.875	15655.65
653.227	15546.27
653.578	15637.12
653.93	15573.84
654.282	15564.35
654.633	15541.98
654.985	15579.27
655.337	15601.19
655.688	15524.58
656.039	15626.04
656.391	15428.99
656.742	15519.38
657.094	15539.27
657.445	15557.8
657.796	15603.45
658.147	15570
658.498	15501.75
658.849	15562.77
659.2	15560.28
659.551	15499.95
659.902	15549.21
660.253	15548.08
660.604	15615.42
660.955	15500.85
661.306	15553.5
661.656	15552.6
662.007	15589.21
662.358	15513.05
662.708	15547.18
663.059	15612.03
663.409	15453.39
663.76	15590.79
664.11	15561.19
664.461	15607.06
664.811	15548.53
665.161	15602.32
665.511	15515.09
665.862	15599.6
666.212	15598.7
666.562	15658.36
666.912	15639.6
667.262	15621.75
667.612	15586.5
667.962	15632.6
668.312	15636.44
668.662	15631.69
669.011	15692.71
669.361	15565.25
669.711	15653.61
670.06	15597.57
670.41	15680.05
670.76	15613.39
671.109	15636.67
671.459	15658.59
671.808	15631.92
672.157	15678.25
672.507	15548.76
672.856	15546.27
673.205	15654.97
673.554	15726.61
673.904	15604.58
674.253	15782.65
674.602	15641.86
674.951	15430.57
675.3	15409.78
675.649	15611.58
675.998	15546.05
676.346	15632.15
676.695	15688.64
677.044	15570.9
677.393	15693.84
677.741	15641.86
678.09	15628.98
678.438	15688.19
678.787	15650.45
679.135	15786.04
679.484	15609.55
679.832	15705.82
680.181	15546.27
680.529	15637.8
680.877	15603.45
681.225	15582.2
681.573	15668.3
681.922	15604.8
682.27	15522.54
682.618	15682.77
682.966	15517.35
683.314	15637.57
683.661	15518.02
684.009	15460.85
684.357	15501.3
684.705	15393.51
685.053	15445.71
685.4	15500.85
685.748	15439.83
686.095	15372.94
686.443	15485.71
686.79	15393.28
687.138	15431.02
687.485	15391.47
687.832	15468.76
688.18	15414.98
688.527	15342.21
688.874	15302.44
689.221	15344.92
689.568	15270.57
689.915	15228.99
690.262	15268.77
690.609	15176.34
690.956	15177.69
691.303	15123.01
691.65	15125.49
691.997	15105.38
692.344	14977.47
692.69	15077.36
693.037	15038.26
693.383	14956.23
693.73	14946.97
694.077	14897.93
694.423	14949.68
694.769	14891.6
695.116	14830.13
695.462	14810.02
695.808	14854.99
696.155	14850.25
696.501	14750.81
696.847	14714.66
697.193	14722.56
697.539	14738.38
697.885	14602.34
698.231	14613.64
698.577	14580.2
698.923	14579.74
699.269	14489.8
699.614	14424.49
699.96	14424.49
700.306	14503.36
700.651	14413.87
700.997	14450.71
701.342	14371.84
701.688	14394.89
702.033	14353.31
702.379	14279.19
702.724	14332.29
703.069	14379.3
703.415	14176.82
703.76	14272.86
704.105	14239.64
704.45	14272.41
704.795	14078.51
705.14	14116.03
705.485	14099.3
705.83	14142.92
706.175	14147.89
706.52	14029.48
706.865	13998.29
707.209	14011.17
707.554	13957.84
707.899	13969.82
708.243	13973.66
708.588	13891.63
708.932	13842.81
709.277	13871.29
709.621	13978.63
709.966	13800.78
710.31	13815.92
710.654	13729.14
710.998	13748.58
711.342	13864.73
711.687	13778.63
712.031	13758.52
712.375	13702.7
712.719	13645.08
713.063	13744.74
713.407	13747.22
713.75	13739.09
714.094	13597.62
714.438	13516.49
714.782	13630.62
715.125	13533.9
715.469	13629.49
715.812	13566.21
716.156	13528.92
716.499	13479.89
716.843	13575.93
717.186	13446.21
717.53	13544.52
717.873	13489.15
718.216	13502.48
718.559	13421.36
718.902	13332.09
719.246	13383.84
719.589	13335.26
719.932	13304.75
720.275	13222.04
720.617	13354.01
720.96	13391.07
721.303	13360.11
721.646	13289.83
721.989	13285.31
722.331	13372.77
722.674	13224.98
723.016	13329.38
723.359	13210.29
723.701	13217.75
724.044	13174.81
724.386	13224.3
724.729	13239.89
725.071	13209.61
725.413	13248.03
725.755	13134.36
726.097	13175.94
726.439	13076.51
726.782	13083.74
727.124	13164.19
727.465	13076.51
727.807	13064.98
728.149	13101.36
728.491	13036.51
728.833	13025.43
729.175	13089.39
729.516	12999.45
729.858	13004.42
730.199	12972.1
730.541	13038.09
730.882	12921.03
731.224	13004.42
731.565	12888.71
731.906	12982.27
732.248	12951.54
732.589	12930.3
732.93	12928.26
733.271	12818.89
733.612	12942.72
733.953	12863.18
734.294	12852.56
734.635	12836.74
734.976	12816.4
735.317	12746.57
735.658	12796.97
735.999	12768.27
736.339	12747.02
736.68	12855.95
737.021	12799.68
737.361	12693.24
737.702	12795.84
738.042	12758.77
738.383	12682.84
738.723	12677.42
739.063	12702.28
739.404	12797.19
739.744	12699.34
740.084	12622.51
740.424	12643.98
740.764	12625.44
741.104	12654.82
741.444	12518.56
741.784	12526.46
742.124	12553.58
742.464	12568.95
742.804	12498.44
743.143	12514.49
743.483	12469.52
743.823	12449.86
744.162	12413.93
744.502	12468.61
744.841	12429.52
745.181	12410.08
745.52	12292.35
745.86	12441.27
746.199	12387.49
746.538	12282.18
746.877	12399.69
747.216	12309.97
747.556	12256.19
747.895	12343.64
748.234	12187.94
748.573	12213.25
748.911	12195.17
749.25	12175.06
749.589	12121.73
749.928	12171.22
750.267	12169.19
750.605	12122.86
750.944	12003.77
751.283	12044.22
751.621	12032.01
751.96	12062.07
752.298	11907.05
752.636	12040.6
752.975	11890.32
753.313	11939.59
753.651	11953.15
753.989	11867.05
754.327	11840.61
754.666	11795.18
755.004	11792.02
755.342	11782.76
755.679	11770.1
756.017	11648.97
756.355	11714.28
756.693	11647.39
757.031	11708.86
757.368	11461.86
757.706	11571.24
758.044	11555.19
758.381	11492.37
758.719	11440.84
759.056	11465.02
759.394	11472.71
759.731	11373.95
760.068	11320.39
760.405	11378.25
