Data from brown_tile_FLMS001491_023.txt Node
Date: Tue Feb 07 10:37:17 GMT 2017
User: dcchb
Spectrometer: FLMS00149
Trigger mode: 0
Integration Time (sec): 2.000000E-2
Scans to average: 10
Electric dark correction enabled: true
Nonlinearity correction enabled: false
Boxcar width: 0
XAxis mode: Wavelengths
Number of Pixels in Spectrum: 2048
>>>>>Begin Spectral Data<<<<<
341.393	-40.28
341.776	-40.28
342.16	-40.28
342.543	-39.6
342.927	-72.14
343.31	-61.75
343.693	-61.75
344.077	-57.46
344.46	-60.17
344.843	-40.96
345.226	-38.25
345.61	-27.85
345.993	-32.15
346.376	-21.3
346.759	14.18
347.142	30.45
347.525	31.13
347.908	69.32
348.291	88.53
348.674	77.46
349.057	90.56
349.44	125.36
349.823	154.52
350.206	161.52
350.588	176.21
350.971	186.83
351.354	204.01
351.737	234.97
352.119	244
352.502	256.43
352.884	249.2
353.267	262.99
353.65	273.16
354.032	272.7
354.414	308.41
354.797	329.2
355.179	301.4
355.562	302.08
355.944	335.3
356.326	309.09
356.709	335.53
357.091	328.3
357.473	318.13
357.855	324.23
358.238	317
358.62	347.05
359.002	329.65
359.384	341.86
359.766	314.06
360.148	295.53
360.53	327.84
360.912	324
361.294	335.53
361.676	330.33
362.057	314.51
362.439	326.71
362.821	319.26
363.203	309.09
363.584	286.72
363.966	310.9
364.348	314.29
364.729	315.42
365.111	295.08
365.493	303.89
365.874	291.46
366.256	309.54
366.637	297.79
367.019	299.14
367.4	304.12
367.781	307.28
368.163	297.79
368.544	296.21
368.925	304.12
369.306	309.99
369.688	295.3
370.069	315.19
370.45	304.57
370.831	291.24
371.212	286.72
371.593	297.79
371.974	308.86
372.355	302.53
372.736	295.75
373.117	309.31
373.498	299.6
373.879	296.88
374.26	331.23
374.641	296.88
375.021	311.12
375.402	297.79
375.783	308.18
376.163	293.72
376.544	301.4
376.925	304.79
377.305	326.71
377.686	316.77
378.066	300.95
378.447	306.6
378.827	308.64
379.208	303.21
379.588	341.63
379.968	314.96
380.349	337.11
380.729	312.7
381.109	302.99
381.489	323.1
381.87	342.31
382.25	325.13
382.63	315.64
383.01	331.23
383.39	328.75
383.77	329.43
384.15	337.11
384.53	338.69
384.91	306.38
385.29	340.5
385.67	343.89
386.049	345.25
386.429	352.7
386.809	343.21
387.189	327.62
387.568	341.63
387.948	348.63
388.328	338.01
388.707	346.15
389.087	342.53
389.466	334.62
389.846	357
390.225	351.35
390.605	341.63
390.984	357.22
391.363	367.17
391.743	367.39
392.122	352.25
392.501	385.92
392.881	367.39
393.26	333.04
393.639	359.03
394.018	373.49
394.397	369.65
394.776	355.64
395.155	356.32
395.534	360.61
395.913	377.56
396.292	352.48
396.671	371.46
397.05	355.64
397.429	345.92
397.808	375.75
398.186	371.01
398.565	368.07
398.944	354.51
399.323	388.86
399.701	356.09
400.08	375.98
400.458	387.28
400.837	391.57
401.215	384.57
401.594	381.18
401.972	394.28
402.351	372.59
402.729	376.88
403.107	367.62
403.486	394.06
403.864	408.52
404.242	399.71
404.62	387.96
404.999	365.58
405.377	408.75
405.755	386.15
406.133	392.02
406.511	408.97
406.889	389.54
407.267	413.94
407.645	402.42
408.023	392.93
408.401	403.77
408.779	421.85
409.156	414.17
409.534	421.18
409.912	447.62
410.29	420.72
410.667	430.44
411.045	420.5
411.422	436.99
411.8	413.72
412.178	429.76
412.555	437.9
412.933	419.59
413.31	450.1
413.687	429.76
414.065	441.06
414.442	444
414.819	438.58
415.197	438.12
415.574	463.89
415.951	450.33
416.328	468.41
416.705	453.04
417.082	465.02
417.46	465.47
417.837	477.45
418.214	462.76
418.591	456.65
418.967	474.73
419.344	484
419.721	476.32
420.098	477.67
420.475	462.08
420.852	472.25
421.228	475.41
421.605	501.63
421.982	488.52
422.358	481.96
422.735	476.09
423.111	509.99
423.488	501.85
423.864	494.85
424.241	500.72
424.617	474.06
424.994	507.5
425.37	500.04
425.746	518.57
426.123	526.03
426.499	500.27
426.875	537.1
427.251	510.21
427.627	533.26
428.003	533.04
428.379	520.83
428.756	515.86
429.132	567.16
429.507	535.07
429.883	560.15
430.259	551.34
430.635	553.83
431.011	573.71
431.387	526.26
431.763	579.82
432.138	539.82
432.514	563.32
432.89	560.15
433.265	589.76
433.641	572.36
434.016	595.41
434.392	584.33
434.767	600.38
435.143	603.32
435.518	592.92
435.894	613.26
436.269	619.59
436.644	614.39
437.02	601.28
437.395	611.23
437.77	623.88
438.145	624.11
438.52	635.86
438.895	660.04
439.271	628.63
439.646	623.88
440.021	667.72
440.395	667.5
440.77	647.61
441.145	665.01
441.52	646.03
441.895	674.28
442.27	679.7
442.645	664.78
443.019	651.23
443.394	655.07
443.769	689.64
444.143	680.83
444.518	704.11
444.892	704.33
445.267	711.56
445.641	709.3
446.016	710.43
446.39	732.81
446.764	700.26
447.139	695.97
447.513	714.95
447.887	723.77
448.262	707.72
448.636	727.16
449.01	725.12
449.384	756.53
449.758	738.68
450.132	720.83
450.506	743.65
450.88	746.36
451.254	748.4
451.628	749.98
452.002	773.71
452.376	749.53
452.75	777.55
453.123	790.21
453.497	793.59
453.871	796.98
454.244	800.6
454.618	813.03
454.992	826.59
455.365	823.42
455.739	822.29
456.112	832.46
456.486	815.29
456.859	832.46
457.232	848.73
457.606	820.71
457.979	864.78
458.352	874.72
458.725	883.76
459.099	895.29
459.472	867.72
459.845	912.01
460.218	909.52
460.591	906.81
460.964	909.75
461.337	916.76
461.71	924.44
462.083	933.7
462.456	944.1
462.829	951.33
463.201	951.1
463.574	966.47
463.947	932.57
464.32	982.52
464.692	1006.92
465.065	1012.12
465.438	1017.77
465.81	1032.68
466.183	1033.36
466.555	1045.11
466.928	1054.15
467.3	1035.17
467.672	1055.51
468.045	1074.04
468.417	1083.98
468.789	1078.56
469.161	1094.15
469.534	1094.15
469.906	1138.9
470.278	1153.81
470.65	1171.21
471.022	1179.35
471.394	1161.27
471.766	1183.87
472.138	1200.14
472.51	1240.81
472.882	1244.43
473.253	1259.12
473.625	1285.33
473.997	1300.7
474.369	1326.91
474.74	1311.32
475.112	1329.4
475.484	1343.64
475.855	1383.41
476.227	1378.89
476.598	1388.83
476.97	1417.31
477.341	1459.11
477.713	1460.02
478.084	1464.09
478.455	1493.69
478.827	1494.82
479.198	1505.67
479.569	1543.18
479.94	1558.32
480.311	1607.13
480.682	1630.64
481.053	1653.23
481.424	1651.2
481.795	1653.46
482.166	1718.54
482.537	1734.59
482.908	1750.18
483.279	1760.58
483.65	1780.69
484.021	1856.39
484.391	1828.37
484.762	1845.32
485.133	1872.44
485.503	1882.15
485.874	1909.72
486.244	1948.14
486.615	1944.07
486.985	1945.2
487.356	2011.19
487.726	2033.56
488.097	2055.26
488.467	2064.3
488.837	2104.97
489.207	2139.1
489.578	2144.75
489.948	2151.07
490.318	2194.91
490.688	2212.54
491.058	2219.55
491.428	2238.08
491.798	2293.22
492.168	2355.59
492.538	2342.03
492.908	2346.55
493.278	2367.11
493.648	2384.51
494.017	2400.56
494.387	2452.08
494.757	2449.6
495.126	2482.82
495.496	2500.44
495.866	2517.84
496.235	2510.84
496.605	2544.74
496.974	2535.47
497.344	2599.88
497.713	2584.28
498.082	2597.39
498.452	2653.66
498.821	2660.66
499.19	2650.04
499.559	2699.76
499.928	2706.09
500.298	2756.48
500.667	2770.94
501.036	2784.05
501.405	2807.78
501.774	2802.58
502.143	2808.23
502.512	2854.56
502.88	2868.57
503.249	2897.49
503.618	2896.14
503.987	2911.05
504.356	2960.77
504.724	2918.28
505.093	2972.97
505.462	3001.9
505.83	2997.15
506.199	3026.76
506.567	3068.34
506.936	3096.36
507.304	3087.09
507.672	3119.41
508.041	3115.57
508.409	3153.08
508.777	3164.83
509.145	3216.36
509.514	3200.99
509.882	3211.16
510.25	3191.05
510.618	3248.45
510.986	3280.76
511.354	3288.67
511.722	3324.6
512.09	3353.08
512.458	3345.84
512.826	3408.22
513.193	3391.04
513.561	3443.92
513.929	3460.42
514.297	3457.93
514.664	3527.99
515.032	3501.09
515.4	3541.32
515.767	3569.57
516.135	3601.43
516.502	3579.51
516.869	3627.64
517.237	3684.82
517.604	3655.44
517.972	3709.45
518.339	3758.49
518.706	3758.94
519.073	3699.28
519.44	3805.49
519.808	3815.66
520.175	3838.03
520.542	3867.19
520.909	3897.69
521.276	3965.04
521.643	3999.39
522.009	3984.7
522.376	4052.72
522.743	4100.17
523.11	4124.58
523.477	4125.26
523.843	4129.1
524.21	4219.04
524.577	4199.83
524.943	4268.98
525.31	4287.51
525.676	4338.36
526.043	4355.08
526.409	4407.51
526.776	4447.28
527.142	4425.36
527.508	4481.63
527.874	4582.2
528.241	4550.78
528.607	4579.48
528.973	4611.57
529.339	4634.85
529.705	4664.45
530.071	4712.81
530.437	4746.94
530.803	4779.48
531.169	4838.46
531.535	4851.57
531.901	4831.91
532.267	4898.8
532.632	4884.33
532.998	4988.51
533.364	4922.07
533.73	4995.29
534.095	5056.76
534.461	5096.98
534.826	5070.09
535.192	5117.32
535.557	5153.25
535.923	5123.2
536.288	5181.05
536.653	5241.61
537.019	5216.98
537.384	5271.22
537.749	5314.15
538.114	5321.84
538.479	5333.14
538.845	5408.39
539.21	5390.99
539.575	5419.69
539.94	5442.51
540.305	5440.93
540.67	5523.19
541.034	5567.03
541.399	5572.9
541.764	5615.84
542.129	5624.65
542.494	5641.38
542.858	5683.18
543.223	5691.55
543.587	5757.31
543.952	5774.48
544.316	5809.96
544.681	5862.16
545.045	5912.78
545.41	5940.8
545.774	5940.8
546.138	5930.18
546.503	5984.87
546.867	6056.51
547.231	6085.21
547.595	6123.4
547.959	6126.56
548.324	6182.61
548.688	6251.08
549.052	6214.24
549.416	6250.63
549.779	6326.56
550.143	6349.83
550.507	6428.93
550.871	6468.47
551.235	6461.24
551.599	6565.42
551.962	6599.54
552.326	6688.13
552.689	6683.16
553.053	6731.52
553.417	6701.46
553.78	6844.96
554.143	6875.47
554.507	6920.21
554.87	6939.42
555.234	7047.44
555.597	7070.72
555.96	7102.58
556.323	7115.46
556.686	7190.94
557.05	7269.36
557.413	7340.99
557.776	7371.95
558.139	7437.49
558.502	7506.86
558.865	7540.54
559.228	7667.31
559.59	7729.01
559.953	7747.54
560.316	7860.98
560.679	7908.21
561.041	7992.95
561.404	8061.88
561.767	8141.65
562.129	8151.82
562.492	8253.74
562.854	8280.4
563.217	8291.93
563.579	8423.22
563.941	8536.22
564.304	8531.47
564.666	8696.66
565.028	8730.56
565.39	8789.77
565.753	8848.75
566.115	8987.73
566.477	9036.99
566.839	9129.19
567.201	9195.86
567.563	9218.01
567.925	9350.66
568.287	9346.82
568.648	9480.15
569.01	9605.57
569.372	9698.9
569.734	9713.36
570.095	9826.8
570.457	9960.59
570.819	9909.74
571.18	10095.95
571.542	10147.47
571.903	10215.27
572.265	10256.4
572.626	10347.69
572.987	10422.27
573.349	10497.97
573.71	10518.31
574.071	10632.88
574.432	10716.5
574.794	10830.62
575.155	10909.26
575.516	10941.35
575.877	11067.68
576.238	11109.26
576.599	11198.29
576.96	11262.92
577.32	11309.93
577.681	11363.26
578.042	11492.3
578.403	11527.32
578.763	11518.06
579.124	11633.76
579.485	11730.48
579.845	11808.45
580.206	11867.2
580.566	11917.37
580.927	11902.46
581.287	12016.58
581.648	12009.8
582.008	12141.55
582.368	12144.48
582.728	12273.52
583.089	12299.96
583.449	12407.98
583.809	12393.06
584.169	12508.32
584.529	12439.62
584.889	12592.61
585.249	12619.27
585.609	12669.44
585.969	12765.94
586.329	12686.16
586.688	12732.94
587.048	12876.89
587.408	12838.25
587.768	12966.16
588.127	12903.79
588.487	12966.16
588.846	13064.01
589.206	12968.87
589.565	13023.56
589.925	13212.25
590.284	13216.32
590.643	13227.84
591.003	13304.23
591.362	13433.71
591.721	13379.7
592.08	13402.53
592.44	13408.4
592.799	13531.57
593.158	13485.92
593.517	13588.06
593.876	13580.38
594.235	13575.18
594.593	13639.58
594.952	13804.1
595.311	13670.77
595.67	13756.87
596.029	13792.8
596.387	13915.96
596.746	13977.66
597.104	13891.1
597.463	13896.98
597.822	13947.15
598.18	14029.63
598.538	14012.68
598.897	14133.13
599.255	14009.97
599.613	14280.25
599.972	14217.65
600.33	14207.03
600.688	14162.28
601.046	14304.88
601.404	14335.61
601.762	14461.94
602.12	14402.95
602.478	14517.98
602.836	14485.89
603.194	14429.17
603.552	14434.14
603.91	14422.62
604.268	14481.6
604.625	14602.72
604.983	14621.71
605.341	14570.86
605.698	14785.32
606.056	14694.92
606.413	14807.24
606.771	14773.11
607.128	14833.23
607.485	14795.49
607.843	14863.73
608.2	14959.1
608.557	14987.12
608.914	14977.18
609.272	15052.43
609.629	14948.25
609.986	15116.38
610.343	14981.47
610.7	15169.26
611.057	15078.87
611.414	15141.92
611.771	15199.54
612.127	15230.28
612.484	15318.41
612.841	15289.26
613.198	15247.23
613.554	15322.93
613.911	15400.22
614.267	15421.91
614.624	15385.75
614.98	15416.04
615.337	15519.54
615.693	15483.15
616.05	15501.23
616.406	15681.34
616.762	15553.88
617.118	15578.97
617.475	15667.78
617.831	15679.53
618.187	15676.82
618.543	15715.24
618.899	15753.2
619.255	15740.09
619.611	15684.95
619.967	15870.71
620.323	15899.86
620.678	15805.4
621.034	15751.17
621.39	15893.31
621.746	15793.2
622.101	16016.47
622.457	15877.49
622.812	15900.99
623.168	16011.73
623.523	16020.54
623.879	15968.56
624.234	15917.27
624.589	15953.65
624.945	15999.52
625.3	16044.72
625.655	15992.74
626.01	16020.99
626.365	16027.09
626.72	16051.05
627.075	16023.03
627.43	16022.57
627.785	16006.75
628.14	16060.76
628.495	15993.42
628.85	15985.29
629.205	15971.27
629.559	16026.64
629.914	16068.22
630.269	15990.94
630.623	16030.03
630.978	15943.71
631.332	16020.54
631.687	15990.26
632.041	15971.5
632.396	16074.1
632.75	15946.87
633.104	16018.51
633.459	15963.14
633.813	15920.65
634.167	15921.33
634.521	15972.86
634.875	15915.68
635.229	15953.42
635.583	15838.62
635.937	15839.3
636.291	15826.65
636.645	15852.86
636.999	15827.32
637.352	15834.33
637.706	15777.38
638.06	15898.51
638.413	15813.09
638.767	15800.43
639.121	15807.21
639.474	15789.36
639.828	15629.14
640.181	15740.32
640.534	15762.69
640.888	15736.93
641.241	15682.92
641.594	15628.46
641.947	15745.07
642.301	15575.81
642.654	15668.68
643.007	15661
643.36	15633.88
643.713	15680.89
644.066	15701.45
644.419	15588.46
644.771	15511.17
645.124	15366.77
645.477	15323.38
645.83	15283.38
646.182	15247.45
646.535	15219.88
646.888	15177.4
647.24	15155.93
647.593	15201.35
647.945	15247.9
648.298	15225.31
648.65	15102.15
649.002	15033.67
649.355	15137.17
649.707	15111.86
650.059	15147.12
650.411	15356.83
650.763	15364.06
651.115	15534.68
651.467	15552.08
651.819	15447.9
652.171	15538.74
652.523	15390.5
652.875	15413.55
653.227	15320.44
653.578	15483.83
653.93	15461.23
654.282	15390.73
654.633	15425.3
654.985	15304.63
655.337	15441.35
655.688	15393.89
656.039	15445.19
656.391	15371.97
656.742	15358.64
657.094	15336.04
657.445	15467.33
657.796	15469.37
658.147	15310.28
658.498	15345.53
658.849	15451.97
659.2	15411.06
659.551	15385.08
659.902	15333.78
660.253	15328.58
660.604	15333.78
660.955	15318.41
661.306	15390.05
661.656	15348.47
662.007	15376.94
662.358	15348.47
662.708	15376.49
663.059	15347.34
663.409	15321.35
663.76	15477.05
664.11	15434.79
664.461	15422.81
664.811	15397.73
665.161	15441.8
665.511	15386.66
665.862	15342.36
666.212	15494
666.562	15504.85
666.912	15390.73
667.262	15410.84
667.612	15423.49
667.962	15471.85
668.312	15458.29
668.662	15533.55
669.011	15373.55
669.361	15505.75
669.711	15476.37
670.06	15370.84
670.41	15414.23
670.76	15371.97
671.109	15523.6
671.459	15407.22
671.808	15470.95
672.157	15437.5
672.507	15341.69
672.856	15401.35
673.205	15444.06
673.554	15532.87
673.904	15427.11
674.253	15493.1
674.602	15491.06
674.951	15245.19
675.3	15147.12
675.649	15407.22
675.998	15416.04
676.346	15481.8
676.695	15479.99
677.044	15404.28
677.393	15451.51
677.741	15417.84
678.09	15404.96
678.438	15401.12
678.787	15392.08
679.135	15488.12
679.484	15292.65
679.832	15421.68
680.181	15306.21
680.529	15413.78
680.877	15291.52
681.225	15354.57
681.573	15444.06
681.922	15303.27
682.27	15330.39
682.618	15394.12
682.966	15309.15
683.314	15366.55
683.661	15306.66
684.009	15226.44
684.357	15255.14
684.705	15215.81
685.053	15197.74
685.4	15210.17
685.748	15183.5
686.095	15192.09
686.443	15070.28
686.79	15104.63
687.138	15172.43
687.485	15155.93
687.832	15155.03
688.18	15190.5
688.527	15070.28
688.874	15034.12
689.221	15104.63
689.568	15017.4
689.915	15017.18
690.262	14974.69
690.609	14886.33
690.956	14974.47
691.303	14950.74
691.65	14915.26
691.997	14897.4
692.344	14773.79
692.69	14884.75
693.037	14808.37
693.383	14659.22
693.73	14798.42
694.077	14662.83
694.423	14768.59
694.769	14754.13
695.116	14627.58
695.462	14676.85
695.808	14639.56
696.155	14698.99
696.501	14559.33
696.847	14536.96
697.193	14525.66
697.539	14599.11
697.885	14401.6
698.231	14459.68
698.577	14505.55
698.923	14408.6
699.269	14342.17
699.614	14336.97
699.96	14290.87
700.306	14279.57
700.651	14269.85
700.997	14251.09
701.342	14169.97
701.688	14250.42
702.033	14161.38
702.379	14164.54
702.724	14159.57
703.069	14181.27
703.415	14115.5
703.76	14140.14
704.105	14066.92
704.45	14069.63
704.795	13981.72
705.14	13959.8
705.485	13973.59
705.83	13948.05
706.175	13917.32
706.52	13907.6
706.865	13901.05
707.209	13930.42
707.554	13839.81
707.899	13879.13
708.243	13800.48
708.588	13861.73
708.932	13738.57
709.277	13771.33
709.621	13830.31
709.966	13693.59
710.31	13737.44
710.654	13646.59
710.998	13672.58
711.342	13648.4
711.687	13607.27
712.031	13615.63
712.375	13519.81
712.719	13593.71
713.063	13679.36
713.407	13593.03
713.75	13543.09
714.094	13511
714.438	13497.44
714.782	13494.28
715.125	13459.93
715.469	13522.07
715.812	13446.6
716.156	13358.91
716.499	13402.08
716.843	13408.18
717.186	13342.64
717.53	13367.95
717.873	13334.28
718.216	13412.25
718.559	13350.33
718.902	13272.36
719.246	13313.94
719.589	13260.61
719.932	13313.72
720.275	13224.45
720.617	13152.59
720.96	13230.78
721.303	13155.3
721.646	13257.67
721.989	13182.2
722.331	13215.42
722.674	13159.82
723.016	13189.43
723.359	13038.47
723.701	13140.16
724.044	13080.96
724.386	12976.78
724.729	13102.42
725.071	13097.68
725.413	13085.02
725.755	13045.93
726.097	12986.72
726.439	12957.79
726.782	12981.52
727.124	13014.97
727.465	13016.32
727.807	12928.42
728.149	12921.64
728.491	12910.56
728.833	12956.44
729.175	12854.07
729.516	12864.92
729.858	12840.28
730.199	12930.9
730.541	12902.66
730.882	12918.25
731.224	12894.29
731.565	12853.39
731.906	12839.61
732.248	12845.03
732.589	12779.72
732.93	12770
733.271	12816.78
733.612	12769.1
733.953	12779.95
734.294	12758.25
734.635	12665.15
734.976	12716.22
735.317	12658.37
735.658	12646.16
735.999	12627.86
736.339	12583.12
736.68	12638.93
737.021	12618.37
737.361	12522.1
737.702	12694.75
738.042	12605.94
738.383	12582.89
738.723	12584.92
739.063	12551.48
739.404	12598.48
739.744	12526.17
740.084	12531.14
740.424	12520.74
740.764	12458.15
741.104	12439.16
741.444	12432.61
741.784	12346.51
742.124	12427.64
742.464	12361.2
742.804	12307.42
743.143	12396.91
743.483	12357.36
743.823	12290.02
744.162	12331.82
744.502	12309.68
744.841	12228.32
745.181	12286.4
745.52	12223.58
745.86	12292.73
746.199	12234.2
746.538	12272.39
746.877	12228.1
747.216	12184.03
747.556	12249.11
747.895	12137.93
748.234	12177.48
748.573	12093.86
748.911	12058.84
749.25	12079.17
749.589	11989.46
749.928	12029.01
750.267	12036.01
750.605	12041.21
750.944	11953.75
751.283	11984.04
751.621	11966.63
751.96	11870.14
752.298	11854.77
752.636	11865.17
752.975	11768.9
753.313	11815.9
753.651	11822.68
753.989	11760.54
754.327	11695
754.666	11699.07
755.004	11706.98
755.342	11801.44
755.679	11733.65
756.017	11513.54
756.355	11543.59
756.693	11554.67
757.031	11569.81
757.368	11471.28
757.706	11458.4
758.044	11417.27
758.381	11476.48
758.719	11365.52
759.056	11398.06
759.394	11347.44
759.731	11296.82
760.068	11163.27
760.405	11241.68
