Data from brown_tile_FLMS001491_072.txt Node
Date: Tue Feb 07 10:37:58 GMT 2017
User: dcchb
Spectrometer: FLMS00149
Trigger mode: 0
Integration Time (sec): 2.000000E-2
Scans to average: 10
Electric dark correction enabled: true
Nonlinearity correction enabled: false
Boxcar width: 0
XAxis mode: Wavelengths
Number of Pixels in Spectrum: 2048
>>>>>Begin Spectral Data<<<<<
341.393	-26.6
341.776	-26.6
342.16	-26.6
342.543	-47.84
342.927	-69.31
343.31	-71.57
343.693	-53.49
344.077	-65.24
344.46	-65.01
344.843	-63.2
345.226	-53.71
345.61	-50.32
345.993	-13.71
346.376	21.54
346.759	6.17
347.142	35.78
347.525	27.64
347.908	63.35
348.291	68.54
348.674	96.57
349.057	116.68
349.44	112.38
349.823	134.98
350.206	158.26
350.588	184.92
350.971	180.4
351.354	216.34
351.737	224.7
352.119	232.15
352.502	253.17
352.884	261.08
353.267	271.02
353.65	293.62
354.032	294.07
354.414	292.72
354.797	283.68
355.179	314.19
355.562	291.81
355.944	307.18
356.326	305.83
356.709	324.81
357.091	304.92
357.473	329.55
357.855	313.73
358.238	325.94
358.62	315.54
359.002	307.18
359.384	316.22
359.766	327.97
360.148	333.17
360.53	304.92
360.912	324.81
361.294	335.66
361.676	319.16
362.057	313.96
362.439	317.8
362.821	311.47
363.203	310.12
363.584	317.12
363.966	336.78
364.348	313.73
364.729	289.1
365.111	301.53
365.493	303.79
365.874	289.55
366.256	319.38
366.637	325.71
367.019	306.5
367.4	273.74
367.781	295.43
368.163	304.47
368.544	298.59
368.925	291.14
369.306	299.72
369.688	310.8
370.069	318.93
370.45	301.98
370.831	308.09
371.212	304.24
371.593	300.85
371.974	292.27
372.355	315.54
372.736	299.27
373.117	299.27
373.498	311.93
373.879	296.11
374.26	311.47
374.641	305.37
375.021	278.71
375.402	294.07
375.783	313.28
376.163	300.18
376.544	311.7
376.925	305.15
377.305	316.67
377.686	318.93
378.066	287.07
378.447	318.48
378.827	328.65
379.208	312.83
379.588	328.42
379.968	317.12
380.349	314.19
380.729	325.94
381.109	312.15
381.489	318.03
381.87	342.66
382.25	316.45
382.63	304.24
383.01	334.75
383.39	331.14
383.77	316.67
384.15	344.69
384.53	323
384.91	331.36
385.29	335.88
385.67	329.33
386.049	327.29
386.429	329.1
386.809	345.37
387.189	334.3
387.568	345.37
387.948	347.18
388.328	346.05
388.707	342.66
389.087	346.05
389.466	353.96
389.846	349.21
390.225	349.44
390.605	345.6
390.984	343.79
391.363	329.78
391.743	322.55
392.122	350.12
392.501	339.04
392.881	349.89
393.26	376.33
393.639	374.98
394.018	376.11
394.397	339.95
394.776	372.49
395.155	385.37
395.534	350.57
395.913	363.45
396.292	371.13
396.671	356.22
397.05	381.53
397.429	375.43
397.808	372.26
398.186	376.78
398.565	375.88
398.944	402.09
399.323	373.85
399.701	393.05
400.08	375.65
400.458	397.35
400.837	376.33
401.215	400.74
401.594	379.27
401.972	369.55
402.351	377.91
402.729	388.08
403.107	376.78
403.486	397.12
403.864	388.08
404.242	392.38
404.62	406.61
404.999	387.63
405.377	397.8
405.755	399.38
406.133	403
406.511	391.25
406.889	410.46
407.267	410.91
407.645	403.45
408.023	413.17
408.401	431.92
408.779	405.48
409.156	419.95
409.534	406.61
409.912	419.49
410.29	424.47
410.667	450
411.045	401.64
411.422	419.49
411.8	429.66
412.178	427.18
412.555	434.64
412.933	445.71
413.31	446.16
413.687	469.21
414.065	439.38
414.442	452.04
414.819	445.48
415.197	465.37
415.574	470.34
415.951	471.02
416.328	469.21
416.705	456.33
417.082	504.24
417.46	456.1
417.837	472.37
418.214	466.95
418.591	456.56
418.967	474.18
419.344	488.42
419.721	486.84
420.098	477.35
420.475	479.83
420.852	487.52
421.228	491.58
421.605	486.39
421.982	502.43
422.358	517.12
422.735	504.92
423.111	501.53
423.488	500.62
423.864	518.25
424.241	526.38
424.617	492.94
424.994	527.97
425.37	518.7
425.746	523.45
426.123	536.33
426.499	547.17
426.875	528.87
427.251	548.3
427.627	547.63
428.003	549.66
428.379	560.51
428.756	566.38
429.132	554.41
429.507	579.72
429.883	575.2
430.259	574.07
430.635	571.13
431.011	587.17
431.387	570
431.763	596.44
432.138	605.48
432.514	630.56
432.89	581.75
433.265	610
433.641	607.06
434.016	624.46
434.392	598.7
434.767	626.04
435.143	626.04
435.518	647.06
435.894	660.39
436.269	631.01
436.644	645.48
437.02	641.64
437.395	651.13
437.77	655.19
438.145	666.04
438.52	671.92
438.895	691.58
439.271	662.88
439.646	671.24
440.021	692.48
440.395	684.12
440.77	685.7
441.145	697.68
441.52	712.82
441.895	727.28
442.27	711.69
442.645	685.25
443.019	701.52
443.394	715.76
443.769	724.57
444.143	731.35
444.518	718.7
444.892	735.64
445.267	694.52
445.641	729.77
446.016	764.12
446.39	736.32
446.764	718.24
447.139	722.09
447.513	749.88
447.887	742.88
448.262	769.32
448.636	725.02
449.01	766.6
449.384	779.94
449.758	749.2
450.132	797.79
450.506	774.74
450.88	775.19
451.254	788.75
451.628	811.35
452.002	788.3
452.376	789.65
452.75	820.16
453.123	812.03
453.497	823.33
453.871	810.67
454.244	827.62
454.618	826.49
454.992	841.86
455.365	853.38
455.739	891.35
456.112	864.91
456.486	873.04
456.859	894.96
457.232	913.27
457.606	904.23
457.979	889.31
458.352	929.76
458.725	918.24
459.099	927.28
459.472	957.79
459.845	944.68
460.218	932.48
460.591	969.08
460.964	979.25
461.337	992.36
461.71	1019.03
462.083	1005.24
462.456	1019.48
462.829	1033.26
463.201	1024.22
463.574	1043.21
463.947	1028.97
464.32	1096.99
464.692	1063.77
465.065	1059.93
465.438	1084.79
465.81	1090.66
466.183	1098.57
466.555	1122.53
466.928	1130.44
467.3	1114.17
467.672	1144.45
468.045	1173.15
468.417	1163.2
468.789	1177.44
469.161	1187.16
469.534	1233.26
469.906	1235.52
470.278	1229.64
470.65	1238.91
471.022	1275.74
471.394	1274.61
471.766	1279.81
472.138	1289.3
472.51	1305.8
472.882	1326.36
473.253	1327.72
473.625	1360.03
473.997	1372.01
474.369	1385.12
474.74	1424.44
475.112	1418.79
475.484	1457.43
475.855	1481.84
476.227	1499.92
476.598	1507.15
476.97	1515.51
477.341	1524.55
477.713	1560.26
478.084	1539.69
478.455	1597.32
478.827	1632.8
479.198	1652.46
479.569	1643.64
479.94	1701.95
480.311	1726.13
480.682	1755.96
481.053	1776.75
481.424	1795.73
481.795	1854.03
482.166	1858.55
482.537	1858.1
482.908	1888.61
483.279	1902.17
483.65	1918.21
484.021	1995.5
484.391	2023.29
484.762	2019
485.133	2035.95
485.503	2055.38
485.874	2101.48
486.244	2111.43
486.615	2148.26
486.985	2174.7
487.356	2218.54
487.726	2221.71
488.097	2234.59
488.467	2270.29
488.837	2297.64
489.207	2304.87
489.578	2351.2
489.948	2368.82
490.318	2396.39
490.688	2447.01
491.058	2462.6
491.428	2508.25
491.798	2513.45
492.168	2544.86
492.538	2547.35
492.908	2553.68
493.278	2617.18
493.648	2651.75
494.017	2639.78
494.387	2677.06
494.757	2700.34
495.126	2709.6
495.496	2759.77
495.866	2746.44
496.235	2773.56
496.605	2823.27
496.974	2825.31
497.344	2865.76
497.713	2877.74
498.082	2880.22
498.452	2932.2
498.821	2899.43
499.19	2939.43
499.559	2932.2
499.928	2994.79
500.298	3026.88
500.667	3046.54
501.036	3019.2
501.405	3045.41
501.774	3080.67
502.143	3118.86
502.512	3110.27
502.88	3126.09
503.249	3129.71
503.618	3190.95
503.987	3209.03
504.356	3222.81
504.724	3258.52
505.093	3224.62
505.462	3268.69
505.83	3293.77
506.199	3293.32
506.567	3350.04
506.936	3336.48
507.304	3410.6
507.672	3421.45
508.041	3424.61
508.409	3430.26
508.777	3466.19
509.145	3477.95
509.514	3488.79
509.882	3505.74
510.25	3512.52
510.618	3562.24
510.986	3569.92
511.354	3620.31
511.722	3643.59
512.09	3674.78
512.458	3667.77
512.826	3714.1
513.193	3764.27
513.561	3752.97
513.929	3743.7
514.297	3858.5
514.664	3837.26
515.032	3915.67
515.4	3904.37
515.767	3945.28
516.135	3921.78
516.502	3977.14
516.869	4004.49
517.237	4010.81
517.604	4049.91
517.972	4039.51
518.339	4101.43
518.706	4117.25
519.073	4127.42
519.44	4153.86
519.808	4215.55
520.175	4235.89
520.542	4227.76
520.909	4317.25
521.276	4286.96
521.643	4357.7
522.009	4409.67
522.376	4393.85
522.743	4467.98
523.11	4517.69
523.477	4549.33
523.843	4577.13
524.21	4623.9
524.577	4682.89
524.943	4688.31
525.31	4704.58
525.676	4757.01
526.043	4742.77
526.409	4775.31
526.776	4833.84
527.142	4944.8
527.508	4870
527.874	4966.04
528.241	4967.17
528.607	4952.93
528.973	5086.49
529.339	5030.45
529.705	5115.19
530.071	5175.3
530.437	5177.56
530.803	5228.86
531.169	5258.69
531.535	5267.28
531.901	5286.03
532.267	5362.64
532.632	5356.99
532.998	5401.51
533.364	5401.28
533.73	5483.32
534.095	5532.81
534.461	5516.08
534.826	5517.67
535.192	5604.89
535.557	5638.57
535.923	5643.09
536.288	5680.6
536.653	5676.08
537.019	5694.61
537.384	5786.59
537.749	5792.91
538.114	5841.5
538.479	5816.19
538.845	5869.07
539.21	5924.66
539.575	5954.49
539.94	5962.63
540.305	6020.7
540.67	6038.1
541.034	6065.67
541.399	6114.94
541.764	6125.79
542.129	6180.02
542.494	6153.58
542.858	6237.65
543.223	6216.63
543.587	6286.01
543.952	6303.41
544.316	6318.32
544.681	6361.03
545.045	6389.96
545.41	6473.35
545.774	6488.71
546.138	6531.88
546.503	6542.95
546.867	6614.81
547.231	6681.02
547.595	6625.89
547.959	6741.59
548.324	6710.63
548.688	6779.1
549.052	6775.03
549.416	6854.35
549.779	6869.04
550.143	6905.2
550.507	7021.58
550.871	7067.68
551.235	7102.71
551.599	7157.85
551.962	7220.45
552.326	7224.74
552.689	7271.74
553.053	7237.62
553.417	7347.67
553.78	7386.32
554.143	7423.15
554.507	7530.27
554.87	7470.61
555.234	7655.46
555.597	7651.62
555.96	7713.54
556.323	7803.48
556.686	7825.85
557.05	7911.28
557.413	7973.65
557.776	7992.63
558.139	8091.16
558.502	8158.05
558.865	8231.04
559.228	8247.54
559.59	8362.56
559.953	8460.41
560.316	8508.77
560.679	8499.28
561.041	8610.47
561.404	8758.71
561.767	8754.42
562.129	8804.58
562.492	9000.96
562.854	8941.53
563.217	9052.49
563.579	9077.12
563.941	9253.84
564.304	9335.19
564.666	9431.91
565.028	9426.94
565.39	9481.63
565.753	9663.09
566.115	9684.34
566.477	9790.55
566.839	9906.48
567.201	9987.15
567.563	10005.46
567.925	10106.7
568.287	10087.94
568.648	10215.62
569.01	10322.51
569.372	10411.1
569.734	10512.56
570.095	10585.33
570.457	10721.14
570.819	10766.79
571.18	10811.31
571.542	10967.24
571.903	10962.04
572.265	11057.63
572.626	11089.5
572.987	11226.89
573.349	11201.13
573.71	11421.92
574.071	11496.94
574.432	11513.21
574.794	11634.34
575.155	11665.75
575.516	11730.61
575.877	11884.05
576.238	11882.7
576.599	11992.52
576.96	12040.66
577.32	12106.42
577.681	12098.28
578.042	12264.83
578.403	12356.36
578.763	12448.33
579.124	12473.41
579.485	12589.34
579.845	12670.02
580.206	12633.86
580.566	12745.72
580.927	12746.4
581.287	12865.95
581.648	12900.75
582.008	12993.85
582.368	12998.82
582.728	13037.02
583.089	13157.46
583.449	13147.3
583.809	13197.24
584.169	13273.85
584.529	13351.36
584.889	13482.43
585.249	13413.05
585.609	13480.39
585.969	13557.23
586.329	13637.23
586.688	13699.37
587.048	13723.33
587.408	13724.68
587.768	13748.18
588.127	13789.09
588.487	13832.93
588.846	13982.98
589.206	13889.65
589.565	14007.84
589.925	14081.73
590.284	14065.69
590.643	14081.73
591.003	14181.39
591.362	14297.77
591.721	14216.42
592.08	14300.03
592.44	14384.1
592.799	14386.13
593.158	14369.41
593.517	14381.39
593.876	14528.73
594.235	14530.31
594.593	14591.55
594.952	14602.4
595.311	14556.3
595.67	14660.02
596.029	14740.25
596.387	14758.78
596.746	14892.56
597.104	14887.14
597.463	14754.48
597.822	14965.33
598.18	14839.23
598.538	14964.87
598.897	15022.27
599.255	14845.1
599.613	15101.14
599.972	15134.36
600.33	15267.01
600.688	15119.45
601.046	15247.35
601.404	15344.3
601.762	15293.45
602.12	15415.71
602.478	15405.32
602.836	15362.38
603.194	15374.81
603.552	15386.11
603.91	15357.86
604.268	15511.98
604.625	15564.63
604.983	15551.3
605.341	15458.87
605.698	15667.46
606.056	15729.37
606.413	15733.67
606.771	15721.24
607.128	15840.56
607.485	15731.41
607.843	15779.09
608.2	15903.61
608.557	15911.29
608.914	15864.06
609.272	15977.96
609.629	16113.09
609.986	16039.65
610.343	16025.86
610.7	16188.35
611.057	16171.17
611.414	16123.71
611.771	16311.96
612.127	16327.1
612.484	16230.15
612.841	16349.92
613.198	16277.83
613.554	16292.75
613.911	16472.41
614.267	16412.29
614.624	16377.04
614.98	16454.78
615.337	16582.23
615.693	16502.24
616.05	16516.47
616.406	16608.45
616.762	16600.76
617.118	16596.02
617.475	16589.69
617.831	16696.81
618.187	16680.76
618.543	16803.92
618.899	16748.1
619.255	16814.77
619.611	16775.45
619.967	16907.2
620.323	16892.51
620.678	16824.04
621.034	16813.19
621.39	16823.81
621.746	16857.93
622.101	17022.22
622.457	16791.27
622.812	16985.39
623.168	16965.05
623.523	16998.04
623.879	16949.46
624.234	16968.21
624.589	16937.93
624.945	17009.34
625.3	17135.21
625.655	17008.66
626.01	17061.09
626.365	17001.66
626.72	17063.8
627.075	17014.54
627.43	16970.02
627.785	17039.62
628.14	16994.43
628.495	17065.61
628.85	16978.61
629.205	16998.49
629.559	17119.62
629.914	16968.89
630.269	16987.65
630.623	16913.98
630.978	16983.35
631.332	17051.6
631.687	17087.76
632.041	16965.95
632.396	17070.81
632.75	16873.07
633.104	16983.8
633.459	16850.93
633.813	16958.95
634.167	16886.18
634.521	16918.5
634.875	16839.4
635.229	16852.06
635.583	16757.82
635.937	16832.85
636.291	16756.47
636.645	16863.36
636.999	16806.86
637.352	16794.43
637.706	16732.51
638.06	16757.6
638.413	16820.42
638.767	16750.82
639.121	16779.52
639.474	16795.79
639.828	16639.41
640.181	16774.09
640.534	16753.08
640.888	16650.71
641.241	16563.93
641.594	16615.23
641.947	16680.31
642.301	16602.35
642.654	16652.51
643.007	16658.84
643.36	16600.54
643.713	16574.78
644.066	16696.35
644.419	16502.46
644.771	16465.85
645.124	16224.28
645.477	16223.6
645.83	16131.17
646.182	16116.03
646.535	16046.43
646.888	16066.31
647.24	15988.58
647.593	16072.19
647.945	16011.4
648.298	15967.33
648.65	15886.66
649.002	15925.98
649.355	16023.6
649.707	15937.96
650.059	15998.75
650.411	16265.18
650.763	16356.48
651.115	16419.98
651.467	16327.78
651.819	16417.72
652.171	16456.14
652.523	16283.03
652.875	16298.17
653.227	16250.94
653.578	16391.73
653.93	16354.22
654.282	16294.33
654.633	16273.77
654.985	16220.21
655.337	16325.07
655.688	16293.65
656.039	16318.29
656.391	16151.28
656.742	16187.67
657.094	16285.97
657.445	16247.1
657.796	16201.68
658.147	16253.88
658.498	16176.37
658.849	16264.5
659.2	16224.5
659.551	16074.9
659.902	16348.12
660.253	16250.94
660.604	16270.6
660.955	16190.83
661.306	16246.2
661.656	16247.78
662.007	16257.72
662.358	16262.69
662.708	16248.46
663.059	16295.69
663.409	16144.73
663.76	16308.34
664.11	16304.05
664.461	16359.19
664.811	16287.33
665.161	16297.5
665.511	16316.48
665.862	16388.79
666.212	16354.67
666.562	16478.73
666.912	16346.31
667.262	16375.01
667.612	16272.19
667.962	16371.84
668.312	16454.33
668.662	16386.53
669.011	16379.53
669.361	16370.49
669.711	16296.59
670.06	16391.28
670.41	16342.92
670.76	16361.22
671.109	16406.87
671.459	16333.43
671.808	16417.49
672.157	16469.47
672.507	16282.81
672.856	16289.59
673.205	16421.11
673.554	16436.02
673.904	16283.26
674.253	16386.98
674.602	16426.76
674.951	16118.52
675.3	16097.27
675.649	16352.86
675.998	16448.23
676.346	16336.36
676.695	16423.59
677.044	16332.52
677.393	16444.84
677.741	16361.22
678.09	16404.16
678.438	16355.35
678.787	16350.6
679.135	16383.37
679.484	16252.52
679.832	16344.73
680.181	16264.5
680.529	16370.71
680.877	16357.15
681.225	16294.33
681.573	16407.32
681.922	16298.17
682.27	16253.88
682.618	16283.26
682.966	16239.64
683.314	16355.57
683.661	16225.86
684.009	16252.75
684.357	16174.33
684.705	16132.53
685.053	16137.05
685.4	16145.63
685.748	16124.17
686.095	16136.6
686.443	16101.12
686.79	16016.37
687.138	16119.65
687.485	16074.68
687.832	16030.84
688.18	16052.76
688.527	15965.07
688.874	15993.32
689.221	15980.67
689.568	15871.07
689.915	15876.94
690.262	15890.95
690.609	15947.9
690.956	15846.43
691.303	15756.04
691.65	15705.42
691.997	15659.32
692.344	15698.87
692.69	15711.3
693.037	15710.17
693.383	15631.98
693.73	15708.13
694.077	15569.15
694.423	15597.17
694.769	15537.06
695.116	15551.07
695.462	15489.83
695.808	15432.89
696.155	15460.23
696.501	15383.17
696.847	15422.26
697.193	15329.39
697.539	15396.05
697.885	15212.55
698.231	15197.41
698.577	15215.26
698.923	15163.74
699.269	15183.63
699.614	15091.65
699.96	15095.04
700.306	15098.88
700.651	15046.23
700.997	15017.08
701.342	15037.87
701.688	14994.48
702.033	14921.26
702.379	14997.42
702.724	14969.17
703.069	14891.66
703.415	14867.7
703.76	14791.09
704.105	14820.02
704.45	14770.53
704.795	14755.16
705.14	14687.82
705.485	14654.15
705.83	14594.94
706.175	14591.33
706.52	14598.1
706.865	14573.02
707.209	14514.27
707.554	14553.81
707.899	14575.28
708.243	14552.68
708.588	14514.72
708.932	14410.09
709.277	14386.36
709.621	14441.72
709.966	14302.75
710.31	14407.38
710.654	14271.11
710.998	14384.33
711.342	14337.32
711.687	14274.27
712.031	14263.2
712.375	14215.52
712.719	14317.66
713.063	14262.52
713.407	14280.15
713.75	14230.88
714.094	14215.29
714.438	14080.38
714.782	14110.66
715.125	14199.92
715.469	14119.93
715.812	14073.37
716.156	14056.88
716.499	14080.38
716.843	14072.02
717.186	13954.28
717.53	14001.28
717.873	13994.5
718.216	13992.7
718.559	13947.05
718.902	14001.06
719.246	13992.02
719.589	13855.98
719.932	13817.79
720.275	13876.77
720.617	13829.99
720.96	13848.75
721.303	13920.16
721.646	13853.04
721.989	13757
722.331	13918.8
722.674	13841.51
723.016	13866.15
723.359	13831.35
723.701	13856.66
724.044	13774.85
724.386	13692.37
724.729	13699.6
725.071	13742.99
725.413	13755.42
725.755	13771.46
726.097	13697.34
726.439	13603.55
726.782	13713.83
727.124	13651.46
727.465	13633.38
727.807	13635.42
728.149	13623.44
728.491	13533.5
728.833	13539.6
729.175	13553.16
729.516	13584.8
729.858	13530.56
730.199	13529.88
730.541	13500.51
730.882	13528.53
731.224	13533.95
731.565	13450.11
731.906	13586.83
732.248	13459.38
732.589	13479.72
732.93	13366.72
733.271	13352.04
733.612	13377.35
733.953	13426.16
734.294	13398.81
734.635	13361.3
734.976	13367.4
735.317	13321.98
735.658	13271.59
735.999	13380.96
736.339	13331.7
736.68	13358.59
737.021	13322.88
737.361	13263
737.702	13331.47
738.042	13271.81
738.383	13149.33
738.723	13271.59
739.063	13152.95
739.404	13190.68
739.744	13114.3
740.084	13114.98
740.424	13144.13
740.764	13124.92
741.104	13180.52
741.444	13134.87
741.784	13059.84
742.124	13098.26
742.464	13043.34
742.804	12994.98
743.143	12988.43
743.483	12997.69
743.823	12989.79
744.162	13003.8
744.502	12990.24
744.841	12911.37
745.181	13033.4
745.52	12867.53
745.86	12912.95
746.199	12934.65
746.538	12843.57
746.877	12945.04
747.216	12803.8
747.556	12752.28
747.895	12828.21
748.234	12799.06
748.573	12723.35
748.911	12632.28
749.25	12739.62
749.589	12628.44
749.928	12597.93
750.267	12668.44
750.605	12615.33
750.944	12661.43
751.283	12499.4
751.621	12585.5
751.96	12481.78
752.298	12497.6
752.636	12519.74
752.975	12402.23
753.313	12367.88
753.651	12379.63
753.989	12401.55
754.327	12315.23
754.666	12290.14
755.004	12311.16
755.342	12260.31
755.679	12287.43
756.017	12140.77
756.355	12244.95
756.693	12169.92
757.031	12201.33
757.368	12095.12
757.706	12041.56
758.044	11984.84
758.381	12105.29
758.719	12053.09
759.056	11992.52
759.394	11951.62
759.731	11888.57
760.068	11915.01
