Data from brown_tile_FLMS001491_090.txt Node
Date: Tue Feb 07 10:38:08 GMT 2017
User: dcchb
Spectrometer: FLMS00149
Trigger mode: 0
Integration Time (sec): 2.000000E-2
Scans to average: 10
Electric dark correction enabled: true
Nonlinearity correction enabled: false
Boxcar width: 0
XAxis mode: Wavelengths
Number of Pixels in Spectrum: 2048
>>>>>Begin Spectral Data<<<<<
341.393	-24.55
341.776	-24.55
342.16	-24.55
342.543	-67.26
342.927	-72.91
343.31	-70.87
343.693	-58.67
344.077	-54.6
344.46	-37.65
344.843	-69.52
345.226	-60.7
345.61	-22.74
345.993	-20.93
346.376	-16.64
346.759	10.93
347.142	28.11
347.525	37.82
347.908	61.78
348.291	72.4
348.674	87.77
349.057	113.53
349.44	129.35
349.823	154.88
350.206	142.68
350.588	166.86
350.971	182.68
351.354	196.24
351.737	214.77
352.119	217.71
352.502	250.93
352.884	245.5
353.267	276.46
353.65	277.59
354.032	257.48
354.414	272.62
354.797	269
355.179	287.08
355.562	273.07
355.944	300.64
356.326	288.44
356.709	310.36
357.091	320.98
357.473	297.48
357.855	324.37
358.238	309.68
358.62	317.36
359.002	311.71
359.384	332.28
359.766	305.16
360.148	319.4
360.53	313.75
360.912	308.1
361.294	307.2
361.676	318.04
362.057	322.11
362.439	294.31
362.821	308.78
363.203	311.26
363.584	309.23
363.966	309.46
364.348	276.91
364.729	300.87
365.111	297.48
365.493	297.25
365.874	312.62
366.256	280.53
366.637	297.7
367.019	313.52
367.4	299.96
367.781	293.18
368.163	291.38
368.544	279.63
368.925	296.8
369.306	295.67
369.688	276.46
370.069	287.99
370.45	307.2
370.831	295.67
371.212	318.27
371.593	278.72
371.974	299.51
372.355	278.5
372.736	285.95
373.117	280.76
373.498	276.69
373.879	275.56
374.26	297.25
374.641	279.85
375.021	293.18
375.402	279.17
375.783	292.28
376.163	300.42
376.544	302.22
376.925	286.86
377.305	302.22
377.686	287.53
378.066	307.2
378.447	305.61
378.827	300.64
379.208	318.27
379.588	314.88
379.968	324.37
380.349	308.33
380.729	310.36
381.109	302.68
381.489	301.09
381.87	305.84
382.25	313.07
382.63	325.05
383.01	321.21
383.39	323.47
383.77	310.36
384.15	310.59
384.53	317.14
384.91	329.34
385.29	314.88
385.67	308.55
386.049	337.25
386.429	318.04
386.809	325.05
387.189	331.15
387.568	328.21
387.948	330.02
388.328	331.83
388.707	331.15
389.087	327.99
389.466	344.26
389.846	335.67
390.225	342
390.605	351.94
390.984	355.1
391.363	327.53
391.743	333.41
392.122	338.15
392.501	337.7
392.881	332.51
393.26	330.25
393.639	338.61
394.018	341.54
394.397	362.56
394.776	341.54
395.155	338.61
395.534	334.54
395.913	353.07
396.292	356.01
396.671	330.47
397.05	361.21
397.429	348.55
397.808	357.59
398.186	356.46
398.565	346.97
398.944	342
399.323	345.61
399.701	337.93
400.08	358.72
400.458	371.15
400.837	367.53
401.215	364.59
401.594	354.88
401.972	354.65
402.351	369.11
402.729	379.28
403.107	385.61
403.486	375.22
403.864	374.54
404.242	395.1
404.62	372.96
404.999	383.13
405.377	380.87
405.755	373.41
406.133	387.19
406.511	381.09
406.889	372.05
407.267	407.31
407.645	389.91
408.023	377.7
408.401	389
408.779	360.3
409.156	412.28
409.534	375.44
409.912	389.45
410.29	411.37
410.667	402.56
411.045	412.05
411.422	412.28
411.8	418.6
412.178	397.81
412.555	430.13
412.933	417.02
413.31	416.57
413.687	422.22
414.065	432.84
414.442	422.45
414.819	414.99
415.197	428.32
415.574	441.66
415.951	423.58
416.328	443.46
416.705	446.63
417.082	419.96
417.46	429
417.837	456.34
418.214	429.9
418.591	445.04
418.967	461.32
419.344	438.72
419.721	464.03
420.098	430.81
420.475	462.9
420.852	457.02
421.228	457.47
421.605	461.09
421.982	448.43
422.358	465.38
422.735	478.94
423.111	482.56
423.488	469
423.864	509
424.241	483.91
424.617	465.61
424.994	474.42
425.37	484.82
425.746	497.02
426.123	498.6
426.499	511.48
426.875	497.25
427.251	497.02
427.627	506.74
428.003	498.83
428.379	535.66
428.756	507.64
429.132	504.48
429.507	530.92
429.883	494.76
430.259	506.06
430.635	527.08
431.011	544.7
431.387	549.67
431.763	557.58
432.138	547.87
432.514	563.46
432.89	542.44
433.265	560.97
433.641	559.39
434.016	576.34
434.392	595.78
434.767	572.95
435.143	576.79
435.518	582.22
435.894	585.38
436.269	583.57
436.644	598.94
437.02	591.48
437.395	577.7
437.77	594.87
438.145	610.69
438.52	605.27
438.895	610.69
439.271	639.62
439.646	624.25
440.021	641.42
440.395	635.32
440.77	618.83
441.145	623.35
441.52	624.02
441.895	659.28
442.27	629.45
442.645	630.35
443.019	645.72
443.394	663.8
443.769	654.76
444.143	654.08
444.518	652.05
444.892	674.19
445.267	659.5
445.641	683.23
446.016	667.86
446.39	690.69
446.764	666.06
447.139	665.6
447.513	674.64
447.887	702.21
448.262	666.51
448.636	698.37
449.01	699.95
449.384	684.13
449.758	703.57
450.132	712.38
450.506	703.34
450.88	702.21
451.254	733.4
451.628	743.79
452.002	765.94
452.376	728.65
452.75	739.27
453.123	726.62
453.497	752.83
453.871	763.68
454.244	774.08
454.618	762.32
454.992	774.53
455.365	785.83
455.739	770.23
456.112	771.36
456.486	807.97
456.859	813.62
457.232	800.29
457.606	813.4
457.979	823.11
458.352	843
458.725	863.34
459.099	833.74
459.472	849.33
459.845	837.12
460.218	864.02
460.591	894.07
460.964	877.12
461.337	894.3
461.71	905.37
462.083	926.84
462.456	903.79
462.829	912.38
463.201	919.61
463.574	939.04
463.947	937.91
464.32	950.34
464.692	952.15
465.065	987.4
465.438	991.47
465.81	975.2
466.183	977.01
466.555	1018.82
466.928	1014.3
467.3	984.47
467.672	1014.52
468.045	1036.22
468.417	1044.35
468.789	1049.32
469.161	1056.78
469.534	1083.67
469.906	1121.19
470.278	1090.45
470.65	1112.6
471.022	1118.7
471.394	1142.88
471.766	1162.77
472.138	1173.84
472.51	1178.58
472.882	1219.26
473.253	1199.15
473.625	1226.04
473.997	1234.18
474.369	1237.34
474.74	1256.55
475.112	1267.85
475.484	1292.25
475.855	1298.13
476.227	1323.44
476.598	1358.24
476.97	1345.36
477.341	1355.53
477.713	1399.6
478.084	1367.51
478.455	1417
478.827	1459.71
479.198	1468.52
479.569	1455.19
479.94	1492.7
480.311	1532.02
480.682	1550.1
481.053	1568.63
481.424	1602.08
481.795	1627.39
482.166	1612.92
482.537	1666.03
482.908	1671.45
483.279	1696.31
483.65	1712.13
484.021	1754.39
484.391	1772.47
484.762	1780.6
485.133	1795.29
485.503	1800.49
485.874	1854.5
486.244	1855.18
486.615	1915.74
486.985	1932.01
487.356	1946.25
487.726	1943.08
488.097	1955.06
488.467	1976.08
488.837	2039.58
489.207	2063.53
489.578	2101.05
489.948	2066.7
490.318	2127.71
490.688	2113.93
491.058	2156.41
491.428	2173.13
491.798	2197.77
492.168	2219.69
492.538	2266.69
492.908	2287.93
493.278	2288.84
493.648	2275.51
494.017	2334.49
494.387	2348.05
494.757	2377.65
495.126	2389.17
495.496	2381.49
495.866	2412.22
496.235	2429.63
496.605	2469.4
496.974	2473.69
497.344	2492.45
497.713	2503.52
498.082	2530.87
498.452	2571.99
498.821	2530.19
499.19	2596.63
499.559	2622.39
499.928	2585.33
500.298	2624.87
500.667	2652.9
501.036	2644.08
501.405	2720.24
501.774	2690.64
502.143	2739.22
502.512	2716.62
502.88	2741.03
503.249	2745.1
503.618	2766.79
503.987	2841.59
504.356	2795.49
504.724	2793.68
505.093	2837.3
505.462	2861.25
505.83	2911.65
506.199	2889.05
506.567	2944.41
506.936	2936.28
507.304	2972.66
507.672	3017.86
508.041	3071.87
508.409	3026.45
508.777	3059.44
509.145	3064.64
509.514	3076.84
509.882	3139.44
510.25	3113.68
510.618	3164.97
510.986	3195.48
511.354	3140.12
511.722	3202.94
512.09	3217.63
512.458	3228.47
512.826	3256.95
513.193	3275.48
513.561	3297.63
513.929	3349.38
514.297	3365.42
514.664	3405.87
515.032	3384.85
515.4	3416.72
515.767	3472.54
516.135	3437.06
516.502	3453.33
516.869	3533.33
517.237	3513.44
517.604	3513.66
517.972	3588.46
518.339	3585.53
518.706	3587.56
519.073	3659.42
519.44	3678.18
519.808	3739.42
520.175	3657.62
520.542	3727.44
520.909	3811.51
521.276	3780.1
521.643	3817.16
522.009	3835.46
522.376	3902.58
522.743	3917.72
523.11	3944.84
523.477	3960.66
523.843	3974.67
524.21	4024.39
524.577	4078.85
524.943	4087.66
525.31	4166.53
525.676	4174.44
526.043	4211.27
526.409	4198.39
526.776	4260.76
527.142	4336.02
527.508	4350.93
527.874	4364.04
528.241	4435.45
528.607	4441.78
528.973	4448.78
529.339	4488.33
529.705	4471.38
530.071	4513.64
530.437	4595.9
530.803	4621.43
531.169	4639.74
531.535	4649.91
531.901	4663.69
532.267	4707.08
532.632	4747.98
532.998	4739.17
533.364	4804.03
533.73	4803.12
534.095	4830.69
534.461	4867.75
534.826	4901.88
535.192	4904.14
535.557	4971.25
535.923	4931.48
536.288	4999.5
536.653	5027.98
537.019	5050.35
537.384	5058.71
537.749	5081.08
538.114	5093.28
538.479	5128.76
538.845	5184.36
539.21	5206.5
539.575	5199.04
539.94	5265.93
540.305	5277.01
540.67	5296.44
541.034	5372.37
541.399	5395.2
541.764	5389.55
542.129	5469.77
542.494	5488.08
542.858	5510
543.223	5517.23
543.587	5552.71
543.952	5617.56
544.316	5638.13
544.681	5615.3
545.045	5697.34
545.41	5749.31
545.774	5762.19
546.138	5802.64
546.503	5771.01
546.867	5815.07
547.231	5886.03
547.595	5902.3
547.959	5908.18
548.324	5962.19
548.688	5982.75
549.052	6106.59
549.416	6048.29
549.779	6119.47
550.143	6164.89
550.507	6213.25
550.871	6284.21
551.235	6256.42
551.599	6273.59
551.962	6344.1
552.326	6403.98
552.689	6502.96
553.053	6404.89
553.417	6473.81
553.78	6607.14
554.143	6585
554.507	6669.51
554.87	6716.52
555.234	6776.4
555.597	6834.26
555.96	6910.86
556.323	6970.3
556.686	6953.8
557.05	6962.39
557.413	7050.75
557.776	7083.29
558.139	7203.29
558.502	7245.77
558.865	7275.37
559.228	7382.04
559.59	7382.49
559.953	7549.26
560.316	7595.37
560.679	7631.97
561.041	7655.48
561.404	7759.88
561.767	7854.34
562.129	7937.05
562.492	8047.56
562.854	7999.65
563.217	8094.34
563.579	8103.37
563.941	8254.11
564.304	8274.44
564.666	8317.15
565.028	8476.02
565.39	8528.45
565.753	8601.89
566.115	8646.86
566.477	8732.96
566.839	8796.92
567.201	8853.19
567.563	9002.33
567.925	9048.66
568.287	9083.01
568.648	9211.82
569.01	9244.81
569.372	9362.78
569.734	9374.08
570.095	9457.69
570.457	9571.81
570.819	9640.06
571.18	9671.47
571.542	9773.84
571.903	9802.99
572.265	9935.19
572.626	10068.75
572.987	10136.54
573.349	10155.98
573.71	10256.76
574.071	10311.45
574.432	10398.46
574.794	10521.84
575.155	10576.53
575.516	10570.88
575.877	10626.92
576.238	10732.01
576.599	10823.3
576.96	10858.33
577.32	10987.59
577.681	11030.53
578.042	11139
578.403	11190.75
578.763	11274.82
579.124	11236.63
579.485	11377.19
579.845	11512.55
580.206	11473.23
580.566	11516.62
580.927	11585.54
581.287	11729.04
581.648	11684.52
582.008	11802.03
582.368	11767.91
582.728	11878.64
583.089	11927.45
583.449	11951.86
583.809	12002.48
584.169	12120.67
584.529	12194.11
584.889	12229.14
585.249	12184.62
585.609	12247.45
585.969	12368.8
586.329	12351.85
586.688	12473.43
587.048	12459.19
587.408	12450.38
587.768	12560.43
588.127	12510.94
588.487	12619.87
588.846	12737.38
589.206	12719.98
589.565	12735.57
589.925	12867.32
590.284	12889.46
590.643	12914.55
591.003	12950.7
591.362	12992.06
591.721	13027.76
592.08	12982.34
592.44	13101.89
592.799	13148.67
593.158	13167.2
593.517	13257.82
593.876	13223.47
594.235	13234.77
594.593	13297.59
594.952	13315.21
595.311	13331.49
595.67	13332.16
596.029	13485.38
596.387	13544.36
596.746	13516.11
597.104	13556.34
597.463	13522.67
597.822	13679.27
598.18	13651.48
598.538	13648.77
598.897	13732.61
599.255	13738.25
599.613	13884.47
599.972	13816.44
600.33	13882.88
600.688	13856.9
601.046	13914.07
601.404	14021.64
601.762	13965.82
602.12	14059.38
602.478	14144.57
602.836	14127.85
603.194	14064.12
603.552	14118.58
603.91	13969.89
604.268	14231.8
604.625	14178.02
604.983	14220.05
605.341	14191.12
605.698	14409.42
606.056	14418.69
606.413	14338.92
606.771	14466.82
607.128	14487.61
607.485	14457.56
607.843	14451.23
608.2	14595.18
608.557	14640.38
608.914	14488.97
609.272	14669.3
609.629	14766.48
609.986	14754.5
610.343	14672.02
610.7	14834.5
611.057	14719.7
611.414	14786.14
611.771	14944.78
612.127	14895.29
612.484	14964.66
612.841	15027.94
613.198	14985.23
613.554	15086.02
613.911	15192.45
614.267	15019.58
614.624	15082.85
614.98	15175.73
615.337	15260.25
615.693	15197.88
616.05	15176.86
616.406	15248.95
616.762	15257.08
617.118	15260.02
617.475	15235.62
617.831	15325.78
618.187	15404.65
618.543	15370.98
618.899	15520.35
619.255	15419.34
619.611	15449.4
619.967	15538.21
620.323	15509.51
620.678	15488.27
621.034	15465.67
621.39	15481.26
621.746	15429.51
622.101	15702.04
622.457	15567.81
622.812	15631.09
623.168	15576.17
623.523	15560.81
623.879	15642.61
624.234	15547.47
624.589	15658.2
624.945	15594.03
625.3	15647.58
625.655	15686.68
626.01	15561.48
626.365	15738.43
626.72	15627.24
627.075	15615.95
627.43	15549.05
627.785	15620.92
628.14	15659.33
628.495	15644.19
628.85	15592.44
629.205	15686.45
629.559	15611.2
629.914	15715.6
630.269	15573.46
630.623	15555.61
630.978	15552.22
631.332	15656.62
631.687	15682.84
632.041	15568.94
632.396	15594.25
632.75	15531.88
633.104	15575.27
633.459	15535.27
633.813	15503.63
634.167	15468.83
634.521	15495.72
634.875	15516.96
635.229	15551.99
635.583	15413.69
635.937	15499.56
636.291	15516.51
636.645	15429.96
636.999	15417.31
637.352	15469.28
637.706	15471.77
638.06	15389.28
638.413	15386.57
638.767	15374.6
639.121	15443.07
639.474	15396.74
639.828	15321.94
640.181	15374.37
640.534	15471.54
640.888	15322.85
641.241	15312.22
641.594	15367.36
641.947	15340.7
642.301	15331.21
642.654	15320.36
643.007	15353.58
643.36	15379.57
643.713	15316.74
644.066	15386.8
644.419	15294.37
644.771	15216.63
645.124	15056.86
645.477	14971.44
645.83	14902.07
646.182	14765.57
646.535	14813.48
646.888	14819.36
647.24	14807.83
647.593	14739.58
647.945	14803.54
648.298	14748.62
648.65	14673.37
649.002	14640.6
649.355	14759.02
649.707	14692.58
650.059	14801.28
650.411	15030.42
650.763	14970.99
651.115	15155.17
651.467	15101.38
651.819	15068.62
652.171	15054.15
652.523	15099.35
652.875	15009.63
653.227	15015.74
653.578	15156.07
653.93	15048.28
654.282	15067.71
654.633	14982.97
654.985	15030.65
655.337	15015.28
655.688	15056.64
656.039	15118.56
656.391	14935.74
656.742	14961.95
657.094	15024.1
657.445	15015.74
657.796	15108.39
658.147	15036.53
658.498	15054.38
658.849	15079.24
659.2	15105
659.551	15083.76
659.902	15060.93
660.253	15056.41
660.604	15106.58
660.955	15009.63
661.306	15100.25
661.656	15030.65
662.007	15090.54
662.358	14977.54
662.708	15058.9
663.059	15013.7
663.409	14999.24
663.76	15101.16
664.11	15031.78
664.461	15165.79
664.811	15100.93
665.161	15023.19
665.511	15080.14
665.862	15063.19
666.212	15112.46
666.562	15114.72
666.912	15030.2
667.262	15118.11
667.612	15105.22
667.962	15202.4
668.312	15077.2
668.662	15204.66
669.011	15163.75
669.361	15181.83
669.711	15045.34
670.06	15157.2
670.41	15168.5
670.76	15070.65
671.109	15153.81
671.459	15147.26
671.808	15152.91
672.157	15159.01
672.507	15061.38
672.856	15094.6
673.205	15116.98
673.554	15192.45
673.904	15125.11
674.253	15160.36
674.602	15109.52
674.951	14961.05
675.3	14795.85
675.649	15112.68
675.998	15079.91
676.346	15136.18
676.695	15214.6
677.044	15066.81
677.393	15083.53
677.741	15135.05
678.09	15088.5
678.438	15014.61
678.787	15106.58
679.135	15105.9
679.484	15114.49
679.832	15088.5
680.181	15086.92
680.529	15100.93
680.877	15104.09
681.225	15037.2
681.573	15095.28
681.922	15054.38
682.27	15060.48
682.618	15058.45
682.966	15060.48
683.314	15115.39
683.661	15091.89
684.009	14999.69
684.357	14988.62
684.705	14992.01
685.053	15003.53
685.4	14974.83
685.748	14856.87
686.095	14971.44
686.443	14880.37
686.79	14876.98
687.138	14940.03
687.485	14854.61
687.832	14813.03
688.18	14802.18
688.527	14750.88
688.874	14785.91
689.221	14786.14
689.568	14774.16
689.915	14754.95
690.262	14738.23
690.609	14633.82
690.956	14691.22
691.303	14696.87
691.65	14668.63
691.997	14632.02
692.344	14512.02
692.69	14503.66
693.037	14509.99
693.383	14432.93
693.73	14554.05
694.077	14478.57
694.423	14450.33
694.769	14508.18
695.116	14432.02
695.462	14373.94
695.808	14424.34
696.155	14461.63
696.501	14336.66
696.847	14348.18
697.193	14221.63
697.539	14279.48
697.885	14202.42
698.231	14223.44
698.577	14230.9
698.923	14199.49
699.269	14098.47
699.614	13912.26
699.96	14019.38
700.306	14061.86
700.651	13948.42
700.997	14010.79
701.342	13910.68
701.688	13917.01
702.033	13954.97
702.379	13952.71
702.724	13865.71
703.069	13928.08
703.415	13714.07
703.76	13803.56
704.105	13815.31
704.45	13789.55
704.795	13704.36
705.14	13735.32
705.485	13768.76
705.83	13677.69
706.175	13701.87
706.52	13587.07
706.865	13667.07
707.209	13668.65
707.554	13633.17
707.899	13698.03
708.243	13594.08
708.588	13536.68
708.932	13426.17
709.277	13422.56
709.621	13461.88
709.966	13416
710.31	13463.23
710.654	13375.1
710.998	13393.4
711.342	13350.69
711.687	13356.57
712.031	13270.92
712.375	13262.56
712.719	13325.61
713.063	13269.57
713.407	13347.3
713.75	13285.84
714.094	13216.23
714.438	13157.7
714.782	13199.29
715.125	13180.08
715.469	13246.74
715.812	13177.82
716.156	13087.2
716.499	13102.11
716.843	13106.18
717.186	13058.27
717.53	13200.64
717.873	13046.3
718.216	13063.92
718.559	13103.7
718.902	13018.73
719.246	13001.55
719.589	12993.42
719.932	12980.76
720.275	13054.2
720.617	13035.9
720.96	12974.21
721.303	12934.21
721.646	12918.39
721.989	12792.06
722.331	12885.17
722.674	12863.25
723.016	12901.67
723.359	12813.31
723.701	12853.98
724.044	12804.04
724.386	12742.35
724.729	12771.95
725.071	12784.16
725.413	12859.86
725.755	12751.39
726.097	12753.2
726.439	12708.68
726.782	12667.55
727.124	12754.78
727.465	12734.44
727.807	12642.92
728.149	12671.62
728.491	12714.33
728.833	12818.28
729.175	12596.59
729.516	12557.72
729.858	12597.27
730.199	12602.92
730.541	12601.34
730.882	12545.97
731.224	12623.48
731.565	12524.73
731.906	12603.37
732.248	12521.34
732.589	12460.55
732.93	12465.07
733.271	12497.84
733.612	12507.78
733.953	12502.81
734.294	12513.2
734.635	12473.43
734.976	12483.6
735.317	12436.82
735.658	12399.53
735.999	12366.77
736.339	12443.37
736.68	12446.54
737.021	12412.87
737.361	12343.49
737.702	12385.07
738.042	12311.63
738.383	12394.79
738.723	12388.01
739.063	12315.69
739.404	12214.23
739.744	12239.08
740.084	12222.81
740.424	12319.08
740.764	12284.28
741.104	12250.61
741.444	12275.02
741.784	12178.07
742.124	12186.21
742.464	12175.58
742.804	12134.23
743.143	12102.37
743.483	12101.46
743.823	12073.89
744.162	12060.11
744.502	12086.77
744.841	12051.07
745.181	12070.95
745.52	12026.21
745.86	12055.81
746.199	12045.42
746.538	11924.97
746.877	12005.19
747.216	11989.83
747.556	12001.13
747.895	11920.45
748.234	11848.13
748.573	11907.12
748.911	11854.24
749.25	11884.29
749.589	11787.8
749.928	11873.9
750.267	11785.76
750.605	11742.15
750.944	11671.42
751.283	11611.98
751.621	11739.89
751.96	11639.1
752.298	11648.59
752.636	11632.1
752.975	11639.78
753.313	11573.11
753.651	11556.84
753.989	11546.22
754.327	11462.61
754.666	11456.73
755.004	11454.7
755.342	11554.13
755.679	11422.16
756.017	11336.51
756.355	11322.27
756.693	11312.1
757.031	11309.84
757.368	11280.69
757.706	11308.49
758.044	11214.03
758.381	11225.78
758.719	11113.92
759.056	11142.16
759.394	11151.43
759.731	11087.48
760.068	11008.61
760.405	10960.25
760.743	10956.86
