Data from brown_tile_FLMS001491_018.txt Node
Date: Tue Feb 07 10:37:09 GMT 2017
User: dcchb
Spectrometer: FLMS00149
Trigger mode: 0
Integration Time (sec): 2.000000E-2
Scans to average: 10
Electric dark correction enabled: true
Nonlinearity correction enabled: false
Boxcar width: 0
XAxis mode: Wavelengths
Number of Pixels in Spectrum: 2048
>>>>>Begin Spectral Data<<<<<
341.393	-23.91
341.776	-23.91
342.16	-23.91
342.543	-60.52
342.927	-93.29
343.31	-74.31
343.693	-60.3
344.077	-67.53
344.46	-57.58
344.843	-38.37
345.226	-49.67
345.61	-20.3
345.993	1.62
346.376	-9.22
346.759	0.72
347.142	21.06
347.525	37.78
347.908	49.53
348.291	77.1
348.674	80.72
349.057	108.74
349.44	127.72
349.823	153.48
350.206	158.68
350.588	177.44
350.971	180.15
351.354	219.25
351.737	225.12
352.119	241.84
352.502	263.76
352.884	261.5
353.267	266.7
353.65	279.81
354.032	277.55
354.414	271.67
354.797	304.22
355.179	293.37
355.562	294.95
355.944	304.89
356.326	307.15
356.709	305.8
357.091	325.23
357.473	319.36
357.855	343.76
358.238	307.15
358.62	330.88
359.002	310.77
359.384	303.09
359.766	301.73
360.148	335.85
360.53	324.1
360.912	301.5
361.294	316.42
361.676	306.25
362.057	312.35
362.439	311.9
362.821	344.21
363.203	307.6
363.584	316.64
363.966	310.99
364.348	313.25
364.729	309.64
365.111	305.8
365.493	312.12
365.874	286.81
366.256	301.28
366.637	306.7
367.019	325.91
367.4	296.76
367.781	306.7
368.163	303.76
368.544	278.45
368.925	302.86
369.306	294.72
369.688	290.88
370.069	301.05
370.45	310.77
370.831	321.62
371.212	289.07
371.593	322.75
371.974	305.57
372.355	301.5
372.736	301.96
373.117	305.12
373.498	300.6
373.879	310.99
374.26	301.5
374.641	329.3
375.021	318.9
375.402	319.58
375.783	309.86
376.163	318.9
376.544	304.44
376.925	296.98
377.305	315.51
377.686	303.09
378.066	309.64
378.447	320.71
378.827	323.2
379.208	327.94
379.588	315.06
379.968	320.94
380.349	324.55
380.729	330.43
381.109	330.2
381.489	302.63
381.87	324.78
382.25	318
382.63	340.15
383.01	342.63
383.39	342.18
383.77	341.95
384.15	325.23
384.53	343.76
384.91	327.72
385.29	331.79
385.67	354.84
386.049	330.2
386.429	327.49
386.809	350.32
387.189	342.63
387.568	371.11
387.948	328.62
388.328	356.42
388.707	363.42
389.087	346.47
389.466	364.78
389.846	354.84
390.225	367.94
390.605	354.61
390.984	350.54
391.363	357.55
391.743	368.85
392.122	362.74
392.501	378.34
392.881	360.26
393.26	375.17
393.639	375.63
394.018	363.42
394.397	378.79
394.776	360.26
395.155	375.4
395.534	382.41
395.913	368.85
396.292	400.26
396.671	384.21
397.05	408.39
397.429	378.34
397.808	399.13
398.186	386.25
398.565	385.57
398.944	380.15
399.323	372.46
399.701	379.47
400.08	406.36
400.458	381.73
400.837	404.33
401.215	400.26
401.594	394.61
401.972	384.89
402.351	412.46
402.729	406.13
403.107	388.96
403.486	401.84
403.864	411.11
404.242	403.42
404.62	410.2
404.999	418.34
405.377	401.39
405.755	401.39
406.133	410.65
406.511	414.27
406.889	409.75
407.267	426.92
407.645	425.34
408.023	404.55
408.401	409.75
408.779	442.52
409.156	429.64
409.534	438.45
409.912	445.23
410.29	449.07
410.667	466.24
411.045	451.56
411.422	464.89
411.8	461.95
412.178	447.26
412.555	459.01
412.933	465.57
413.31	493.36
413.687	480.03
414.065	476.87
414.442	470.31
414.819	480.48
415.197	479.13
415.574	502.85
415.951	489.52
416.328	498.11
416.705	500.14
417.082	488.39
417.46	496.75
417.837	495.85
418.214	493.36
418.591	508.28
418.967	511.67
419.344	502.4
419.721	527.26
420.098	528.39
420.475	502.63
420.852	517.32
421.228	503.76
421.605	522.29
421.982	529.75
422.358	503.31
422.735	538.11
423.111	518.67
423.488	543.08
423.864	543.08
424.241	548.5
424.617	554.83
424.994	544.43
425.37	596.18
425.746	573.36
426.123	535.17
426.499	572.91
426.875	579.46
427.251	571.1
427.627	575.17
428.003	599.12
428.379	596.86
428.756	584.43
429.132	598.22
429.507	617.88
429.883	612.46
430.259	604.32
430.635	608.16
431.011	611.78
431.387	627.37
431.763	627.6
432.138	660.59
432.514	648.39
432.89	621.27
433.265	648.84
433.641	652.23
434.016	656.07
434.392	679.35
434.767	700.14
435.143	668.05
435.518	673.92
435.894	713.02
436.269	700.14
436.644	697.65
437.02	713.7
437.395	711.21
437.77	701.04
438.145	723.41
438.52	711.44
438.895	732.68
439.271	739.91
439.646	747.37
440.021	774.94
440.395	738.78
440.77	750.76
441.145	755.95
441.52	752.79
441.895	783.3
442.27	760.47
442.645	765.67
443.019	809.29
443.394	773.81
443.769	787.59
444.143	790.98
444.518	790.76
444.892	815.39
445.267	794.15
445.641	803.19
446.016	818.55
446.39	790.98
446.764	808.16
447.139	831.43
447.513	823.07
447.887	819
448.262	843.86
448.636	817.65
449.01	849.29
449.384	851.77
449.758	847.7
450.132	872.11
450.506	851.77
450.88	880.02
451.254	859.68
451.628	888.15
452.002	887.7
452.376	900.81
452.75	879.12
453.123	919.79
453.497	908.72
453.871	916.63
454.244	917.31
454.618	937.64
454.992	948.94
455.365	964.99
455.739	975.16
456.112	1000.92
456.486	959.57
456.859	967.02
457.232	990.07
457.606	998.89
457.979	1012.45
458.352	1023.29
458.725	1031.2
459.099	1039.11
459.472	1036.4
459.845	1066.23
460.218	1053.8
460.591	1079.11
460.964	1101.71
461.337	1122.95
461.71	1124.08
462.083	1139.67
462.456	1118.66
462.829	1136.06
463.201	1143.06
463.574	1149.39
463.947	1146.9
464.32	1185.32
464.692	1216.06
465.065	1216.96
465.438	1211.54
465.81	1193.46
466.183	1218.54
466.555	1261.03
466.928	1250.18
467.3	1283.85
467.672	1281.14
468.045	1298.54
468.417	1319.78
468.789	1325.21
469.161	1341.93
469.534	1334.92
469.906	1356.39
470.278	1382.38
470.65	1383.96
471.022	1431.42
471.394	1434.13
471.766	1445.2
472.138	1446.11
472.51	1493.34
472.882	1522.26
473.253	1526.1
473.625	1541.47
473.997	1577.18
474.369	1585.09
474.74	1595.93
475.112	1640.68
475.484	1656.5
475.855	1669.15
476.227	1674.8
476.598	1712.54
476.97	1705.31
477.341	1757.06
477.713	1789.37
478.084	1777.85
478.455	1809.26
478.827	1849.03
479.198	1887.22
479.569	1924.51
479.94	1927.68
480.311	1949.37
480.682	1961.35
481.053	2056.03
481.424	2064.85
481.795	2074.11
482.166	2109.82
482.537	2083.6
482.908	2163.15
483.279	2188.46
483.65	2202.24
484.021	2244.73
484.391	2302.81
484.762	2271.4
485.133	2326.99
485.503	2336.93
485.874	2412.86
486.244	2392.3
486.615	2448.34
486.985	2468.9
487.356	2549.35
487.726	2537.15
488.097	2615.79
488.467	2581.22
488.837	2663.93
489.207	2698.95
489.578	2694.66
489.948	2719.07
490.318	2765.85
490.688	2796.8
491.058	2809.69
491.428	2844.04
491.798	2896.69
492.168	2933.3
492.538	2952.96
492.908	3005.39
493.278	3031.15
493.648	3016.91
494.017	3030.7
494.387	3070.7
494.757	3110.92
495.126	3126.51
495.496	3138.49
495.866	3164.25
496.235	3200.18
496.605	3197.25
496.974	3241.09
497.344	3266.62
497.713	3281.54
498.082	3332.16
498.452	3349.78
498.821	3371.93
499.19	3397.02
499.559	3401.76
499.928	3422.1
500.298	3486.5
500.667	3512.49
501.036	3487.41
501.405	3561.98
501.774	3566.5
502.143	3582.55
502.512	3580.97
502.88	3618.7
503.249	3672.04
503.618	3644.92
503.987	3690.57
504.356	3693.73
504.724	3732.6
505.093	3767.85
505.462	3746.61
505.83	3765.82
506.199	3828.19
506.567	3858.25
506.936	3849.21
507.304	3938.92
507.672	3889.43
508.041	3994.29
508.409	4010.11
508.777	3996.1
509.145	4007.62
509.514	4013.27
509.882	4091.23
510.25	4116.54
510.618	4076.55
510.986	4206.49
511.354	4176.43
511.722	4211.46
512.09	4208.97
512.458	4250.55
512.826	4308.86
513.193	4227.5
513.561	4352.7
513.929	4362.41
514.297	4407.16
514.664	4469.76
515.032	4464.11
515.4	4520.38
515.767	4549.3
516.135	4574.16
516.502	4512.92
516.869	4617.55
517.237	4686.47
517.604	4669.07
517.972	4693.25
518.339	4793.36
518.706	4760.82
519.073	4824.1
519.44	4832.01
519.808	4889.86
520.175	4868.16
520.542	4941.61
520.909	5019.12
521.276	5007.59
521.643	5077.65
522.009	5107.7
522.376	5115.84
522.743	5137.76
523.11	5254.37
523.477	5232.9
523.843	5363.29
524.21	5350.41
524.577	5385.66
524.943	5475.83
525.31	5463.4
525.676	5573.23
526.043	5561.48
526.409	5559.22
526.776	5603.28
527.142	5636.05
527.508	5708.37
527.874	5740.46
528.241	5787.01
528.607	5815.03
528.973	5859.1
529.339	5860.68
529.705	5953.11
530.071	5962.6
530.437	6039.66
530.803	6042.6
531.169	6108.81
531.535	6092.76
531.901	6124.4
532.267	6161.24
532.632	6281.23
532.998	6281.23
533.364	6325.07
533.73	6324.62
534.095	6440.1
534.461	6405.98
534.826	6430.61
535.192	6504.96
535.557	6538.85
535.923	6603.71
536.288	6537.05
536.653	6664.5
537.019	6635.8
537.384	6674.44
537.749	6731.62
538.114	6730.03
538.479	6750.37
538.845	6855.68
539.21	6861.78
539.575	6886.64
539.94	6901.78
540.305	6993.08
540.67	6978.16
541.034	7059.07
541.399	7101.32
541.764	7100.65
542.129	7164.15
542.494	7201.89
542.858	7209.34
543.223	7308.32
543.587	7338.83
543.952	7301.77
544.316	7412.95
544.681	7411.15
545.045	7454.99
545.41	7499.28
545.774	7579.5
546.138	7556.45
546.503	7598.71
546.867	7694.76
547.231	7767.97
547.595	7788.31
547.959	7844.58
548.324	7828.54
548.688	7896.33
549.052	7967.97
549.416	7973.17
549.779	8038.93
550.143	8048.64
550.507	8137.23
550.871	8158.92
551.235	8162.77
551.599	8264.01
551.962	8365.92
552.326	8439.59
552.689	8415.87
553.053	8438.46
553.417	8461.97
553.78	8666.93
554.143	8620.38
554.507	8739.93
554.87	8733.15
555.234	8828.96
555.597	8926.81
555.96	8854.05
556.323	8993.48
556.686	9081.16
557.05	9121.84
557.413	9204.55
557.776	9240.03
558.139	9359.8
558.502	9399.34
558.865	9472.79
559.228	9494.48
559.59	9613.35
559.953	9703.52
560.316	9839.78
560.679	9901.93
561.041	9978.09
561.404	10099.21
561.767	10153
562.129	10137.18
562.492	10308.7
562.854	10378.98
563.217	10425.53
563.579	10559.31
563.941	10627.56
564.304	10653.55
564.666	10792.07
565.028	10882.47
565.39	10935.57
565.753	11072.75
566.115	11178.51
566.477	11263.7
566.839	11328.33
567.201	11394.77
567.563	11422.57
567.925	11540.98
568.287	11733.29
568.648	11776
569.01	11863.23
569.372	11928.54
569.734	12086.05
570.095	12215.99
570.457	12252.38
570.819	12301.41
571.18	12408.53
571.542	12569.66
571.903	12571.24
572.265	12701.18
572.626	12747.05
572.987	12830.67
573.349	12949.08
573.71	12996.54
574.071	13162.86
574.432	13251.9
574.794	13362.85
575.155	13393.59
575.516	13469.97
575.877	13603.3
576.238	13688.04
576.599	13750.87
576.96	13842.62
577.32	13854.37
577.681	13980.01
578.042	14015.04
578.403	14084.64
578.763	14213.45
579.124	14266.56
579.485	14388.14
579.845	14361.47
580.206	14440.79
580.566	14531.64
580.927	14532.77
581.287	14664.06
581.648	14671.97
582.008	14877.62
582.368	14936.82
582.728	14872.42
583.089	14971.85
583.449	15032.87
583.809	15083.71
584.169	15135.01
584.529	15135.01
584.889	15342.01
585.249	15309.24
585.609	15329.13
585.969	15475.79
586.329	15484.38
586.688	15577.94
587.048	15570.25
587.408	15584.72
587.768	15777.71
588.127	15709.46
588.487	15742
588.846	15858.83
589.206	15770.7
589.565	15818.38
589.925	15974.99
590.284	16003.69
590.643	15985.16
591.003	16113.52
591.362	16185.38
591.721	16140.18
592.08	16199.62
592.44	16247.52
592.799	16338.6
593.158	16323.68
593.517	16329.56
593.876	16417.46
594.235	16501.3
594.593	16553.73
594.952	16562.54
595.311	16504.69
595.67	16617.68
596.029	16731.13
596.387	16814.74
596.746	16882.76
597.104	16824.46
597.463	16825.59
597.822	17009.99
598.18	16900.39
598.538	16859.94
598.897	17004.79
599.255	16871.69
599.613	17246.82
599.972	17106.49
600.33	17147.16
600.688	17244.56
601.046	17188.74
601.404	17385.8
601.762	17294.05
602.12	17469.19
602.478	17427.15
602.836	17468.28
603.194	17412.01
603.552	17529.52
603.91	17423.99
604.268	17570.43
604.625	17505.57
604.983	17633.48
605.341	17634.15
605.698	17692.23
606.056	17739.01
606.413	17739.46
606.771	17882.96
607.128	17860.36
607.485	17795.51
607.843	17894.04
608.2	18013.13
608.557	18000.7
608.914	17985.33
609.272	18087.93
609.629	18130.64
609.986	18223.29
610.343	18098.55
610.7	18301.03
611.057	18234.59
611.414	18184.42
611.771	18314.82
612.127	18394.13
612.484	18451.76
612.841	18538.76
613.198	18406.56
613.554	18448.14
613.911	18552.32
614.267	18534.92
614.624	18548.03
614.98	18575.83
615.337	18694.92
615.693	18666.67
616.05	18724.75
616.406	18811.53
616.762	18788.93
617.118	18735.37
617.475	18731.75
617.831	18807.68
618.187	18761.13
618.543	18882.03
618.899	18946.21
619.255	18925.42
619.611	18913.9
619.967	19094.91
620.323	19020.56
620.678	19024.17
621.034	18955.93
621.39	18951.63
621.746	18992.76
622.101	19140.1
622.457	19074.57
622.812	19150.05
623.168	19223.27
623.523	19134.45
623.879	19209.48
624.234	19057.85
624.589	19109.14
624.945	19183.72
625.3	19226.66
625.655	19214.45
626.01	19197.5
626.365	19199.09
626.72	19251.06
627.075	19237.95
627.43	19167.9
627.785	19252.64
628.14	19404.73
628.495	19306.88
628.85	19248.35
629.205	19193.66
629.559	19383.49
629.914	19120.44
630.269	19252.64
630.623	19250.84
630.978	19107.56
631.332	19188.69
631.687	19348.69
632.041	19202.93
632.396	19222.36
632.75	19076.83
633.104	19223.94
633.459	19139.2
633.813	19041.35
634.167	19111.63
634.521	19028.92
634.875	19136.71
635.229	19119.31
635.583	18956.38
635.937	19081.8
636.291	18971.29
636.645	19014.23
636.999	18921.35
637.352	19057.62
637.706	18883.39
638.06	18973.55
638.413	18957.28
638.767	18894.46
639.121	18935.59
639.474	18891.3
639.828	18844.52
640.181	18790.51
640.534	18951.86
640.888	18854.69
641.241	18783.5
641.594	18838.42
641.947	18880.45
642.301	18766.78
642.654	18821.92
643.007	18792.54
643.36	18831.64
643.713	18803.62
644.066	18825.76
644.419	18689.49
644.771	18511.42
645.124	18378.09
645.477	18418.09
645.83	18276.62
646.182	18257.42
646.535	18193.46
646.888	18144.42
647.24	18129.96
647.593	18144.65
647.945	18161.15
648.298	18087.02
648.65	18216.96
649.002	18046.57
649.355	18148.04
649.707	18148.94
650.059	18188.26
650.411	18359.79
650.763	18356.62
651.115	18634.13
651.467	18542.38
651.819	18533.34
652.171	18527.92
652.523	18545.54
652.875	18460.12
653.227	18457.86
653.578	18522.95
653.93	18467.13
654.282	18440.91
654.633	18356.17
654.985	18332.44
655.337	18451.31
655.688	18459.9
656.039	18481.14
656.391	18351.42
656.742	18329.5
657.094	18317.98
657.445	18495.83
657.796	18409.5
658.147	18327.24
658.498	18295.61
658.849	18354.81
659.2	18372.67
659.551	18268.26
659.902	18415.15
660.253	18325.66
660.604	18445.43
660.955	18266.45
661.306	18350.97
661.656	18465.55
662.007	18391.88
662.358	18361.82
662.708	18405.66
663.059	18317.53
663.409	18233.69
663.76	18394.81
664.11	18355.04
664.461	18407.24
664.811	18368.15
665.161	18431.65
665.511	18314.36
665.862	18296.96
666.212	18417.86
666.562	18360.92
666.912	18471.42
667.262	18441.59
667.612	18420.8
667.962	18458.09
668.312	18310.75
668.662	18532.66
669.011	18360.01
669.361	18374.7
669.711	18406.79
670.06	18414.25
670.41	18428.03
670.76	18341.26
671.109	18409.95
671.459	18454.02
671.808	18551.64
672.157	18449.5
672.507	18365.44
672.856	18406.34
673.205	18418.99
673.554	18450.18
673.904	18438.88
674.253	18556.16
674.602	18530.85
674.951	18151.88
675.3	18215.16
675.649	18461.48
675.998	18462.38
676.346	18418.99
676.695	18490.18
677.044	18382.84
677.393	18480.91
677.741	18466.22
678.09	18396.62
678.438	18427.35
678.787	18389.62
679.135	18502.15
679.484	18276.62
679.832	18437.07
680.181	18348.26
680.529	18383.74
680.877	18264.87
681.225	18361.14
681.573	18476.62
681.922	18280.69
682.27	18329.96
682.618	18254.25
682.966	18237.3
683.314	18352.55
683.661	18344.19
684.009	18249.73
684.357	18176.74
684.705	18225.33
685.053	18181.49
685.4	18166.57
685.748	18109.85
686.095	18099
686.443	18099.91
686.79	18042.96
687.138	18205.67
687.485	18049.51
687.832	18113.01
688.18	18081.15
688.527	17966.8
688.874	17914.6
689.221	17966.12
689.568	17964.09
689.915	17830.76
690.262	17846.13
690.609	17863.3
690.956	17780.59
691.303	17752.12
691.65	17714.38
691.997	17681.16
692.344	17662.18
692.69	17603.87
693.037	17647.04
693.383	17510.54
693.73	17540.82
694.077	17491.56
694.423	17518
694.769	17576.3
695.116	17503.76
695.462	17415.86
695.808	17447.72
696.155	17433.03
696.501	17318.68
696.847	17409.75
697.193	17287.5
697.539	17261.51
697.885	17269.19
698.231	17138.8
698.577	17099.03
698.923	17073.72
699.269	17054.51
699.614	17020.39
699.96	17061.51
700.306	17024.68
700.651	16935.19
700.997	16915.3
701.342	16819.94
701.688	16827.85
702.033	16804.57
702.379	16893.61
702.724	16770.9
703.069	16859.49
703.415	16602.09
703.76	16670.34
704.105	16714.86
704.45	16638.02
704.795	16624.92
705.14	16470.12
705.485	16481.64
705.83	16522.32
706.175	16493.62
706.52	16443.9
706.865	16426.28
707.209	16323
707.554	16353.74
707.899	16494.75
708.243	16325.04
708.588	16277.58
708.932	16178.83
709.277	16235.1
709.621	16255.21
709.966	16119.62
710.31	16209.11
710.654	16083.69
710.998	16123.69
711.342	16104.03
711.687	16073.97
712.031	16038.94
712.375	16063.35
712.719	16088.66
713.063	16077.59
713.407	16030.58
713.75	15998.49
714.094	15995.55
714.438	15880.3
714.782	15944.03
715.125	15881.66
715.469	15933.18
715.812	15851.38
716.156	15723.47
716.499	15772.51
716.843	15790.59
717.186	15679.63
717.53	15802.79
717.873	15810.25
718.216	15807.99
718.559	15717.82
718.902	15582.91
719.246	15740.65
719.589	15702.23
719.932	15516.24
720.275	15596.47
720.617	15604.15
720.96	15489.35
721.303	15564.83
721.646	15623.59
721.989	15476.25
722.331	15500.2
722.674	15596.24
723.016	15554.66
723.359	15496.81
723.701	15536.13
724.044	15474.44
724.386	15332.07
724.729	15535.23
725.071	15433.08
725.413	15398.51
725.755	15415.91
726.097	15298.4
726.439	15302.46
726.782	15262.69
727.124	15374.55
727.465	15272.86
727.807	15308.34
728.149	15328.68
728.491	15230.38
728.833	15273.99
729.175	15217.04
729.516	15181.34
729.858	15180.89
730.199	15188.34
730.541	15088.91
730.882	15083.49
731.224	15203.94
731.565	15066.76
731.906	15040.55
732.248	15158.29
732.589	15132.3
732.93	15100.89
733.271	15005.52
733.612	15015.47
733.953	15025.64
734.294	15085.97
734.635	14942.93
734.976	14980.44
735.317	14980.21
735.658	14963.72
735.999	14947.22
736.339	14902.48
736.68	15010.5
737.021	14942.93
737.361	14902.02
737.702	14953.32
738.042	14895.47
738.383	14821.35
738.723	14841.69
739.063	14716.27
739.404	14842.36
739.744	14761.46
740.084	14699.54
740.424	14704.74
740.764	14620.45
741.104	14767.11
741.444	14636.95
741.784	14621.8
742.124	14633.78
742.464	14531.41
742.804	14586.55
743.143	14516.95
743.483	14526.67
743.823	14584.29
744.162	14449.83
744.502	14506.33
744.841	14415.26
745.181	14458.87
745.52	14364.18
745.86	14485.09
746.199	14387.23
746.538	14353.11
746.877	14401.02
747.216	14436.27
747.556	14394.47
747.895	14379.33
748.234	14296.39
748.573	14253.68
748.911	14221.82
749.25	14291.42
749.589	14210.52
749.928	14198.09
750.267	14154.47
750.605	14122.61
750.944	14106.34
751.283	14075.83
751.621	14146.56
751.96	14062.72
752.298	14059.56
752.636	13987.25
752.975	13967.58
753.313	13959.45
753.651	14030.41
753.989	13849.62
754.327	13782.05
754.666	13790.87
755.004	13842.39
755.342	13821.83
755.679	13780.47
756.017	13742.05
756.355	13671.55
756.693	13633.36
757.031	13712.68
757.368	13516.52
757.706	13529.4
758.044	13431.55
758.381	13519.01
758.719	13472.46
759.056	13472
759.394	13481.72
759.731	13314.72
