Data from brown_tile_FLMS001491_058.txt Node
Date: Tue Feb 07 10:37:42 GMT 2017
User: dcchb
Spectrometer: FLMS00149
Trigger mode: 0
Integration Time (sec): 2.000000E-2
Scans to average: 10
Electric dark correction enabled: true
Nonlinearity correction enabled: false
Boxcar width: 0
XAxis mode: Wavelengths
Number of Pixels in Spectrum: 2048
>>>>>Begin Spectral Data<<<<<
341.393	-37.43
341.776	-37.43
342.16	-37.43
342.543	-72.46
342.927	-29.29
343.31	-62.06
343.693	-58.9
344.077	-76.3
344.46	-63.42
344.843	-54.38
345.226	-27.94
345.61	-34.26
345.993	-13.25
346.376	-3.3
346.759	14.1
347.142	24.04
347.525	42.57
347.908	30.82
348.291	76.01
348.674	96.58
349.057	109.69
349.44	142.23
349.823	140.87
350.206	146.52
350.588	168.22
350.971	198.27
351.354	205.28
351.737	219.74
352.119	250.93
352.502	245.5
352.884	243.24
353.267	262.22
353.65	275.78
354.032	284.6
354.414	291.15
354.797	307.2
355.179	304.71
355.562	286.4
355.944	310.81
356.326	327.76
356.709	324.14
357.091	344.71
357.473	341.09
357.855	338.38
358.238	339.06
358.62	312.62
359.002	317.14
359.384	313.3
359.766	305.16
360.148	336.35
360.53	302.22
360.912	322.79
361.294	334.09
361.676	333.64
362.057	330.47
362.439	323.47
362.821	321.88
363.203	296.8
363.584	309.91
363.966	313.52
364.348	315.56
364.729	298.83
365.111	307.2
365.493	303.81
365.874	309.91
366.256	281.43
366.637	301.77
367.019	302
367.4	308.78
367.781	311.49
368.163	319.4
368.544	294.54
368.925	280.53
369.306	296.12
369.688	307.42
370.069	289.12
370.45	304.71
370.831	300.42
371.212	293.86
371.593	289.12
371.974	310.59
372.355	309
372.736	305.39
373.117	316.69
373.498	292.05
373.879	310.59
374.26	304.03
374.641	282.11
375.021	304.48
375.402	308.1
375.783	304.94
376.163	318.95
376.544	287.31
376.925	313.07
377.305	310.36
377.686	320.75
378.066	299.96
378.447	326.4
378.827	312.39
379.208	336.57
379.588	291.83
379.968	319.4
380.349	294.54
380.729	311.71
381.109	317.36
381.489	321.66
381.87	338.83
382.25	324.37
382.63	306.07
383.01	304.26
383.39	337.03
383.77	333.18
384.15	325.27
384.53	320.98
384.91	334.09
385.29	319.17
385.67	336.8
386.049	321.88
386.429	338.15
386.809	320.3
387.189	332.96
387.568	339.06
387.948	336.12
388.328	334.31
388.707	330.92
389.087	343.58
389.466	339.28
389.846	346.29
390.225	343.58
390.605	328.89
390.984	350.13
391.363	318.04
391.743	335.44
392.122	339.96
392.501	340.64
392.881	371.37
393.26	341.32
393.639	377.7
394.018	348.1
394.397	367.98
394.776	366.18
395.155	360.98
395.534	352.39
395.913	343.58
396.292	351.26
396.671	367.53
397.05	359.4
397.429	370.02
397.808	352.17
398.186	365.72
398.565	374.76
398.944	378.38
399.323	379.06
399.701	357.82
400.08	365.5
400.458	350.58
400.837	379.28
401.215	381.32
401.594	369.79
401.972	363.92
402.351	380.87
402.729	366.18
403.107	393.52
403.486	381.77
403.864	386.74
404.242	396.01
404.62	382.22
404.999	398.49
405.377	364.82
405.755	391.71
406.133	407.76
406.511	390.58
406.889	393.97
407.267	422.67
407.645	406.63
408.023	388.1
408.401	407.98
408.779	413.63
409.156	404.82
409.534	395.55
409.912	421.09
410.29	414.54
410.667	419.06
411.045	422.67
411.422	410.24
411.8	416.34
412.178	433.29
412.555	439.17
412.933	426.29
413.31	406.85
413.687	443.01
414.065	445.27
414.442	457.25
414.819	443.91
415.197	450.24
415.574	435.33
415.951	454.08
416.328	461.09
416.705	463.58
417.082	457.25
417.46	465.16
417.837	459.96
418.214	452.73
418.591	458.15
418.967	476.46
419.344	489.34
419.721	475.33
420.098	464.25
420.475	485.72
420.852	469.68
421.228	482.78
421.605	491.6
421.982	462.67
422.358	478.72
422.735	507.42
423.111	489.11
423.488	485.95
423.864	494.76
424.241	495.21
424.617	494.54
424.994	503.35
425.37	503.12
425.746	526.62
426.123	493.63
426.499	518.49
426.875	530.01
427.251	517.36
427.627	529.79
428.003	531.14
428.379	549.22
428.756	541.54
429.132	538.15
429.507	525.27
429.883	576.34
430.259	551.26
430.635	543.35
431.011	580.86
431.387	577.02
431.763	548.77
432.138	589.9
432.514	572.95
432.89	584.02
433.265	607.07
433.641	613.18
434.016	607.98
434.392	612.27
434.767	600.29
435.143	607.75
435.518	619.96
435.894	613.85
436.269	638.49
436.644	638.03
437.02	640.52
437.395	637.13
437.77	645.94
438.145	649.11
438.52	636
438.895	659.95
439.271	628.32
439.646	660.86
440.021	622.44
440.395	677.13
440.77	660.86
441.145	630.58
441.52	679.39
441.895	669.45
442.27	670.35
442.645	678.26
443.019	707.64
443.394	713.51
443.769	689.33
444.143	706.51
444.518	678.94
444.892	686.17
445.267	678.94
445.641	729.56
446.016	730.24
446.39	709.22
446.764	709.9
447.139	725.94
447.513	677.58
447.887	747.64
448.262	703.8
448.636	734.98
449.01	735.88
449.384	759.84
449.758	747.64
450.132	751.25
450.506	781.53
450.88	777.24
451.254	752.83
451.628	767.75
452.002	788.54
452.376	780.86
452.75	764.13
453.123	785.6
453.497	801.87
453.871	797.35
454.244	796.67
454.618	807.3
454.992	817.46
455.365	824.7
455.739	841.19
456.112	828.31
456.486	850.23
456.859	875.09
457.232	845.26
457.606	887.29
457.979	872.38
458.352	894.07
458.725	896.33
459.099	893.85
459.472	908.76
459.845	912.83
460.218	926.61
460.591	922.55
460.964	934.3
461.337	957.12
461.71	964.81
462.083	963
462.456	965.26
462.829	964.13
463.201	991.02
463.574	977.23
463.947	1039.61
464.32	1007.97
464.692	1014.52
465.065	1023.33
465.438	1059.72
465.81	1043.67
466.183	1066.27
466.555	1053.62
466.928	1073.05
467.3	1047.06
467.672	1099.94
468.045	1129.32
468.417	1118.47
468.789	1133.39
469.161	1120.73
469.534	1137.91
469.906	1174.07
470.278	1184.91
470.65	1205.02
471.022	1211.13
471.394	1204.57
471.766	1217.91
472.138	1235.76
472.51	1255.42
472.882	1282.08
473.253	1281.86
473.625	1333.61
473.997	1335.87
474.369	1327.51
474.74	1344.91
475.112	1346.49
475.484	1406.38
475.855	1402.76
476.227	1421.74
476.598	1439.14
476.97	1439.14
477.341	1475.75
477.713	1485.7
478.084	1507.84
478.455	1515.53
478.827	1527.95
479.198	1575.18
479.569	1560.95
479.94	1612.47
480.311	1668.06
480.682	1676.65
481.053	1662.87
481.424	1687.27
481.795	1722.07
482.166	1761.85
482.537	1773.6
482.908	1814.73
483.279	1829.42
483.65	1868.74
484.021	1833.26
484.391	1916.19
484.762	1893.59
485.133	1924.78
485.503	1929.3
485.874	1972.91
486.244	1992.8
486.615	2035.29
486.985	2037.77
487.356	2101.27
487.726	2125
488.097	2114.83
488.467	2172.91
488.837	2152.34
489.207	2203.19
489.578	2256.07
489.948	2261.04
490.318	2294.26
490.688	2301.49
491.058	2307.37
491.428	2317.54
491.798	2373.13
492.168	2394.15
492.538	2427.14
492.908	2455.16
493.278	2495.61
493.648	2496.29
494.017	2516.4
494.387	2514.59
494.757	2567.02
495.126	2572.45
495.496	2597.08
495.866	2607.7
496.235	2623.52
496.605	2642.95
496.974	2672.33
497.344	2682.73
497.713	2671.65
498.082	2712.1
498.452	2745.1
498.821	2795.27
499.19	2717.53
499.559	2815.6
499.928	2840.46
500.298	2857.86
500.667	2863.96
501.036	2854.47
501.405	2862.61
501.774	2930.63
502.143	2936.28
502.512	2957.3
502.88	2974.24
503.249	2993.45
503.618	2985.54
503.987	3009.27
504.356	3021.93
504.724	3063.28
505.093	3039.1
505.462	3054.02
505.83	3095.82
506.199	3121.81
506.567	3170.17
506.936	3167.23
507.304	3176.95
507.672	3244.29
508.041	3213.56
508.409	3291.52
508.777	3323.84
509.145	3341.01
509.514	3287
509.882	3339.88
510.25	3360.9
510.618	3414.91
510.986	3394.12
511.354	3383.72
511.722	3455.59
512.09	3459.2
512.458	3454.01
512.826	3554.79
513.193	3560.22
513.561	3554.79
513.929	3594.57
514.297	3601.8
514.664	3656.49
515.032	3694.45
515.4	3695.35
515.767	3691.74
516.135	3741.68
516.502	3692.42
516.869	3822.36
517.237	3830.04
517.604	3798.85
517.972	3855.12
518.339	3854.9
518.706	3878.85
519.073	3960.66
519.44	3986.65
519.808	4016.25
520.175	4000.88
520.542	4025.06
520.909	4057.15
521.276	4072.97
521.643	4152.74
522.009	4178.05
522.376	4191.16
522.743	4220.09
523.11	4220.99
523.477	4327.2
523.843	4352.96
524.21	4367.65
524.577	4395.22
524.943	4410.36
525.31	4415.11
525.676	4494.2
526.043	4531.72
526.409	4535.11
526.776	4574.88
527.142	4617.59
527.508	4647.42
527.874	4727.64
528.241	4743.46
528.607	4748.89
528.973	4788.43
529.339	4774.87
529.705	4839.05
530.071	4879.73
530.437	4908.2
530.803	4965.38
531.169	4970.8
531.535	4993.85
531.901	5036.34
532.267	5086.28
532.632	5075.88
532.998	5144.81
533.364	5136.67
533.73	5121.76
534.095	5232.72
534.461	5201.53
534.826	5303.67
535.192	5291.25
535.557	5352.03
535.923	5393.39
536.288	5431.58
536.653	5391.36
537.019	5417.57
537.384	5493.05
537.749	5503.89
538.114	5538.47
538.479	5513.61
538.845	5589.77
539.21	5550.9
539.575	5611.46
539.94	5647.85
540.305	5707.28
540.67	5717.67
541.034	5735.98
541.399	5753.83
541.764	5833.38
542.129	5833.38
542.494	5858.24
542.858	5934.62
543.223	5905.69
543.587	5996.76
543.952	5954.96
544.316	6014.16
544.681	6069.98
545.045	6127.61
545.41	6133.26
545.774	6109.3
546.138	6143.43
546.503	6249.64
546.867	6213.71
547.231	6298.9
547.595	6333.25
547.959	6349.52
548.324	6394.49
548.688	6401.27
549.052	6474.49
549.416	6528.73
549.779	6503.42
550.143	6608.05
550.507	6624.54
550.871	6619.57
551.235	6712.22
551.599	6743.64
551.962	6790.87
552.326	6789.51
552.689	6920.13
553.053	6907.02
553.417	6951.54
553.78	7056.62
554.143	7059.33
554.507	7119.22
554.87	7159.22
555.234	7245.09
555.597	7269.5
555.96	7309.5
556.323	7382.72
556.686	7399.89
557.05	7445.54
557.413	7551.52
557.776	7604.4
558.139	7722.14
558.502	7702.48
558.865	7780.67
559.228	7925.53
559.59	7926.88
559.953	7936.15
560.316	8080.32
560.679	8120.32
561.041	8251.62
561.404	8256.82
561.767	8419.3
562.129	8346.08
562.492	8490.26
562.854	8539.52
563.217	8628.56
563.579	8697.03
563.941	8766.63
564.304	8817.71
564.666	8922.11
565.028	8948.55
565.39	9040.53
565.753	9109.68
566.115	9206.17
566.477	9237.36
566.839	9334.98
567.201	9456.56
567.563	9458.59
567.925	9650.45
568.287	9657.01
568.648	9711.92
569.01	9826.72
569.372	9893.38
569.734	9973.83
570.095	10094.28
570.457	10143.32
570.819	10231.23
571.18	10246.59
571.542	10391.9
571.903	10438
572.265	10474.61
572.626	10549.86
572.987	10653.59
573.349	10755.06
573.71	10845.45
574.071	10943.07
574.432	11055.84
574.794	11096.06
575.155	11131.09
575.516	11127.25
575.877	11251.77
576.238	11374.47
576.599	11412.89
576.96	11508.03
577.32	11559.55
577.681	11661.02
578.042	11687.91
578.403	11803.16
578.763	11764.07
579.124	11906.66
579.485	11999.32
579.845	12102.14
580.206	12098.07
580.566	12109.37
580.927	12266.43
581.287	12326.31
581.648	12356.82
582.008	12365.18
582.368	12484.95
582.728	12610.15
583.089	12500.1
583.449	12613.09
583.809	12648.11
584.169	12719.98
584.529	12779.41
584.889	12929.01
585.249	12887.66
585.609	12825.96
585.969	12995.9
586.329	12993.19
586.688	13082.23
587.048	13080.42
587.408	13175.78
587.768	13101.66
588.127	13137.14
588.487	13166.97
588.846	13338.27
589.206	13216.91
589.565	13365.38
589.925	13339.17
590.284	13380.98
590.643	13516.79
591.003	13624.36
591.362	13658.26
591.721	13648.09
592.08	13662.78
592.44	13671.59
592.799	13806.05
593.158	13757.46
593.517	13736.22
593.876	13845.14
594.235	13760.4
594.593	13894.86
594.952	13910.23
595.311	13939.15
595.67	13934.63
596.029	14215.08
596.387	14088.98
596.746	14162.65
597.104	14112.93
597.463	14207.62
597.822	14295.3
598.18	14217.56
598.538	14321.97
598.897	14419.14
599.255	14394.51
599.613	14541.85
599.972	14455.75
600.33	14475.86
600.688	14537.33
601.046	14581.17
601.404	14677.21
601.762	14624.56
602.12	14658.91
602.478	14736.87
602.836	14801.5
603.194	14707.27
603.552	14792.01
603.91	14728.51
604.268	14792.24
604.625	14875.85
604.983	15013.48
605.341	14869.98
605.698	14985.68
606.056	15025.45
606.413	15004.89
606.771	15037.88
607.128	15146.13
607.485	15022.29
607.843	15228.16
608.2	15175.73
608.557	15213.24
608.914	15223.87
609.272	15316.52
609.629	15316.29
609.986	15375.5
610.343	15323.07
610.7	15471.09
611.057	15416.63
611.414	15521.03
611.771	15484.2
612.127	15587.02
612.484	15558.32
612.841	15633.35
613.198	15640.8
613.554	15663.85
613.911	15732.78
614.267	15705.66
614.624	15741.82
614.98	15761.03
615.337	15864.75
615.693	15888.93
616.05	15812.32
616.406	15887.35
616.762	15825.88
617.118	15911.3
617.475	15838.76
617.831	16006.22
618.187	15954.69
618.543	15955.6
618.899	16064.75
619.255	16025.88
619.611	16010.51
619.967	16154.69
620.323	16163.95
620.678	16174.57
621.034	16151.98
621.39	16163.05
621.746	16112.2
622.101	16382.25
622.457	16194.24
622.812	16277.85
623.168	16176.38
623.523	16249.83
623.879	16342.93
624.234	16208.02
624.589	16267
624.945	16326.44
625.3	16263.84
625.655	16218.87
626.01	16301.13
626.365	16325.76
626.72	16261.58
627.075	16269.26
627.43	16336.6
627.785	16252.76
628.14	16329.82
628.495	16375.25
628.85	16334.12
629.205	16281.69
629.559	16336.83
629.914	16328.92
630.269	16328.69
630.623	16279.66
630.978	16252.09
631.332	16238.3
631.687	16304.29
632.041	16198.53
632.396	16342.71
632.75	16252.54
633.104	16307.23
633.459	16171.64
633.813	16245.53
634.167	16138.42
634.521	16147.23
634.875	16159.89
635.229	16283.05
635.583	16147.23
635.937	16155.14
636.291	16127.8
636.645	16151.07
636.999	16036.05
637.352	16071.98
637.706	15980.46
638.06	16052.54
638.413	16107.46
638.767	15962.15
639.121	16041.7
639.474	15980.46
639.828	15965.09
640.181	15987.91
640.534	16022.49
640.888	15918.54
641.241	15867.01
641.594	15943.85
641.947	15939.78
642.301	15915.6
642.654	15881.48
643.007	15978.42
643.36	15885.77
643.713	15940.68
644.066	15927.12
644.419	15836.28
644.771	15788.37
645.124	15564.65
645.477	15535.72
645.83	15415.05
646.182	15434.93
646.535	15408.27
646.888	15400.81
647.24	15250.31
647.593	15509.51
647.945	15389.06
648.298	15324.88
648.65	15260.7
649.002	15298.89
649.355	15336.18
649.707	15290.98
650.059	15363.97
650.411	15579.79
650.763	15580.92
651.115	15791.31
651.467	15681.93
651.819	15665.89
652.171	15679.9
652.523	15663.85
652.875	15598.32
653.227	15556.74
653.578	15719.45
653.93	15652.55
654.282	15455.5
654.633	15505.44
654.985	15612.1
655.337	15610.52
655.688	15602.39
656.039	15667.47
656.391	15483.29
656.742	15530.75
657.094	15511.54
657.445	15644.42
657.796	15584.76
658.147	15633.57
658.498	15600.35
658.849	15594.93
659.2	15589.28
659.551	15552.22
659.902	15685.77
660.253	15476.29
660.604	15633.35
660.955	15539.79
661.306	15624.08
661.656	15550.41
662.007	15590.64
662.358	15685.77
662.708	15622.95
663.059	15590.64
663.409	15496.85
663.76	15622.05
664.11	15663.18
664.461	15682.61
664.811	15630.41
665.161	15568.71
665.511	15588.6
665.862	15611.43
666.212	15626.57
666.562	15684.42
666.912	15684.64
667.262	15627.02
667.612	15651.65
667.962	15690.07
668.312	15658.66
668.662	15769.16
669.011	15655.72
669.361	15691.2
669.711	15670.86
670.06	15628.83
670.41	15707.47
670.76	15671.09
671.109	15723.51
671.459	15620.46
671.808	15660.01
672.157	15668.37
672.507	15664.08
672.856	15557.19
673.205	15685.55
673.554	15745.21
673.904	15567.59
674.253	15751.08
674.602	15676.51
674.951	15521.48
675.3	15405.56
675.649	15688.26
675.998	15700.46
676.346	15693.23
676.695	15754.7
677.044	15616.4
677.393	15765.32
677.741	15655.94
678.09	15681.03
678.438	15629.28
678.787	15664.98
679.135	15650.52
679.484	15566.46
679.832	15716.73
680.181	15539.34
680.529	15559.22
680.877	15548.15
681.225	15623.4
681.573	15652.1
681.922	15598.77
682.27	15604.19
682.618	15593.8
682.966	15550.64
683.314	15652.1
683.661	15599.22
684.009	15510.86
684.357	15518.32
684.705	15442.39
685.053	15498.66
685.4	15518.55
685.748	15498.43
686.095	15450.07
686.443	15463.18
686.79	15351.32
687.138	15438.77
687.485	15401.49
687.832	15374.14
688.18	15313.13
688.527	15309.51
688.874	15377.76
689.221	15260.93
689.568	15276.52
689.915	15298.44
690.262	15234.03
690.609	15197.65
690.956	15219.12
691.303	15239.01
691.65	15092.12
691.997	15173.47
692.344	15064.55
692.69	14995.4
693.037	15076.98
693.383	14970.54
693.73	15049.86
694.077	14985.23
694.423	15008.28
694.769	14892.8
695.116	14930.99
695.462	14964.89
695.808	14786.59
696.155	14882.18
696.501	14684.44
696.847	14773.26
697.193	14798.34
697.539	14760.15
697.885	14694.61
698.231	14555.86
698.577	14595.18
698.923	14596.31
699.269	14584.33
699.614	14528.97
699.96	14519.48
700.306	14516.77
700.651	14505.69
700.997	14326.94
701.342	14457.78
701.688	14379.37
702.033	14361.52
702.379	14400.84
702.724	14323.78
703.069	14397.45
703.415	14249.65
703.76	14236.55
704.105	14277.45
704.45	14239.94
704.795	14178.47
705.14	14169.88
705.485	14150.22
705.83	14051.01
706.175	14108.19
706.52	14105.7
706.865	14073.84
707.209	14011.24
707.554	14005.59
707.899	14063.22
708.243	13956.1
708.588	14012.37
708.932	13919.94
709.277	13888.76
709.621	13926.27
709.966	13841.53
710.31	13914.3
710.654	13773.96
710.998	13855.31
711.342	13867.74
711.687	13738.25
712.031	13750.46
712.375	13728.31
712.719	13720.4
713.063	13740.51
713.407	13873.62
713.75	13689.89
714.094	13735.99
714.438	13674.98
714.782	13743.23
715.125	13637.47
715.469	13689.89
715.812	13582.1
716.156	13447.87
716.499	13528.77
716.843	13521.54
717.186	13392.5
717.53	13542.55
717.873	13539.84
718.216	13530.12
718.559	13446.28
718.902	13394.99
719.246	13452.39
719.589	13372.39
719.932	13338.27
720.275	13343.69
720.617	13333.97
720.96	13351.37
721.303	13391.15
721.646	13394.53
721.989	13232.96
722.331	13366.96
722.674	13386.4
723.016	13427.08
723.359	13328.77
723.701	13354.99
724.044	13240.64
724.386	13199.29
724.729	13187.31
725.071	13193.18
725.413	13242
725.755	13168.78
726.097	13097.59
726.439	13083.36
726.782	13115.22
727.124	13142.11
727.465	13129.46
727.807	13085.16
728.149	13069.57
728.491	12989.57
728.833	13038.39
729.175	13091.27
729.516	13005.39
729.858	13044.49
730.199	13046.07
730.541	13035.45
730.882	12994.77
731.224	13006.07
731.565	12958.61
731.906	12948.67
732.248	12959.74
732.589	12886.98
732.93	12840.65
733.271	12892.85
733.612	12955.45
733.953	12882.91
734.294	12814.89
734.635	12844.72
734.976	12823.7
735.317	12787.32
735.658	12797.71
735.999	12702.35
736.339	12661.67
736.68	12752.29
737.021	12731.95
737.361	12739.86
737.702	12811.5
738.042	12724.04
738.383	12696.25
738.723	12686.53
739.063	12689.47
739.404	12721.56
739.744	12658.06
740.084	12583.48
740.424	12635.23
740.764	12622.13
741.104	12529.25
741.444	12563.6
741.784	12548.23
742.124	12566.53
742.464	12576.93
742.804	12551.17
743.143	12488.34
743.483	12482.69
743.823	12424.16
744.162	12378.74
744.502	12402.24
744.841	12310.72
745.181	12393.88
745.52	12372.41
745.86	12391.4
746.199	12348.01
746.538	12316.82
746.877	12260.1
747.216	12270.95
747.556	12258.97
747.895	12339.2
748.234	12212.87
748.573	12177.84
748.911	12184.85
749.25	12183.49
749.589	12133.33
749.928	12086.77
750.267	12115.25
750.605	12071.63
750.944	12056.94
751.283	12046.77
751.621	12081.35
751.96	11976.72
752.298	11949.15
752.636	12014.46
752.975	11854.69
753.313	11845.87
753.651	11951.63
753.989	11820.79
754.327	11817.85
754.666	11728.36
755.004	11792.77
755.342	11796.38
755.679	11764.07
756.017	11684.52
756.355	11717.06
756.693	11607.01
757.031	11688.59
757.368	11550.52
757.706	11540.12
758.044	11520.91
758.381	11486.34
758.719	11498.77
759.056	11503.74
759.394	11402.95
759.731	11300.58
760.068	11337.64
