Data from brown_tile_FLMS001491_066.txt Node
Date: Tue Feb 07 10:37:50 GMT 2017
User: dcchb
Spectrometer: FLMS00149
Trigger mode: 0
Integration Time (sec): 2.000000E-2
Scans to average: 10
Electric dark correction enabled: true
Nonlinearity correction enabled: false
Boxcar width: 0
XAxis mode: Wavelengths
Number of Pixels in Spectrum: 2048
>>>>>Begin Spectral Data<<<<<
341.393	-17.75
341.776	-17.75
342.16	-17.75
342.543	-51.2
342.927	-55.27
343.31	-69.05
343.693	-70.41
344.077	-70.86
344.46	-47.13
344.843	-38.09
345.226	-39.22
345.61	-22.5
345.993	-37.19
346.376	-22.5
346.759	17.05
347.142	23.15
347.525	47.56
347.908	76.48
348.291	69.02
348.674	81.68
349.057	102.02
349.44	113.09
349.823	125.07
350.206	155.8
350.588	170.04
350.971	208.23
351.354	210.71
351.737	231.28
352.119	237.83
352.502	244.61
352.884	256.36
353.267	270.83
353.65	277.83
354.032	274.89
354.414	285.06
354.797	301.79
355.179	302.01
355.562	309.24
355.944	286.87
356.326	324.16
356.709	324.61
357.091	328.68
357.473	329.13
357.855	329.58
358.238	343.37
358.62	354.21
359.002	319.41
359.384	325.29
359.766	317.83
360.148	311.05
360.53	329.13
360.912	322.12
361.294	330.49
361.676	312.18
362.057	306.98
362.439	313.99
362.821	320.54
363.203	304.05
363.584	312.18
363.966	329.13
364.348	323.03
364.729	306.31
365.111	318.06
365.493	308.34
365.874	317.6
366.256	305.4
366.637	303.37
367.019	311.05
367.4	302.92
367.781	290.94
368.163	286.65
368.544	285.29
368.925	275.35
369.306	302.01
369.688	292.75
370.069	317.38
370.45	300.66
370.831	298.4
371.212	307.44
371.593	296.59
371.974	302.69
372.355	310.37
372.736	303.59
373.117	306.31
373.498	327.77
373.879	313.31
374.26	298.62
374.641	295.46
375.021	305.4
375.402	300.66
375.783	292.07
376.163	320.54
376.544	319.86
376.925	315.8
377.305	310.15
377.686	313.54
378.066	303.82
378.447	298.17
378.827	324.38
379.208	322.8
379.588	336.59
379.968	317.15
380.349	315.57
380.729	330.94
381.109	315.57
381.489	313.54
381.87	326.87
382.25	311.5
382.63	328.9
383.01	328.68
383.39	308.79
383.77	317.83
384.15	320.09
384.53	329.58
384.91	327.77
385.29	315.57
385.67	336.14
386.049	326.19
386.429	334.55
386.809	330.94
387.189	331.62
387.568	326.19
387.948	345.63
388.328	331.62
388.707	332.52
389.087	344.5
389.466	342.69
389.846	347.66
390.225	342.91
390.605	341.56
390.984	327.55
391.363	360.09
391.743	338.4
392.122	346.76
392.501	340.2
392.881	337.49
393.26	367.77
393.639	365.51
394.018	355.34
394.397	361.22
394.776	358.28
395.155	356.25
395.534	366.42
395.913	343.59
396.292	361.22
396.671	361.9
397.05	378.17
397.429	357.15
397.808	351.28
398.186	354.44
398.565	381.56
398.944	358.96
399.323	374.78
399.701	376.81
400.08	340.2
400.458	369.35
400.837	371.39
401.215	367.32
401.594	394.66
401.972	356.93
402.351	379.3
402.729	367.09
403.107	368.68
403.486	391.73
403.864	378.39
404.242	393.76
404.62	374.55
404.999	393.08
405.377	389.69
405.755	390.37
406.133	376.13
406.511	390.15
406.889	405.74
407.267	402.57
407.645	404.83
408.023	401.44
408.401	400.54
408.779	415.68
409.156	411.61
409.534	416.59
409.912	412.07
410.29	408.9
410.667	397.38
411.045	431.05
411.422	426.98
411.8	426.3
412.178	413.42
412.555	419.97
412.933	462.23
413.31	450.71
413.687	447.77
414.065	444.61
414.442	444.83
414.819	419.3
415.197	430.6
415.574	453.42
415.951	448
416.328	451.61
416.705	472.4
417.082	447.77
417.46	448
417.837	442.57
418.214	459.07
418.591	464.49
418.967	466.98
419.344	457.71
419.721	479.86
420.098	455.91
420.475	498.39
420.852	486.87
421.228	502.23
421.605	499.07
421.982	480.54
422.358	497.94
422.735	483.48
423.111	506.53
423.488	493.42
423.864	498.84
424.241	500.88
424.617	513.08
424.994	504.72
425.37	502.23
425.746	502.01
426.123	500.65
426.499	506.07
426.875	525.73
427.251	518.28
427.627	545.85
428.003	522.8
428.379	538.39
428.756	539.52
429.132	536.58
429.507	537.03
429.883	549.24
430.259	542.68
430.635	554.21
431.011	556.92
431.387	556.02
431.763	582.46
432.138	574.77
432.514	556.47
432.89	564.15
433.265	563.93
433.641	598.73
434.016	597.15
434.392	603.7
434.767	587.2
435.143	610.7
435.518	617.71
435.894	620.42
436.269	625.17
436.644	614.32
437.02	615.45
437.395	640.53
437.77	612.74
438.145	644.15
438.52	633.3
438.895	643.92
439.271	638.5
439.646	646.86
440.021	659.06
440.395	646.86
440.77	649.35
441.145	658.61
441.52	674.66
441.895	673.08
442.27	663.81
442.645	682.79
443.019	676.24
443.394	689.12
443.769	685.5
444.143	687.09
444.518	698.16
444.892	677.14
445.267	686.41
445.641	685.05
446.016	706.52
446.39	716.92
446.764	728.89
447.139	748.33
447.513	724.6
447.887	724.83
448.262	725.05
448.636	726.86
449.01	740.87
449.384	737.48
449.758	758.95
450.132	730.93
450.506	736.35
450.88	746.07
451.254	755.56
451.628	770.93
452.002	789.91
452.376	779.97
452.75	791.26
453.123	778.38
453.497	780.19
453.871	803.92
454.244	798.95
454.618	823.58
454.992	808.89
455.365	821.77
455.739	819.29
456.112	836.46
456.486	844.82
456.859	868.1
457.232	850.7
457.606	878.72
457.979	877.14
458.352	869.91
458.725	902.67
459.099	907.19
459.472	909.45
459.845	909
460.218	925.05
460.591	953.97
460.964	938.61
461.337	968.21
461.71	953.29
462.083	954.88
462.456	970.92
462.829	980.64
463.201	994.65
463.574	978.6
463.947	992.16
464.32	1019.51
464.692	996.91
465.065	1020.86
465.438	1015.67
465.81	1040.3
466.183	1056.57
466.555	1060.86
466.928	1079.62
467.3	1071.26
467.672	1068.55
468.045	1101.76
468.417	1090.24
468.789	1126.4
469.161	1128.2
469.534	1151.26
469.906	1164.36
470.278	1186.73
470.65	1165.94
471.022	1215.43
471.394	1213.85
471.766	1249.56
472.138	1240.29
472.51	1258.6
472.882	1261.53
473.253	1288.65
473.625	1318.93
473.997	1313.28
474.369	1335.88
474.74	1348.99
475.112	1373.85
475.484	1352.38
475.855	1411.81
476.227	1400.06
476.598	1426.73
476.97	1436.22
477.341	1456.33
477.713	1471.92
478.084	1526.16
478.455	1541.75
478.827	1552.6
479.198	1560.06
479.569	1564.13
479.94	1630.11
480.311	1638.25
480.682	1645.93
481.053	1704.01
481.424	1736.32
481.795	1739.26
482.166	1732.93
482.537	1769.09
482.908	1789.88
483.279	1798.7
483.65	1834.17
484.021	1840.28
484.391	1869.2
484.762	1883.44
485.133	1901.29
485.503	1942.19
485.874	1967.73
486.244	1994.4
486.615	2003.44
486.985	2024
487.356	2064
487.726	2075.98
488.097	2107.16
488.467	2152.13
488.837	2186.03
489.207	2173.6
489.578	2214.96
489.948	2263.99
490.318	2228.97
490.688	2271.68
491.058	2302.64
491.428	2347.16
491.798	2357.33
492.168	2411.33
492.538	2432.35
492.908	2418.79
493.278	2444.1
493.648	2503.54
494.017	2511.67
494.387	2514.16
494.757	2541.95
495.126	2577.66
495.496	2575.17
495.866	2567.71
496.235	2617.66
496.605	2660.59
496.974	2666.24
497.344	2655.17
497.713	2700.37
498.082	2773.81
498.452	2756.64
498.821	2750.76
499.19	2789.18
499.559	2795.96
499.928	2799.12
500.298	2877.31
500.667	2847.03
501.036	2838.67
501.405	2889.51
501.774	2892.68
502.143	2909.85
502.512	2949.4
502.88	2942.17
503.249	3000.02
503.618	3010.87
503.987	2985.56
504.356	3059
504.724	3076.85
505.093	3062.39
505.462	3077.76
505.83	3092.22
506.199	3091.77
506.567	3136.74
506.936	3180.13
507.304	3193.46
507.672	3221.94
508.041	3244.99
508.409	3236.85
508.777	3273.91
509.145	3324.76
509.514	3300.13
509.882	3374.25
510.25	3345.55
510.618	3355.94
510.986	3387.13
511.354	3408.82
511.722	3434.81
512.09	3483.17
512.458	3445.43
512.826	3521.14
513.193	3527.92
513.561	3563.85
513.929	3585.77
514.297	3591.19
514.664	3628.93
515.032	3630.74
515.4	3710.96
515.767	3705.76
516.135	3739.66
516.502	3734.46
516.869	3771.98
517.237	3808.81
517.604	3785.54
517.972	3870.51
518.339	3920.22
518.706	3876.61
519.073	3916.38
519.44	3897.62
519.808	3958.86
520.175	3981.92
520.542	4034.12
520.909	4039.54
521.276	4084.74
521.643	4129.48
522.009	4129.93
522.376	4216.26
522.743	4228.91
523.11	4262.13
523.477	4287.22
523.843	4349.59
524.21	4370.38
524.577	4414.22
524.943	4433.43
525.31	4450.38
525.676	4530.38
526.043	4540.32
526.409	4589.81
526.776	4589.36
527.142	4586.64
527.508	4679.07
527.874	4659.64
528.241	4733.31
528.607	4769.01
528.973	4755.68
529.339	4768.79
529.705	4857.15
530.071	4880.2
530.437	4888.78
530.803	4935.79
531.169	4949.57
531.535	5003.58
531.901	5089.46
532.267	5059.85
532.632	5079.97
532.998	5114.99
533.364	5168.55
533.73	5184.82
534.095	5230.7
534.461	5267.31
534.826	5265.05
535.192	5314.76
535.557	5378.04
535.923	5400.63
536.288	5394.31
536.653	5407.19
537.019	5424.14
537.384	5468.43
537.749	5538.26
538.114	5514.53
538.479	5510.01
538.845	5564.02
539.21	5566.05
539.575	5637.24
539.94	5667.52
540.305	5661.19
540.67	5740.74
541.034	5764.02
541.399	5778.48
541.764	5778.25
542.129	5854.63
542.494	5844.46
542.858	5916.78
543.223	5960.39
543.587	5931.92
543.952	6026.83
544.316	6047.62
544.681	5999.94
545.045	6095.53
545.41	6125.81
545.774	6144.8
546.138	6114.06
546.503	6171.46
546.867	6268.63
547.231	6273.15
547.595	6354.73
547.959	6312.93
548.324	6378.69
548.688	6405.13
549.052	6443.32
549.416	6488.52
549.779	6559.7
550.143	6568.06
550.507	6627.95
550.871	6721.73
551.235	6717.44
551.599	6784.1
551.962	6784.55
552.326	6862.07
552.689	6862.74
553.053	6882.4
553.417	6935.74
553.78	7019.58
554.143	7040.59
554.507	7136.86
554.87	7189.74
555.234	7278.78
555.597	7271.77
555.96	7343.41
556.323	7442.16
556.686	7450.3
557.05	7515.83
557.413	7513.8
557.776	7612.78
558.139	7659.33
558.502	7781.14
558.865	7753.57
559.228	7864.3
559.59	7948.82
559.953	7935.03
560.316	8081.02
560.679	8125.76
561.041	8203.27
561.404	8227.91
561.767	8356.72
562.129	8400.56
562.492	8497.73
562.854	8510.61
563.217	8535.24
563.579	8642.13
563.941	8767.1
564.304	8805.29
564.666	8885.97
565.028	8920.99
565.39	9088.67
565.753	9085.06
566.115	9235.56
566.477	9294.32
566.839	9311.94
567.201	9442.11
567.563	9465.84
567.925	9622.9
568.287	9725.49
568.648	9708.77
569.01	9826.73
569.372	9864.47
569.734	9882.55
570.095	10071.25
570.457	10146.5
570.819	10184.69
571.18	10240.51
571.542	10343.33
571.903	10378.13
572.265	10463.55
572.626	10562.53
572.987	10647.5
573.349	10729.53
573.71	10860.83
574.071	10877.33
574.432	10922.52
574.794	11060.37
575.155	11137.66
575.516	11148.73
575.877	11187.38
576.238	11263.76
576.599	11361.16
576.96	11427.82
577.32	11475.5
577.681	11615.16
578.042	11643.41
578.403	11735.61
578.763	11731.77
579.124	11828.04
579.485	11930.18
579.845	12059.22
580.206	12033.23
580.566	12117.52
580.927	12098.99
581.287	12278.19
581.648	12284.75
582.008	12291.75
582.368	12385.08
582.728	12426.89
583.089	12398.64
583.449	12522.26
583.809	12560.9
584.169	12630.95
584.529	12619.65
584.889	12827.11
585.249	12763.61
585.609	12721.35
585.969	12948.23
586.329	13002.24
586.688	13022.36
587.048	13053.31
587.408	13012.19
587.768	13156.82
588.127	13131.73
588.487	13212.41
588.846	13275.91
589.206	13272.29
589.565	13318.84
589.925	13300.09
590.284	13436.58
590.643	13333.53
591.003	13527.43
591.362	13642.68
591.721	13519.29
592.08	13627.09
592.44	13677.03
592.799	13694.88
593.158	13750.7
593.517	13775.33
593.876	13866.17
594.235	13886.97
594.593	13870.24
594.952	13917.93
595.311	13900.07
595.67	13911.6
596.029	14087.41
596.387	14087.19
596.746	14199.5
597.104	14142.33
597.463	14138.03
597.822	14249.22
598.18	14228.88
598.538	14211.7
598.897	14276.11
599.255	14258.93
599.613	14472.71
599.972	14397.91
600.33	14424.8
600.688	14444.92
601.046	14555.2
601.404	14575.08
601.762	14629.54
602.12	14731.01
602.478	14749.77
602.836	14743.67
603.194	14643.56
603.552	14779.82
603.91	14716.77
604.268	14842.42
604.625	14860.05
604.983	14899.14
605.341	14834.06
605.698	14910.22
606.056	14977.78
606.413	14966.26
606.771	14940.72
607.128	15039.7
607.485	14998.12
607.843	14981.85
608.2	15134.84
608.557	15163.09
608.914	15108.18
609.272	15190.21
609.629	15271.56
609.986	15312.92
610.343	15268.4
610.7	15405.8
611.057	15390.43
611.414	15410.32
611.771	15483.99
612.127	15479.69
612.484	15488.51
612.841	15542.74
613.198	15470.43
613.554	15529.86
613.911	15583.19
614.267	15587.03
614.624	15582.06
614.98	15639.69
615.337	15678.78
615.693	15648.27
616.05	15732.11
616.406	15760.81
616.762	15695.05
617.118	15808.95
617.475	15808.27
617.831	15848.95
618.187	15824.99
618.543	15832.22
618.899	15943.18
619.255	16031.54
619.611	16024.31
619.967	16039
620.323	16064.08
620.678	15989.06
621.034	16013.69
621.39	16096.4
621.746	16016.85
622.101	16191.54
622.457	16052.11
622.812	16115.61
623.168	16229.95
623.523	16191.76
623.879	16152.44
624.234	16107.25
624.589	16183.18
624.945	16133.69
625.3	16225.89
625.655	16191.31
626.01	16246
626.365	16255.26
626.72	16263.17
627.075	16233.57
627.43	16162.61
627.785	16205.55
628.14	16271.08
628.495	16203.29
628.85	16290.07
629.205	16062.95
629.559	16257.3
629.914	16109.05
630.269	16167.58
630.623	16183.63
630.978	16169.84
631.332	16212.33
631.687	16248.26
632.041	16205.77
632.396	16178.88
632.75	16116.29
633.104	16180.46
633.459	16075.38
633.813	16121.26
634.167	16165.78
634.521	16212.33
634.875	16069.28
635.229	16065.89
635.583	16000.13
635.937	16133.23
636.291	16025.67
636.645	16053.24
636.999	16017.3
637.352	16026.8
637.706	15902.51
638.06	15923.75
638.413	15894.14
638.767	15927.82
639.121	16040.13
639.474	15817.31
639.828	15895.27
640.181	15946.12
640.534	15909.06
640.888	15930.3
641.241	15817.76
641.594	15833.13
641.947	15914.71
642.301	15929.4
642.654	15804.66
643.007	15927.59
643.36	15784.09
643.713	15794.49
644.066	15880.59
644.419	15763.75
644.771	15672.91
645.124	15598.33
645.477	15415.74
645.83	15486.02
646.182	15312.24
646.535	15349.53
646.888	15395.85
647.24	15277.66
647.593	15352.24
647.945	15243.31
648.298	15247.38
648.65	15226.82
649.002	15235.63
649.355	15301.62
649.707	15243.99
650.059	15320.15
650.411	15570.08
650.763	15580.25
651.115	15715.39
651.467	15651.21
651.819	15670.42
652.171	15684.88
652.523	15630.65
652.875	15570.76
653.227	15530.31
653.578	15708.61
653.93	15566.47
654.282	15565.34
654.633	15504.32
654.985	15508.84
655.337	15606.24
655.688	15556.75
656.039	15624.32
656.391	15488.05
656.742	15592.23
657.094	15536.64
657.445	15557.43
657.796	15591.78
658.147	15571.44
658.498	15526.7
658.849	15490.77
659.2	15563.08
659.551	15561.27
659.902	15579.8
660.253	15488.51
660.604	15573.47
660.955	15519.46
661.306	15567.6
661.656	15535.51
662.007	15566.24
662.358	15574.15
662.708	15539.13
663.059	15558.11
663.409	15443.99
663.76	15659.8
664.11	15577.54
664.461	15600.59
664.811	15598.11
665.161	15633.13
665.511	15604.89
665.862	15634.26
666.212	15680.36
666.562	15663.87
666.912	15589.29
667.262	15553.59
667.612	15639.69
667.962	15627.48
668.312	15644.66
668.662	15681.04
669.011	15673.59
669.361	15721.49
669.711	15644.89
670.06	15571.67
670.41	15574.15
670.76	15623.87
671.109	15670.87
671.459	15671.33
671.808	15534.83
672.157	15655.73
672.507	15550.88
672.856	15619.35
673.205	15562.63
673.554	15667.71
673.904	15686.01
674.253	15775.5
674.602	15691.44
674.951	15461.39
675.3	15344.78
675.649	15560.82
675.998	15656.18
676.346	15623.64
676.695	15742.74
677.044	15613.93
677.393	15624.32
677.741	15676.52
678.09	15717.43
678.438	15646.24
678.787	15683.3
679.135	15678.1
679.484	15545.68
679.832	15643.53
680.181	15540.48
680.529	15622.96
680.877	15645.11
681.225	15593.81
681.573	15734.83
681.922	15660.93
682.27	15618.22
682.618	15625.22
682.966	15564.21
683.314	15632.46
683.661	15586.81
684.009	15566.92
684.357	15531.89
684.705	15556.3
685.053	15587.49
685.4	15451.44
685.748	15396.98
686.095	15448.28
686.443	15471.1
686.79	15427.72
687.138	15366.47
687.485	15405.57
687.832	15372.8
688.18	15314.27
688.527	15349.3
688.874	15315.18
689.221	15267.49
689.568	15331
689.915	15320.6
690.262	15217.78
690.609	15268.17
690.956	15153.15
691.303	15174.62
691.65	15209.42
691.997	15102.53
692.344	14987.73
692.69	15031.57
693.037	15015.98
693.383	14932.14
693.73	14997.44
694.077	14975.98
694.423	14876.77
694.769	14888.52
695.116	14889.42
695.462	14825.47
695.808	14724.23
696.155	14839.48
696.501	14768.07
696.847	14739.15
697.193	14648.3
697.539	14714.06
697.885	14636.78
698.231	14618.25
698.577	14608.53
698.923	14580.05
699.269	14536.89
699.614	14470.9
699.96	14383
700.306	14436.78
700.651	14401.53
700.997	14424.8
701.342	14428.65
701.688	14457.57
702.033	14361.76
702.379	14417.57
702.724	14306.62
703.069	14343.68
703.415	14146.17
703.76	14253.74
704.105	14205.15
704.45	14148.2
704.795	14178.48
705.14	14093.29
705.485	14088.32
705.83	14065.27
706.175	14107.75
706.52	14011.48
706.865	14051.03
707.209	14022.33
707.554	14028.43
707.899	14021.43
708.243	13939.62
708.588	13938.72
708.932	13900.07
709.277	13853.07
709.621	13856.01
709.966	13790.92
710.31	13854.42
710.654	13740.08
710.998	13838.83
711.342	13726.97
711.687	13808.55
712.031	13700.98
712.375	13670.25
712.719	13762
713.063	13685.16
713.407	13774.2
713.75	13701.21
714.094	13710.25
714.438	13569.46
714.782	13568.78
715.125	13559.52
715.469	13609.23
715.812	13570.59
716.156	13461.89
716.499	13507.09
716.843	13478.61
717.186	13509.57
717.53	13572.17
717.873	13524.94
718.216	13509.35
718.559	13398.39
718.902	13374.44
719.246	13481.33
719.589	13378.5
719.932	13360.65
720.275	13298.05
720.617	13384.83
720.96	13306.64
721.303	13316.36
721.646	13299.64
721.989	13270.48
722.331	13348.22
722.674	13258.96
723.016	13275.46
723.359	13256.47
723.701	13296.7
724.044	13168.34
724.386	13098.96
724.729	13204.27
725.071	13175.12
725.413	13249.02
725.755	13232.75
726.097	13126.53
726.439	13070.72
726.782	13144.39
727.124	13105.52
727.465	13096.25
727.807	13031.62
728.149	13118.17
728.491	13058.29
728.833	13057.38
729.175	13113.43
729.516	13024.62
729.858	12994.11
730.199	13002.02
730.541	12949.59
730.882	12987.1
731.224	13046.99
731.565	12982.58
731.906	12956.14
732.248	12965.63
732.589	12899.42
732.93	12865.98
733.271	12838.41
733.612	12818.74
733.953	12893.77
734.294	12861.68
734.635	12839.08
734.976	12852.19
735.317	12811.97
735.658	12762.02
735.999	12798.63
736.339	12820.78
736.68	12779.88
737.021	12750.95
737.361	12691.06
737.702	12786.2
738.042	12775.13
738.383	12646.55
738.723	12677.73
739.063	12665.3
739.404	12666.88
739.744	12620.11
740.084	12622.37
740.424	12679.54
740.764	12628.92
741.104	12699.88
741.444	12582.37
741.784	12579.2
742.124	12513.89
742.464	12439.32
742.804	12535.14
743.143	12509.15
743.483	12497.4
743.823	12447.68
744.162	12369.94
744.502	12474.8
744.841	12346.67
745.181	12449.72
745.52	12375.37
745.86	12323.84
746.199	12309.61
746.538	12343.96
746.877	12447
747.216	12384.41
747.556	12252.21
747.895	12344.41
748.234	12267.35
748.573	12230.29
748.911	12195.26
749.25	12232.32
749.589	12168.82
749.928	12190.51
750.267	12205.88
750.605	12135.37
750.944	12172.43
751.283	12054.47
751.621	12096.28
751.96	11968.82
752.298	11955.49
752.636	11994.81
752.975	11948.49
753.313	11909.84
753.651	11903.74
753.989	11911.65
754.327	11856.51
754.666	11778.77
755.004	11800.69
755.342	11827.81
755.679	11760.47
756.017	11656.29
756.355	11743.74
756.693	11715.95
757.031	11715.72
757.368	11479.12
757.706	11608.38
758.044	11548.5
758.381	11567.48
758.719	11506.46
759.056	11439.35
759.394	11426.69
759.731	11358.22
760.068	11369.74
760.405	11343.3
