Data from brown_tile_FLMS001491_087.txt Node
Date: Tue Feb 07 10:38:07 GMT 2017
User: dcchb
Spectrometer: FLMS00149
Trigger mode: 0
Integration Time (sec): 2.000000E-2
Scans to average: 10
Electric dark correction enabled: true
Nonlinearity correction enabled: false
Boxcar width: 0
XAxis mode: Wavelengths
Number of Pixels in Spectrum: 2048
>>>>>Begin Spectral Data<<<<<
341.393	-20.85
341.776	-20.85
342.16	-20.85
342.543	-71.47
342.927	-61.07
343.31	-80.28
343.693	-62.88
344.077	-60.85
344.46	-63.56
344.843	-64.69
345.226	-30.34
345.61	-33.95
345.993	-22.65
346.376	-13.16
346.759	8.98
347.142	10.11
347.525	68.19
347.908	61.41
348.291	83.11
348.674	103.67
349.057	96.89
349.44	121.07
349.823	142.09
350.206	177.34
350.588	195.64
350.971	200.16
351.354	214.85
351.737	222.54
352.119	237.23
352.502	237
352.884	245.81
353.267	250.78
353.65	274.06
354.032	283.1
354.414	296.88
354.797	293.72
355.179	314.51
355.562	302.53
355.944	307.28
356.326	305.47
356.709	321.07
357.091	329.65
357.473	328.3
357.855	327.17
358.238	325.36
358.62	329.43
359.002	321.29
359.384	326.04
359.766	313.61
360.148	317.9
360.53	319.03
360.912	314.96
361.294	328.3
361.676	328.07
362.057	315.42
362.439	307.05
362.821	301.86
363.203	328.75
363.584	314.29
363.966	308.86
364.348	309.09
364.729	325.36
365.111	304.57
365.493	296.21
365.874	275.87
366.256	314.29
366.637	284.91
367.019	322.87
367.4	299.6
367.781	299.37
368.163	286.04
368.544	302.53
368.925	295.75
369.306	327.17
369.688	292.37
370.069	307.28
370.45	305.92
370.831	296.43
371.212	291.46
371.593	294.4
371.974	303.21
372.355	294.4
372.736	307.51
373.117	309.77
373.498	297.11
373.879	301.63
374.26	312.48
374.641	292.14
375.021	300.05
375.402	288.75
375.783	315.19
376.163	305.02
376.544	300.73
376.925	311.12
377.305	323.55
377.686	297.79
378.066	300.73
378.447	320.16
378.827	316.32
379.208	310.44
379.588	306.38
379.968	307.05
380.349	300.95
380.729	327.84
381.109	323.55
381.489	331.01
381.87	312.25
382.25	314.51
382.63	323.55
383.01	314.96
383.39	317.9
383.77	308.86
384.15	322.19
384.53	337.11
384.91	320.16
385.29	308.64
385.67	333.04
386.049	328.75
386.429	319.03
386.809	338.24
387.189	310.9
387.568	343.66
387.948	331.46
388.328	347.28
388.707	319.48
389.087	324.68
389.466	352.7
389.846	348.18
390.225	334.17
390.605	321.29
390.984	335.53
391.363	352.48
391.743	355.87
392.122	350.89
392.501	354.74
392.881	345.92
393.26	344.34
393.639	357
394.018	329.88
394.397	373.27
394.776	347.5
395.155	353.15
395.534	361.29
395.913	354.51
396.292	347.05
396.671	368.97
397.05	364.91
397.429	338.47
397.808	375.53
398.186	376.66
398.565	346.15
398.944	346.38
399.323	357.45
399.701	373.94
400.08	382.08
400.458	372.82
400.837	354.28
401.215	369.2
401.594	371.69
401.972	369.65
402.351	354.51
402.729	386.37
403.107	382.31
403.486	376.2
403.864	362.65
404.242	390.22
404.62	382.53
404.999	387.73
405.377	373.72
405.755	387.28
406.133	387.05
406.511	380.95
406.889	376.88
407.267	398.35
407.645	386.6
408.023	400.16
408.401	418.92
408.779	399.03
409.156	403.77
409.534	406.49
409.912	424.11
410.29	408.07
410.667	408.29
411.045	412.36
411.422	405.81
411.8	423.89
412.178	425.02
412.555	418.69
412.933	422.53
413.31	418.24
413.687	433.6
414.065	435.86
414.442	434.51
414.819	451.01
415.197	444.68
415.574	441.97
415.951	432.7
416.328	458.46
416.705	461.63
417.082	438.58
417.46	435.19
417.837	452.14
418.214	456.65
418.591	457.56
418.967	460.5
419.344	458.24
419.721	454.17
420.098	456.2
420.475	468.63
420.852	455.75
421.228	452.81
421.605	486.26
421.982	497.56
422.358	471.57
422.735	475.41
423.111	458.91
423.488	491.46
423.864	490.1
424.241	483.77
424.617	499.59
424.994	488.74
425.37	502.08
425.746	493.72
426.123	507.5
426.499	514.28
426.875	505.92
427.251	500.04
427.627	500.95
428.003	521.29
428.379	511.79
428.756	544.11
429.132	542.08
429.507	504.56
429.883	526.48
430.259	540.72
430.635	522.64
431.011	540.95
431.387	529.42
431.763	564.9
432.138	543.88
432.514	542.75
432.89	559.48
433.265	562.64
433.641	562.41
434.016	589.31
434.392	584.56
434.767	593.83
435.143	599.25
435.518	596.31
435.894	594.5
436.269	605.58
436.644	598.35
437.02	601.28
437.395	604.67
437.77	605.13
438.145	607.84
438.52	636.31
438.895	625.46
439.271	616.88
439.646	640.83
440.021	627.5
440.395	627.5
440.77	613.03
441.145	632.7
441.52	652.36
441.895	653.71
442.27	639.93
442.645	657.78
443.019	652.36
443.394	628.18
443.769	673.37
444.143	661.4
444.518	682.41
444.892	662.75
445.267	688.29
445.641	669.76
446.016	684.22
446.39	698
446.764	701.39
447.139	684.22
447.513	690.09
447.887	691
448.262	681.73
448.636	693.03
449.01	711.11
449.384	712.02
449.758	706.82
450.132	719.92
450.506	705.01
450.88	715.4
451.254	718.57
451.628	741.17
452.002	734.61
452.376	740.71
452.75	739.36
453.123	743.65
453.497	758.12
453.871	743.88
454.244	773.03
454.618	775.29
454.992	795.85
455.365	780.49
455.739	796.98
456.112	807.15
456.486	830.88
456.859	811
457.232	810.54
457.606	829.75
457.979	834.95
458.352	847.15
458.725	843.54
459.099	859.13
459.472	860.49
459.845	872.69
460.218	854.38
460.591	880.82
460.964	851.9
461.337	906.13
461.71	888.73
462.083	895.74
462.456	912.91
462.829	905.68
463.201	917.89
463.574	936.19
463.947	948.62
464.32	951.78
464.692	951.56
465.065	950.43
465.438	979.58
465.81	995.85
466.183	1015.51
466.555	1023.65
466.928	1015.28
467.3	1028.39
467.672	1026.13
468.045	1065
468.417	1069.97
468.789	1039.92
469.161	1052.57
469.534	1063.64
469.906	1088.05
470.278	1095.51
470.65	1109.97
471.022	1129.63
471.394	1136.18
471.766	1158.56
472.138	1131.67
472.51	1174.6
472.882	1202.17
473.253	1214.37
473.625	1214.15
473.997	1248.72
474.369	1265.45
474.74	1268.38
475.112	1261.38
475.484	1305.45
475.855	1322.62
476.227	1302.51
476.598	1358.1
476.97	1366.91
477.341	1389.06
477.713	1411.43
478.084	1413.01
478.455	1457.08
478.827	1446.91
479.198	1491.43
479.569	1457.08
479.94	1507.47
480.311	1535.95
480.682	1575.5
481.053	1575.72
481.424	1584.08
481.795	1622.73
482.166	1642.39
482.537	1669.96
482.908	1674.48
483.279	1692.55
483.65	1738.43
484.021	1751.76
484.391	1774.36
484.762	1797.64
485.133	1790.18
485.503	1821.14
485.874	1855.26
486.244	1867.01
486.615	1901.59
486.985	1893.45
487.356	1945.88
487.726	1969.16
488.097	1990.4
488.467	1977.07
488.837	2050.96
489.207	2064.52
489.578	2059.32
489.948	2095.93
490.318	2142.94
490.688	2139.55
491.058	2148.81
491.428	2198.3
491.798	2168.7
492.168	2255.25
492.538	2248.47
492.908	2263.84
493.278	2308.58
493.648	2304.29
494.017	2317.85
494.387	2375.02
494.757	2376.38
495.126	2412.31
495.496	2403.27
495.866	2415.47
496.235	2457.96
496.605	2469.03
496.974	2506.54
497.344	2501.57
497.713	2512.42
498.082	2526.2
498.452	2556.49
498.821	2570.95
499.19	2593.77
499.559	2619.31
499.928	2608.01
500.298	2616.6
500.667	2658.86
501.036	2655.01
501.405	2692.3
501.774	2662.25
502.143	2712.41
502.512	2741.11
502.88	2766.2
503.249	2771.85
503.618	2811.85
503.987	2786.08
504.356	2827.89
504.724	2840.77
505.093	2840.32
505.462	2882.81
505.83	2886.65
506.199	2908.12
506.567	2928.45
506.936	2928.45
507.304	3004.84
507.672	2975.68
508.041	2971.16
508.409	3083.48
508.777	3069.02
509.145	3102.23
509.514	3093.42
509.882	3097.49
510.25	3116.7
510.618	3189.92
510.986	3152.4
511.354	3224.49
511.722	3190.14
512.09	3264.49
512.458	3204.83
512.826	3264.04
513.193	3314.66
513.561	3306.3
513.929	3343.81
514.297	3393.75
514.664	3385.17
515.032	3422.45
515.4	3428.1
515.767	3479.4
516.135	3451.38
516.502	3485.5
516.869	3556.23
517.237	3529.34
517.604	3580.41
517.972	3598.04
518.339	3626.51
518.706	3636.68
519.073	3668.32
519.44	3700.86
519.808	3705.38
520.175	3721.88
520.542	3786.28
520.909	3782.67
521.276	3809.56
521.643	3841.42
522.009	3854.53
522.376	3935.66
522.743	3909.22
523.11	3996.67
523.477	3978.6
523.843	4064.24
524.21	4050.91
524.577	4110.12
524.943	4126.84
525.31	4120.29
525.676	4224.47
526.043	4218.36
526.409	4237.12
526.776	4330.9
527.142	4318.25
527.508	4340.85
527.874	4348.76
528.241	4367.06
528.607	4429.66
528.973	4430.56
529.339	4452.71
529.705	4489.32
530.071	4579.26
530.437	4553.5
530.803	4632.14
531.169	4654.06
531.535	4642.99
531.901	4669.2
532.267	4696.32
532.632	4732.93
532.998	4749.42
533.364	4773.38
533.73	4854.05
534.095	4857.89
534.461	4862.87
534.826	4896.31
535.192	4940.83
535.557	4957.33
535.923	4993.48
536.288	4989.19
536.653	5026.93
537.019	5070.54
537.384	5077.1
537.749	5166.36
538.114	5098.11
538.479	5178.56
538.845	5193.48
539.21	5198.68
539.575	5250.88
539.94	5232.8
540.305	5289.52
540.67	5299.24
541.034	5360.03
541.399	5405.68
541.764	5397.32
542.129	5422.63
542.494	5485
542.858	5507.82
543.223	5577.88
543.587	5582.17
543.952	5607.93
544.316	5601.6
544.681	5630.98
545.045	5680.92
545.41	5750.53
545.774	5712.11
546.138	5789.62
546.503	5778.1
546.867	5834.82
547.231	5896.51
547.595	5934.7
547.959	5917.98
548.324	6001.59
548.688	6024.19
549.052	6064.19
549.416	6041.37
549.779	6089.27
550.143	6154.13
550.507	6221.47
550.871	6261.25
551.235	6253.56
551.599	6351.87
551.962	6377.4
552.326	6448.36
552.689	6501.02
553.053	6478.64
553.417	6539.21
553.78	6580.79
554.143	6633.67
554.507	6644.74
554.87	6673.44
555.234	6831.63
555.597	6848.8
555.96	6816.04
556.323	6950.5
556.686	6968.8
557.05	7039.08
557.413	7123.82
557.776	7206.53
558.139	7238.17
558.502	7276.36
558.865	7305.29
559.228	7389.58
559.59	7468
559.953	7513.87
560.316	7645.84
560.679	7662.11
561.041	7748.89
561.404	7728.1
561.767	7925.38
562.129	7881.77
562.492	8023.91
562.854	8099.17
563.217	8113.63
563.579	8132.39
563.941	8267.97
564.304	8296.22
564.666	8346.62
565.028	8454.64
565.39	8503
565.753	8659.6
566.115	8658.47
566.477	8736.21
566.839	8812.14
567.201	8991.35
567.563	8942.53
567.925	9020.05
568.287	9117.44
568.648	9158.8
569.01	9261.17
569.372	9339.36
569.734	9382.52
570.095	9502.07
570.457	9567.83
570.819	9691.21
571.18	9743.42
571.542	9836.07
571.903	9855.73
572.265	9975.27
572.626	10035.84
572.987	10110.86
573.349	10126.46
573.71	10227.25
574.071	10320.12
574.432	10384.3
574.794	10542.27
575.155	10609.16
575.516	10578.87
575.877	10705.2
576.238	10787.91
576.599	10887.57
576.96	10956.72
577.32	10993.55
577.681	11099.31
578.042	11045.98
578.403	11171.4
578.763	11203.26
579.124	11329.36
579.485	11331.4
579.845	11501.56
580.206	11491.62
580.566	11565.29
580.927	11575.91
581.287	11703.36
581.648	11683.48
582.008	11790.37
582.368	11864.26
582.728	11929.12
583.089	11899.52
583.449	11992.17
583.809	12066.29
584.169	12119.62
584.529	12105.84
584.889	12253.86
585.249	12198.04
585.609	12191.94
585.969	12377.7
586.329	12412.95
586.688	12443.46
587.048	12442.1
587.408	12496.79
587.768	12526.62
588.127	12608.88
588.487	12616.33
588.846	12732.49
589.206	12720.74
589.565	12698.14
589.925	12829.66
590.284	12869.66
590.643	12883.45
591.003	12974.74
591.362	12913.95
591.721	12945.37
592.08	12996.66
592.44	13132.48
592.799	13112.82
593.158	13128.41
593.517	13255.41
593.876	13270.56
594.235	13170.9
594.593	13234.62
594.952	13363.43
595.311	13306.94
595.67	13423.77
596.029	13507.38
596.387	13569.08
596.746	13493.6
597.104	13532.47
597.463	13609.08
597.822	13608.17
598.18	13682.07
598.538	13647.04
598.897	13831.9
599.255	13638.45
599.613	13927.26
599.972	13800.03
600.33	13974.49
600.688	13878.67
601.046	13916.64
601.404	14051.1
601.762	13949.86
602.12	14087.26
602.478	14129.29
602.836	14132.68
603.194	14059.23
603.552	14041.38
603.91	14096.97
604.268	14218.78
604.625	14176.52
604.983	14296.29
605.341	14223.07
605.698	14345.56
606.056	14398.66
606.413	14335.84
606.771	14392.79
607.128	14474.82
607.485	14413.58
607.843	14479.79
608.2	14562.95
608.557	14702.16
608.914	14600.69
609.272	14627.58
609.629	14724.75
609.986	14697.18
610.343	14682.04
610.7	14843.17
611.057	14816.73
611.414	14827.35
611.771	14812.66
612.127	14980.34
612.484	14989.38
612.841	15050.85
613.198	14912.77
613.554	15013.33
613.911	15044.29
614.267	15077.29
614.624	15103.5
614.98	15146.89
615.337	15212.2
615.693	15210.17
616.05	15240.22
616.406	15259.43
616.762	15267.11
617.118	15273.21
617.475	15322.03
617.831	15404.06
618.187	15338.52
618.543	15287.68
618.899	15456.49
619.255	15535.13
619.611	15452.42
619.967	15520.44
620.323	15512.08
620.678	15555.24
621.034	15464.17
621.39	15522.25
621.746	15501.23
622.101	15601.34
622.457	15519.31
622.812	15484.73
623.168	15649.48
623.523	15658.29
623.879	15640.44
624.234	15560.44
624.589	15632.53
624.945	15651.96
625.3	15633.2
625.655	15595.92
626.01	15645.86
626.365	15652.41
626.72	15651.51
627.075	15708.46
627.43	15628.23
627.785	15567.22
628.14	15610.83
628.495	15671.62
628.85	15612.87
629.205	15543.26
629.559	15601.12
629.914	15583.49
630.269	15545.52
630.623	15657.61
630.978	15572.64
631.332	15659.42
631.687	15686.54
632.041	15576.94
632.396	15577.84
632.75	15536.48
633.104	15617.16
633.459	15558.86
633.813	15536.94
634.167	15613.32
634.521	15466.2
634.875	15498.07
635.229	15553.66
635.583	15443.38
635.937	15461.23
636.291	15567.9
636.645	15529.03
636.999	15479.08
637.352	15411.06
637.706	15397.96
638.06	15467.11
638.413	15487.9
638.767	15434.57
639.121	15420.55
639.474	15333.33
639.828	15381.01
640.181	15385.53
640.534	15363.16
640.888	15405.64
641.241	15332.87
641.594	15396.6
641.947	15305.98
642.301	15291.29
642.654	15312.54
643.007	15298.52
643.36	15280.67
643.713	15332.65
644.066	15376.49
644.419	15261.69
644.771	15108.02
645.124	15039.1
645.477	15010.17
645.83	14935.37
646.182	14911.19
646.535	14844.75
646.888	14904.86
647.24	14798.2
647.593	14807.92
647.945	14830.97
648.298	14833.9
648.65	14700.8
649.002	14701.25
649.355	14743.06
649.707	14736.51
650.059	14839.78
650.411	14990.28
650.763	15062.37
651.115	15154.57
651.467	15109.83
651.819	15100.34
652.171	15091.52
652.523	15101.47
652.875	15155.93
653.227	14969.72
653.578	15157.51
653.93	15069.38
654.282	15018.76
654.633	15024.86
654.985	15010.17
655.337	14999.1
655.688	15048.36
656.039	15148.92
656.391	15012.43
656.742	15003.84
657.094	14960.45
657.445	15138.53
657.796	15043.84
658.147	15032.32
658.498	14951.87
658.849	15042.94
659.2	15010.4
659.551	14957.74
659.902	14945.77
660.253	15064.18
660.604	15072.09
660.955	15066.89
661.306	15029.6
661.656	15065.54
662.007	15130.62
662.358	15037.06
662.708	15104.63
663.059	15047.46
663.409	15044.97
663.76	15090.62
664.11	15092.2
664.461	15080.9
664.811	15060.34
665.161	15138.53
665.511	14958.42
665.862	15072.54
666.212	15158.41
666.562	15080.68
666.912	15055.59
667.262	15227.57
667.612	15064.86
667.962	15288.13
668.312	15105.08
668.662	15197.28
669.011	15121.13
669.361	15072.32
669.711	15175.14
670.06	15092.65
670.41	15184.4
670.76	15057.17
671.109	15229.6
671.459	15138.53
671.808	15087
672.157	15177.62
672.507	15101.47
672.856	15090.39
673.205	15179.21
673.554	15193.67
673.904	15053.11
674.253	15198.87
674.602	15094.01
674.951	14952.32
675.3	14866.9
675.649	15171.3
675.998	15071.19
676.346	15185.98
676.695	15168.13
677.044	15071.41
677.393	15128.13
677.741	15129.04
678.09	15148.92
678.438	15097.85
678.787	15105.99
679.135	15129.26
679.484	15062.15
679.832	15148.02
680.181	15047.68
680.529	15140.56
680.877	15145.99
681.225	15037.74
681.573	15099.43
681.922	15063.28
682.27	15037.06
682.618	15068.47
682.966	15032.54
683.314	15125.42
683.661	14981.7
684.009	14934.24
684.357	14991.19
684.705	14993.67
685.053	15035.48
685.4	14918.2
685.748	14915.48
686.095	14947.8
686.443	14832.1
686.79	14923.62
687.138	14878.2
687.485	14921.59
687.832	14797.07
688.18	14857.63
688.527	14869.84
688.874	14799.55
689.221	14724.53
689.568	14778.31
689.915	14757.75
690.262	14783.06
690.609	14727.69
690.956	14599.56
691.303	14736.73
691.65	14623.51
691.997	14671.2
692.344	14524.99
692.69	14518.88
693.037	14539.45
693.383	14493.12
693.73	14527.92
694.077	14441.37
694.423	14476.4
694.769	14383.75
695.116	14412.22
695.462	14423.97
695.808	14324.76
696.155	14398.89
696.501	14348.27
696.847	14336.06
697.193	14259.23
697.539	14275.95
697.885	14197.76
698.231	14231.89
698.577	14158.67
698.923	14138.1
699.269	14032.34
699.614	14059.01
699.96	13995.28
700.306	14068.05
700.651	14068.5
700.997	13998.45
701.342	13993.25
701.688	14000.48
702.033	13923.19
702.379	13884.32
702.724	13966.81
703.069	13877.54
703.415	13839.81
703.76	13828.05
704.105	13848.39
704.45	13879.35
704.795	13780.37
705.14	13684.1
705.485	13707.15
705.83	13604.33
706.175	13705.12
706.52	13630.77
706.865	13593.94
707.209	13640.94
707.554	13541.73
707.899	13651.11
708.243	13485.24
708.588	13557.55
708.932	13491.34
709.277	13459.7
709.621	13448.4
709.966	13361.85
710.31	13427.16
710.654	13241.63
710.998	13378.35
711.342	13419.7
711.687	13365.69
712.031	13391
712.375	13237.34
712.719	13304.68
713.063	13273.27
713.407	13349.87
713.75	13292.48
714.094	13266.94
714.438	13244.34
714.782	13155.3
715.125	13123.21
715.469	13158.69
715.812	13139.26
716.156	13124.12
716.499	13129.32
716.843	13144.23
717.186	13070.56
717.53	13148.3
717.873	13083.44
718.216	13168.18
718.559	13084.57
718.902	12978.81
719.246	13089.09
719.589	12945.14
719.932	12927.74
720.275	12927.97
720.617	12989.66
720.96	12972.71
721.303	12923.45
721.646	12922.54
721.989	12805.71
722.331	12934.07
722.674	12839.83
723.016	12926.38
723.359	12809.78
723.701	12859.72
724.044	12698.37
724.386	12719.61
724.729	12847.29
725.071	12799.15
725.413	12771.36
725.755	12817.69
726.097	12757.57
726.439	12711.7
726.782	12716.45
727.124	12781.3
727.465	12673.96
727.807	12740.17
728.149	12645.26
728.491	12692.72
728.833	12733.62
729.175	12572.95
729.516	12627.63
729.858	12610.91
730.199	12693.4
730.541	12633.74
730.882	12586.73
731.224	12607.07
731.565	12553.51
731.906	12530.91
732.248	12565.26
732.589	12483.68
732.93	12432.38
733.271	12509.22
733.612	12543.34
733.953	12565.49
734.294	12449.79
734.635	12482.1
734.976	12506.06
735.317	12421.99
735.658	12367.53
735.999	12475.77
736.339	12449.11
736.68	12370.69
737.021	12393.29
737.361	12358.26
737.702	12379.05
738.042	12326.17
738.383	12278.26
738.723	12354.87
739.063	12223.58
739.404	12334.76
739.744	12249.79
740.084	12215.89
740.424	12294.76
740.764	12227.42
741.104	12338.15
741.444	12224.48
741.784	12158.95
742.124	12252.5
742.464	12215.44
742.804	12112.85
743.143	12156.69
743.483	12140.64
743.823	11999.18
744.162	12133.41
744.502	12068.1
744.841	12122.11
745.181	12067.2
745.52	12006.63
745.86	11985.17
746.199	11971.83
746.538	11972.51
746.877	12011.38
747.216	11958.73
747.556	11864.04
747.895	11904.49
748.234	11897.71
748.573	11925.28
748.911	11934.77
749.25	11872.4
749.589	11821.33
749.928	11853.64
750.267	11771.84
750.605	11794.89
750.944	11741.78
751.283	11742.69
751.621	11690.71
751.96	11715.57
752.298	11704.04
752.636	11657.72
752.975	11518.74
753.313	11521.45
753.651	11513.77
753.989	11543.37
754.327	11505.18
754.666	11403.94
755.004	11451.85
755.342	11490.04
755.679	11412.07
756.017	11353.09
756.355	11361.45
756.693	11403.94
757.031	11335.24
757.368	11277.61
757.706	11190.84
758.044	11181.8
758.381	11218.41
758.719	11170.95
759.056	11134.34
759.394	11082.14
759.731	11086.43
760.068	11016.15
760.405	11024.51
760.743	10981.8
