Data from brown_tile_FLMS001491_015.txt Node
Date: Tue Feb 07 10:37:08 GMT 2017
User: dcchb
Spectrometer: FLMS00149
Trigger mode: 0
Integration Time (sec): 2.000000E-2
Scans to average: 10
Electric dark correction enabled: true
Nonlinearity correction enabled: false
Boxcar width: 0
XAxis mode: Wavelengths
Number of Pixels in Spectrum: 2048
>>>>>Begin Spectral Data<<<<<
341.393	-17.37
341.776	-17.37
342.16	-17.37
342.543	-78.84
342.927	-66.86
343.31	-60.54
343.693	-63.92
344.077	-53.3
344.46	-47.2
344.843	-39.07
345.226	-45.62
345.61	-54.89
345.993	-6.3
346.376	-18.73
346.759	-5.4
347.142	4.77
347.525	46.35
347.908	47.48
348.291	87.26
348.674	105.11
349.057	103.98
349.44	112.57
349.823	143.3
350.206	168.61
350.588	167.93
350.971	207.71
351.354	208.84
351.737	213.81
352.119	237.54
352.502	241.15
352.884	261.72
353.267	269.63
353.65	284.09
354.032	288.61
354.414	277.99
354.797	298.78
355.179	296.52
355.562	291.09
355.944	296.74
356.326	305.33
356.709	323.64
357.091	312.56
357.473	318.89
357.855	326.57
358.238	333.58
358.62	328.83
359.002	327.25
359.384	311.88
359.766	331.54
360.148	304.2
360.53	312.56
360.912	332.22
361.294	308.49
361.676	316.63
362.057	313.01
362.439	322.28
362.821	303.3
363.203	310.53
363.584	289.74
363.966	305.33
364.348	324.54
364.729	302.85
365.111	308.04
365.493	300.36
365.874	294.94
366.256	315.95
366.637	303.3
367.019	316.18
367.4	309.62
367.781	304.43
368.163	302.17
368.544	310.75
368.925	294.26
369.306	323.18
369.688	305.1
370.069	279.57
370.45	281.6
370.831	302.39
371.212	312.34
371.593	301.49
371.974	283.64
372.355	319.57
372.736	297.2
373.117	316.18
373.498	314.82
373.879	308.27
374.26	284.31
374.641	310.98
375.021	306.91
375.402	293.13
375.783	303.07
376.163	332.22
376.544	308.95
376.925	324.54
377.305	317.76
377.686	311.88
378.066	323.64
378.447	324.09
378.827	325.67
379.208	316.18
379.588	312.34
379.968	343.3
380.349	310.53
380.729	322.96
381.109	335.84
381.489	310.3
381.87	321.38
382.25	318.21
382.63	335.84
383.01	346.23
383.39	308.49
383.77	322.73
384.15	316.86
384.53	355.5
384.91	353.69
385.29	329.51
385.67	339.23
386.049	346.23
386.429	325.67
386.809	326.57
387.189	350.3
387.568	333.58
387.948	332.9
388.328	357.76
388.707	334.48
389.087	345.33
389.466	324.54
389.846	353.47
390.225	337.19
390.605	330.19
390.984	365.67
391.363	336.97
391.743	361.6
392.122	356.4
392.501	350.98
392.881	365.44
393.26	356.18
393.639	354.14
394.018	375.39
394.397	363.86
394.776	347.59
395.155	380.81
395.534	369.06
395.913	359.79
396.292	363.18
396.671	370.64
397.05	374.93
397.429	362.05
397.808	371.54
398.186	373.58
398.565	389.85
398.944	393.24
399.323	394.82
399.701	369.28
400.08	380.13
400.458	400.02
400.837	395.27
401.215	408.61
401.594	388.27
401.972	395.72
402.351	405.67
402.729	395.72
403.107	399.11
403.486	403.86
403.864	387.36
404.242	385.33
404.62	398.44
404.999	405.89
405.377	401.83
405.755	423.52
406.133	430.53
406.511	411.09
406.889	414.03
407.267	402.05
407.645	433.69
408.023	400.92
408.401	428.72
408.779	438.43
409.156	420.81
409.534	438.66
409.912	450.86
410.29	431.88
410.667	446.57
411.045	436.17
411.422	446.12
411.8	454.03
412.178	468.26
412.555	470.98
412.933	468.49
413.31	458.1
413.687	466.46
414.065	492.22
414.442	478.66
414.819	484.08
415.197	491.99
415.574	496.51
415.951	502.84
416.328	478.43
416.705	496.96
417.082	493.12
417.46	500.58
417.837	495.61
418.214	503.97
418.591	488.15
418.967	494.93
419.344	513.91
419.721	494.03
420.098	504.42
420.475	521.37
420.852	529.51
421.228	498.32
421.605	522.5
421.982	546.68
422.358	528.83
422.735	526.57
423.111	517.3
423.488	543.74
423.864	534.7
424.241	536.06
424.617	573.35
424.994	545.32
425.37	562.73
425.746	544.87
426.123	571.09
426.499	551.65
426.875	565.44
427.251	570.41
427.627	587.36
428.003	607.24
428.379	563.86
428.756	607.47
429.132	619.67
429.507	633.68
429.883	624.19
430.259	598.66
430.635	622.84
431.011	630.75
431.387	647.02
431.763	624.87
432.138	644.76
432.514	642.72
432.89	662.16
433.265	649.95
433.641	664.64
434.016	667.36
434.392	664.19
434.767	679.78
435.143	666.23
435.518	694.25
435.894	676.85
436.269	675.72
436.644	687.92
437.02	695.6
437.395	682.5
437.77	726.34
438.145	706.68
438.52	708.26
438.895	756.84
439.271	741.25
439.646	767.24
440.021	729.5
440.395	728.82
440.77	730.4
441.145	783.74
441.52	777.41
441.895	771.53
442.27	767.92
442.645	783.28
443.019	791.87
443.394	763.85
443.769	787.35
444.143	800.01
444.518	775.83
444.892	780.35
445.267	801.36
445.641	808.82
446.016	811.98
446.39	820.8
446.764	817.86
447.139	815.37
447.513	846.56
447.887	798.65
448.262	832.1
448.636	849.27
449.01	883.17
449.384	860.34
449.758	813.11
450.132	868.48
450.506	857.63
450.88	880.23
451.254	883.85
451.628	889.27
452.002	857.63
452.376	887.91
452.75	889.95
453.123	885.43
453.497	905.54
453.871	928.59
454.244	919.1
454.618	912.77
454.992	964.75
455.365	948.25
455.739	986.44
456.112	980.79
456.486	970.62
456.859	973.79
457.232	990.96
457.606	1004.75
457.979	1002.71
458.352	1022.83
458.725	1044.75
459.099	1035.03
459.472	1080.9
459.845	1044.29
460.218	1076.84
460.591	1083.16
460.964	1102.37
461.337	1116.38
461.71	1147.34
462.083	1120.9
462.456	1152.09
462.829	1122.03
463.201	1145.53
463.574	1157.06
463.947	1182.14
464.32	1200.9
464.692	1208.13
465.065	1197.96
465.438	1193.22
465.81	1208.58
466.183	1239.09
466.555	1266.44
466.928	1245.65
467.3	1275.93
467.672	1270.96
468.045	1324.51
468.417	1298.98
468.789	1315.47
469.161	1341.01
469.534	1345.53
469.906	1363.83
470.278	1380.1
470.65	1384.62
471.022	1419.43
471.394	1441.35
471.766	1440.22
472.138	1477.28
472.51	1484.73
472.882	1493.55
473.253	1504.85
473.625	1519.31
473.997	1584.39
474.369	1559.54
474.74	1600.21
475.112	1618.29
475.484	1641.57
475.855	1684.73
476.227	1659.65
476.598	1727.21
476.97	1738.74
477.341	1740.1
477.713	1771.06
478.084	1801.34
478.455	1823.71
478.827	1849.92
479.198	1878.62
479.569	1885.18
479.94	1923.37
480.311	1979.41
480.682	1991.61
481.053	1996.13
481.424	2038.17
481.795	2059.18
482.166	2100.09
482.537	2148.9
482.908	2142.57
483.279	2136.7
483.65	2234.55
484.021	2270.93
484.391	2263.47
484.762	2288.33
485.133	2344.37
485.503	2386.63
485.874	2371.27
486.244	2399.51
486.615	2477.93
486.985	2472.28
487.356	2511.37
487.726	2553.86
488.097	2557.25
488.467	2621.2
488.837	2612.84
489.207	2690.35
489.578	2699.84
489.948	2699.17
490.318	2756.34
490.688	2798.37
491.058	2828.43
491.428	2843.57
491.798	2895.77
492.168	2898.71
492.538	2899.39
492.908	2972.83
493.278	2972.15
493.648	3021.87
494.017	3066.16
494.387	3061.87
494.757	3112.49
495.126	3132.15
495.496	3145.71
495.866	3149.1
496.235	3173.96
496.605	3209.66
496.974	3192.26
497.344	3261.41
497.713	3290.11
498.082	3308.19
498.452	3328.53
498.821	3352.48
499.19	3382.31
499.559	3446.49
499.928	3420.05
500.298	3453.04
500.667	3480.61
501.036	3477
501.405	3514.06
501.774	3490.33
502.143	3594.51
502.512	3574.17
502.88	3655.53
503.249	3630.44
503.618	3651.91
503.987	3715.86
504.356	3696.2
504.724	3754.96
505.093	3754.96
505.462	3740.04
505.83	3789.99
506.199	3796.54
506.567	3859.36
506.936	3878.12
507.304	3871.34
507.672	3942.3
508.041	3910.43
508.409	3964.22
508.777	3980.94
509.145	4069.75
509.514	4012.35
509.882	4080.37
510.25	4090.09
510.618	4108.62
510.986	4145
511.354	4169.41
511.722	4219.8
512.09	4237.2
512.458	4217.77
512.826	4306.58
513.193	4301.38
513.561	4374.38
513.929	4317.2
514.297	4421.83
514.664	4425.45
515.032	4467.93
515.4	4552.68
515.767	4535.05
516.135	4584.77
516.502	4555.39
516.869	4624.99
517.237	4647.14
517.604	4620.92
517.972	4743.18
518.339	4730.53
518.706	4774.37
519.073	4806.91
519.44	4854.59
519.808	4874.7
520.175	4866.11
520.542	4981.82
520.909	4974.13
521.276	5012.55
521.643	5071.08
522.009	5059.33
522.376	5118.99
522.743	5160.34
523.11	5253.68
523.477	5298.87
523.843	5301.58
524.21	5394.69
524.577	5385.88
524.943	5390.85
525.31	5493.44
525.676	5532.31
526.043	5522.59
526.409	5589.94
526.776	5639.2
527.142	5661.57
527.508	5730.5
527.874	5736.6
528.241	5799.88
528.607	5829.48
528.973	5870.38
529.339	5914.22
529.705	5933.43
530.071	6041
530.437	6012.53
530.803	6063.6
531.169	6088.23
531.535	6132.52
531.901	6173.43
532.267	6206.64
532.632	6230.37
532.998	6246.19
533.364	6354.21
533.73	6337.26
534.095	6391.72
534.461	6445.96
534.826	6444.15
535.192	6488.45
535.557	6529.35
535.923	6534.55
536.288	6628.78
536.653	6624.26
537.019	6659.06
537.384	6642.79
537.749	6766.63
538.114	6734.31
538.479	6773.18
538.845	6848.44
539.21	6810.24
539.575	6836.46
539.94	6933.86
540.305	6969.56
540.67	6951.26
541.034	7033.29
541.399	7019.5
541.764	7117.13
542.129	7133.17
542.494	7185.6
542.858	7233.28
543.223	7295.88
543.587	7386.95
543.952	7331.59
544.316	7420.4
544.681	7358.25
545.045	7459.72
545.41	7546.72
545.774	7529.55
546.138	7566.83
546.503	7642.77
546.867	7586.5
547.231	7753.72
547.595	7802.99
547.959	7779.03
548.324	7808.64
548.688	7897.9
549.052	7906.49
549.416	8014.73
549.779	8016.31
550.143	8027.16
550.507	8121.85
550.871	8196.65
551.235	8173.15
551.599	8281.39
551.962	8330.2
552.326	8319.36
552.689	8429.64
553.053	8421.95
553.417	8511.44
553.78	8635.51
554.143	8578.56
554.507	8712.57
554.87	8741.27
555.234	8825.56
555.597	8840.02
555.96	8921.15
556.323	9007.7
556.686	9025.1
557.05	9165.66
557.413	9262.84
557.776	9251.54
558.139	9334.7
558.502	9497.86
558.865	9442.72
559.228	9597.74
559.59	9711.64
559.953	9706.44
560.316	9761.58
560.679	9824.63
561.041	9963.38
561.404	10042.02
561.767	10167.9
562.129	10183.26
562.492	10303.71
562.854	10362.92
563.217	10418.74
563.579	10502.58
563.941	10616.92
564.304	10652.63
564.666	10763.14
565.028	10904.83
565.39	11005.39
565.753	11060.3
566.115	11116.35
566.477	11251.03
566.839	11269.56
567.201	11391.59
567.563	11501.87
567.925	11625.94
568.287	11662.09
568.648	11793.84
569.01	11856.89
569.372	12009.2
569.734	12005.59
570.095	12195.87
570.457	12188.41
570.819	12343.21
571.18	12404.45
571.542	12440.61
571.903	12558.57
572.265	12739.13
572.626	12759.01
572.987	12902.97
573.349	12966.02
573.71	13004.88
574.071	13110.42
574.432	13238.55
574.794	13285.33
575.155	13392.9
575.516	13405.1
575.877	13512.89
576.238	13547.24
576.599	13732.32
576.96	13847.12
577.32	13813.68
577.681	13995.14
578.042	14049.6
578.403	14156.94
578.763	14200.11
579.124	14173.67
579.485	14356.49
579.845	14381.12
580.206	14463.38
580.566	14547.44
580.927	14643.94
581.287	14719.87
581.648	14750.6
582.008	14807.1
582.368	14840.54
582.728	14890.94
583.089	15003.7
583.449	15017.03
583.809	15020.2
584.169	15176.58
584.529	15205.73
584.889	15431.94
585.249	15304.03
585.609	15316.69
585.969	15437.14
586.329	15436.91
586.688	15560.3
587.048	15609.56
587.408	15622.67
587.768	15649.79
588.127	15639.17
588.487	15717.13
588.846	15814.75
589.206	15817.92
589.565	15876.22
589.925	15963.68
590.284	15961.42
590.643	15986.05
591.003	16048.19
591.362	16155.08
591.721	16095.2
592.08	16265.82
592.44	16315.08
592.799	16251.13
593.158	16360.5
593.517	16423.55
593.876	16464.68
594.235	16493.38
594.593	16498.8
594.952	16528.86
595.311	16535.86
595.67	16574.73
596.029	16722.3
596.387	16824.22
596.746	16755.97
597.104	16782.86
597.463	16760.04
597.822	17019.69
598.18	16915.74
598.538	16930.88
598.897	16979.69
599.255	16894.05
599.613	17212.23
599.972	17068.51
600.33	17132.01
600.688	17136.53
601.046	17188.28
601.404	17340.82
601.762	17284.55
602.12	17448.38
602.478	17424.2
602.836	17427.59
603.194	17373.36
603.552	17428.04
603.91	17367.93
604.268	17609.73
604.625	17599.79
604.983	17591.66
605.341	17563.63
605.698	17597.31
606.056	17780.13
606.413	17694.7
606.771	17805.66
607.128	17965.43
607.485	17789.84
607.843	17964.75
608.2	17904.64
608.557	18056.5
608.914	18023.28
609.272	18074.81
609.629	18226.89
609.986	18178.08
610.343	18092.66
610.7	18297.4
611.057	18244.75
611.414	18219.21
611.771	18328.81
612.127	18387.57
612.484	18410.17
612.841	18489.26
613.198	18429.6
613.554	18416.27
613.911	18619.43
614.267	18562.93
614.624	18456.72
614.98	18637.05
615.337	18679.31
615.693	18585.08
616.05	18683.83
616.406	18785.75
616.762	18684.73
617.118	18791.85
617.475	18645.64
617.831	18893.09
618.187	18865.97
618.543	18830.95
618.899	18944.16
619.255	18947.1
619.611	18908.46
619.967	19047.89
620.323	19125.4
620.678	19100.32
621.034	18957.95
621.39	18947.33
621.746	19011.73
622.101	19190.71
622.457	18987.1
622.812	19103.93
623.168	19168.79
623.523	19075.91
623.879	19250.6
624.234	19090.15
624.589	19098.74
624.945	19234.1
625.3	19245.85
625.655	19181.22
626.01	19250.37
626.365	19268.9
626.72	19137.38
627.075	19158.85
627.43	19218.05
627.785	19146.64
628.14	19248.34
628.495	19252.86
628.85	19280.2
629.205	19137.83
629.559	19300.09
629.914	19186.64
630.269	19225.06
630.623	19178.51
630.978	19256.92
631.332	19318.39
631.687	19291.72
632.041	19148.68
632.396	19277.71
632.75	19139.41
633.104	19207.21
633.459	19021.45
633.813	19170.37
634.167	19018.96
634.521	19032.52
634.875	19073.88
635.229	19164.27
635.583	19033.2
635.937	19023.93
636.291	18949.36
636.645	18878.18
636.999	19041.34
637.352	19035.46
637.706	18983.26
638.06	19018.06
638.413	18914.56
638.767	18851.96
639.121	18994.33
639.474	18790.49
639.828	18828.01
640.181	18903.26
640.534	18886.54
640.888	18781.46
641.241	18786.65
641.594	18858.74
641.947	18808.12
642.301	18718.18
642.654	18809.93
643.007	18741.23
643.36	18706.88
643.713	18775.58
644.066	18884.5
644.419	18726.54
644.771	18599.77
645.124	18420.79
645.477	18288.36
645.83	18262.15
646.182	18184.86
646.535	18201.13
646.888	18247.68
647.24	18124.3
647.593	18243.84
647.945	18061.02
648.298	18172.66
648.65	18167.91
649.002	18063.06
649.355	18157.29
649.707	18069.38
650.059	18185.31
650.411	18364.97
650.763	18428.7
651.115	18636.15
651.467	18523.16
651.819	18502.82
652.171	18512.08
652.523	18463.05
652.875	18604.96
653.227	18366.1
653.578	18584.62
653.93	18526.32
654.282	18463.95
654.633	18383.95
654.985	18399.32
655.337	18478.64
655.688	18468.92
656.039	18481.58
656.391	18336.04
656.742	18324.52
657.094	18281.36
657.445	18404.74
657.796	18280.23
658.147	18312.77
658.498	18366.78
658.849	18414.46
659.2	18329.26
659.551	18282.71
659.902	18340.79
660.253	18368.58
660.604	18374.91
660.955	18334.69
661.306	18338.76
661.656	18341.01
662.007	18396.38
662.358	18395.25
662.708	18378.98
663.059	18252.66
663.409	18259.21
663.76	18420.56
664.11	18318.19
664.461	18412.2
664.811	18413.33
665.161	18416.95
665.511	18331.98
665.862	18338.53
666.212	18415.59
666.562	18374.91
666.912	18402.26
667.262	18496.94
667.612	18393.89
667.962	18342.37
668.312	18463.95
668.662	18503.95
669.011	18496.94
669.361	18464.85
669.711	18426.66
670.06	18411.97
670.41	18332.43
670.76	18441.8
671.109	18439.54
671.459	18421.46
671.808	18472.08
672.157	18450.62
672.507	18291.3
672.856	18347.57
673.205	18462.82
673.554	18499.43
673.904	18358.64
674.253	18579.65
674.602	18446.77
674.951	18254.69
675.3	18176.95
675.649	18543.27
675.998	18423.72
676.346	18394.12
676.695	18500.11
677.044	18289.49
677.393	18445.42
677.741	18501.01
678.09	18323.39
678.438	18364.74
678.787	18491.07
679.135	18350.51
679.484	18339.21
679.832	18448.36
680.181	18299.43
680.529	18307.34
680.877	18380.34
681.225	18323.61
681.573	18520.22
681.922	18214.24
682.27	18248.14
682.618	18394.35
682.966	18270.96
683.314	18382.37
683.661	18195.93
684.009	18256.27
684.357	18201.13
684.705	18155.71
685.053	18147.8
685.4	18254.69
685.748	18100.12
686.095	18118.87
686.443	18078.87
686.79	18088.37
687.138	18065.99
687.485	18082.72
687.832	18024.19
688.18	17938.09
688.527	18018.54
688.874	18032.1
689.221	17922.04
689.568	17926.34
689.915	17983.51
690.262	17843.63
690.609	17833.68
690.956	17840.69
691.303	17792.33
691.65	17746.45
691.997	17734.48
692.344	17615.16
692.69	17663.97
693.037	17645.21
693.383	17499.91
693.73	17666.23
694.077	17493.13
694.423	17597.98
694.769	17509.4
695.116	17443.19
695.462	17519.79
695.808	17410.87
696.155	17395.5
696.501	17390.76
696.847	17321.15
697.193	17241.38
697.539	17276.86
697.885	17186.92
698.231	17110.31
698.577	17130.65
698.923	17145.79
699.269	17172.68
699.614	17064.66
699.96	17053.37
700.306	17045.91
700.651	16939.7
700.997	16837.33
701.342	16890.66
701.688	16783.77
702.033	16730.66
702.379	16806.59
702.724	16842.07
703.069	16854.05
703.415	16652.47
703.76	16688.4
704.105	16725.92
704.45	16676.65
704.795	16523.21
705.14	16464.45
705.485	16475.75
705.83	16441.4
706.175	16513.94
706.52	16466.26
706.865	16474.85
707.209	16461.74
707.554	16313.72
707.899	16315.53
708.243	16297.45
708.588	16288.19
708.932	16244.57
709.277	16260.17
709.621	16216.78
709.966	16180.62
710.31	16142.2
710.654	16049.1
710.998	16114.18
711.342	16194.63
711.687	16050.23
712.031	15995.09
712.375	15985.6
712.719	15965.26
713.063	16005.48
713.407	16063.56
713.75	15899.27
714.094	15962.77
714.438	15879.16
714.782	15876.22
715.125	15806.17
715.469	15886.16
715.812	15802.1
716.156	15761.42
716.499	15745.83
716.843	15765.49
717.186	15615.66
717.53	15878.93
717.873	15832.61
718.216	15820.4
718.559	15698.37
718.902	15631.93
719.246	15638.49
719.589	15583.8
719.932	15611.82
720.275	15688.43
720.617	15578.15
720.96	15652.05
721.303	15545.61
721.646	15683.23
721.989	15516.68
722.331	15530.24
722.674	15478.04
723.016	15608.21
723.359	15510.81
723.701	15495.89
724.044	15352.84
724.386	15398.27
724.729	15455.89
725.071	15368.66
725.413	15338.38
725.755	15353.52
726.097	15408.89
726.439	15256.8
726.782	15351.94
727.124	15346.07
727.465	15269.68
727.807	15356.01
728.149	15236.24
728.491	15232.85
728.833	15240.98
729.175	15228.55
729.516	15148.1
729.858	15221.55
730.199	15158.73
730.541	15201.89
730.882	15176.35
731.224	15186.97
731.565	15115.34
731.906	15146.52
732.248	15091.16
732.589	15087.77
732.93	15063.59
733.271	15067.65
733.612	14973.42
733.953	15060.88
734.294	15059.07
734.635	14925.06
734.976	15050.93
735.317	14894.33
735.658	14928.22
735.999	14862.01
736.339	14867.43
736.68	14892.97
737.021	14833.99
737.361	14851.84
737.702	14969.58
738.042	14874.89
738.383	14765.97
738.723	14905.85
739.063	14787.89
739.404	14767.78
739.744	14756.02
740.084	14650.72
740.424	14703.82
740.764	14728.91
741.104	14774.1
741.444	14691.85
741.784	14662.47
742.124	14610.49
742.464	14492.08
742.804	14667.67
743.143	14612.3
743.483	14542.24
743.823	14436.26
744.162	14506.09
744.502	14486.65
744.841	14491.4
745.181	14478.29
745.52	14477.39
745.86	14510.16
746.199	14339.31
746.538	14460.21
746.877	14406.2
747.216	14426.32
747.556	14287.11
747.895	14393.77
748.234	14223.16
748.573	14220.9
748.911	14296.15
749.25	14317.17
749.589	14142.71
749.928	14252.08
750.267	14166.89
750.605	14159.88
750.944	14107.91
751.283	14078.53
751.621	14150.39
751.96	13973.22
752.298	13998.98
752.636	14008.25
752.975	13921.47
753.313	13938.19
753.651	14020
753.989	13859.32
754.327	13923.96
754.666	13780.46
755.004	13848.93
755.342	13802.15
755.679	13761.02
756.017	13677.41
756.355	13717.86
756.693	13671.76
757.031	13609.39
757.368	13568.03
757.706	13586.56
758.044	13557.41
758.381	13535.72
758.719	13507.47
759.056	13413.69
759.394	13356.29
