Data from brown_tile_FLMS001491_002.txt Node
Date: Tue Feb 07 10:36:59 GMT 2017
User: dcchb
Spectrometer: FLMS00149
Trigger mode: 0
Integration Time (sec): 2.000000E-2
Scans to average: 10
Electric dark correction enabled: true
Nonlinearity correction enabled: false
Boxcar width: 0
XAxis mode: Wavelengths
Number of Pixels in Spectrum: 2048
>>>>>Begin Spectral Data<<<<<
341.393	-34
341.776	-34
342.16	-34
342.543	-50.27
342.927	-66.76
343.31	-75.58
343.693	-63.6
344.077	-52.3
344.46	-65.18
344.843	-48.01
345.226	-30.83
345.61	-39.65
345.993	-29.02
346.376	0.81
346.759	-11.17
347.142	45.32
347.525	30.41
347.908	57.75
348.291	74.25
348.674	96.62
349.057	110.18
349.44	122.84
349.823	126.45
350.206	157.41
350.588	185.43
350.971	183.4
351.354	221.59
351.737	219.33
352.119	226.56
352.502	243.51
352.884	254.36
353.267	271.76
353.65	282.15
354.032	280.35
354.414	307.24
354.797	290.51
355.179	308.59
355.562	310.18
355.944	305.2
356.326	322.83
356.709	336.16
357.091	335.94
357.473	327.58
357.855	329.61
358.238	326.67
358.62	323.73
359.002	325.99
359.384	336.16
359.766	315.37
360.148	325.77
360.53	330.06
360.912	320.57
361.294	311.98
361.676	338.42
362.057	328.71
362.439	309.72
362.821	292.1
363.203	336.39
363.584	306.56
363.966	330.06
364.348	314.7
364.729	313.34
365.111	308.82
365.493	304.53
365.874	303.4
366.256	321.47
366.637	283.51
367.019	303.4
367.4	314.47
367.781	290.97
368.163	304.75
368.544	293.9
368.925	318.31
369.306	313.79
369.688	303.85
370.069	300.68
370.45	295.94
370.831	309.95
371.212	307.01
371.593	316.73
371.974	318.08
372.355	313.57
372.736	300.91
373.117	306.33
373.498	309.05
373.879	296.62
374.26	295.03
374.641	299.55
375.021	316.95
375.402	297.75
375.783	311.98
376.163	307.46
376.544	335.71
376.925	321.47
377.305	313.34
377.686	286.9
378.066	305.88
378.447	313.57
378.827	311.98
379.208	301.59
379.588	308.14
379.968	327.12
380.349	319.89
380.729	327.35
381.109	318.99
381.489	311.31
381.87	324.41
382.25	329.61
382.63	330.74
383.01	333
383.39	330.29
383.77	329.38
384.15	315.6
384.53	316.73
384.91	331.19
385.29	344.3
385.67	334.81
386.049	350.17
386.429	325.99
386.809	345.88
387.189	353.56
387.568	369.38
387.948	334.81
388.328	348.14
388.707	360.8
389.087	334.58
389.466	376.39
389.846	350.63
390.225	365.77
390.605	346.78
390.984	354.69
391.363	353.34
391.743	346.33
392.122	359.67
392.501	366.22
392.881	353.79
393.26	370.06
393.639	348.59
394.018	354.69
394.397	383.62
394.776	362.6
395.155	377.97
395.534	346.78
395.913	380
396.292	377.97
396.671	353.34
397.05	374.58
397.429	374.35
397.808	349.04
398.186	387.46
398.565	391.76
398.944	380.23
399.323	374.13
399.701	375.71
400.08	388.59
400.458	394.02
400.837	375.26
401.215	399.21
401.594	409.38
401.972	386.78
402.351	374.13
402.729	402.15
403.107	382.72
403.486	393.79
403.864	396.05
404.242	397.86
404.62	401.25
404.999	411.42
405.377	419.33
405.755	416.16
406.133	401.02
406.511	405.99
406.889	414.13
407.267	403.05
407.645	432.21
408.023	422.71
408.401	420
408.779	441.47
409.156	433.79
409.534	425.43
409.912	445.54
410.29	461.58
410.667	443.05
411.045	428.36
411.422	440.12
411.8	448.93
412.178	436.27
412.555	452.09
412.933	454.8
413.31	461.81
413.687	481.92
414.065	469.04
414.442	449.61
414.819	458.42
415.197	480.11
415.574	470.17
415.951	466.78
416.328	488.48
416.705	469.27
417.082	477.4
417.46	511.75
417.837	488.48
418.214	504.75
418.591	508.59
418.967	489.83
419.344	492.54
419.721	481.47
420.098	510.62
420.475	498.19
420.852	507.23
421.228	517.85
421.605	515.37
421.982	507.46
422.358	522.15
422.735	524.63
423.111	542.71
423.488	523.5
423.864	536.61
424.241	531.19
424.617	550.17
424.994	536.38
425.37	548.36
425.746	547.46
426.123	547.91
426.499	556.04
426.875	544.52
427.251	562.6
427.627	586.1
428.003	588.81
428.379	585.65
428.756	591.3
429.132	575.71
429.507	587.91
429.883	580.68
430.259	587.68
430.635	602.6
431.011	600.34
431.387	615.93
431.763	602.82
432.138	632.43
432.514	627.91
432.89	645.76
433.265	653.22
433.641	632.2
434.016	643.5
434.392	660
434.767	676.49
435.143	649.6
435.518	664.06
435.894	678.98
436.269	692.31
436.644	666.1
437.02	675.36
437.395	688.7
437.77	680.56
438.145	709.26
438.52	694.35
438.895	701.58
439.271	711.07
439.646	732.31
440.021	710.16
440.395	741.12
440.77	713.33
441.145	725.31
441.52	723.5
441.895	756.27
442.27	735.7
442.645	743.38
443.019	759.2
443.394	753.55
443.769	742.93
444.143	747.23
444.518	766.66
444.892	777.06
445.267	810.28
445.641	805.3
446.016	773.67
446.39	778.64
446.764	787.9
447.139	788.35
447.513	788.13
447.887	811.63
448.262	804.4
448.636	811.41
449.01	818.86
449.384	847.56
449.758	835.59
450.132	855.02
450.506	852.76
450.88	836.49
451.254	835.36
451.628	857.51
452.002	865.42
452.376	852.08
452.75	869.03
453.123	862.03
453.497	863.83
453.871	882.36
454.244	881.01
454.618	899.31
454.992	897.73
455.365	903.61
455.739	924.62
456.112	954.68
456.486	942.02
456.859	943.38
457.232	942.7
457.606	989.93
457.979	961.46
458.352	977.95
458.725	1008.91
459.099	1004.62
459.472	1041.46
459.845	1008.46
460.218	1036.71
460.591	1043.94
460.964	1045.07
461.337	1079.42
461.71	1081.45
462.083	1099.31
462.456	1069.25
462.829	1088.91
463.201	1114
463.574	1082.81
463.947	1119.42
464.32	1123.94
464.692	1178.18
465.065	1149.93
465.438	1153.54
465.81	1160.55
466.183	1186.76
466.555	1213.43
466.928	1214.33
467.3	1227.21
467.672	1245.29
468.045	1255.01
468.417	1228.8
468.789	1272.86
469.161	1289.81
469.534	1277.83
469.906	1323.71
470.278	1344.5
470.65	1324.39
471.022	1350.6
471.394	1358.74
471.766	1371.16
472.138	1407.55
472.51	1429.47
472.882	1450.71
473.253	1470.37
473.625	1459.52
473.997	1469.69
474.369	1506.53
474.74	1530.48
475.112	1520.31
475.484	1538.62
475.855	1576.13
476.227	1585.85
476.598	1650.71
476.97	1645.51
477.341	1686.18
477.713	1677.82
478.084	1715.34
478.455	1738.16
478.827	1755.79
479.198	1776.35
479.569	1802.57
479.94	1825.62
480.311	1870.13
480.682	1919.62
481.053	1909.46
481.424	1924.37
481.795	1968.89
482.166	1993.52
482.537	2013.86
482.908	2041.43
483.279	2084.37
483.65	2080.3
484.021	2158.04
484.391	2172.95
484.762	2206.85
485.133	2210.69
485.503	2230.8
485.874	2274.64
486.244	2324.13
486.615	2339.27
486.985	2383.34
487.356	2405.71
487.726	2411.82
488.097	2436.22
488.467	2465.15
488.837	2506.95
489.207	2551.92
489.578	2548.53
489.948	2535.88
490.318	2628.53
490.688	2614.52
491.058	2682.54
491.428	2707.17
491.798	2729.32
492.168	2776.33
492.538	2782.65
492.908	2810.67
493.278	2811.35
493.648	2857.68
494.017	2868.07
494.387	2914.63
494.757	2957.56
495.126	2982.2
495.496	2949.2
495.866	2978.13
496.235	3048.41
496.605	3071.23
496.974	3108.29
497.344	3124.34
497.713	3122.3
498.082	3179.93
498.452	3171.12
498.821	3177.22
499.19	3200.49
499.559	3249.99
499.928	3272.58
500.298	3258.35
500.667	3329.98
501.036	3320.49
501.405	3329.76
501.774	3369.76
502.143	3398.68
502.512	3437.78
502.88	3414.5
503.249	3436.42
503.618	3488.85
503.987	3443.65
504.356	3459.47
504.724	3535.63
505.093	3518.45
505.462	3555.06
505.83	3619.24
506.199	3619.47
506.567	3660.14
506.936	3621.27
507.304	3713.48
507.672	3739.69
508.041	3733.14
508.409	3833.47
508.777	3791.89
509.145	3828.95
509.514	3820.82
509.882	3897.65
510.25	3852
510.618	3893.58
510.986	3931.55
511.354	3957.99
511.722	4011.55
512.09	4040.7
512.458	4008.84
512.826	4094.93
513.193	4047.03
513.561	4113.47
513.929	4152.56
514.297	4168.15
514.664	4189.85
515.032	4226.91
515.4	4294.93
515.767	4304.42
516.135	4273.01
516.502	4311.43
516.869	4390.52
517.237	4396.62
517.604	4371.76
517.972	4438.65
518.339	4489.27
518.706	4480.24
519.073	4542.15
519.44	4565.88
519.808	4619.89
520.175	4613.79
520.542	4644.52
520.909	4707.8
521.276	4719.78
521.643	4775.14
522.009	4816.27
522.376	4875.25
522.743	4886.1
523.11	4892.2
523.477	5013.33
523.843	4994.35
524.21	5058.3
524.577	5079.77
524.943	5144.4
525.31	5141.23
525.676	5206.32
526.043	5267.79
526.409	5229.14
526.776	5320.89
527.142	5355.24
527.508	5406.54
527.874	5406.31
528.241	5506.87
528.607	5456.03
528.973	5507.33
529.339	5588.68
529.705	5580.77
530.071	5626.42
530.437	5666.64
530.803	5727.89
531.169	5716.81
531.535	5754.55
531.901	5796.58
532.267	5863.93
532.632	5908.9
532.998	5896.7
533.364	5970.14
533.73	5947.77
534.095	6075.67
534.461	6041.1
534.826	6117.48
535.192	6139.17
535.557	6225.05
535.923	6184.15
536.288	6236.35
536.653	6291.94
537.019	6247.65
537.384	6331.94
537.749	6333.29
538.114	6456
538.479	6435.21
538.845	6456.45
539.21	6431.82
539.575	6477.24
539.94	6544.36
540.305	6568.54
540.67	6574.42
541.034	6680.63
541.399	6728.31
541.764	6739.16
542.129	6776.67
542.494	6768.08
542.858	6815.77
543.223	6790.46
543.587	6882.88
543.952	6889.89
544.316	6963.33
544.681	6956.1
545.045	7062.54
545.41	7126.27
545.774	7114.52
546.138	7138.7
546.503	7180.5
546.867	7178.24
547.231	7338.69
547.595	7299.14
547.959	7317.9
548.324	7425.47
548.688	7405.36
549.052	7450.33
549.416	7476.54
549.779	7573.26
550.143	7572.36
550.507	7685.12
550.871	7721.51
551.235	7745.91
551.599	7844.67
551.962	7877.21
552.326	7916.76
552.689	7967.6
553.053	8023.19
553.417	8018.45
553.78	8206.47
554.143	8174.38
554.507	8211.66
554.87	8283.07
555.234	8440.58
555.597	8363.75
555.96	8496.4
556.323	8534.37
556.686	8543.41
557.05	8657.75
557.413	8753.57
557.776	8736.62
558.139	8847.58
558.502	8949.5
558.865	8977.74
559.228	9110.62
559.59	9169.38
559.953	9195.82
560.316	9328.02
560.679	9415.7
561.041	9448.24
561.404	9565.75
561.767	9587.67
562.129	9697.95
562.492	9840.77
562.854	9823.6
563.217	9964.38
563.579	10017.04
563.941	10073.76
564.304	10151.72
564.666	10230.37
565.028	10372.06
565.39	10393.75
565.753	10451.38
566.115	10570.92
566.477	10680.98
566.839	10802.55
567.201	10812.27
567.563	10914.19
567.925	11057.46
568.287	11143.56
568.648	11209.1
569.01	11265.82
569.372	11379.94
569.734	11390.11
570.095	11555.53
570.457	11715.98
570.819	11738.35
571.18	11714.62
571.542	11958.91
571.903	11964.56
572.265	12100.15
572.626	12226.02
572.987	12266.25
573.349	12350.99
573.71	12415.85
574.071	12441.61
574.432	12614.48
574.794	12791.88
575.155	12822.16
575.516	12849.28
575.877	12926.57
576.238	12983.97
576.599	13095.83
576.96	13187.8
577.32	13249.72
577.681	13298.31
578.042	13431.86
578.403	13485.42
578.763	13557.74
579.124	13615.36
579.485	13695.59
579.845	13835.7
580.206	13845.41
580.566	13868.46
580.927	13938.74
581.287	14072.3
581.648	14080.89
582.008	14214.22
582.368	14295.57
582.728	14338.96
583.089	14300.54
583.449	14389.35
583.809	14509.8
584.169	14454.66
584.529	14552.06
584.889	14737.59
585.249	14662.11
585.609	14655.33
585.969	14752.06
586.329	14752.28
586.688	14923.8
587.048	14935.1
587.408	14902.11
587.768	14985.27
588.127	15031.37
588.487	15091.26
588.846	15165.6
589.206	15143.46
589.565	15155.66
589.925	15247.64
590.284	15268.2
590.643	15398.37
591.003	15342.77
591.362	15544.58
591.721	15474.3
592.08	15505.48
592.44	15642.43
592.799	15626.61
593.158	15642.88
593.517	15665.25
593.876	15744.57
594.235	15789.54
594.593	15797.9
594.952	15873.83
595.311	15810.33
595.67	15919.93
596.029	16029.31
596.387	16100.49
596.746	16244.9
597.104	16096.65
597.463	16100.49
597.822	16155.63
598.18	16209.64
598.538	16258.91
598.897	16345.01
599.255	16296.65
599.613	16530.09
599.972	16429.3
600.33	16462.07
600.688	16382.75
601.046	16649.41
601.404	16610.76
601.762	16641.27
602.12	16691.67
602.478	16709.74
602.836	16719.91
603.194	16718.56
603.552	16826.58
603.91	16721.72
604.268	16907.48
604.625	16856.86
604.983	16982.51
605.341	16913.81
605.698	17005.78
606.056	17016.4
606.413	17122.39
606.771	17070.19
607.128	17135.5
607.485	17090.53
607.843	17186.57
608.2	17293.46
608.557	17293.01
608.914	17184.53
609.272	17324.19
609.629	17358.54
609.986	17459.1
610.343	17490.51
610.7	17521.25
611.057	17509.27
611.414	17553.56
611.771	17596.27
612.127	17714.69
612.484	17619.32
612.841	17697.06
613.198	17633.79
613.554	17680.57
613.911	17763.05
614.267	17797.63
614.624	17798.53
614.98	17905.19
615.337	17982.03
615.693	17887.57
616.05	18010.95
616.406	18056.38
616.762	17972.99
617.118	17998.98
617.475	18058.64
617.831	18093.66
618.187	18145.86
618.543	18145.86
618.899	18291.4
619.255	18195.81
619.611	18187.45
619.967	18306.54
620.323	18386.99
620.678	18229.03
621.034	18244.39
621.39	18206.65
621.746	18340.66
622.101	18453.88
622.457	18236.26
622.812	18317.39
623.168	18343.37
623.523	18415.24
623.879	18387.21
624.234	18321.45
624.589	18471.28
624.945	18473.31
625.3	18451.39
625.655	18441.45
626.01	18436.93
626.365	18521
626.72	18391.51
627.075	18406.42
627.43	18522.8
627.785	18434.44
628.14	18554.44
628.495	18490.26
628.85	18462.92
629.205	18370.49
629.559	18544.95
629.914	18344.96
630.269	18484.16
630.623	18477.38
630.978	18404.61
631.332	18516.93
631.687	18509.02
632.041	18395.58
632.396	18495.23
632.75	18290.72
633.104	18355.35
633.459	18370.94
633.813	18348.57
634.167	18377.27
634.521	18297.5
634.875	18361.23
635.229	18261.12
635.583	18157.62
635.937	18202.13
636.291	18177.5
636.645	18150.84
636.999	18236.26
637.352	18251.17
637.706	18167.56
638.06	18152.42
638.413	18170.04
638.767	18139.99
639.121	18235.58
639.474	17979.99
639.828	18099.31
640.181	18098.41
640.534	18082.59
640.888	18001.24
641.241	17981.35
641.594	18075.81
641.947	18051.63
642.301	17937.73
642.654	17972.31
643.007	17957.85
643.36	17949.03
643.713	17909.94
644.066	18102.48
644.419	17876.04
644.771	17744.75
645.124	17621.13
645.477	17705.2
645.83	17614.58
646.182	17484.41
646.535	17388.82
646.888	17518.08
647.24	17320.35
647.593	17468.82
647.945	17423.85
648.298	17415.49
648.65	17358.09
649.002	17307.02
649.355	17459.33
649.707	17402.16
650.059	17467.69
650.411	17659.55
650.763	17655.71
651.115	17811.86
651.467	17828.13
651.819	17679.44
652.171	17727.57
652.523	17709.94
652.875	17782.48
653.227	17653.22
653.578	17788.81
653.93	17551.3
654.282	17665.43
654.633	17512.89
654.985	17615.26
655.337	17608.03
655.688	17724.41
656.039	17756.5
656.391	17486
656.742	17658.42
657.094	17629.27
657.445	17743.39
657.796	17704.07
658.147	17721.47
658.498	17600.34
658.849	17728.02
659.2	17657.29
659.551	17571.64
659.902	17662.94
660.253	17637.18
660.604	17609.83
660.955	17591.98
661.306	17704.52
661.656	17615.48
662.007	17703.39
662.358	17635.82
662.708	17572.09
663.059	17656.84
663.409	17552.43
663.76	17676.5
664.11	17673.56
664.461	17693.9
664.811	17661.58
665.161	17708.59
665.511	17526.22
665.862	17665.43
666.212	17719.44
666.562	17792.43
666.912	17645.99
667.262	17663.84
667.612	17696.61
667.962	17685.99
668.312	17658.42
668.662	17799.21
669.011	17716.05
669.361	17687.8
669.711	17671.98
670.06	17698.87
670.41	17773.45
670.76	17658.65
671.109	17728.93
671.459	17706.55
671.808	17705.2
672.157	17795.59
672.507	17693.45
672.856	17571.64
673.205	17696.16
673.554	17751.07
673.904	17700.23
674.253	17740
674.602	17707.46
674.951	17410.06
675.3	17402.83
675.649	17717.18
675.998	17676.27
676.346	17731.86
676.695	17758.3
677.044	17611.19
677.393	17659.78
677.741	17785.65
678.09	17638.08
678.438	17652.54
678.787	17709.94
679.135	17706.1
679.484	17660.91
679.832	17744.75
680.181	17549.27
680.529	17670.62
680.877	17613
681.225	17578.87
681.573	17712.66
681.922	17509.05
682.27	17566.22
682.618	17610.74
682.966	17544.3
683.314	17742.94
683.661	17528.93
684.009	17507.24
684.357	17403.74
684.705	17448.48
685.053	17468.59
685.4	17460.46
685.748	17367.81
686.095	17445.32
686.443	17312.67
686.79	17280.12
687.138	17321.25
687.485	17307.02
687.832	17406
688.18	17376.85
688.527	17235.83
688.874	17288.26
689.221	17236.06
689.568	17213.91
689.915	17232.44
690.262	17158.09
690.609	17171.88
690.956	17154.25
691.303	17075.61
691.65	17000.58
691.997	17052.79
692.344	16991.54
692.69	16900.47
693.037	16984.09
693.383	16742.29
693.73	16959.23
694.077	16826.13
694.423	16792.68
694.769	16752.23
695.116	16654.15
695.462	16747.26
695.808	16675.17
696.155	16705.22
696.501	16671.33
696.847	16693.47
697.193	16520.37
697.539	16613.48
697.885	16431.33
698.231	16404.44
698.577	16466.36
698.923	16465.23
699.269	16353.82
699.614	16316.08
699.96	16274.73
700.306	16284.9
700.651	16129.65
700.997	16323.31
701.342	16128.29
701.688	16179.14
702.033	16119.93
702.379	16154.05
702.724	16175.07
703.069	16125.8
703.415	16057.56
703.76	16066.82
704.105	16056.43
704.45	16030.89
704.795	15934.4
705.14	15880.61
705.485	15884.23
705.83	15866.38
706.175	15869.09
706.52	15802.88
706.865	15676.33
707.209	15840.16
707.554	15715.42
707.899	15771.92
708.243	15659.38
708.588	15603.33
708.932	15602.88
709.277	15615.08
709.621	15732.82
709.966	15562.88
710.31	15609.89
710.654	15499.61
710.998	15545.03
711.342	15510.23
711.687	15572.6
712.031	15447.63
712.375	15426.39
712.719	15452.15
713.063	15400.85
713.407	15479.04
713.75	15420.74
714.094	15390.68
714.438	15227.75
714.782	15382.55
715.125	15266.62
715.469	15391.36
715.812	15206.73
716.156	15131.71
716.499	15174.19
716.843	15285.83
717.186	15136
717.53	15274.3
717.873	15240.86
718.216	15102.33
718.559	15097.13
718.902	15057.36
719.246	15121.99
719.589	15081.76
719.932	14962.45
720.275	14934.42
720.617	15061.43
720.96	15016.23
721.303	14942.56
721.646	14962.9
721.989	14866.4
722.331	14913.63
722.674	14924.93
723.016	14862.79
723.359	14865.05
723.701	14848.55
724.044	14791.6
724.386	14742.56
724.729	14780.3
725.071	14786.18
725.413	14832.73
725.755	14791.15
726.097	14753.41
726.439	14733.98
726.782	14650.14
727.124	14748.89
727.465	14739.85
727.807	14730.81
728.149	14689.23
728.491	14591.16
728.833	14671.15
729.175	14614.66
729.516	14484.27
729.858	14521.55
730.199	14624.6
730.541	14621.89
730.882	14561.55
731.224	14534.21
731.565	14487.88
731.906	14493.98
732.248	14584.38
732.589	14567.2
732.93	14412.86
733.271	14463.7
733.612	14428.67
733.953	14515.45
734.294	14413.53
734.635	14397.71
734.976	14415.79
735.317	14431.39
735.658	14324.95
735.999	14375.12
736.339	14377.83
736.68	14389.13
737.021	14334.67
737.361	14341.22
737.702	14346.64
738.042	14310.26
738.383	14286.76
738.723	14281.11
739.063	14250.6
739.404	14322.01
739.744	14211.05
740.084	14205.4
740.424	14150.72
740.764	14113.88
741.104	14238.4
741.444	14144.61
741.784	14101.23
742.124	14116.82
742.464	14073.43
742.804	13960.89
743.143	13950.72
743.483	14079.53
743.823	13906.65
744.162	13993.66
744.502	13993.43
744.841	13877.95
745.181	14014.45
745.52	13935.81
745.86	13889.48
746.199	13865.3
746.538	13818.29
746.877	13829.14
747.216	13757.28
747.556	13789.37
747.895	13847.22
748.234	13741.01
748.573	13726.55
748.911	13738.97
749.25	13706.66
749.589	13680.45
749.928	13710.5
750.267	13677.96
750.605	13635.93
750.944	13537.4
751.283	13552.99
751.621	13598.64
751.96	13338.99
752.298	13518.87
752.636	13427.8
752.975	13430.73
753.313	13401.81
753.651	13444.97
753.989	13352.32
754.327	13300.57
754.666	13196.84
755.004	13242.49
755.342	13351.41
755.679	13171.08
756.017	13101.93
756.355	13164.98
756.693	13110.52
757.031	13125.88
757.368	12967.24
757.706	13103.06
758.044	12882.05
758.381	12995.72
758.719	12918.66
759.056	12924.99
759.394	12884.08
759.731	12812.45
760.068	12769.73
