Data from brown_tile_FLMS001491_028.txt Node
Date: Tue Feb 07 10:37:18 GMT 2017
User: dcchb
Spectrometer: FLMS00149
Trigger mode: 0
Integration Time (sec): 2.000000E-2
Scans to average: 10
Electric dark correction enabled: true
Nonlinearity correction enabled: false
Boxcar width: 0
XAxis mode: Wavelengths
Number of Pixels in Spectrum: 2048
>>>>>Begin Spectral Data<<<<<
341.393	-2.34
341.776	-2.34
342.16	-2.34
342.543	-70.59
342.927	-71.27
343.31	-51.83
343.693	-61.33
344.077	-60.42
344.46	-55.45
344.843	-47.77
345.226	-29.01
345.61	-45.28
345.993	-10.25
346.376	-14.1
346.759	-7.77
347.142	27.03
347.525	47.15
347.908	45.34
348.291	67.71
348.674	82.17
349.057	113.81
349.44	108.39
349.823	130.99
350.206	153.13
350.588	177.76
350.971	176.41
351.354	200.81
351.737	228.16
352.119	238.1
352.502	250.53
352.884	258.67
353.267	263.64
353.65	268.83
354.032	278.33
354.414	276.74
354.797	309.29
355.179	309.29
355.562	320.81
355.944	323.52
356.326	308.61
356.709	320.58
357.091	316.74
357.473	337.08
357.855	322.39
358.238	310.64
358.62	334.6
359.002	327.14
359.384	328.95
359.766	319.45
360.148	333.47
360.53	325.78
360.912	310.64
361.294	318.1
361.676	313.13
362.057	335.27
362.439	324.88
362.821	316.52
363.203	312.22
363.584	309.96
363.966	300.92
364.348	297.31
364.729	301.38
365.111	299.57
365.493	298.89
365.874	302.51
366.256	292.56
366.637	289.63
367.019	303.64
367.4	295.5
367.781	295.05
368.163	309.96
368.544	279
368.925	276.29
369.306	298.66
369.688	302.05
370.069	308.83
370.45	293.24
370.831	293.47
371.212	302.28
371.593	305.22
371.974	271.77
372.355	295.95
372.736	297.08
373.117	314.71
373.498	289.4
373.879	287.37
374.26	321.26
374.641	292.79
375.021	304.54
375.402	307.25
375.783	307.7
376.163	312.9
376.544	304.77
376.925	308.61
377.305	322.17
377.686	316.07
378.066	304.77
378.447	316.07
378.827	315.61
379.208	309.29
379.588	331.66
379.968	299.12
380.349	311.55
380.729	318.78
381.109	328.72
381.489	285.78
381.87	310.87
382.25	305.44
382.63	306.35
383.01	315.39
383.39	337.31
383.77	324.65
384.15	324.65
384.53	324.88
384.91	324.88
385.29	337.31
385.67	318.55
386.049	311.55
386.429	317.2
386.809	352.45
387.189	321.04
387.568	346.8
387.948	326.69
388.328	328.95
388.707	332.34
389.087	328.49
389.466	344.76
389.846	344.54
390.225	327.59
390.605	327.14
390.984	346.57
391.363	345.89
391.743	329.85
392.122	334.82
392.501	341.15
392.881	336.63
393.26	355.61
393.639	354.93
394.018	358.1
394.397	349.74
394.776	354.71
395.155	356.74
395.534	344.09
395.913	339.79
396.292	348.15
396.671	355.16
397.05	355.39
397.429	353.58
397.808	354.03
398.186	356.29
398.565	374.37
398.944	372.56
399.323	372.79
399.701	368.72
400.08	385.22
400.458	372.56
400.837	368.72
401.215	365.78
401.594	368.95
401.972	376.85
402.351	373.24
402.729	371.66
403.107	409.85
403.486	385.22
403.864	403.52
404.242	401.49
404.62	377.98
404.999	396.74
405.377	385.89
405.755	389.74
406.133	399.9
406.511	390.19
406.889	380.7
407.267	393.8
407.645	386.8
408.023	399
408.401	376.18
408.779	411.2
409.156	396.06
409.534	405.1
409.912	409.17
410.29	423.18
410.667	409.4
411.045	424.99
411.422	410.07
411.8	415.72
412.178	433.35
412.555	409.85
412.933	434.93
413.31	428.15
413.687	414.37
414.065	424.54
414.442	452.11
414.819	427.02
415.197	456.63
415.574	434.71
415.951	431.09
416.328	463.18
416.705	461.15
417.082	436.74
417.46	447.36
417.837	453.46
418.214	444.65
418.591	441.26
418.967	461.37
419.344	470.19
419.721	471.99
420.098	488.26
420.475	464.99
420.852	477.64
421.228	490.3
421.605	479.45
421.982	492.33
422.358	487.36
422.735	491.43
423.111	479.22
423.488	493.69
423.864	493.91
424.241	482.84
424.617	492.56
424.994	501.15
425.37	518.77
425.746	500.92
426.123	503.63
426.499	524.65
426.875	525.55
427.251	494.82
427.627	514.7
428.003	548.83
428.379	496.63
428.756	532.78
429.132	530.52
429.507	536.85
429.883	539.34
430.259	553.12
430.635	553.57
431.011	562.16
431.387	547.02
431.763	570.97
432.138	576.62
432.514	561.03
432.89	554.48
433.265	590.86
433.641	570.75
434.016	588.83
434.392	580.24
434.767	589.05
435.143	608.26
435.518	601.03
435.894	621.59
436.269	621.37
436.644	615.27
437.02	584.53
437.395	627.7
437.77	639.22
438.145	648.94
438.52	643.74
438.895	635.6
439.271	651.2
439.646	657.07
440.021	643.51
440.395	658.2
440.77	642.84
441.145	664.3
441.52	648.03
441.895	658.88
442.27	671.31
442.645	667.02
443.019	673.8
443.394	678.99
443.769	663.63
444.143	705.21
444.518	687.58
444.892	665.21
445.267	678.09
445.641	705.66
446.016	680.35
446.39	676.96
446.764	684.19
447.139	711.08
447.513	698.88
447.887	702.72
448.262	719.44
448.636	702.72
449.01	732.1
449.384	740.91
449.758	726.22
450.132	737.52
450.506	723.96
450.88	734.13
451.254	741.36
451.628	722.83
452.002	743.85
452.376	755.6
452.75	759.9
453.123	761.93
453.497	765.32
453.871	803.74
454.244	802.61
454.618	791.76
454.992	800.8
455.365	794.7
455.739	813.45
456.112	821.36
456.486	830.18
456.859	802.15
457.232	840.35
457.606	845.54
457.979	842.6
458.352	876.05
458.725	888.03
459.099	869.5
459.472	889.38
459.845	880.8
460.218	876.28
460.591	877.63
460.964	901.81
461.337	929.83
461.71	922.38
462.083	918.08
462.456	926.67
462.829	925.99
463.201	935.94
463.574	966.22
463.947	962.38
464.32	966.67
464.692	989.72
465.065	1006.67
465.438	1005.76
465.81	1014.35
466.183	1014.13
466.555	1022.94
466.928	1012.09
467.3	1051.64
467.672	1046.22
468.045	1104.74
468.417	1084.86
468.789	1057.74
469.161	1098.64
469.534	1112.65
469.906	1160.79
470.278	1137.29
470.65	1131.86
471.022	1149.04
471.394	1204.86
471.766	1189.04
472.138	1214.8
472.51	1205.08
472.882	1200.56
473.253	1243.95
473.625	1271.29
473.997	1284.4
474.369	1287.57
474.74	1296.83
475.112	1314.46
475.484	1335.25
475.855	1335.47
476.227	1332.54
476.598	1393.32
476.97	1404.62
477.341	1408.24
477.713	1429.03
478.084	1466.32
478.455	1471.97
478.827	1506.77
479.198	1543.15
479.569	1498.63
479.94	1553.77
480.311	1577.27
480.682	1584.05
481.053	1614.34
481.424	1635.13
481.795	1655.92
482.166	1679.42
482.537	1702.02
482.908	1713.32
483.279	1753.09
483.65	1765.74
484.021	1792.86
484.391	1811.17
484.762	1826.31
485.133	1862.69
485.503	1868.79
485.874	1880.32
486.244	1937.04
486.615	1972.07
486.985	1990.6
487.356	2023.14
487.726	2001.44
488.097	2052.52
488.467	2086.19
488.837	2074.66
489.207	2137.94
489.578	2154.21
489.948	2152.85
490.318	2205.73
490.688	2177.26
491.058	2252.74
491.428	2250.93
491.798	2263.13
492.168	2329.57
492.538	2328.44
492.908	2341.32
493.278	2414.77
493.648	2404.37
494.017	2409.34
494.387	2417.93
494.757	2463.58
495.126	2490.92
495.496	2489.79
495.866	2472.84
496.235	2539.28
496.605	2608.66
496.974	2562.33
497.344	2584.93
497.713	2592.84
498.082	2601.65
498.452	2650.92
498.821	2665.38
499.19	2691.14
499.559	2691.6
499.928	2718.26
500.298	2720.07
500.667	2751.48
501.036	2781.99
501.405	2786.28
501.774	2804.14
502.143	2807.98
502.512	2822.67
502.88	2867.86
503.249	2878.48
503.618	2872.83
503.987	2892.95
504.356	2891.82
504.724	2943.79
505.093	2917.58
505.462	2938.82
505.83	2978.14
506.199	3016.11
506.567	3048.65
506.936	3035.32
507.304	3059.95
507.672	3112.38
508.041	3136.33
508.409	3116.44
508.777	3160.96
509.145	3167.06
509.514	3190.34
509.882	3187.63
510.25	3239.15
510.618	3265.37
510.986	3255.65
511.354	3278.25
511.722	3325.7
512.09	3351.24
512.458	3356.66
512.826	3385.36
513.193	3421.75
513.561	3400.73
513.929	3467.17
514.297	3487.06
514.664	3510.56
515.032	3495.42
515.4	3541.74
515.767	3535.87
516.135	3589.88
516.502	3606.83
516.869	3644.57
517.237	3643.89
517.604	3654.51
517.972	3708.97
518.339	3759.36
518.706	3744.22
519.073	3753.04
519.44	3803.21
519.808	3849.76
520.175	3836.2
520.542	3869.64
520.909	3905.58
521.276	3930.43
521.643	3969.53
522.009	4005.46
522.376	4002.52
522.743	4035.74
523.11	4107.38
523.477	4125.68
523.843	4158.22
524.21	4204.32
524.577	4221.05
524.943	4260.59
525.31	4310.31
525.676	4323.42
526.043	4331.1
526.409	4372.68
526.776	4441.38
527.142	4461.72
527.508	4483.64
527.874	4497.88
528.241	4538.78
528.607	4551.43
528.973	4569.29
529.339	4627.14
529.705	4663.97
530.071	4736.29
530.437	4734.71
530.803	4787.59
531.169	4755.04
531.535	4823.29
531.901	4839.79
532.267	4882.05
532.632	4875.49
532.998	4941.71
533.364	4968.37
533.73	4991.42
534.095	5019.22
534.461	5029.16
534.826	5075.71
535.192	5136.73
535.557	5174.47
535.923	5152.1
536.288	5150.51
536.653	5234.35
537.019	5222.6
537.384	5287.91
537.749	5305.76
538.114	5330.85
538.479	5334.69
538.845	5385.08
539.21	5399.55
539.575	5405.2
539.94	5482.26
540.305	5479.32
540.67	5490.84
541.034	5550.05
541.399	5589.6
541.764	5588.92
542.129	5655.81
542.494	5608.81
542.858	5697.84
543.223	5711.63
543.587	5750.72
543.952	5740.1
544.316	5884.96
544.681	5886.31
545.045	5845.41
545.41	5920.89
545.774	5909.59
546.138	5963.15
546.503	6001.57
546.867	6002.92
547.231	6108
547.595	6111.62
547.959	6113.43
548.324	6207.21
548.688	6174.22
549.052	6276.13
549.416	6322.23
549.779	6310.94
550.143	6286.53
550.507	6433.64
550.871	6465.51
551.235	6446.3
551.599	6556.8
551.962	6565.17
552.326	6638.84
552.689	6688.33
553.053	6681.55
553.417	6741.88
553.78	6825.05
554.143	6882.45
554.507	6915.44
554.87	6891.49
555.234	6996.79
555.597	7028.43
555.96	7073.18
556.323	7157.24
556.686	7183
557.05	7274.07
557.413	7337.12
557.776	7427.06
558.139	7424.13
558.502	7521.98
558.865	7552.03
559.228	7681.97
559.59	7720.39
559.953	7726.27
560.316	7910.44
560.679	7926.26
561.041	7985.24
561.404	8017.56
561.767	8168.74
562.129	8196.31
562.492	8240.83
562.854	8309.08
563.217	8385.91
563.579	8460.48
563.941	8504.32
564.304	8566.24
564.666	8667.94
565.028	8732.79
565.39	8808.5
565.753	8934.6
566.115	8917.87
566.477	8993.35
566.839	9127.81
567.201	9191.09
567.563	9162.39
567.925	9377.75
568.287	9451.42
568.648	9449.61
569.01	9601.24
569.372	9716.5
569.734	9691.86
570.095	9865.19
570.457	9953.78
570.819	9973.44
571.18	10130.27
571.542	10139.54
571.903	10138.18
572.265	10250.27
572.626	10322.13
572.987	10441.67
573.349	10524.61
573.71	10598.73
574.071	10663.14
574.432	10756.47
574.794	10847.99
575.155	10926.18
575.516	10937.71
575.877	11060.64
576.238	11107.19
576.599	11245.72
576.96	11247.53
577.32	11283.23
577.681	11370.69
578.042	11476.9
578.403	11578.59
578.763	11530.69
579.124	11627.18
579.485	11730
579.845	11844.12
580.206	11818.81
580.566	11881.41
580.927	11977.91
581.287	12039.15
581.648	12079.37
582.008	12230.78
582.368	12158.47
582.728	12226.03
583.089	12272.36
583.449	12300.38
583.809	12379.7
584.169	12433.94
584.529	12423.54
584.889	12616.98
585.249	12587.15
585.609	12557.78
585.969	12748.96
586.329	12751.22
586.688	12814.27
587.048	12762.07
587.408	12849.07
587.768	12767.04
588.127	12870.31
588.487	12956.18
588.846	13022.62
589.206	12955.51
589.565	13097.2
589.925	13138.55
590.284	13118.44
590.643	13204.99
591.003	13361.15
591.362	13371.09
591.721	13419.9
592.08	13468.49
592.44	13428.71
592.799	13488.15
593.158	13523.4
593.517	13504.87
593.876	13606.56
594.235	13624.19
594.593	13613.12
594.952	13634.13
595.311	13704.87
595.67	13731.53
596.029	13920
596.387	13882.26
596.746	13952.54
597.104	13843.62
597.463	13906.67
597.822	14042.03
598.18	13976.04
598.538	13987.8
598.897	14118.41
599.255	14060.79
599.613	14197.51
599.972	14139.2
600.33	14222.37
600.688	14233.44
601.046	14210.62
601.404	14349.82
601.762	14330.61
602.12	14410.16
602.478	14407.22
602.836	14510.49
603.194	14372.42
603.552	14542.13
603.91	14438.41
604.268	14579.87
604.625	14561.11
604.983	14679.08
605.341	14638.4
605.698	14658.74
606.056	14705.74
606.413	14742.13
606.771	14816.02
607.128	14827.1
607.485	14785.29
607.843	14817.83
608.2	14977.6
608.557	14952.29
608.914	14936.25
609.272	15081.78
609.629	14991.39
609.986	15025.51
610.343	15066.41
610.7	15211.94
611.057	15120.42
611.414	15207.2
611.771	15202.23
612.127	15287.42
612.484	15308.21
612.841	15408.78
613.198	15307.54
613.554	15327.65
613.911	15417.14
614.267	15451.26
614.624	15403.58
614.98	15330.59
615.337	15469.34
615.693	15468.66
616.05	15357.93
616.406	15623.01
616.762	15527.42
617.118	15572.39
617.475	15637.02
617.831	15676.34
618.187	15683.8
618.543	15687.86
618.899	15814.87
619.255	15785.26
619.611	15802.44
619.967	15820.52
620.323	15865.71
620.678	15800.4
621.034	15806.96
621.39	15799.5
621.746	15864.36
622.101	15950.91
622.457	15834.3
622.812	15904.58
623.168	15911.14
623.523	15955.88
623.879	16036.1
624.234	15870.01
624.589	15981.19
624.945	15971.47
625.3	16006.05
625.655	16023
626.01	15993.62
626.365	16037.46
626.72	16013.51
627.075	15994.97
627.43	16030.68
627.785	15956.11
628.14	16077.46
628.495	15940.29
628.85	16001.08
629.205	16002.66
629.559	15989.55
629.914	16003.56
630.269	16022.77
630.623	16070.23
630.978	16051.24
631.332	16077.01
631.687	15994.3
632.041	15982.09
632.396	16033.62
632.75	15975.77
633.104	15933.73
633.459	15944.81
633.813	15904.81
634.167	15940.29
634.521	15880.85
634.875	16027.29
635.229	15951.81
635.583	15804.47
635.937	15868.42
636.291	15848.76
636.645	15793.4
636.999	15757.24
637.352	15945.48
637.706	15729.22
638.06	15814.19
638.413	15847.18
638.767	15765.38
639.121	15810.35
639.474	15734.42
639.828	15654.87
640.181	15758.82
640.534	15780.07
640.888	15725.83
641.241	15630.69
641.594	15673.4
641.947	15673.63
642.301	15696.68
642.654	15613.74
643.007	15616.68
643.36	15611.03
643.713	15612.61
644.066	15706.85
644.419	15577.81
644.771	15521.54
645.124	15338.49
645.477	15369.23
645.83	15251.27
646.182	15166.07
646.535	15105.28
646.888	15208.55
647.24	15121.33
647.593	15244.26
647.945	15161.78
648.298	15167.65
648.65	15074.1
649.002	15094.66
649.355	15112.06
649.707	15050.37
650.059	15201.1
650.411	15329.46
650.763	15357.48
651.115	15538.49
651.467	15480.64
651.819	15448.55
652.171	15540.75
652.523	15395.67
652.875	15429.79
653.227	15291.72
653.578	15501.2
653.93	15423.24
654.282	15362.9
654.633	15369
654.985	15351.15
655.337	15390.25
655.688	15472.95
656.039	15430.47
656.391	15290.36
656.742	15334.2
657.094	15408.55
657.445	15468.44
657.796	15412.39
658.147	15370.58
658.498	15358.16
658.849	15325.16
659.2	15387.53
659.551	15277.71
659.902	15392.73
660.253	15273.86
660.604	15394.31
660.955	15297.82
661.306	15419.62
661.656	15368.55
662.007	15350.02
662.358	15318.38
662.708	15361.32
663.059	15330.59
663.409	15237.25
663.76	15447.64
664.11	15361.09
664.461	15455.1
664.811	15435.89
665.161	15449.68
665.511	15355.22
665.862	15445.16
666.212	15519.73
666.562	15427.53
666.912	15406.06
667.262	15432.5
667.612	15390.7
667.962	15481.99
668.312	15418.94
668.662	15395.44
669.011	15434.54
669.361	15347.99
669.711	15451.26
670.06	15379.17
670.41	15335.78
670.76	15346.18
671.109	15449.45
671.459	15431.15
671.808	15379.85
672.157	15421.2
672.507	15371.04
672.856	15390.47
673.205	15392.73
673.554	15434.54
673.904	15444.71
674.253	15471.82
674.602	15436.35
674.951	15245.84
675.3	15205.39
675.649	15405.39
675.998	15440.64
676.346	15491.49
676.695	15427.08
677.044	15404.93
677.393	15407.42
677.741	15364.93
678.09	15372.39
678.438	15374.43
678.787	15433.63
679.135	15393.18
679.484	15337.37
679.832	15401.54
680.181	15399.96
680.529	15415.1
680.877	15234.54
681.225	15343.24
681.573	15360.19
681.922	15358.38
682.27	15351.15
682.618	15352.51
682.966	15318.83
683.314	15305.73
683.661	15273.86
684.009	15218.72
684.357	15192.06
684.705	15213.75
685.053	15204.71
685.4	15267.76
685.748	15126.52
686.095	15195.67
686.443	15163.13
686.79	15203.81
687.138	15228.67
687.485	15176.69
687.832	15071.38
688.18	15128.33
688.527	15063.02
688.874	15064.83
689.221	15146.18
689.568	15065.51
689.915	15011.05
690.262	14966.53
690.609	15001.1
690.956	14918.39
691.303	14999.52
691.65	14915.68
691.997	14888.11
692.344	14748.23
692.69	14801.11
693.037	14808.57
693.383	14703.03
693.73	14769.02
694.077	14768.79
694.423	14745.52
694.769	14785.29
695.116	14709.81
695.462	14660.09
695.808	14651.06
696.155	14636.37
696.501	14552.75
696.847	14554.11
697.193	14483.6
697.539	14605.86
697.885	14436.6
698.231	14339.88
698.577	14449.93
698.923	14425.07
699.269	14375.81
699.614	14272.76
699.96	14272.31
700.306	14315.47
700.651	14279.54
700.997	14151.18
701.342	14164.29
701.688	14228.92
702.033	14148.47
702.379	14191.86
702.724	14136.94
703.069	14188.69
703.415	14091.97
703.76	14082.71
704.105	14079.55
704.45	14050.62
704.795	13981.69
705.14	13965.65
705.485	14017.4
705.83	13952.32
706.175	13938.31
706.52	13868.93
706.865	13872.09
707.209	13836.61
707.554	13871.41
707.899	13914.13
708.243	13870.96
708.588	13770.17
708.932	13760.91
709.277	13748.48
709.621	13819.89
709.966	13751.19
710.31	13698.54
710.654	13588.03
710.998	13627.81
711.342	13644.08
711.687	13619.9
712.031	13527.24
712.375	13571.08
712.719	13569.05
713.063	13587.35
713.407	13614.25
713.75	13506
714.094	13539.9
714.438	13492.44
714.782	13519.33
715.125	13454.48
715.469	13405.44
715.812	13438.88
716.156	13402.73
716.499	13310.53
716.843	13362.5
717.186	13400.01
717.53	13324.76
717.873	13404.76
718.216	13313.24
718.559	13281.15
718.902	13247.48
719.246	13254.71
719.589	13266.46
719.932	13292.67
720.275	13187.37
720.617	13122.06
720.96	13116.86
721.303	13179.23
721.646	13184.88
721.989	13091.55
722.331	13217.19
722.674	13184.88
723.016	13149.85
723.359	13157.31
723.701	13143.52
724.044	13045.67
724.386	12915.51
724.729	13098.1
725.071	13034.15
725.413	13007.93
725.755	13044.32
726.097	13011.55
726.439	13000.03
726.782	12932
727.124	13059.01
727.465	13006.35
727.807	12935.85
728.149	12868.28
728.491	12912.8
728.833	12930.87
729.175	12906.92
729.516	12854.49
729.858	12782.63
730.199	12821.95
730.541	12888.39
730.882	12899.46
731.224	12866.02
731.565	12805.91
731.906	12798.9
732.248	12800.48
732.589	12745.79
732.93	12736.76
733.271	12788.05
733.612	12782.18
733.953	12783.31
734.294	12671.22
734.635	12740.15
734.976	12793.03
735.317	12729.98
735.658	12684.55
735.999	12680.49
736.339	12663.31
736.68	12684.78
737.021	12617.66
737.361	12684.55
737.702	12650.66
738.042	12546.25
738.383	12526.14
738.723	12571.34
739.063	12555.97
739.404	12466.48
739.744	12507.83
740.084	12505.58
740.424	12501.73
740.764	12480.49
741.104	12495.41
741.444	12501.96
741.784	12303.77
742.124	12446.82
742.464	12411.79
742.804	12369.08
743.143	12407.5
743.483	12384.45
743.823	12329.99
744.162	12272.13
744.502	12370.89
744.841	12246.15
745.181	12245.92
745.52	12242.08
745.86	12233.27
746.199	12248.63
746.538	12179.93
746.877	12225.81
747.216	12183.1
747.556	12213.83
747.895	12131.8
748.234	12074.17
748.573	12030.33
748.911	12057.9
749.25	12095.19
749.589	12042.08
749.928	12050.22
750.267	12029.43
750.605	12003.89
750.944	11960.28
751.283	11914.63
751.621	11974.29
751.96	11918.02
752.298	11887.96
752.636	11882.31
752.975	11792.83
753.313	11788.98
753.651	11839.38
753.989	11777.68
754.327	11698.59
754.666	11685.71
755.004	11642.77
755.342	11715.54
755.679	11741.3
756.017	11587.63
756.355	11608.65
756.693	11537.24
757.031	11549.67
757.368	11487.75
757.706	11450.01
758.044	11469.44
758.381	11443
758.719	11374.76
759.056	11298.15
759.394	11364.59
759.731	11215.67
760.068	11193.29
760.405	11113.97
