Data from brown_tile_FLMS001491_020.txt Node
Date: Tue Feb 07 10:37:09 GMT 2017
User: dcchb
Spectrometer: FLMS00149
Trigger mode: 0
Integration Time (sec): 2.000000E-2
Scans to average: 10
Electric dark correction enabled: true
Nonlinearity correction enabled: false
Boxcar width: 0
XAxis mode: Wavelengths
Number of Pixels in Spectrum: 2048
>>>>>Begin Spectral Data<<<<<
341.393	0.88
341.776	0.88
342.16	0.88
342.543	-62.85
342.927	-73.02
343.31	-96.3
343.693	-63.98
344.077	-26.92
344.46	-62.85
344.843	-59.69
345.226	-53.13
345.61	-26.24
345.993	-19.69
346.376	6.98
346.759	5.85
347.142	27.99
347.525	44.72
347.908	51.72
348.291	74.77
348.674	95.56
349.057	101.21
349.44	124.49
349.823	128.33
350.206	151.83
350.588	174.43
350.971	196.35
351.354	211.27
351.737	234.77
352.119	236.35
352.502	244.71
352.884	266.41
353.267	272.96
353.65	293.98
354.032	288.1
354.414	291.49
354.797	273.18
355.179	292.17
355.562	300.08
355.944	305.95
356.326	315.44
356.709	332.17
357.091	310.47
357.473	324.03
357.855	335.56
358.238	321.32
358.62	336.46
359.002	339.4
359.384	327.19
359.766	324.93
360.148	326.74
360.53	319.96
360.912	324.71
361.294	310.25
361.676	305.27
362.057	329.68
362.439	322
362.821	320.19
363.203	317.48
363.584	331.49
363.966	296.69
364.348	312.73
364.729	312.73
365.111	301.21
365.493	301.21
365.874	312.51
366.256	320.42
366.637	288.55
367.019	299.62
367.4	319.06
367.781	297.59
368.163	306.86
368.544	281.77
368.925	302.56
369.306	304.6
369.688	291.49
370.069	317.7
370.45	302.56
370.831	304.82
371.212	297.59
371.593	310.7
371.974	284.03
372.355	297.14
372.736	316.35
373.117	300.08
373.498	305.73
373.879	313.18
374.26	312.28
374.641	284.71
375.021	319.74
375.402	323.13
375.783	330.58
376.163	326.52
376.544	331.49
376.925	317.25
377.305	306.18
377.686	305.27
378.066	305.05
378.447	331.71
378.827	342.11
379.208	318.16
379.588	345.73
379.968	296.24
380.349	303.47
380.729	326.06
381.109	329
381.489	300.98
381.87	305.73
382.25	324.71
382.63	326.52
383.01	359.74
383.39	347.99
383.77	328.32
384.15	341.66
384.53	333.3
384.91	349.34
385.29	362.9
385.67	353.18
386.049	368.1
386.429	350.02
386.809	336.69
387.189	361.09
387.568	346.4
387.948	359.51
388.328	346.63
388.707	357.48
389.087	359.28
389.466	376.91
389.846	359.74
390.225	358.61
390.605	369.23
390.984	351.15
391.363	355.67
391.743	350.25
392.122	370.81
392.501	363.58
392.881	378.27
393.26	354.31
393.639	357.7
394.018	350.47
394.397	355.67
394.776	357.93
395.155	383.69
395.534	359.28
395.913	379.85
396.292	350.25
396.671	371.71
397.05	399.06
397.429	390.47
397.808	373.07
398.186	407.42
398.565	371.94
398.944	382.11
399.323	398.38
399.701	408.55
400.08	370.81
400.458	391.37
400.837	405.84
401.215	400.64
401.594	389.11
401.972	403.35
402.351	389.57
402.729	402.45
403.107	425.27
403.486	399.06
403.864	397.48
404.242	423.46
404.62	420.98
404.999	411.26
405.377	409
405.755	420.07
406.133	411.03
406.511	441.99
406.889	442.22
407.267	416.46
407.645	435.44
408.023	453.97
408.401	429.56
408.779	437.93
409.156	436.8
409.534	427.76
409.912	420.07
410.29	431.15
410.667	441.09
411.045	444.25
411.422	454.65
411.8	478.83
412.178	460.3
412.555	441.77
412.933	465.95
413.31	440.19
413.687	470.69
414.065	457.13
414.442	473.18
414.819	476.12
415.197	477.47
415.574	496
415.951	499.85
416.328	478.83
416.705	486.06
417.082	494.42
417.46	498.26
417.837	497.36
418.214	496.68
418.591	520.64
418.967	532.39
419.344	534.65
419.721	524.48
420.098	517.02
420.475	515.21
420.852	528.32
421.228	529.22
421.605	512.95
421.982	524.93
422.358	535.1
422.735	544.82
423.111	538.04
423.488	547.98
423.864	548.66
424.241	561.31
424.617	565.61
424.994	565.15
425.37	552.95
425.746	569.22
426.123	558.38
426.499	580.07
426.875	571.71
427.251	568.09
427.627	607.19
428.003	594.76
428.379	598.6
428.756	566.51
429.132	609.22
429.507	613.97
429.883	617.58
430.259	622.78
430.635	617.58
431.011	630.92
431.387	620.75
431.763	655.32
432.138	664.36
432.514	676.56
432.89	630.24
433.265	653.51
433.641	654.42
434.016	653.74
434.392	679.95
434.767	692.16
435.143	705.94
435.518	692.38
435.894	691.7
436.269	689.9
436.644	723.12
437.02	704.36
437.395	693.06
437.77	707.98
438.145	719.27
438.52	745.94
438.895	745.49
439.271	737.13
439.646	725.83
440.021	755.21
440.395	755.43
440.77	757.01
441.145	761.08
441.52	760.4
441.895	741.42
442.27	763.12
442.645	771.48
443.019	766.51
443.394	788.65
443.769	788.2
444.143	808.76
444.518	800.4
444.892	810.57
445.267	825.49
445.641	806.05
446.016	808.09
446.39	801.08
446.764	801.08
447.139	800.18
447.513	838.37
447.887	819.39
448.262	826.16
448.636	843.79
449.01	851.7
449.384	852.6
449.758	847.18
450.132	855.99
450.506	870.01
450.88	863.23
451.254	861.42
451.628	903
452.002	882.89
452.376	874.98
452.75	884.69
453.123	902.55
453.497	913.17
453.871	907.97
454.244	936.9
454.618	932.15
454.992	966.5
455.365	947.74
455.739	969.44
456.112	965.82
456.486	973.05
456.859	992.71
457.232	1001.98
457.606	1008.31
457.979	1031.36
458.352	1034.52
458.725	1029.55
459.099	1039.04
459.472	1051.02
459.845	1075.88
460.218	1054.86
460.591	1071.81
460.964	1057.57
461.337	1078.36
461.71	1111.35
462.083	1110
462.456	1104.35
462.829	1159.04
463.201	1154.74
463.574	1162.65
463.947	1186.38
464.32	1180.96
464.692	1185.7
465.065	1213.95
465.438	1202.43
465.81	1212.37
466.183	1240.17
466.555	1237.23
466.928	1281.52
467.3	1277.45
467.672	1258.24
468.045	1302.99
468.417	1310.9
468.789	1354.74
469.161	1309.77
469.534	1361.07
469.906	1376.21
470.278	1391.35
470.65	1398.35
471.022	1413.72
471.394	1416.21
471.766	1457.79
472.138	1472.02
472.51	1504.34
472.882	1506.15
473.253	1536.88
473.625	1563.77
473.997	1570.78
474.369	1582.98
474.74	1601.51
475.112	1635.41
475.484	1633.38
475.855	1646.93
476.227	1660.95
476.598	1719.93
476.97	1719.7
477.341	1743.43
477.713	1809.87
478.084	1810.55
478.455	1820.49
478.827	1867.49
479.198	1895.29
479.569	1891.22
479.94	1958.79
480.311	1959.92
480.682	2014.61
481.053	2020.94
481.424	2070.43
481.795	2059.58
482.166	2088.28
482.537	2135.28
482.908	2172.57
483.279	2187.71
483.65	2157.2
484.021	2251.21
484.391	2298.22
484.762	2305
485.133	2320.14
485.503	2309.06
485.874	2394.71
486.244	2374.82
486.615	2455.95
486.985	2482.17
487.356	2508.38
487.726	2542.28
488.097	2585.89
488.467	2585.89
488.837	2614.82
489.207	2707.25
489.578	2733.46
489.948	2725.32
490.318	2777.07
490.688	2767.81
491.058	2807.36
491.428	2827.69
491.798	2863.17
492.168	2939.33
492.538	2980.23
492.908	2975.94
493.278	3044.86
493.648	2989.5
494.017	3038.08
494.387	3081.7
494.757	3109.72
495.126	3115.37
495.496	3142.04
495.866	3174.35
496.235	3216.16
496.605	3247.34
496.974	3270.85
497.344	3321.01
497.713	3303.39
498.082	3354.91
498.452	3320.11
498.821	3362.82
499.19	3381.58
499.559	3427.9
499.928	3453.67
500.298	3471.74
500.667	3474.23
501.036	3492.31
501.405	3541.12
501.774	3552.42
502.143	3592.65
502.512	3585.41
502.88	3643.94
503.249	3638.07
503.618	3653.66
503.987	3663.38
504.356	3716.26
504.724	3710.38
505.093	3791.51
505.462	3738.4
505.83	3768.23
506.199	3797.16
506.567	3860.89
506.936	3917.16
507.304	3924.16
507.672	3932.52
508.041	3949.47
508.409	3949.7
508.777	4008.45
509.145	4023.82
509.514	4041.9
509.882	4085.97
510.25	4080.09
510.618	4174.1
510.986	4166.19
511.354	4170.26
511.722	4214.32
512.09	4226.98
512.458	4265.85
512.826	4290.48
513.193	4309.01
513.561	4352.63
513.929	4377.94
514.297	4442.79
514.664	4466.07
515.032	4435.56
515.4	4530.7
515.767	4502.45
516.135	4560.76
516.502	4581.55
516.869	4637.82
517.237	4655.22
517.604	4641.43
517.972	4732.95
518.339	4758.72
518.706	4750.58
519.073	4791.26
519.44	4838.71
519.808	4907.19
520.175	4858.15
520.542	4989.22
520.909	5015.43
521.276	5047.97
521.643	5040.07
522.009	5087.3
522.376	5139.95
522.743	5165.71
523.11	5206.16
523.477	5186.73
523.843	5299.72
524.21	5347.4
524.577	5383.78
524.943	5441.18
525.31	5498.36
525.676	5484.12
526.043	5540.62
526.409	5575.64
526.776	5597.11
527.142	5716.21
527.508	5694.06
527.874	5748.52
528.241	5784.9
528.607	5798.46
528.973	5828.52
529.339	5913.26
529.705	5909.42
530.071	6009.08
530.437	6050.89
530.803	6107.61
531.169	6137.44
531.535	6132.24
531.901	6165.23
532.267	6224.89
532.632	6222.41
532.998	6271.67
533.364	6361.61
533.73	6393.25
534.095	6397.32
534.461	6416.3
534.826	6466.92
535.192	6441.38
535.557	6565
535.923	6610.19
536.288	6635.05
536.653	6692.9
537.019	6685.67
537.384	6696.52
537.749	6684.99
538.114	6750.08
538.479	6807.93
538.845	6821.04
539.21	6861.49
539.575	6853.8
539.94	6952.11
540.305	6993.23
540.67	6990.07
541.034	7009.5
541.399	7129.73
541.764	7112.78
542.129	7119.56
542.494	7218.09
542.858	7231.65
543.223	7276.62
543.587	7288.14
543.952	7343.73
544.316	7416.73
544.681	7364.98
545.045	7491.53
545.41	7483.84
545.774	7564.97
546.138	7568.59
546.503	7620.56
546.867	7602.26
547.231	7672.09
547.595	7841.57
547.959	7809.71
548.324	7827.56
548.688	7920.22
549.052	7929.93
549.416	7979.65
549.779	7955.92
550.143	8032.3
550.507	8157.95
550.871	8158.18
551.235	8242.47
551.599	8291.51
551.962	8310.04
552.326	8375.12
552.689	8465.06
553.053	8431.61
553.417	8500.09
553.78	8654.21
554.143	8633.87
554.507	8673.19
554.87	8834.09
555.234	8866.41
555.597	8877.7
555.96	8961.77
556.323	8991.15
556.686	9098.72
557.05	9143.91
557.413	9220.07
557.776	9241.99
558.139	9390.46
558.502	9396.79
558.865	9439.72
559.228	9581.87
559.59	9727.17
559.953	9706.16
560.316	9803.56
560.679	9855.76
561.041	9961.52
561.404	10051.23
561.767	10216.2
562.129	10111.34
562.492	10308.63
562.854	10302.3
563.217	10433.6
563.579	10548.85
563.941	10552.91
564.304	10707.26
564.666	10790.87
565.028	10902.96
565.39	10961.04
565.753	11097.31
566.115	11097.53
566.477	11288.49
566.839	11318.54
567.201	11471.31
567.563	11482.83
567.925	11613.68
568.287	11695.48
568.648	11774.58
569.01	11885.08
569.372	12039.2
569.734	12051.18
570.095	12180.44
570.457	12178.18
570.819	12361.68
571.18	12365.07
571.542	12508.57
571.903	12593.54
572.265	12691.62
572.626	12770.26
572.987	12878.28
573.349	12993.53
573.71	13167.76
574.071	13184.71
574.432	13207.31
574.794	13352.84
575.155	13390.13
575.516	13439.39
575.877	13530.69
576.238	13663.57
576.599	13710.8
576.96	13847.29
577.32	13868.08
577.681	13934.75
578.042	14120.73
578.403	14173.61
578.763	14144.01
579.124	14244.57
579.485	14409.31
579.845	14427.84
580.206	14469.2
580.566	14543.09
580.927	14644.33
581.287	14654.28
581.648	14726.82
582.008	14867.15
582.368	14878
582.728	15018.79
583.089	15041.84
583.449	14966.81
583.809	15135.84
584.169	15091.78
584.529	15206.8
584.889	15360.47
585.249	15325.22
585.609	15318.44
585.969	15420.81
586.329	15504.42
586.688	15533.35
587.048	15561.37
587.408	15637.53
587.768	15627.36
588.127	15768.37
588.487	15698.32
588.846	15877.75
589.206	15748.26
589.565	15906.45
589.925	15939.21
590.284	15984.86
590.643	15955.48
591.003	16079.1
591.362	16319.99
591.721	16164.29
592.08	16188.02
592.44	16295.81
592.799	16291.75
593.158	16296.49
593.517	16430.05
593.876	16475.92
594.235	16440.22
594.593	16456.04
594.952	16613.55
595.311	16542.81
595.67	16632.98
596.029	16758.18
596.387	16832.07
596.746	16853.54
597.104	16774.67
597.463	16806.76
597.822	16952.52
598.18	16885.4
598.538	16937.38
598.897	16972.18
599.255	16895.35
599.613	17243.13
599.972	17129.24
600.33	17219.41
600.688	17183.02
601.046	17216.02
601.404	17317.71
601.762	17381.66
602.12	17424.82
602.478	17387.09
602.836	17479.29
603.194	17382.34
603.552	17411.04
603.91	17465.05
604.268	17580.75
604.625	17509.34
604.983	17712.05
605.341	17615.1
605.698	17674.76
606.056	17681.99
606.413	17729.45
606.771	17793.4
607.128	17897.58
607.485	17836.34
607.843	17898.71
608.2	18027.75
608.557	18070.23
608.914	18029.55
609.272	18060.97
609.629	18144.58
609.986	18195.43
610.343	18066.39
610.7	18297.12
611.057	18294.41
611.414	18212.15
611.771	18331.69
612.127	18363.56
612.484	18394.97
612.841	18446.94
613.198	18456.21
613.554	18444.46
613.911	18543.66
614.267	18564.23
614.624	18507.51
614.98	18571.01
615.337	18729.42
615.693	18565.59
616.05	18747.73
616.406	18788.63
616.762	18787.27
617.118	18661.63
617.475	18795.41
617.831	18778.91
618.187	18885.12
618.543	18851.91
618.899	18968.74
619.255	18910.21
619.611	18943.2
619.967	19092.58
620.323	19076.53
620.678	19005.8
621.034	18980.49
621.39	18986.59
621.746	18979.59
622.101	19225.91
622.457	19057.55
622.812	19065.69
623.168	19221.16
623.523	19076.98
623.879	19186.13
624.234	19009.87
624.589	19170.54
624.945	19139.81
625.3	19221.84
625.655	19233.82
626.01	19190.88
626.365	19266.13
626.72	19227.71
627.075	19191.33
627.43	19199.69
627.785	19230.43
628.14	19243.53
628.495	19303.42
628.85	19244.44
629.205	19210.99
629.559	19354.27
629.914	19149.98
630.269	19250.77
630.623	19189.52
630.978	19127.6
631.332	19254.83
631.687	19348.16
632.041	19222.52
632.396	19246.25
632.75	19048.96
633.104	19221.84
633.459	19211.44
633.813	19176.64
634.167	19049.19
634.521	19106.81
634.875	19042.86
635.229	19098.45
635.583	18979.59
635.937	19002.41
636.291	18985.24
636.645	19013.03
636.999	18910.43
637.352	18998.34
637.706	18907.72
638.06	18996.31
638.413	19042.18
638.767	18885.35
639.121	19008.06
639.474	18759.48
639.828	18884.22
640.181	18976.42
640.534	18867.95
640.888	18791.79
641.241	18766.26
641.594	18813.04
641.947	18848.06
642.301	18791.34
642.654	18801.51
643.007	18892.36
643.36	18791.79
643.713	18659.82
644.066	18902.07
644.419	18646.04
644.771	18507.51
645.124	18487.4
645.477	18333.73
645.83	18343.22
646.182	18137.57
646.535	18164.01
646.888	18221.19
647.24	18061.42
647.593	18248.98
647.945	18194.07
648.298	18117.69
648.65	18117.01
649.002	18072.04
649.355	18178.02
649.707	18159.04
650.059	18213.28
650.411	18439.26
650.763	18488.3
651.115	18661.85
651.467	18528.75
651.819	18545.92
652.171	18537.34
652.523	18508.64
652.875	18483.1
653.227	18396.55
653.578	18531.91
653.93	18511.35
654.282	18420.73
654.633	18453.95
654.985	18346.61
655.337	18425.48
655.688	18417.79
656.039	18517
656.391	18297.12
656.742	18325.59
657.094	18320.85
657.445	18525.81
657.796	18352.03
658.147	18298.02
658.498	18309.55
658.849	18395.87
659.2	18367.17
659.551	18305.03
659.902	18314.07
660.253	18437.91
660.604	18464.8
660.955	18365.59
661.306	18384.57
661.656	18311.81
662.007	18404.91
662.358	18256.21
662.708	18435.65
663.059	18278.36
663.409	18268.64
663.76	18378.92
664.11	18402.88
664.461	18402.88
664.811	18505.02
665.161	18354.97
665.511	18310.9
665.862	18441.97
666.212	18393.61
666.562	18469.32
666.912	18462.99
667.262	18441.75
667.612	18488.75
667.962	18397.68
668.312	18347.06
668.662	18532.14
669.011	18416.89
669.361	18394.06
669.711	18485.14
670.06	18369.43
670.41	18331.92
670.76	18420.5
671.109	18484.01
671.459	18373.73
671.808	18546.38
672.157	18416.89
672.507	18425.02
672.856	18369.88
673.205	18433.39
673.554	18516.1
673.904	18399.49
674.253	18557.22
674.602	18567.62
674.951	18240.85
675.3	18202.66
675.649	18503.89
675.998	18491.69
676.346	18448.07
676.695	18547.73
677.044	18404.23
677.393	18409.66
677.741	18509.54
678.09	18420.28
678.438	18397.45
678.787	18450.56
679.135	18513.84
679.484	18391.35
679.832	18484.91
680.181	18348.42
680.529	18412.59
680.877	18355.65
681.225	18371.92
681.573	18486.27
681.922	18286.72
682.27	18307.96
682.618	18350.45
682.966	18277.01
683.314	18288.08
683.661	18273.62
684.009	18190.91
684.357	18157.91
684.705	18220.96
685.053	18185.03
685.4	18220.06
685.748	18213.28
686.095	18053.06
686.443	18033.85
686.79	18048.08
687.138	18169.44
687.485	18137.12
687.832	18003.79
688.18	18020.97
688.527	17925.6
688.874	18040.4
689.221	17931.93
689.568	17888.31
689.915	17748.66
690.262	17904.13
690.609	17822.33
690.956	17873.63
691.303	17794.53
691.65	17762.67
691.997	17718.15
692.344	17670.02
692.69	17554.09
693.037	17688.55
693.383	17620.53
693.73	17588.89
694.077	17540.53
694.423	17557.02
694.769	17569.23
695.116	17423.24
695.462	17426.18
695.808	17360.42
696.155	17342.11
696.501	17344.83
696.847	17309.12
697.193	17267.77
697.539	17246.98
697.885	17225.73
698.231	17142.8
698.577	17196.81
698.923	17119.07
699.269	17103.93
699.614	16985.51
699.96	17029.13
700.306	17059.41
700.651	16978.51
700.997	16946.42
701.342	16896.02
701.688	16922.92
702.033	16821.22
702.379	16811.28
702.724	16842.01
703.069	16871.84
703.415	16600.44
703.76	16674.79
704.105	16755.46
704.45	16664.39
704.795	16597.5
705.14	16620.55
705.485	16621
705.83	16551.85
706.175	16529.48
706.52	16543.94
706.865	16438.18
707.209	16421.69
707.554	16336.04
707.899	16387.34
708.243	16359.32
708.588	16366.32
708.932	16140.11
709.277	16205.42
709.621	16308.92
709.966	16204.29
710.31	16137.17
710.654	16091.07
710.998	16019.89
711.342	16162.48
711.687	16121.13
712.031	16048.82
712.375	16007.01
712.719	16016.73
713.063	16084.75
713.407	16076.61
713.75	16012.66
714.094	16064.18
714.438	15960.68
714.782	15911.87
715.125	15870.97
715.469	16000
715.812	15817.18
716.156	15774.7
716.499	15782.83
716.843	15847.69
717.186	15748.94
717.53	15762.5
717.873	15848.82
718.216	15798.2
718.559	15677.07
718.902	15686.11
719.246	15689.95
719.589	15623.74
719.932	15583.06
720.275	15539.22
720.617	15563.86
720.96	15565.89
721.303	15701.03
721.646	15615.38
721.989	15553.91
722.331	15508.04
722.674	15486.57
723.016	15500.81
723.359	15481.15
723.701	15519.34
724.044	15472.56
724.386	15445.89
724.729	15413.13
725.071	15446.57
725.413	15383.52
725.755	15349.4
726.097	15309.17
726.439	15276.18
726.782	15333.35
727.124	15313.24
727.465	15314.6
727.807	15275.95
728.149	15323.86
728.491	15247.71
728.833	15218.78
729.175	15203.41
729.516	15152.12
729.858	15208.84
730.199	15175.39
730.541	15213.58
730.882	15102.85
731.224	15134.49
731.565	15125
731.906	15097.2
732.248	15162.74
732.589	15078.9
732.93	15033.47
733.271	15106.24
733.612	15038.9
733.953	15070.76
734.294	14978.11
734.635	14904.21
734.976	15098.11
735.317	14932.69
735.658	14987.6
735.999	14917.77
736.339	14824.44
736.68	14974.95
737.021	14840.71
737.361	14876.19
737.702	14824.21
738.042	14860.37
738.383	14810.43
738.723	14856.98
739.063	14724.78
739.404	14845.68
739.744	14732.24
740.084	14703.54
740.424	14727.49
740.764	14722.52
741.104	14741.28
741.444	14565.46
741.784	14571.34
742.124	14648.85
742.464	14685.24
742.804	14614.73
743.143	14635.52
743.483	14600.94
743.823	14485.92
744.162	14408.86
744.502	14499.48
744.841	14542.87
745.181	14425.81
745.52	14376.99
745.86	14478.69
746.199	14440.72
746.538	14375.86
746.877	14447.28
747.216	14410.21
747.556	14371.35
747.895	14344.45
748.234	14296.09
748.573	14279.37
748.911	14152.82
749.25	14233.27
749.589	14171.8
749.928	14143.1
750.267	14251.57
750.605	14164.12
750.944	14171.8
751.283	14177.9
751.621	14063.33
751.96	14015.87
752.298	13965.03
752.636	13997.34
752.975	13943.33
753.313	13927.97
753.651	13987.17
753.989	13903.33
754.327	13835.09
754.666	13784.02
755.004	13741.31
755.342	13846.39
755.679	13697.24
756.017	13680.52
756.355	13696.56
756.693	13618.82
757.031	13633.29
757.368	13515.1
757.706	13558.49
758.044	13427.64
758.381	13617.69
758.719	13491.37
759.056	13471.93
759.394	13398.26
