Data from brown_tile_FLMS001491_079.txt Node
Date: Tue Feb 07 10:37:59 GMT 2017
User: dcchb
Spectrometer: FLMS00149
Trigger mode: 0
Integration Time (sec): 2.000000E-2
Scans to average: 10
Electric dark correction enabled: true
Nonlinearity correction enabled: false
Boxcar width: 0
XAxis mode: Wavelengths
Number of Pixels in Spectrum: 2048
>>>>>Begin Spectral Data<<<<<
341.393	-9.65
341.776	-9.65
342.16	-9.65
342.543	-63.88
342.927	-67.5
343.31	-72.92
343.693	-51
344.077	-67.95
344.46	-67.95
344.843	-57.1
345.226	-32.47
345.61	-29.99
345.993	-34.5
346.376	-8.06
346.759	22.89
347.142	21.09
347.525	35.55
347.908	75.32
348.291	65.61
348.674	99.28
349.057	102.21
349.44	134.08
349.823	140.41
350.206	164.81
350.588	179.95
350.971	196.22
351.354	221.31
351.737	235.77
352.119	223.57
352.502	250.91
352.884	272.15
353.267	271.93
353.65	262.89
354.032	274.41
354.414	278.48
354.797	286.16
355.179	307.41
355.562	303.79
355.944	308.99
356.326	326.39
356.709	307.18
357.091	327.75
357.473	317.58
357.855	313.06
358.238	328.65
358.62	340.63
359.002	330.68
359.384	331.14
359.766	333.17
360.148	332.94
360.53	326.16
360.912	318.03
361.294	324.36
361.676	329.1
362.057	326.16
362.439	326.84
362.821	304.92
363.203	294.98
363.584	330.46
363.966	316.45
364.348	303.11
364.729	313.28
365.111	309.44
365.493	311.7
365.874	315.32
366.256	310.12
366.637	292.49
367.019	313.73
367.4	315.99
367.781	292.72
368.163	304.02
368.544	306.5
368.925	296.56
369.306	314.86
369.688	293.4
370.069	313.96
370.45	290.68
370.831	274.19
371.212	278.71
371.593	293.4
371.974	300.18
372.355	298.14
372.736	279.39
373.117	293.85
373.498	307.18
373.879	301.53
374.26	312.6
374.641	301.31
375.021	297.24
375.402	315.32
375.783	313.73
376.163	326.16
376.544	318.93
376.925	321.87
377.305	316.22
377.686	302.44
378.066	320.97
378.447	309.89
378.827	287.29
379.208	303.11
379.588	333.17
379.968	343.56
380.349	303.11
380.729	318.71
381.109	314.19
381.489	340.4
381.87	334.98
382.25	328.2
382.63	308.09
383.01	328.65
383.39	324.81
383.77	319.16
384.15	317.58
384.53	347.63
384.91	332.27
385.29	344.47
385.67	326.39
386.049	326.16
386.429	341.3
386.809	352.15
387.189	342.89
387.568	335.66
387.948	332.94
388.328	356.45
388.707	338.14
389.087	329.1
389.466	349.89
389.846	342.43
390.225	353.51
390.605	343.11
390.984	366.39
391.363	326.39
391.743	374.52
392.122	356.9
392.501	341.08
392.881	364.13
393.26	367.07
393.639	341.08
394.018	352.15
394.397	358.25
394.776	358.48
395.155	356.67
395.534	353.06
395.913	369.55
396.292	365.03
396.671	362.09
397.05	366.84
397.429	382.66
397.808	383.11
398.186	365.94
398.565	363.9
398.944	359.84
399.323	366.61
399.701	366.16
400.08	373.17
400.458	366.61
400.837	362.77
401.215	359.84
401.594	365.03
401.972	365.26
402.351	386.73
402.729	380.4
403.107	380.85
403.486	397.35
403.864	389.89
404.242	393.51
404.62	382.21
404.999	391.92
405.377	395.54
405.755	414.97
406.133	395.77
406.511	413.17
406.889	435.54
407.267	404.35
407.645	414.3
408.023	411.81
408.401	427.86
408.779	406.84
409.156	424.24
409.534	432.38
409.912	422.88
410.29	439.61
410.667	450
411.045	427.18
411.422	429.21
411.8	429.66
412.178	448.42
412.555	431.7
412.933	436.9
413.31	450.91
413.687	452.71
414.065	458.59
414.442	465.82
414.819	468.76
415.197	468.08
415.574	456.56
415.951	469.44
416.328	459.95
416.705	462.88
417.082	475.76
417.46	460.4
417.837	469.21
418.214	474.41
418.591	471.92
418.967	443.45
419.344	489.32
419.721	494.97
420.098	482.32
420.475	484.58
420.852	492.04
421.228	513.96
421.605	494.29
421.982	488.87
422.358	529.77
422.735	509.89
423.111	485.26
423.488	512.15
423.864	520.51
424.241	512.83
424.617	504.01
424.994	533.84
425.37	539.27
425.746	537.01
426.123	527.97
426.499	516.67
426.875	543.11
427.251	532.94
427.627	550.11
428.003	549.21
428.379	568.19
428.756	553.5
429.132	544.46
429.507	546.95
429.883	589.66
430.259	568.64
430.635	580.85
431.011	561.64
431.387	582.2
431.763	592.6
432.138	581.52
432.514	574.97
432.89	577.68
433.265	591.02
433.641	604.12
434.016	607.06
434.392	620.17
434.767	632.37
435.143	624.01
435.518	646.38
435.894	655.42
436.269	619.94
436.644	634.18
437.02	661.52
437.395	661.52
437.77	649.09
438.145	658.58
438.52	652.93
438.895	670.34
439.271	685.25
439.646	662.65
440.021	699.71
440.395	714.18
440.77	687.51
441.145	697
441.52	698.36
441.895	706.27
442.27	701.07
442.645	718.02
443.019	734.29
443.394	715.76
443.769	720.96
444.143	713.72
444.518	706.94
444.892	706.49
445.267	741.52
445.641	734.97
446.016	725.93
446.39	745.59
446.764	742.2
447.139	743.1
447.513	733.16
447.887	741.97
448.262	736.32
448.636	763.44
449.01	770.22
449.384	764.34
449.758	774.29
450.132	783.55
450.506	788.3
450.88	802.99
451.254	809.99
451.628	792.59
452.002	801.63
452.376	809.77
452.75	804.8
453.123	803.67
453.497	831.01
453.871	833.95
454.244	843.44
454.618	854.74
454.992	848.86
455.365	866.94
455.739	890.67
456.112	889.76
456.486	906.71
456.859	866.94
457.232	899.26
457.606	896.32
457.979	911.23
458.352	900.61
458.725	904.91
459.099	926.83
459.472	949.42
459.845	929.54
460.218	967.28
460.591	965.69
460.964	971.34
461.337	994.62
461.71	1001.63
462.083	1007.28
462.456	1024.68
462.829	1019.48
463.201	1011.12
463.574	1039.59
463.947	1053.38
464.32	1059.7
464.692	1075.75
465.065	1050.21
465.438	1085.69
465.81	1097.89
466.183	1108.29
466.555	1108.29
466.928	1134.5
467.3	1149.64
467.672	1118.23
468.045	1157.33
468.417	1131.11
468.789	1157.1
469.161	1193.03
469.534	1195.29
469.906	1213.37
470.278	1249.08
470.65	1225.58
471.022	1239.59
471.394	1267.61
471.766	1279.13
472.138	1285.01
472.51	1328.62
472.882	1318.45
473.253	1341.96
473.625	1394.16
473.997	1396.19
474.369	1409.98
474.74	1433.25
475.112	1421.5
475.484	1421.73
475.855	1459.02
476.227	1496.3
476.598	1531.78
476.97	1519.13
477.341	1559.35
477.713	1564.32
478.084	1588.96
478.455	1584.66
478.827	1618.56
479.198	1666.47
479.569	1683.19
479.94	1712.34
480.311	1726.8
480.682	1742.4
481.053	1746.01
481.424	1775.84
481.795	1821.49
482.166	1836.41
482.537	1849.74
482.908	1872.79
483.279	1898.78
483.65	1967.02
484.021	1981.04
484.391	2000.7
484.762	2020.13
485.133	2014.93
485.503	2049.51
485.874	2070.98
486.244	2121.82
486.615	2150.52
486.985	2194.82
487.356	2185.1
487.726	2199.79
488.097	2256.06
488.467	2289.05
488.837	2271.2
489.207	2311.65
489.578	2339.22
489.948	2384.19
490.318	2405.43
490.688	2410.18
491.058	2456.73
491.428	2500.34
491.798	2469.84
492.168	2509.61
492.538	2549.38
492.908	2588.7
493.278	2640.91
493.648	2621.47
494.017	2635.71
494.387	2670.96
494.757	2705.76
495.126	2765.2
495.496	2744.41
495.866	2740.34
496.235	2780.79
496.605	2800
496.974	2814.91
497.344	2837.06
497.713	2877.28
498.082	2854.68
498.452	2902.37
498.821	2928.81
499.19	2957.96
499.559	2947.34
499.928	2974
500.298	2988.92
500.667	3035.7
501.036	3024.62
501.405	3068.69
501.774	3031.63
502.143	3071.18
502.512	3085.87
502.88	3125.19
503.249	3116.15
503.618	3167.67
503.987	3193.88
504.356	3211.06
504.724	3212.64
505.093	3181.91
505.462	3228.69
505.83	3264.17
506.199	3321.57
506.567	3360.66
506.936	3317.95
507.304	3420.32
507.672	3426.65
508.041	3448.12
508.409	3461
508.777	3469.13
509.145	3477.49
509.514	3516.14
509.882	3520.43
510.25	3554.33
510.618	3571.05
510.986	3620.31
511.354	3657.15
511.722	3635.23
512.09	3711.61
512.458	3709.8
512.826	3769.69
513.193	3742.12
513.561	3753.19
513.929	3764.94
514.297	3806.52
514.664	3835.9
515.032	3867.54
515.4	3917.03
515.767	3929.01
516.135	3957.03
516.502	3926.75
516.869	4010.36
517.237	4017.14
517.604	4009.91
517.972	4044.03
518.339	4081.32
518.706	4096.46
519.073	4158.61
519.44	4137.59
519.808	4227.3
520.175	4207.87
520.542	4241.54
520.909	4292.61
521.276	4282.22
521.643	4358.83
522.009	4454.87
522.376	4457.58
522.743	4458.26
523.11	4526.51
523.477	4535.77
523.843	4581.19
524.21	4612.38
524.577	4625.71
524.943	4648.99
525.31	4713.17
525.676	4728.53
526.043	4767.63
526.409	4775.09
526.776	4835.88
527.142	4892.82
527.508	4912.26
527.874	4959.26
528.241	5006.94
528.607	5039.03
528.973	5070.45
529.339	5076.32
529.705	5109.31
530.071	5107.73
530.437	5173.27
530.803	5255.53
531.169	5267.05
531.535	5278.58
531.901	5287.62
532.267	5326.94
532.632	5391.12
532.998	5344.56
533.364	5427.27
533.73	5464.56
534.095	5483.54
534.461	5518.12
534.826	5558.12
535.192	5561.51
535.557	5660.26
535.923	5639.7
536.288	5682.41
536.653	5705.01
537.019	5663.2
537.384	5776.42
537.749	5857.32
538.114	5870.88
538.479	5869.07
538.845	5887.6
539.21	5898.45
539.575	5891.89
539.94	5966.02
540.305	6043.98
540.67	6004.43
541.034	6054.6
541.399	6102.06
541.764	6124.43
542.129	6166.46
542.494	6158.55
542.858	6193.81
543.223	6265.89
543.587	6315.16
543.952	6312
544.316	6394.25
544.681	6362.39
545.045	6402.16
545.41	6467.25
545.774	6465.44
546.138	6497.75
546.503	6527.36
546.867	6631.31
547.231	6679.67
547.595	6709.72
547.959	6727.8
548.324	6753.79
548.688	6803.06
549.052	6765.54
549.416	6793.34
549.779	6867.46
550.143	6956.95
550.507	6984.29
550.871	7064.97
551.235	7086.89
551.599	7119.66
551.962	7202.82
552.326	7166.44
552.689	7224.97
553.053	7335.7
553.417	7300.44
553.78	7443.49
554.143	7451.85
554.507	7517.16
554.87	7606.2
555.234	7639.87
555.597	7633.54
555.96	7720.32
556.323	7724.61
556.686	7819.75
557.05	7935.46
557.413	7986.08
557.776	7996.47
558.139	8112.17
558.502	8170.48
558.865	8209.12
559.228	8347.2
559.59	8333.64
559.953	8407.08
560.316	8532.28
560.679	8541.31
561.041	8689.56
561.404	8723.68
561.767	8785.15
562.129	8862.66
562.492	8948.76
562.854	9000.96
563.217	9052.49
563.579	9138.59
563.941	9263.33
564.304	9367.73
564.666	9394.63
565.028	9426.72
565.39	9509.65
565.753	9624.22
566.115	9649.99
566.477	9810.89
566.839	9859.02
567.201	9918
567.563	9964.1
567.925	10115.96
568.287	10124.32
568.648	10266.24
569.01	10313.02
569.372	10456.07
569.734	10462.85
570.095	10633.01
570.457	10719.79
570.819	10749.84
571.18	10828.71
571.542	10843.18
571.903	10962.27
572.265	11067.58
572.626	11175.6
572.987	11185.09
573.349	11231.87
573.71	11364.29
574.071	11486.32
574.432	11543.95
574.794	11632.53
575.155	11667.11
575.516	11733.1
575.877	11822.36
576.238	11974.22
576.599	12009.92
576.96	12062.13
577.32	12028.23
577.681	12213.08
578.042	12303.02
578.403	12334.89
578.763	12356.36
579.124	12503.7
579.485	12632.96
579.845	12694.43
580.206	12671.15
580.566	12715.44
580.927	12787.53
581.287	12927.87
581.648	12912.05
582.008	13060.74
582.368	13033.17
582.728	13038.15
583.089	13088.99
583.449	13144.36
583.809	13232.27
584.169	13264.58
584.529	13270
584.889	13484.24
585.249	13366.27
585.609	13467.51
585.969	13615.08
586.329	13586.83
586.688	13674.74
587.048	13705.02
587.408	13695.76
587.768	13770.56
588.127	13686.26
588.487	13791.12
588.846	13930.1
589.206	13895.75
589.565	13956.31
589.925	14046.48
590.284	14023.2
590.643	14142.07
591.003	14182.07
591.362	14293.48
591.721	14286.02
592.08	14211.45
592.44	14396.53
592.799	14399.01
593.158	14465.68
593.517	14511.33
593.876	14516.07
594.235	14486.47
594.593	14538.22
594.952	14637.88
595.311	14610.31
595.67	14654.6
596.029	14771.89
596.387	14843.52
596.746	14881.49
597.104	14855.05
597.463	14899.79
597.822	14927.36
598.18	14891.88
598.538	14895.95
598.897	15030.18
599.255	14928.49
599.613	15198.54
599.972	15095.27
600.33	15209.16
600.688	15135.04
601.046	15259.56
601.404	15334.36
601.762	15347.92
602.12	15392.21
602.478	15321.02
602.836	15362.6
603.194	15409.38
603.552	15425.88
603.91	15402.83
604.268	15502.49
604.625	15467.69
604.983	15594.24
605.341	15560.11
605.698	15629.72
606.056	15705.19
606.413	15736.83
606.771	15789.26
607.128	15777.73
607.485	15681.24
607.843	15750.16
608.2	15936.37
608.557	15999.42
608.914	15976.83
609.272	16018.18
609.629	15989.71
609.986	16048.69
610.343	16048.24
610.7	16177.5
611.057	16214.79
611.414	16188.12
611.771	16216.59
612.127	16238.74
612.484	16365.52
612.841	16343.82
613.198	16257.04
613.554	16293.65
613.911	16403.48
614.267	16452.97
614.624	16378.85
614.98	16454.1
615.337	16577.71
615.693	16553.53
616.05	16488.68
616.406	16593.53
616.762	16569.8
617.118	16618.84
617.475	16669.69
617.831	16685.28
618.187	16719.86
618.543	16712.63
618.899	16812.06
619.255	16845.5
619.611	16670.14
619.967	16847.54
620.323	16973.86
620.678	16886.63
621.034	16740.65
621.39	16788.78
621.746	16805.5
622.101	17104.48
622.457	16748.33
622.812	16893.64
623.168	16995.33
623.523	17008.21
623.879	17053.86
624.234	16962.34
624.589	17031.49
624.945	16957.36
625.3	17039.4
625.655	16991.04
626.01	16987.42
626.365	17128.21
626.72	17069.68
627.075	16951.49
627.43	17069.45
627.785	16918.27
628.14	17060.41
628.495	17071.26
628.85	17027.19
629.205	17012.28
629.559	17010.47
629.914	16970.02
630.269	16954.88
630.623	16906.74
630.978	16933.64
631.332	16967.76
631.687	17040.75
632.041	16972.73
632.396	17081.43
632.75	16947.2
633.104	16958.04
633.459	16897.93
633.813	16953.07
634.167	16909.23
634.521	16913.52
634.875	16966.63
635.229	16870.14
635.583	16758.05
635.937	16914.88
636.291	16741.78
636.645	16884.15
636.999	16767.31
637.352	16778.16
637.706	16688.22
638.06	16789.69
638.413	16771.83
638.767	16783.13
639.121	16807.54
639.474	16670.14
639.828	16657.94
640.181	16725.28
640.534	16727.31
640.888	16615.45
641.241	16537.94
641.594	16579.52
641.947	16714.66
642.301	16655.23
642.654	16757.14
643.007	16694.09
643.36	16592.63
643.713	16529.58
644.066	16566.87
644.419	16439.86
644.771	16426.08
645.124	16364.16
645.477	16219.98
645.83	16182.02
646.182	16044.85
646.535	16151.51
646.888	16129.14
647.24	16010.5
647.593	16093.66
647.945	16026.32
648.298	15956.94
648.65	15991.97
649.002	15938.86
649.355	16013.21
649.707	15960.55
650.059	16029.71
650.411	16216.59
650.763	16235.35
651.115	16456.81
651.467	16420.66
651.819	16361.45
652.171	16343.6
652.523	16376.14
652.875	16273.32
653.227	16180.66
653.578	16356.7
653.93	16408
654.282	16262.02
654.633	16236.03
654.985	16294.78
655.337	16272.64
655.688	16274.67
656.039	16337.49
656.391	16283.94
656.742	16275.57
657.094	16233.54
657.445	16293.2
657.796	16259.08
658.147	16222.92
658.498	16294.33
658.849	16313.77
659.2	16268.8
659.551	16165.07
659.902	16255.69
660.253	16317.61
660.604	16320.09
660.955	16279.19
661.306	16310.6
661.656	16137.05
662.007	16351.28
662.358	16318.29
662.708	16368.68
663.059	16228.12
663.409	16209.14
663.76	16330.26
664.11	16255.91
664.461	16318.29
664.811	16427.66
665.161	16289.59
665.511	16257.5
665.862	16329.81
666.212	16359.64
666.562	16328.23
666.912	16340.21
667.262	16383.82
667.612	16333.43
667.962	16358.06
668.312	16322.35
668.662	16364.39
669.011	16355.57
669.361	16384.27
669.711	16380.43
670.06	16319.19
670.41	16412.97
670.76	16299.08
671.109	16456.81
671.459	16398.74
671.808	16338.4
672.157	16361
672.507	16333.88
672.856	16299.53
673.205	16296.37
673.554	16360.09
673.904	16247.33
674.253	16418.4
674.602	16293.43
674.951	16172.07
675.3	16108.8
675.649	16417.04
675.998	16367.1
676.346	16400.32
676.695	16438.28
677.044	16253.65
677.393	16342.47
677.741	16363.26
678.09	16373.2
678.438	16325.97
678.787	16327.1
679.135	16476.25
679.484	16308.79
679.832	16328.68
680.181	16252.52
680.529	16344.95
680.877	16297.5
681.225	16353.09
681.573	16370.94
681.922	16276.25
682.27	16212.3
682.618	16308.57
682.966	16207.55
683.314	16269.25
683.661	16285.97
684.009	16119.42
684.357	16165.52
684.705	16223.82
685.053	16101.79
685.4	16213.88
685.748	16062.7
686.095	16132.75
686.443	16043.04
686.79	16022.7
687.138	16110.83
687.485	16043.72
687.832	16053.89
688.18	16062.93
688.527	16040.33
688.874	15915.36
689.221	15901.35
689.568	15966.2
689.915	15896.83
690.262	15883.04
690.609	15828.81
690.956	15821.58
691.303	15829.71
691.65	15791.29
691.997	15770.73
692.344	15732.76
692.69	15657.96
693.037	15648.47
693.383	15579.55
693.73	15672.65
694.077	15580.23
694.423	15516.72
694.769	15578.64
695.116	15452.09
695.462	15461.36
695.808	15427.01
696.155	15550.17
696.501	15459.33
696.847	15384.75
697.193	15324.41
697.539	15357.86
697.885	15276.28
698.231	15194.7
698.577	15260.46
698.923	15184.76
699.269	15177.52
699.614	15144.31
699.96	15153.8
700.306	15074.48
700.651	14963.07
700.997	15071.76
701.342	14981.15
701.688	15018.43
702.033	14984.54
702.379	14888.27
702.724	14987.47
703.069	14972.56
703.415	14782.28
703.76	14832.67
704.105	14843.3
704.45	14816.63
704.795	14639.01
705.14	14652.11
705.485	14641.95
705.83	14672.23
706.175	14663.41
706.52	14539.58
706.865	14622.06
707.209	14542.06
707.554	14535.96
707.899	14552.46
708.243	14487.37
708.588	14532.34
708.932	14436.53
709.277	14465
709.621	14410.09
709.966	14308.62
710.31	14363.31
710.654	14294.16
710.998	14397.21
711.342	14409.86
711.687	14307.94
712.031	14256.87
712.375	14235.4
712.719	14267.72
713.063	14230.43
713.407	14309.07
713.75	14171.45
714.094	14236.76
714.438	14184.56
714.782	14178
715.125	14101.39
715.469	14099.59
715.812	14031.34
716.156	14004.67
716.499	14009.87
716.843	14091.68
717.186	14009.87
717.53	14034.5
717.873	14050.32
718.216	14048.29
718.559	13920.61
718.902	13902.08
719.246	13950.66
719.589	13978.23
719.932	13856.88
720.275	13885.81
720.617	13892.81
720.96	13865.02
721.303	13919.7
721.646	13851.01
721.989	13867.5
722.331	13918.12
722.674	13833.61
723.016	13748.86
723.359	13820.95
723.701	13822.98
724.044	13766.71
724.386	13688.98
724.729	13719.71
725.071	13740.5
725.413	13740.05
725.755	13736.66
726.097	13667.06
726.439	13636.32
726.782	13632.71
727.124	13657.34
727.465	13582.54
727.807	13602.2
728.149	13575.76
728.491	13493.5
728.833	13535.08
729.175	13489.21
729.516	13467.51
729.858	13580.96
730.199	13482.43
730.541	13517.68
730.882	13480.39
731.224	13531.24
731.565	13434.97
731.906	13515.2
732.248	13463.9
732.589	13398.59
732.93	13408.98
733.271	13418.7
733.612	13435.88
733.953	13486.95
734.294	13507.06
734.635	13378.93
734.976	13361.98
735.317	13333.73
735.658	13343.67
735.999	13253.96
736.339	13186.84
736.68	13326.5
737.021	13290.79
737.361	13270.46
737.702	13319.04
738.042	13243.11
738.383	13212.6
738.723	13247.18
739.063	13195.66
739.404	13224.58
739.744	13161.31
740.084	13142.1
740.424	13116.56
740.764	13178.48
741.104	13115.43
741.444	13094.19
741.784	13057.13
742.124	13182.55
742.464	13069.78
742.804	12934.65
743.143	13018.03
743.483	13028.88
743.823	12992.27
744.162	12960.18
744.502	12954.08
744.841	12842.22
745.181	12969.9
745.52	12926.96
745.86	12903.23
746.199	12910.47
746.538	12881.99
746.877	12850.58
747.216	12837.7
747.556	12867.75
747.895	12829.11
748.234	12704.37
748.573	12764.48
748.911	12731.26
749.25	12626.41
749.589	12643.13
749.928	12719.28
750.267	12658.72
750.605	12611.72
750.944	12564.94
751.283	12515.67
751.621	12598.61
751.96	12489.91
752.298	12486.52
752.636	12485.84
752.975	12380.76
753.313	12303.02
753.651	12388.22
753.989	12359.29
754.327	12270.26
754.666	12279.07
755.004	12267.54
755.342	12290.59
755.679	12263.7
756.017	12213.76
756.355	12248.11
756.693	12160.43
757.031	12143.71
757.368	12075.91
757.706	12112.52
758.044	11919.98
758.381	12095.35
758.719	11979.19
759.056	12045.86
759.394	11939.19
759.731	11884.73
760.068	11857.61
760.405	11792.53
