Data from brown_tile_FLMS001491_057.txt Node
Date: Tue Feb 07 10:37:42 GMT 2017
User: dcchb
Spectrometer: FLMS00149
Trigger mode: 0
Integration Time (sec): 2.000000E-2
Scans to average: 10
Electric dark correction enabled: true
Nonlinearity correction enabled: false
Boxcar width: 0
XAxis mode: Wavelengths
Number of Pixels in Spectrum: 2048
>>>>>Begin Spectral Data<<<<<
341.393	-7.92
341.776	-7.92
342.16	-7.92
342.543	-74.14
342.927	-57.41
343.31	-75.49
343.693	-77.75
344.077	-63.52
344.46	-43.18
344.843	-38.21
345.226	-37.53
345.61	-35.49
345.993	-21.48
346.376	-5.44
346.759	10.61
347.142	10.61
347.525	51.74
347.908	62.81
348.291	69.36
348.674	92.86
349.057	100.1
349.44	111.85
349.823	147.33
350.206	155.46
350.588	162.69
350.971	197.27
351.354	209.7
351.737	204.73
352.119	247.66
352.502	263.71
352.884	248.79
353.267	281.33
353.65	259.64
354.032	277.49
354.414	299.19
354.797	314.55
355.179	297.83
355.562	305.06
355.944	331.5
356.326	298.96
356.709	321.79
357.091	308.68
357.473	313.42
357.855	317.72
358.238	326.98
358.62	315.68
359.002	313.42
359.384	323.37
359.766	311.84
360.148	317.27
360.53	337.83
360.912	310.71
361.294	312.07
361.676	326.53
362.057	313.65
362.439	301.22
362.821	304.84
363.203	314.33
363.584	308.23
363.966	324.5
364.348	313.42
364.729	292.63
365.111	303.71
365.493	320.66
365.874	307.32
366.256	268.91
366.637	290.83
367.019	317.72
367.4	293.54
367.781	274.78
368.163	303.93
368.544	296.7
368.925	300.09
369.306	285.4
369.688	283.59
370.069	292.86
370.45	276.36
370.831	290.15
371.212	295.57
371.593	295.35
371.974	304.84
372.355	307.55
372.736	301.45
373.117	290.83
373.498	308.23
373.879	292.41
374.26	275.91
374.641	300.54
375.021	293.31
375.402	306.87
375.783	310.26
376.163	308
376.544	322.46
376.925	292.41
377.305	313.2
377.686	262.58
378.066	307.77
378.447	317.27
378.827	309.58
379.208	309.81
379.588	337.15
379.968	321.79
380.349	316.14
380.729	321.56
381.109	313.42
381.489	300.99
381.87	319.75
382.25	299.64
382.63	334.89
383.01	309.13
383.39	314.55
383.77	317.49
384.15	331.95
384.53	318.4
384.91	334.21
385.29	340.54
385.67	314.78
386.049	322.46
386.429	321.33
386.809	332.18
387.189	311.84
387.568	314.33
387.948	321.33
388.328	310.49
388.707	341.67
389.087	345.51
389.466	329.69
389.846	317.94
390.225	334.89
390.605	317.94
390.984	349.81
391.363	323.82
391.743	352.52
392.122	356.36
392.501	340.54
392.881	343.71
393.26	334.44
393.639	341.67
394.018	356.13
394.397	354.78
394.776	350.94
395.155	350.94
395.534	340.99
395.913	322.46
396.292	352.07
396.671	347.55
397.05	341.9
397.429	373.54
397.808	368.11
398.186	366.3
398.565	354.55
398.944	358.39
399.323	377.6
399.701	367.21
400.08	362.24
400.458	364.95
400.837	369.24
401.215	395.23
401.594	385.29
401.972	402.91
402.351	375.8
402.729	375.12
403.107	361.78
403.486	366.3
403.864	380.31
404.242	395
404.62	385.29
404.999	377.15
405.377	395
405.755	377.15
406.133	369.02
406.511	402.69
406.889	395.91
407.267	407.43
407.645	392.74
408.023	397.72
408.401	401.56
408.779	402.24
409.156	396.59
409.534	404.5
409.912	410.82
410.29	422.35
410.667	435.68
411.045	422.8
411.422	419.86
411.8	428
412.178	425.96
412.555	423.7
412.933	426.19
413.31	443.36
413.687	425.74
414.065	442.01
414.442	432.97
414.819	439.3
415.197	444.49
415.574	434.32
415.951	452.86
416.328	447.43
416.705	449.69
417.082	440.2
417.46	445.85
417.837	442.23
418.214	472.74
418.591	458.28
418.967	454.21
419.344	463.02
419.721	447.66
420.098	460.99
420.475	501.67
420.852	466.64
421.228	475.45
421.605	471.61
421.982	490.14
422.358	490.82
422.735	481.33
423.111	489.46
423.488	486.53
423.864	493.98
424.241	512.97
424.617	503.25
424.994	501.67
425.37	493.98
425.746	530.37
426.123	498.73
426.499	536.47
426.875	545.73
427.251	530.37
427.627	525.85
428.003	526.3
428.379	534.21
428.756	561.1
429.132	539.63
429.507	530.14
429.883	538.95
430.259	560.88
430.635	543.7
431.011	568.78
431.387	549.8
431.763	609.01
432.138	568.56
432.514	566.3
432.89	567.65
433.265	582.12
433.641	596.13
434.016	582.57
434.392	602.23
434.767	597.03
435.143	601.55
435.518	582.57
435.894	637.03
436.269	616.92
436.644	624.38
437.02	626.41
437.395	607.65
437.77	613.76
438.145	635.9
438.52	650.36
438.895	633.64
439.271	632.74
439.646	670.93
440.021	634.77
440.395	655.11
440.77	654.21
441.145	647.43
441.52	670.25
441.895	673.87
442.27	673.41
442.645	688.56
443.019	687.43
443.394	684.26
443.769	696.69
444.143	700.31
444.518	679.74
444.892	689.91
445.267	679.52
445.641	690.36
446.016	712.06
446.39	710.02
446.764	716.13
447.139	735.33
447.513	721.77
447.887	700.76
448.262	730.59
448.636	726.52
449.01	735.79
449.384	732.62
449.758	739.63
450.132	757.25
450.506	748.67
450.88	756.35
451.254	759.74
451.628	751.15
452.002	768.78
452.376	776.69
452.75	796.35
453.123	761.55
453.497	779.17
453.871	807.42
454.244	802.22
454.618	792.51
454.992	827.53
455.365	810.13
455.739	829.79
456.112	832.51
456.486	843.58
456.859	834.99
457.232	858.04
457.606	857.14
457.979	863.69
458.352	891.49
458.725	880.64
459.099	880.87
459.472	890.58
459.845	905.95
460.218	893.75
460.591	951.15
460.964	947.31
461.337	950.92
461.71	960.64
462.083	941.2
462.456	954.99
462.829	969.23
463.201	989.56
463.574	993.18
463.947	997.25
464.32	1034.08
464.692	1029.11
465.065	1027.08
465.438	1032.5
465.81	1034.53
466.183	1041.54
466.555	1065.27
466.928	1061.65
467.3	1080.18
467.672	1098.71
468.045	1117.24
468.417	1129.22
468.789	1133.06
469.161	1135.55
469.534	1145.94
469.906	1155.66
470.278	1166.73
470.65	1169.22
471.022	1179.62
471.394	1197.24
471.766	1222.78
472.138	1238.82
472.51	1233.17
472.882	1267.98
473.253	1256.9
473.625	1293.29
473.997	1338.26
474.369	1324.7
474.74	1330.35
475.112	1339.16
475.484	1405.82
475.855	1373.96
476.227	1406.95
476.598	1441.08
476.97	1426.84
477.341	1463.68
477.713	1502.77
478.084	1490.12
478.455	1529.89
478.827	1551.81
479.198	1558.36
479.569	1606.5
479.94	1601.07
480.311	1628.87
480.682	1651.24
481.053	1685.37
481.424	1698.02
481.795	1713.39
482.166	1736.66
482.537	1797.45
482.908	1768.98
483.279	1797.45
483.65	1834.29
484.021	1880.84
484.391	1880.61
484.762	1925.36
485.133	1905.92
485.503	1968.97
485.874	1937.79
486.244	2006.26
486.615	1982.08
486.985	2027.73
487.356	2073.15
487.726	2104.56
488.097	2145.92
488.467	2153.6
488.837	2185.69
489.207	2212.58
489.578	2168.97
489.948	2273.15
490.318	2285.35
490.688	2288.74
491.058	2290.55
491.428	2348.17
491.798	2373.48
492.168	2372.13
492.538	2427.04
492.908	2437.21
493.278	2461.62
493.648	2457.55
494.017	2495.06
494.387	2533.7
494.757	2549.07
495.126	2588.39
495.496	2602.4
495.866	2578
496.235	2635.17
496.605	2634.94
496.974	2662.74
497.344	2684.44
497.713	2715.39
498.082	2703.42
498.452	2731.67
498.821	2735.73
499.19	2731.44
499.559	2781.38
499.928	2808.27
500.298	2831.32
500.667	2869.74
501.036	2886.69
501.405	2914.26
501.774	2890.53
502.143	2915.62
502.512	2925.78
502.88	2953.35
503.249	2935.28
503.618	2977.99
503.987	3023.64
504.356	3053.24
504.724	3062.05
505.093	3064.99
505.462	3094.14
505.83	3089.62
506.199	3114.93
506.567	3157.19
506.936	3163.74
507.304	3184.08
507.672	3193.12
508.041	3238.54
508.409	3276.28
508.777	3267.02
509.145	3343.4
509.514	3341.14
509.882	3279
510.25	3313.8
510.618	3363.74
510.986	3402.83
511.354	3406.68
511.722	3427.47
512.09	3479.89
512.458	3487.35
512.826	3520.35
513.193	3521.93
513.561	3555.82
513.929	3565.99
514.297	3609.61
514.664	3620.46
515.032	3638.76
515.4	3681.25
515.767	3707.68
516.135	3732.54
516.502	3736.38
516.869	3737.06
517.237	3759.44
517.604	3834.69
517.972	3841.47
518.339	3878.53
518.706	3915.36
519.073	3975.47
519.44	3968.02
519.808	3998.07
520.175	4028.13
520.542	4022.25
520.909	4087.79
521.276	4090.73
521.643	4110.39
522.009	4129.59
522.376	4177.96
522.743	4201.46
523.11	4269.25
523.477	4310.61
523.843	4338.4
524.21	4380.66
524.577	4392.64
524.943	4447.33
525.31	4427.67
525.676	4491.85
526.043	4461.79
526.409	4571.39
526.776	4591.28
527.142	4618.85
527.508	4660.65
527.874	4697.72
528.241	4688.45
528.607	4759.18
528.973	4781.1
529.339	4810.03
529.705	4900.65
530.071	4858.39
530.437	4929.57
530.803	4991.27
531.169	4925.51
531.535	4969.57
531.901	4958.95
532.267	5089.34
532.632	5065.84
532.998	5133.86
533.364	5146.07
533.73	5181.54
534.095	5220.64
534.461	5249.11
534.826	5260.41
535.192	5316.68
535.557	5353.29
535.923	5401.2
536.288	5406.4
536.653	5373.4
537.019	5422.44
537.384	5423.12
537.749	5527.98
538.114	5503.12
538.479	5531.82
538.845	5548.09
539.21	5570.69
539.575	5634.87
539.94	5647.07
540.305	5727.52
540.67	5653.17
541.034	5732.26
541.399	5708.08
541.764	5788.31
542.129	5824.01
542.494	5854.75
542.858	5874.41
543.223	5892.49
543.587	5997.34
543.952	5977.46
544.316	6022.2
544.681	6010.9
545.045	6098.81
545.41	6110.11
545.774	6167.51
546.138	6140.16
546.503	6186.26
546.867	6249.09
547.231	6291.57
547.595	6330.21
547.959	6409.76
548.324	6382.64
548.688	6404.56
549.052	6443.43
549.416	6507.39
549.779	6534.5
550.143	6555.29
550.507	6625.12
550.871	6657.21
551.235	6663.99
551.599	6740.83
551.962	6761.39
552.326	6812.46
552.689	6887.04
553.053	6935.62
553.417	6966.36
553.78	7049.52
554.143	7017.43
554.507	7137.65
554.87	7166.13
555.234	7212
555.597	7250.64
555.96	7327.02
556.323	7365.89
556.686	7426.01
557.05	7504.65
557.413	7498.55
557.776	7581.48
558.139	7706.22
558.502	7697.64
558.865	7741.03
559.228	7905.99
559.59	7944.18
559.953	7924.52
560.316	8080.45
560.679	8075.93
561.041	8196.61
561.404	8211.97
561.767	8350.73
562.129	8322.48
562.492	8484.73
562.854	8512.3
563.217	8556.37
563.579	8591.4
563.941	8741.45
564.304	8813.99
564.666	8876.14
565.028	8926.3
565.39	9047.66
565.753	9162.23
566.115	9127.43
566.477	9292.17
566.839	9302.79
567.201	9489.45
567.563	9520.87
567.925	9591.6
568.287	9620.98
568.648	9664.59
569.01	9780.52
569.372	9893.96
569.734	9958.14
570.095	10027.52
570.457	10177.57
570.819	10260.73
571.18	10220.51
571.542	10346.38
571.903	10498.24
572.265	10507.73
572.626	10540.27
572.987	10660.95
573.349	10824.11
573.71	10792.47
574.071	10947.49
574.432	10963.31
574.794	11145
575.155	11123.31
575.516	11175.74
575.877	11286.02
576.238	11328.05
576.599	11431.1
576.96	11497.99
577.32	11553.58
577.681	11664.54
578.042	11687.14
578.403	11734.59
578.763	11847.58
579.124	11887.13
579.485	11989.05
579.845	12089.39
580.206	12139.1
580.566	12135.26
580.927	12178.2
581.287	12335.93
581.648	12267.23
582.008	12372.54
582.368	12439.88
582.728	12541.58
583.089	12627
583.449	12511.75
583.809	12629.26
584.169	12740.89
584.529	12810.5
584.889	12846.2
585.249	12855.69
585.609	12827.9
585.969	12963.94
586.329	12966.65
586.688	12989.02
587.048	13051.62
587.408	13146.76
587.768	13117.83
588.127	13197.6
588.487	13127.1
588.846	13396.47
589.206	13220.66
589.565	13308.11
589.925	13362.35
590.284	13445.51
590.643	13441.89
591.003	13593.75
591.362	13500.2
591.721	13555.79
592.08	13557.14
592.44	13686.41
592.799	13712.62
593.158	13753.3
593.517	13774.76
593.876	13854.76
594.235	13889.11
594.593	13930.69
594.952	13935.44
595.311	13916.68
595.67	14011.37
596.029	14171.36
596.387	14172.49
596.746	14196.45
597.104	14217.92
597.463	14186.96
597.822	14181.99
598.18	14200.06
598.538	14329.1
598.897	14328.2
599.255	14293.85
599.613	14597.12
599.972	14432.15
600.33	14567.29
600.688	14525.71
601.046	14602.09
601.404	14580.17
601.762	14621.75
602.12	14806.6
602.478	14739.49
602.836	14813.83
603.194	14660.84
603.552	14755.08
603.91	14725.02
604.268	14793.27
604.625	14812.48
604.983	14896.32
605.341	14932.47
605.698	14941.51
606.056	15008.63
606.413	15026.26
606.771	15020.38
607.128	15110.32
607.485	15084.79
607.843	15090.21
608.2	15187.84
608.557	15280.49
608.914	15204.56
609.272	15244.56
609.629	15308.28
609.986	15452.91
610.343	15353.48
610.7	15502.86
611.057	15435.74
611.414	15392.35
611.771	15429.41
612.127	15609.52
612.484	15565.68
612.841	15708.95
613.198	15545.34
613.554	15629.18
613.911	15724.09
614.267	15740.36
614.624	15728.61
614.98	15722.96
615.337	15808.61
615.693	15811.77
616.05	15886.8
616.406	15852.22
616.762	15867.59
617.118	15888.16
617.475	15856.97
617.831	16007.02
618.187	15931.77
618.543	16016.06
618.899	16029.85
619.255	16101.26
619.611	16023.75
619.967	16189.62
620.323	16140.8
620.678	16106.91
621.034	16178.09
621.39	16119.11
621.746	16097.87
622.101	16345.54
622.457	16081.37
622.812	16204.53
623.168	16270.29
623.523	16226.45
623.879	16311.2
624.234	16175.15
624.589	16339.67
624.945	16292.44
625.3	16288.15
625.655	16367.24
626.01	16312.1
626.365	16297.41
626.72	16283.63
627.075	16294.25
627.43	16353.45
627.785	16333.79
628.14	16318.43
628.495	16418.99
628.85	16366.79
629.205	16256.73
629.559	16315.49
629.914	16316.17
630.269	16282.72
630.623	16166.79
630.978	16164.31
631.332	16371.08
631.687	16335.38
632.041	16269.61
632.396	16315.72
632.75	16205.89
633.104	16261.25
633.459	16214.25
633.813	16191.42
634.167	16250.63
634.521	16159.11
634.875	16197.3
635.229	16159.56
635.583	16115.27
635.937	16019.23
636.291	16136.96
636.645	16146
636.999	16071.2
637.352	16125.66
637.706	16057.87
638.06	16140.35
638.413	16147.81
638.767	16005.89
639.121	16033.24
639.474	15925.89
639.828	15986.01
640.181	16036.85
640.534	16039.11
640.888	15999.34
641.241	15849.29
641.594	15922.28
641.947	15994.82
642.301	15867.59
642.654	15979.23
643.007	15907.59
643.36	15918.66
643.713	15882.05
644.066	15906.46
644.419	15857.65
644.771	15719.8
645.124	15601.38
645.477	15638.44
645.83	15414.72
646.182	15360.94
646.535	15403.87
646.888	15395.74
647.24	15228.06
647.593	15354.16
647.945	15304.89
648.298	15292.01
648.65	15287.95
649.002	15176.08
649.355	15256.76
649.707	15372.69
650.059	15426.7
650.411	15580.14
650.763	15624.89
651.115	15648.84
651.467	15635.73
651.819	15645
652.171	15587.82
652.523	15648.39
652.875	15633.02
653.227	15526.81
653.578	15707.6
653.93	15644.32
654.282	15588.73
654.633	15589.63
654.985	15585.56
655.337	15626.24
655.688	15604.55
656.039	15726.35
656.391	15540.14
656.742	15510.54
657.094	15590.99
657.445	15730.42
657.796	15586.69
658.147	15506.7
658.498	15534.49
658.849	15547.83
659.2	15506.92
659.551	15490.88
659.902	15629.86
660.253	15608.16
660.604	15603.42
660.955	15534.49
661.306	15595.06
661.656	15563.42
662.007	15605.45
662.358	15546.24
662.708	15567.03
663.059	15651.55
663.409	15453.14
663.76	15574.49
664.11	15649.07
664.461	15633.02
664.811	15618.33
665.161	15661.04
665.511	15628.73
665.862	15594.83
666.212	15749.85
666.562	15690.42
666.912	15655.39
667.262	15648.16
667.612	15710.99
667.962	15654.26
668.312	15720.7
668.662	15675.05
669.011	15687.26
669.361	15588.05
669.711	15632.57
670.06	15655.62
670.41	15613.59
670.76	15688.16
671.109	15702.17
671.459	15583.98
671.808	15647.26
672.157	15783.98
672.507	15617.2
672.856	15616.98
673.205	15743.53
673.554	15726.13
673.904	15634.15
674.253	15699.69
674.602	15745.56
674.951	15493.36
675.3	15326.36
675.649	15690.65
675.998	15699.69
676.346	15729.52
676.695	15703.08
677.044	15631.44
677.393	15647.03
677.741	15722.96
678.09	15696.97
678.438	15583.76
678.787	15680.93
679.135	15640.93
679.484	15631.89
679.832	15708.5
680.181	15588.05
680.529	15682.74
680.877	15604.32
681.225	15632.57
681.573	15716.18
681.922	15609.52
682.27	15570.65
682.618	15570.88
682.966	15600.03
683.314	15640.93
683.661	15548.28
684.009	15421.5
684.357	15467.83
684.705	15461.73
685.053	15518.9
685.4	15472.12
685.748	15483.42
686.095	15346.93
686.443	15421.95
686.79	15373.14
687.138	15412.69
687.485	15427.38
687.832	15423.31
688.18	15409.98
688.527	15316.42
688.874	15287.04
689.221	15212.24
689.568	15249.08
689.915	15223.54
690.262	15268.51
690.609	15178.8
690.956	15188.51
691.303	15180.15
691.65	15131.79
691.997	15088.4
692.344	14993.72
692.69	15064.22
693.037	15063.32
693.383	14922.98
693.73	15056.09
694.077	15015.18
694.423	14965.02
694.769	14910.1
695.116	14886.37
695.462	14927.5
695.808	14906.26
696.155	14875.75
696.501	14745.59
696.847	14776.77
697.193	14690.67
697.539	14764.57
697.885	14646.15
698.231	14612.71
698.577	14697.68
698.923	14647.96
699.269	14592.6
699.614	14525.93
699.96	14562.99
700.306	14459.49
700.651	14473.5
700.997	14418.82
701.342	14416.78
701.688	14347.41
702.033	14402.77
702.379	14395.54
702.724	14370.68
703.069	14398.7
703.415	14110.12
703.76	14265.15
704.105	14260.18
704.45	14215.43
704.795	14181.08
705.14	14083.23
705.485	14165.49
705.83	14042.33
706.175	14148.77
706.52	14020.86
706.865	14079.84
707.209	14045.27
707.554	13972.05
707.899	14086.62
708.243	14048.43
708.588	13952.16
708.932	13913.52
709.277	13929.56
709.621	13989
709.966	13851.83
710.31	13824.93
710.654	13791.71
710.998	13791.94
711.342	13862.9
711.687	13844.82
712.031	13761.43
712.375	13680.98
712.719	13789.68
713.063	13824.48
713.407	13804.82
713.75	13684.6
714.094	13685.05
714.438	13693.19
714.782	13693.19
715.125	13526.86
715.469	13630.36
715.812	13614.54
716.156	13477.15
716.499	13464.49
716.843	13611.38
717.186	13444.38
717.53	13522.57
717.873	13490.48
718.216	13505.39
718.559	13442.12
718.902	13328.45
719.246	13378.84
719.589	13396.02
719.932	13370.26
720.275	13361.44
720.617	13292.52
720.96	13270.6
721.303	13323.7
721.646	13408.22
721.989	13285.51
722.331	13391.72
722.674	13276.47
723.016	13298.62
723.359	13280.99
723.701	13241.67
724.044	13206.42
724.386	13144.95
724.729	13218.4
725.071	13165.06
725.413	13144.72
725.755	13206.87
726.097	13120.54
726.439	13114.44
726.782	13112.41
727.124	13164.39
727.465	13123.48
727.807	13178.17
728.149	13097.04
728.491	13037.16
728.833	13090.49
729.175	12995.8
729.516	13013.43
729.858	13003.71
730.199	13098.62
730.541	13026.54
730.882	13026.99
731.224	13099.3
731.565	12923.04
731.906	12915.8
732.248	12986.09
732.589	12903.38
732.93	12818.86
733.271	12871.74
733.612	12964.39
733.953	12810.95
734.294	12810.95
734.635	12787.9
734.976	12876.48
735.317	12728.46
735.658	12832.19
735.999	12754
736.339	12771.63
736.68	12759.42
737.021	12772.31
737.361	12711.52
737.702	12762.36
738.042	12666.32
738.383	12624.96
738.723	12703.15
739.063	12615.25
739.404	12653.66
739.744	12713.55
740.084	12574.8
740.424	12643.04
740.764	12594.91
741.104	12624.74
741.444	12549.03
741.784	12520.56
742.124	12580.22
742.464	12563.72
742.804	12536.83
743.143	12502.71
743.483	12482.37
743.823	12460.45
744.162	12424.97
744.502	12462.26
744.841	12408.7
745.181	12425.2
745.52	12368.25
745.86	12370.06
746.199	12360.34
746.538	12263.62
746.877	12344.29
747.216	12260.91
747.556	12237.63
747.895	12229.95
748.234	12265.65
748.573	12217.74
748.911	12151.98
749.25	12168.48
749.589	12161.25
749.928	12086.22
750.267	12140.23
750.605	12118.31
750.944	12130.74
751.283	11949.5
751.621	11974.36
751.96	11947.92
752.298	11893.68
752.636	11949.28
752.975	11958.54
753.313	11863.85
753.651	11932.55
753.989	11862.95
754.327	11779.11
754.666	11770.98
755.004	11770.3
755.342	11778.66
755.679	11719.68
756.017	11790.86
756.355	11726.91
756.693	11615.95
757.031	11689.62
757.368	11579.12
757.706	11617.08
758.044	11506.58
758.381	11511.32
758.719	11524.2
759.056	11486.01
759.394	11441.72
759.731	11415.5
760.068	11346.35
760.405	11271.78
