Data from brown_tile_FLMS001491_076.txt Node
Date: Tue Feb 07 10:37:59 GMT 2017
User: dcchb
Spectrometer: FLMS00149
Trigger mode: 0
Integration Time (sec): 2.000000E-2
Scans to average: 10
Electric dark correction enabled: true
Nonlinearity correction enabled: false
Boxcar width: 0
XAxis mode: Wavelengths
Number of Pixels in Spectrum: 2048
>>>>>Begin Spectral Data<<<<<
341.393	-19.32
341.776	-19.32
342.16	-19.32
342.543	-39.21
342.927	-86.21
343.31	-73.78
343.693	-71.3
344.077	-66.33
344.46	-47.57
344.843	-30.85
345.226	-49.83
345.61	-34.24
345.993	-20.45
346.376	-3.73
346.759	17.74
347.142	17.97
347.525	48.7
347.908	50.51
348.291	68.13
348.674	87.12
349.057	107.91
349.44	130.51
349.823	138.87
350.206	149.26
350.588	186.32
350.971	204.18
351.354	215.93
351.737	225.42
352.119	237.17
352.502	227.68
352.884	252.08
353.267	249.6
353.65	279.88
354.032	292.99
354.414	283.72
354.797	283.72
355.179	291.4
355.562	299.09
355.944	310.84
356.326	323.27
356.709	324.85
357.091	318.52
357.473	341.12
357.855	323.04
358.238	313.33
358.62	318.3
359.002	342.25
359.384	307.9
359.766	314.68
360.148	321.91
360.53	328.92
360.912	318.07
361.294	317.62
361.676	317.84
362.057	303.83
362.439	307
362.821	321.46
363.203	304.29
363.584	326.43
363.966	323.04
364.348	320.33
364.729	311.97
365.111	311.29
365.493	295.47
365.874	310.61
366.256	331.18
366.637	290.27
367.019	302.48
367.4	282.14
367.781	295.92
368.163	291.4
368.544	295.47
368.925	292.99
369.306	300.22
369.688	278.07
370.069	321.01
370.45	302.03
370.831	310.61
371.212	294.12
371.593	291.86
371.974	300.44
372.355	296.15
372.736	302.48
373.117	296.83
373.498	302.25
373.879	313.1
374.26	309.94
374.641	306.32
375.021	294.79
375.402	315.81
375.783	294.34
376.163	288.92
376.544	316.04
376.925	303.38
377.305	322.82
377.686	307.9
378.066	299.77
378.447	309.48
378.827	312.65
379.208	303.61
379.588	334.57
379.968	311.97
380.349	330.5
380.729	304.29
381.109	303.83
381.489	326.66
381.87	301.12
382.25	320.1
382.63	315.36
383.01	309.94
383.39	298.41
383.77	342.02
384.15	321.91
384.53	330.27
384.91	354.91
385.29	333.89
385.67	304.51
386.049	347.45
386.429	344.74
386.809	332.31
387.189	334.12
387.568	339.09
387.948	345.41
388.328	343.15
388.707	331.86
389.087	347.9
389.466	344.74
389.846	338.64
390.225	343.38
390.605	359.2
390.984	353.32
391.363	350.84
391.743	345.64
392.122	360.1
392.501	347.67
392.881	346.32
393.26	367.56
393.639	342.7
394.018	348.8
394.397	371.63
394.776	374.57
395.155	358.97
395.534	349.03
395.913	360.33
396.292	375.47
396.671	365.53
397.05	369.14
397.429	372.53
397.808	346.32
398.186	356.04
398.565	373.21
398.944	365.08
399.323	380.67
399.701	362.14
400.08	414.79
400.458	369.59
400.837	386.77
401.215	386.09
401.594	342.25
401.972	362.36
402.351	388.8
402.729	390.39
403.107	398.75
403.486	393.32
403.864	383.61
404.242	382.48
404.62	396.03
404.999	391.06
405.377	403.27
405.755	397.84
406.133	398.29
406.511	402.59
406.889	397.84
407.267	415.47
407.645	426.77
408.023	410.5
408.401	411.18
408.779	421.34
409.156	424.06
409.534	435.36
409.912	413.21
410.29	403.04
410.667	426.99
411.045	398.29
411.422	450.72
411.8	444.17
412.178	451.85
412.555	448.24
412.933	427.45
413.31	453.89
413.687	455.02
414.065	456.37
414.442	444.17
414.819	459.31
415.197	455.92
415.574	447.33
415.951	462.93
416.328	469.03
416.705	464.73
417.082	443.27
417.46	467.67
417.837	471.96
418.214	466.32
418.591	493.66
418.967	465.19
419.344	467.22
419.721	476.03
420.098	499.31
420.475	490.5
420.852	471.06
421.228	492.53
421.605	498.63
421.982	501.57
422.358	496.15
422.735	502.7
423.111	488.69
423.488	513.77
423.864	508.8
424.241	502.02
424.617	532.75
424.994	521.68
425.37	515.35
425.746	546.77
426.123	524.17
426.499	530.95
426.875	518.97
427.251	542.7
427.627	552.19
428.003	540.44
428.379	547.44
428.756	517.61
429.132	554.9
429.507	569.82
429.883	580.66
430.259	587.22
430.635	582.92
431.011	565.3
431.387	583.6
431.763	621.79
432.138	596.71
432.514	615.69
432.89	587.89
433.265	599.87
433.641	603.03
434.016	620.44
434.392	601.23
434.767	626.54
435.143	606.2
435.518	613.66
435.894	633.54
436.269	629.25
436.644	650.04
437.02	654.11
437.395	666.54
437.77	650.49
438.145	657.27
438.52	661.34
438.895	662.02
439.271	667.44
439.646	674.22
440.021	683.71
440.395	679.42
440.77	672.86
441.145	679.64
441.52	709.92
441.895	704.05
442.27	707.67
442.645	703.6
443.019	709.47
443.394	705.18
443.769	719.19
444.143	706.08
444.518	739.3
444.892	731.85
445.267	715.12
445.641	734.1
446.016	751.96
446.39	746.08
446.764	744.95
447.139	725.07
447.513	742.69
447.887	758.51
448.262	750.15
448.636	731.39
449.01	763.26
449.384	769.13
449.758	757.16
450.132	792.18
450.506	821.11
450.88	773.2
451.254	812.07
451.628	808.23
452.002	816.81
452.376	815.01
452.75	812.3
453.123	802.13
453.497	819.3
453.871	830.37
454.244	833.09
454.618	850.26
454.992	853.2
455.365	840.77
455.739	865.63
456.112	889.36
456.486	895.46
456.859	885.29
457.232	918.51
457.606	901.11
457.979	898.39
458.352	920.54
458.725	920.99
459.099	931.16
459.472	989.69
459.845	948.79
460.218	934.78
460.591	948.34
460.964	980.2
461.337	964.61
461.71	984.95
462.083	985.62
462.456	995.79
462.829	1019.3
463.201	1040.09
463.574	1022.23
463.947	1048.45
464.32	1051.61
464.692	1062.46
465.065	1093.42
465.438	1087.99
465.81	1113.76
466.183	1095.45
466.555	1105.17
466.928	1123.93
467.3	1130.93
467.672	1161.44
468.045	1169.35
468.417	1187.65
468.789	1178.84
469.161	1203.25
469.534	1211.15
469.906	1228.33
470.278	1226.52
470.65	1229.69
471.022	1239.18
471.394	1282.79
471.766	1281.44
472.138	1288.21
472.51	1314.43
472.882	1348.1
473.253	1355.11
473.625	1367.31
473.997	1370.02
474.369	1396.23
474.74	1421.77
475.112	1423.35
475.484	1441.43
475.855	1456.8
476.227	1492.5
476.598	1516.01
476.97	1497.93
477.341	1537.47
477.713	1574.08
478.084	1577.92
478.455	1639.39
478.827	1607.98
479.198	1639.17
479.569	1663.35
479.94	1684.14
480.311	1707.64
480.682	1749.9
481.053	1771.82
481.424	1773.85
481.795	1817.24
482.166	1844.13
482.537	1840.74
482.908	1898.37
483.279	1930.23
483.65	1953.28
484.021	1960.74
484.391	1989.89
484.762	2026.05
485.133	2041.87
485.503	2053.39
485.874	2100.85
486.244	2115.54
486.615	2132.03
486.985	2158.93
487.356	2179.04
487.726	2215.42
488.097	2230.11
488.467	2242.77
488.837	2313.72
489.207	2340.62
489.578	2348.98
489.948	2343.33
490.318	2416.55
490.688	2426.04
491.058	2451.57
491.428	2484.57
491.798	2497.9
492.168	2544
492.538	2518.24
492.908	2581.97
493.278	2606.6
493.648	2583.55
494.017	2649.08
494.387	2708.97
494.757	2687.73
495.126	2705.58
495.496	2713.71
495.866	2742.19
496.235	2739.93
496.605	2783.09
496.974	2845.69
497.344	2853.37
497.713	2878.46
498.082	2901.28
498.452	2929.08
498.821	2900.38
499.19	2918.45
499.559	2992.58
499.928	2942.18
500.298	3006.59
500.667	3035.06
501.036	3018.11
501.405	3072.12
501.774	3074.83
502.143	3101.5
502.512	3081.16
502.88	3120.93
503.249	3132.01
503.618	3153.48
503.987	3162.06
504.356	3183.98
504.724	3222.63
505.093	3265.34
505.462	3253.13
505.83	3254.04
506.199	3338.56
506.567	3390.31
506.936	3345.56
507.304	3429.85
507.672	3406.58
508.041	3450.42
508.409	3421.72
508.777	3478.67
509.145	3501.72
509.514	3512.11
509.882	3543.3
510.25	3548.49
510.618	3593.01
510.986	3588.04
511.354	3632.11
511.722	3652.22
512.09	3681.6
512.458	3701.03
512.826	3719.56
513.193	3711.2
513.561	3745.33
513.929	3835.94
514.297	3783.74
514.664	3857.19
515.032	3821.03
515.4	3844.76
515.767	3934.7
516.135	3982.61
516.502	3931.99
516.869	4028.93
517.237	4021.25
517.604	4005.21
517.972	4065.32
518.339	4084.53
518.706	4098.31
519.073	4175.14
519.44	4165.65
519.808	4207.69
520.175	4192.32
520.542	4246.33
520.909	4294.92
521.276	4267.57
521.643	4341.47
522.009	4378.3
522.376	4447
522.743	4454.23
523.11	4485.64
523.477	4536.26
523.843	4561.8
524.21	4585.3
524.577	4654.68
524.943	4693.77
525.31	4714.11
525.676	4755.02
526.043	4781.46
526.409	4797.5
526.776	4889.25
527.142	4830.49
527.508	4952.75
527.874	4896.03
528.241	4950.72
528.607	5000.66
528.973	5084.95
529.339	5044.95
529.705	5138.51
530.071	5126.76
530.437	5213.31
530.803	5231.16
531.169	5257.83
531.535	5240.2
531.901	5314.1
532.267	5331.05
532.632	5368.79
532.998	5385.06
533.364	5401.78
533.73	5448.33
534.095	5459.18
534.461	5548.44
534.826	5567.2
535.192	5576.46
535.557	5657.37
535.923	5664.82
536.288	5694.65
536.653	5722.22
537.019	5723.58
537.384	5750.92
537.749	5815.78
538.114	5818.72
538.479	5870.24
538.845	5881.77
539.21	5893.52
539.575	5948.43
539.94	6007.19
540.305	6044.93
540.67	6020.29
541.034	6010.58
541.399	6073.63
541.764	6107.3
542.129	6142.1
542.494	6209.67
542.858	6246.5
543.223	6264.81
543.587	6271.36
543.952	6294.41
544.316	6392.26
544.681	6366.05
545.045	6417.8
545.41	6438.81
545.774	6529.43
546.138	6465.93
546.503	6595.42
546.867	6578.7
547.231	6687.39
547.595	6684.01
547.959	6741.63
548.324	6743.66
548.688	6768.52
549.052	6827.05
549.416	6879.93
549.779	6894.39
550.143	6934.85
550.507	7022.53
550.871	7067.27
551.235	7047.16
551.599	7066.59
551.962	7136.87
552.326	7227.27
552.689	7293.48
553.053	7265.68
553.417	7308.17
553.78	7402.86
554.143	7430.88
554.507	7454.83
554.87	7520.59
555.234	7670.65
555.597	7634.94
555.96	7679.46
556.323	7806.91
556.686	7837.87
557.05	7878.55
557.413	7995.83
557.776	7983.63
558.139	8121.48
558.502	8182.95
558.865	8185.66
559.228	8270.63
559.59	8330.29
559.953	8426.33
560.316	8489.83
560.679	8575.03
561.041	8680.79
561.404	8682.6
561.767	8805.98
562.129	8808.02
562.492	8927.34
562.854	8992.87
563.217	9052.08
563.579	9100.44
563.941	9171.4
564.304	9246.88
564.666	9411.16
565.028	9440.77
565.39	9549.01
565.753	9606.19
566.115	9601.22
566.477	9743.36
566.839	9834.2
567.201	9982
567.563	10047.08
567.925	10144.03
568.287	10128.43
568.648	10255.21
569.01	10343.12
569.372	10456.79
569.734	10480.52
570.095	10590.57
570.457	10687.74
570.819	10799.38
571.18	10762.09
571.542	10889.09
571.903	10966.38
572.265	11058.58
572.626	11186.26
572.987	11170.67
573.349	11259.93
573.71	11394.62
574.071	11456.31
574.432	11511
574.794	11677.55
575.155	11710.09
575.516	11744.66
575.877	11815.4
576.238	11874.83
576.599	11989.4
576.96	12047.25
577.32	12070.76
577.681	12265.1
578.042	12256.06
578.403	12416.74
578.763	12305.33
579.124	12566.56
579.485	12544.87
579.845	12633
580.206	12704.19
580.566	12743.73
580.927	12785.09
581.287	12910.51
581.648	12892.2
582.008	12969.04
582.368	12949.38
582.728	13068.47
583.089	13151.86
583.449	13135.36
583.809	13203.61
584.169	13283.83
584.529	13248.13
584.889	13534.45
585.249	13407.22
585.609	13442.25
585.969	13628.91
586.329	13620.09
586.688	13620.77
587.048	13751.84
587.408	13686.53
587.768	13777.15
588.127	13837.04
588.487	13876.13
588.846	14006.52
589.206	13942.8
589.565	13952.74
589.925	14054.21
590.284	14085.84
590.643	14097.6
591.003	14237.03
591.362	14174.66
591.721	14286.52
592.08	14310.47
592.44	14384.37
592.799	14484.93
593.158	14429.34
593.517	14473.4
593.876	14512.05
594.235	14550.46
594.593	14528.77
594.952	14530.58
595.311	14614.64
595.67	14696
596.029	14789.78
596.387	14797.92
596.746	14885.6
597.104	14820.29
597.463	14774.87
597.822	14986.39
598.18	14893.73
598.538	14972.83
598.897	15027.51
599.255	14953.84
599.613	15121.3
599.972	15116.55
600.33	15208.98
600.688	15236.55
601.046	15244.23
601.404	15326.94
601.762	15242.88
602.12	15321.52
602.478	15353.38
602.836	15375.75
603.194	15395.19
603.552	15498.69
603.91	15414.4
604.268	15554.51
604.625	15446.94
604.983	15605.58
605.341	15517.67
605.698	15736.42
606.056	15669.76
606.413	15674.05
606.771	15787.95
607.128	15809.19
607.485	15735.74
607.843	15716.54
608.2	15872.69
608.557	15961.05
608.914	15922.86
609.272	16051.44
609.629	16013.03
609.986	16008.96
610.343	16048.05
610.7	16103.42
611.057	16133.7
611.414	16288.95
611.771	16168.28
612.127	16308.38
612.484	16277.65
612.841	16335.73
613.198	16297.99
613.554	16312.45
613.911	16450.98
614.267	16407.59
614.624	16409.85
614.98	16476.52
615.337	16580.02
615.693	16483.07
616.05	16568.26
616.406	16612.56
616.762	16613.91
617.118	16570.07
617.475	16619.11
617.831	16600.35
618.187	16675.38
618.543	16769.62
618.899	16721.71
619.255	16784.98
619.611	16740.46
619.967	16855.26
620.323	16929.16
620.678	16890.97
621.034	16798.09
621.39	16790.86
621.746	16822.04
622.101	17019.33
622.457	16777.52
622.812	16947.92
623.168	16884.64
623.523	16983.85
623.879	17017.74
624.234	16874.92
624.589	16934.81
624.945	17019.1
625.3	17012.1
625.655	17008.25
626.01	17015.94
626.365	17042.6
626.72	17041.92
627.075	17073.56
627.43	17026.56
627.785	16970.06
628.14	17062.04
628.495	17084.18
628.85	17106.56
629.205	16947.69
629.559	17126.89
629.914	16918.54
630.269	16964.19
630.623	16981.36
630.978	16871.31
631.332	16969.61
631.687	16981.81
632.041	16857.07
632.396	17047.35
632.75	16978.88
633.104	16967.8
633.459	16838.09
633.813	16872.66
634.167	16932.55
634.521	16907.69
634.875	16984.53
635.229	16797.41
635.583	16860.01
635.937	16954.24
636.291	16841.7
636.645	16854.13
636.999	16739.79
637.352	16734.14
637.706	16693.69
638.06	16853.91
638.413	16762.38
638.767	16678.09
639.121	16680.58
639.474	16747.02
639.828	16686.68
640.181	16726.23
640.534	16633.35
640.888	16667.92
641.241	16506.57
641.594	16634.03
641.947	16664.31
642.301	16692.78
642.654	16594.93
643.007	16612.78
643.36	16626.57
643.713	16608.72
644.066	16626.79
644.419	16488.04
644.771	16417.76
645.124	16310.87
645.477	16301.83
645.83	16128.05
646.182	16000.14
646.535	16090.09
646.888	16079.24
647.24	16006.7
647.593	16138.67
647.945	16028.84
648.298	15973.03
648.65	16067.04
649.002	15893.25
649.355	15953.14
649.707	15950.65
650.059	16062.29
650.411	16246.01
650.763	16260.25
651.115	16430.42
651.467	16318.78
651.819	16368.72
652.171	16393.35
652.523	16293.47
652.875	16267.48
653.227	16216.86
653.578	16388.61
653.93	16334.15
654.282	16222.06
654.633	16281.04
654.985	16320.59
655.337	16237.43
655.688	16298.89
656.039	16327.37
656.391	16229.29
656.742	16204.66
657.094	16227.71
657.445	16293.92
657.796	16267.93
658.147	16290.53
658.498	16225.9
658.849	16313.36
659.2	16187.94
659.551	16281.04
659.902	16304.54
660.253	16298.67
660.604	16323.98
660.955	16171.89
661.306	16299.8
661.656	16225.68
662.007	16213.92
662.358	16279.23
662.708	16334.37
663.059	16328.5
663.409	16203.53
663.76	16392.68
664.11	16357.87
664.461	16330.53
664.811	16317.88
665.161	16347.48
665.511	16348.38
665.862	16287.37
666.212	16335.95
666.562	16432.68
666.912	16335.28
667.262	16374.15
667.612	16279.91
667.962	16419.79
668.312	16408.5
668.662	16476.97
669.011	16394.26
669.361	16332.34
669.711	16306.8
670.06	16314.71
670.41	16268.61
670.76	16279.01
671.109	16412.79
671.459	16464.09
671.808	16359.23
672.157	16457.76
672.507	16290.31
672.856	16346.58
673.205	16388.38
673.554	16366.69
673.904	16323.75
674.253	16460.25
674.602	16378.21
674.951	16170.99
675.3	16065.45
675.649	16306.8
675.998	16274.26
676.346	16360.13
676.695	16444.88
677.044	16264.54
677.393	16422.73
677.741	16434.71
678.09	16382.73
678.438	16372.56
678.787	16414.82
679.135	16412.79
679.484	16401.49
679.832	16414.6
680.181	16251.89
680.529	16398.55
680.877	16294.37
681.225	16276.97
681.573	16383.86
681.922	16215.96
682.27	16277.2
682.618	16267.93
682.966	16279.46
683.314	16278.33
683.661	16223.87
684.009	16144.1
684.357	16144.77
684.705	16165.11
685.053	16145.68
685.4	16220.25
685.748	16058.9
686.095	16142.74
686.443	16032.01
686.79	16030.88
687.138	16106.58
687.485	16034.04
687.832	16050.54
688.18	15997.43
688.527	16010.77
688.874	15933.71
689.221	15952.24
689.568	15886.7
689.915	15808.06
690.262	15916.53
690.609	15906.14
690.956	15827.95
691.303	15808.96
691.65	15682.41
691.997	15764.22
692.344	15659.59
692.69	15733.03
693.037	15720.15
693.383	15553.38
693.73	15611.91
694.077	15672.92
694.423	15515.86
694.769	15556.99
695.116	15448.75
695.462	15499.37
695.808	15470.89
696.155	15516.99
696.501	15422.08
696.847	15403.78
697.193	15241.29
697.539	15333.27
697.885	15269.09
698.231	15199.49
698.577	15157.91
698.923	15227.51
699.269	15173.73
699.614	15175.99
699.96	15046.95
700.306	15096.89
700.651	15050.11
700.997	14906.61
701.342	14937.8
701.688	15039.72
702.033	14965.82
702.379	14894.18
702.724	14934.18
703.069	14971.92
703.415	14787.52
703.76	14775.54
704.105	14811.25
704.45	14762.21
704.795	14690.12
705.14	14715.66
705.485	14627.3
705.83	14606.73
706.175	14606.06
706.52	14632.72
706.865	14564.93
707.209	14572.16
707.554	14514.08
707.899	14536.45
708.243	14551.59
708.588	14514.53
708.932	14479.51
709.277	14335.78
709.621	14419.39
709.966	14326.97
710.31	14348.21
710.654	14276.8
710.998	14346.18
711.342	14394.99
711.687	14241.55
712.031	14270.25
712.375	14208.33
712.719	14201.32
713.063	14238.38
713.407	14432.73
713.75	14190.93
714.094	14181.66
714.438	14120.87
714.782	14177.14
715.125	14087.88
715.469	14204.26
715.812	14071.61
716.156	14009.91
716.499	14004.04
716.843	14057.6
717.186	13930.14
717.53	14118.16
717.873	14145.73
718.216	14061.66
718.559	13974.89
718.902	13908.45
719.246	13964.27
719.589	13878.84
719.932	13857.6
720.275	13907.77
720.617	13898.05
720.96	13824.83
721.303	13865.29
721.646	13895.34
721.989	13740.54
722.331	13885.4
722.674	13783.25
723.016	13834.78
723.359	13818.96
723.701	13793.65
724.044	13800.2
724.386	13741.9
724.729	13803.14
725.071	13708.23
725.413	13732.86
725.755	13711.16
726.097	13678.62
726.439	13648.34
726.782	13661.22
727.124	13615.12
727.465	13631.84
727.807	13612.64
728.149	13608.34
728.491	13609.25
728.833	13591.39
729.175	13501.9
729.516	13540.55
729.858	13583.94
730.199	13519.98
730.541	13535.12
730.882	13491.51
731.224	13538.51
731.565	13465.07
731.906	13442.02
732.248	13561.11
732.589	13472.3
732.93	13431.4
733.271	13455.13
733.612	13399.53
733.953	13427.33
734.294	13384.17
734.635	13299.65
734.976	13440.66
735.317	13335.81
735.658	13304.85
735.999	13363.6
736.339	13256.04
736.68	13317.73
737.021	13265.98
737.361	13221.46
737.702	13309.37
738.042	13223.04
738.383	13158.64
738.723	13265.98
739.063	13191.4
739.404	13239.99
739.744	13130.84
740.084	13152.08
740.424	13180.33
740.764	13133.33
741.104	13251.06
741.444	13090.16
741.784	13056.72
742.124	13061.24
742.464	13021.24
742.804	13007.45
743.143	13034.8
743.483	13005.87
743.823	12939.43
744.162	12905.54
744.502	13019.21
744.841	12937.17
745.181	12979.66
745.52	12927.91
745.86	12957.74
746.199	12826.22
746.538	12823.96
746.877	12883.16
747.216	12890.4
747.556	12775.14
747.895	12810.4
748.234	12673.23
748.573	12771.98
748.911	12761.81
749.25	12742.83
749.589	12647.24
749.928	12579.67
750.267	12667.12
750.605	12626.67
750.944	12533.79
751.283	12587.8
751.621	12560.91
751.96	12507.81
752.298	12496.28
752.636	12473.68
752.975	12419.45
753.313	12308.04
753.651	12450.86
753.989	12291.54
754.327	12311.43
754.666	12267.59
755.004	12266.23
755.342	12364.31
755.679	12338.32
756.017	12164.99
756.355	12239.79
756.693	12164.54
757.031	12226.46
757.368	12101.26
757.706	12066.69
758.044	12040.93
758.381	12048.61
758.719	12025.11
759.056	11993.02
759.394	11898.11
759.731	11838.45
760.068	11808.84
