Data from brown_tile_FLMS001491_063.txt Node
Date: Tue Feb 07 10:37:50 GMT 2017
User: dcchb
Spectrometer: FLMS00149
Trigger mode: 0
Integration Time (sec): 2.000000E-2
Scans to average: 10
Electric dark correction enabled: true
Nonlinearity correction enabled: false
Boxcar width: 0
XAxis mode: Wavelengths
Number of Pixels in Spectrum: 2048
>>>>>Begin Spectral Data<<<<<
341.393	-10.76
341.776	-10.76
342.16	-10.76
342.543	-65.9
342.927	-54.15
343.31	-67.94
343.693	-79.01
344.077	-64.55
344.46	-60.7
344.843	-46.02
345.226	-53.7
345.61	-11.21
345.993	-11.44
346.376	-6.69
346.759	2.12
347.142	28.78
347.525	25.17
347.908	81.44
348.291	69.69
348.674	97.48
349.057	96.58
349.44	112.17
349.823	126.86
350.206	134.54
350.588	178.39
350.971	187.42
351.354	189.01
351.737	225.62
352.119	242.56
352.502	239.85
352.884	258.84
353.267	262.9
353.65	270.59
354.032	272.62
354.414	289.34
354.797	308.55
355.179	307.42
355.562	299.96
355.944	301.55
356.326	320.53
356.709	308.78
357.091	315.78
357.473	303.81
357.855	312.62
358.238	320.75
358.62	350.58
359.002	312.84
359.384	317.59
359.766	334.99
360.148	316.91
360.53	313.07
360.912	326.86
361.294	320.08
361.676	318.04
362.057	319.85
362.439	305.61
362.821	310.59
363.203	304.48
363.584	287.31
363.966	302.45
364.348	292.96
364.729	299.06
365.111	315.1
365.493	309.23
365.874	285.5
366.256	297.48
366.637	291.38
367.019	283.92
367.4	308.33
367.781	293.18
368.163	296.12
368.544	292.28
368.925	306.29
369.306	302.68
369.688	290.02
370.069	273.3
370.45	292.51
370.831	281.89
371.212	280.76
371.593	295.9
371.974	316.46
372.355	287.31
372.736	315.1
373.117	300.87
373.498	299.06
373.879	297.25
374.26	295.44
374.641	301.77
375.021	303.35
375.402	289.79
375.783	300.87
376.163	306.74
376.544	317.14
376.925	311.94
377.305	283.24
377.686	305.16
378.066	302.68
378.447	309
378.827	299.74
379.208	323.92
379.588	298.83
379.968	319.62
380.349	303.81
380.729	316.46
381.109	287.53
381.489	321.88
381.87	329.34
382.25	308.33
382.63	315.33
383.01	319.4
383.39	307.87
383.77	316.01
384.15	310.81
384.53	325.95
384.91	311.04
385.29	316.91
385.67	348.78
386.049	325.05
386.429	340.41
386.809	338.83
387.189	316.23
387.568	321.66
387.948	339.51
388.328	316.23
388.707	317.82
389.087	332.96
389.466	341.09
389.846	333.41
390.225	335.9
390.605	322.56
390.984	350.36
391.363	342.45
391.743	336.12
392.122	334.99
392.501	323.92
392.881	360.08
393.26	372.28
393.639	328.21
394.018	358.04
394.397	360.53
394.776	350.13
395.155	333.86
395.534	345.84
395.913	374.31
396.292	348.1
396.671	347.42
397.05	363.92
397.429	355.33
397.808	363.24
398.186	362.56
398.565	358.49
398.944	356.01
399.323	349.91
399.701	366.63
400.08	349.68
400.458	379.96
400.837	377.7
401.215	370.02
401.594	368.89
401.972	371.15
402.351	363.92
402.729	382.22
403.107	369.79
403.486	387.42
403.864	388.32
404.242	378.83
404.62	396.01
404.999	385.16
405.377	371.83
405.755	387.19
406.133	397.59
406.511	385.39
406.889	389.91
407.267	383.13
407.645	388.55
408.023	394.42
408.401	384.03
408.779	413.18
409.156	390.58
409.534	414.31
409.912	420.86
410.29	438.04
410.667	409.57
411.045	426.74
411.422	416.57
411.8	421.54
412.178	407.76
412.555	427.87
412.933	425.16
413.31	438.72
413.687	429.45
414.065	439.4
414.442	438.49
414.819	452.73
415.197	431.94
415.574	447.76
415.951	445.5
416.328	436.46
416.705	449.56
417.082	464.25
417.46	449.34
417.837	452.73
418.214	464.48
418.591	459.06
418.967	464.25
419.344	466.29
419.721	469.22
420.098	471.03
420.475	484.37
420.852	469.45
421.228	490.69
421.605	478.72
421.982	474.2
422.358	479.17
422.735	475.1
423.111	475.1
423.488	488.66
423.864	490.02
424.241	506.51
424.617	489.34
424.994	478.04
425.37	509.9
425.746	523.01
426.123	494.31
426.499	511.71
426.875	520.75
427.251	521.65
427.627	517.81
428.003	529.79
428.379	524.59
428.756	538.6
429.132	517.59
429.507	519.39
429.883	518.04
430.259	521.2
430.635	543.35
431.011	546.29
431.387	566.17
431.763	575.66
432.138	561.65
432.514	585.83
432.89	562.33
433.265	586.28
433.641	601.65
434.016	584.02
434.392	599.17
434.767	592.84
435.143	610.92
435.518	597.13
435.894	609.79
436.269	600.07
436.644	664.02
437.02	622.22
437.395	624.48
437.77	630.12
438.145	608.43
438.52	629.45
438.895	652.5
439.271	660.86
439.646	658.15
440.021	646.4
440.395	680.07
440.77	663.57
441.145	658.15
441.52	646.4
441.895	670.58
442.27	673.29
442.645	665.83
443.019	691.59
443.394	665.83
443.769	670.35
444.143	671.71
444.518	681.87
444.892	704.47
445.267	711.48
445.641	702.21
446.016	688.2
446.39	716
446.764	714.87
447.139	712.83
447.513	725.72
447.887	715.55
448.262	716
448.636	709.67
449.01	740.18
449.384	720.29
449.758	744.92
450.132	728.2
450.506	739.95
450.88	742.44
451.254	760.29
451.628	755.77
452.002	754.19
452.376	741.08
452.75	770.69
453.123	807.75
453.497	807.07
453.871	783.12
454.244	801.65
454.618	820.18
454.992	805.71
455.365	807.3
455.739	827.63
456.112	842.55
456.486	826.5
456.859	845.26
457.232	885.49
457.606	837.58
457.979	887.52
458.352	865.15
458.725	872.83
459.099	883.68
459.472	908.31
459.845	914.19
460.218	894.75
460.591	925.26
460.964	900.63
461.337	983.11
461.71	935.88
462.083	947.4
462.456	960.96
462.829	949.44
463.201	995.99
463.574	985.82
463.947	997.12
464.32	1002.54
464.692	997.57
465.065	1034.86
465.438	1028.08
465.81	1041.87
466.183	1033.28
466.555	1051.58
466.928	1087.29
467.3	1085.71
467.672	1103.78
468.045	1120.96
468.417	1112.37
468.789	1115.99
469.161	1133.39
469.534	1153.5
469.906	1139.04
470.278	1172.94
470.65	1162.77
471.022	1218.36
471.394	1223.1
471.766	1191.24
472.138	1226.72
472.51	1234.4
472.882	1272.59
473.253	1267.85
473.625	1280.05
473.997	1299.71
474.369	1313.5
474.74	1329.54
475.112	1359.6
475.484	1345.81
475.855	1376.32
476.227	1402.08
476.598	1418.13
476.97	1424.91
477.341	1443.21
477.713	1459.26
478.084	1497.67
478.455	1561.17
478.827	1527.28
479.198	1593.26
479.569	1600.27
479.94	1599.36
480.311	1626.26
480.682	1616.09
481.053	1668.97
481.424	1686.59
481.795	1696.99
482.166	1752.58
482.537	1752.58
482.908	1780.83
483.279	1793.48
483.65	1815.63
484.021	1847.27
484.391	1879.58
484.762	1886.81
485.133	1911.45
485.503	1961.39
485.874	1977.66
486.244	1976.3
486.615	1980.82
486.985	2017.21
487.356	2082.29
487.726	2096.75
488.097	2141.05
488.467	2141.72
488.837	2159.35
489.207	2193.7
489.578	2253.58
489.948	2223.08
490.318	2276.41
490.688	2273.25
491.058	2303.3
491.428	2342.17
491.798	2366.58
492.168	2388.95
492.538	2393.69
492.908	2454.26
493.278	2435.5
493.648	2464.43
494.017	2500.13
494.387	2509.4
494.757	2505.1
495.126	2565.44
495.496	2606.57
495.866	2600.69
496.235	2631.65
496.605	2614.71
496.974	2630.07
497.344	2671.65
497.713	2658.55
498.082	2725.66
498.452	2708.94
498.821	2739
499.19	2752.55
499.559	2767.47
499.928	2790.97
500.298	2811.31
500.667	2845.43
501.036	2854.47
501.405	2885.66
501.774	2914.81
502.143	2936.5
502.512	2930.18
502.88	2961.14
503.249	2985.32
503.618	2948.03
503.987	3027.8
504.356	3040.91
504.724	3070.06
505.093	3067.35
505.462	3047.69
505.83	3076.39
506.199	3126.33
506.567	3181.47
506.936	3166.33
507.304	3206.78
507.672	3192.77
508.041	3194.35
508.409	3215.59
508.777	3296.27
509.145	3299.43
509.514	3329.71
509.882	3371.3
510.25	3328.36
510.618	3389.83
510.986	3405.64
511.354	3424.4
511.722	3430.95
512.09	3464.85
512.458	3496.72
512.826	3507.11
513.193	3513.21
513.561	3506.21
513.929	3591.63
514.297	3622.14
514.664	3592.53
515.032	3634.57
515.4	3692.42
515.767	3679.76
516.135	3715.92
516.502	3711.17
516.869	3785.07
517.237	3769.03
517.604	3828.23
517.972	3851.96
518.339	3891.73
518.706	3886.31
519.073	3918.4
519.44	3926.76
519.808	3958.62
520.175	3985.74
520.542	4021.45
520.909	4050.6
521.276	4082.92
521.643	4114.55
522.009	4140.77
522.376	4168.79
522.743	4193.65
523.11	4251.5
523.477	4284.27
523.843	4308.45
524.21	4364.04
524.577	4388.22
524.943	4420.08
525.31	4467.76
525.676	4463.02
526.043	4504.6
526.409	4542.79
526.776	4577.59
527.142	4571.94
527.508	4669.34
527.874	4716.57
528.241	4723.8
528.607	4728.55
528.973	4774.65
529.339	4791.6
529.705	4889.22
530.071	4882.22
530.437	4928.09
530.803	4971.93
531.169	4998.6
531.535	4973.97
531.901	4991.82
532.267	5055.09
532.632	5046.96
532.998	5126.96
533.364	5113.17
533.73	5154.75
534.095	5209.67
534.461	5233.17
534.826	5250.57
535.192	5322.66
535.557	5323.56
535.923	5326.05
536.288	5404.01
536.653	5408.53
537.019	5432.26
537.384	5457.34
537.749	5488.75
538.114	5481.75
538.479	5522.43
538.845	5600.16
539.21	5587.73
539.575	5673.61
539.94	5637.68
540.305	5694.17
540.67	5664.57
541.034	5735.3
541.399	5735.08
541.764	5813.72
542.129	5836.09
542.494	5874.28
542.858	5925.13
543.223	5947.72
543.587	5991.11
543.952	5987.95
544.316	6015.52
544.681	6015.52
545.045	6053.94
545.41	6134.39
545.774	6171.67
546.138	6118.79
546.503	6201.73
546.867	6236.76
547.231	6311.78
547.595	6327.6
547.959	6340.48
548.324	6406.7
548.688	6419.58
549.052	6439.46
549.416	6450.99
549.779	6526.24
550.143	6529.86
550.507	6621.15
550.871	6619.12
551.235	6717.87
551.599	6703.19
551.962	6811.88
552.326	6847.59
552.689	6885.1
553.053	6884.2
553.417	6958.77
553.78	7036.74
554.143	7036.74
554.507	7113.8
554.87	7100.69
555.234	7195.6
555.597	7291.64
555.96	7325.09
556.323	7401.7
556.686	7444.41
557.05	7452.77
557.413	7555.82
557.776	7609.6
558.139	7650.73
558.502	7661.35
558.865	7778.41
559.228	7886.66
559.59	7932.98
559.953	7957.84
560.316	8071.06
560.679	8095.69
561.041	8175.46
561.404	8287.55
561.767	8323.48
562.129	8343.82
562.492	8454.33
562.854	8552.18
563.217	8585.62
563.579	8663.36
563.941	8750.14
564.304	8808.67
564.666	8893.18
565.028	8932.28
565.39	9001.2
565.753	9104.93
566.115	9211.37
566.477	9223.35
566.839	9351.7
567.201	9479.84
567.563	9481.64
567.925	9630.34
568.287	9673.28
568.648	9698.59
569.01	9810
569.372	9948.07
569.734	9871.24
570.095	10031.46
570.457	10072.81
570.819	10247.27
571.18	10246.82
571.542	10312.13
571.903	10358.91
572.265	10420.6
572.626	10539.47
572.987	10617.43
573.349	10698.79
573.71	10777.65
574.071	10794.83
574.432	10868.05
574.794	11087.93
575.155	11103.75
575.516	11150.98
575.877	11257.19
576.238	11311.2
576.599	11455.38
576.96	11358.43
577.32	11425.55
577.681	11576.5
578.042	11699.89
578.403	11747.35
578.763	11807.01
579.124	11906.21
579.485	11953.22
579.845	11989.6
580.206	12032.76
580.566	12079.99
580.927	12153.21
581.287	12345.52
581.648	12240.44
582.008	12407.44
582.368	12391.62
582.728	12398.85
583.089	12492.86
583.449	12551.39
583.809	12632.97
584.169	12674.33
584.529	12658.28
584.889	12869.58
585.249	12821.22
585.609	12840.65
585.969	12973.3
586.329	12913.42
586.688	13090.59
587.048	13023.02
587.408	13104.82
587.768	13082.45
588.127	13122.68
588.487	13179.4
588.846	13257.36
589.206	13206.74
589.565	13263.69
589.925	13364.25
590.284	13353.63
590.643	13461.88
591.003	13459.39
591.362	13549.11
591.721	13551.14
592.08	13587.07
592.44	13647.64
592.799	13708.2
593.158	13707.52
593.517	13741.64
593.876	13856.44
594.235	13823.22
594.593	13861.64
594.952	13902.77
595.311	13875.88
595.67	14021.19
596.029	14067.96
596.387	14097.12
596.746	14121.07
597.104	14120.62
597.463	14099.6
597.822	14184.57
598.18	14142.76
598.538	14182.76
598.897	14334.17
599.255	14251.46
599.613	14412.81
599.972	14426.82
600.33	14399.93
600.688	14461.63
601.046	14462.98
601.404	14589.31
601.762	14632.69
602.12	14719.02
602.478	14688.96
602.836	14734.16
603.194	14688.06
603.552	14845.57
603.91	14721.51
604.268	14800.6
604.625	14847.83
604.983	14895.96
605.341	14841.28
605.698	14838.11
606.056	14889.86
606.413	14923.76
606.771	14891.67
607.128	15090.76
607.485	15029.07
607.843	15121.72
608.2	15136.86
608.557	15102.74
608.914	15176.41
609.272	15335.05
609.629	15239.46
609.986	15280.59
610.343	15294.15
610.7	15394.93
611.057	15392.67
611.414	15350.19
611.771	15447.59
612.127	15449.85
612.484	15415.95
612.841	15532.56
613.198	15453.92
613.554	15470.41
613.911	15529.62
614.267	15608.71
614.624	15573.46
614.98	15696.4
615.337	15695.72
615.693	15751.31
616.05	15704.3
616.406	15777.97
616.762	15796.05
617.118	15758.31
617.475	15781.82
617.831	15802.61
618.187	15894.81
618.543	15885.54
618.899	15970.06
619.255	15934.36
619.611	15969.83
619.967	16049.83
620.323	16033.56
620.678	16020.68
621.034	16001.25
621.39	15998.31
621.746	16019.55
622.101	16232.43
622.457	16053.22
622.812	16166.21
623.168	16143.39
623.523	16180
623.879	16213.9
624.234	16076.27
624.589	16160.79
624.945	16108.14
625.3	16291.63
625.655	16193.11
626.01	16149.49
626.365	16166.89
626.72	16163.28
627.075	16165.99
627.43	16251.41
627.785	16162.82
628.14	16227.45
628.495	16256.38
628.85	16249.15
629.205	16181.58
629.559	16228.81
629.914	16097.74
630.269	16195.37
630.623	16092.32
630.978	16156.72
631.332	16235.59
631.687	16235.14
632.041	16230.17
632.396	16183.61
632.75	16097.97
633.104	16196.72
633.459	16131.19
633.813	16108.59
634.167	16091.64
634.521	16105.65
634.875	16102.26
635.229	16041.47
635.583	16001.7
635.937	16154.46
636.291	15994.47
636.645	16032.43
636.999	16068.81
637.352	16058.19
637.706	15925.77
638.06	16080.57
638.413	15967.8
638.767	15883.96
639.121	15956.5
639.474	15855.26
639.828	15917.86
640.181	15935.26
640.534	15889.38
640.888	15880.12
641.241	15821.36
641.594	15887.58
641.947	15860.91
642.301	15884.41
642.654	15862.04
643.007	15863.4
643.36	15787.47
643.713	15787.24
644.066	15850.29
644.419	15776.62
644.771	15661.59
645.124	15464.76
645.477	15524.87
645.83	15387.02
646.182	15386.57
646.535	15248.95
646.888	15410.75
647.24	15257.31
647.593	15351.32
647.945	15400.13
648.298	15200.14
648.65	15306.8
649.002	15256.86
649.355	15207.59
649.707	15220.02
650.059	15332.11
650.411	15550.86
650.763	15557.64
651.115	15804.87
651.467	15714.02
651.819	15594.03
652.171	15561.48
652.523	15615.27
652.875	15504.99
653.227	15527.59
653.578	15733.91
653.93	15668.15
654.282	15531.88
654.633	15595.61
654.985	15462.96
655.337	15574.36
655.688	15609.17
656.039	15569.39
656.391	15407.14
656.742	15521.71
657.094	15443.29
657.445	15667.7
657.796	15492.11
658.147	15481.71
658.498	15497.76
658.849	15589.05
659.2	15545.66
659.551	15560.35
659.902	15628.6
660.253	15578.43
660.604	15560.58
660.955	15561.48
661.306	15580.24
661.656	15532.56
662.007	15569.84
662.358	15542.95
662.708	15597.19
663.059	15566
663.409	15406.01
663.76	15548.6
664.11	15597.64
664.461	15530.98
664.811	15578.21
665.161	15587.92
665.511	15493.91
665.862	15609.84
666.212	15551.54
666.562	15760.57
666.912	15610.52
667.262	15601.93
667.612	15534.14
667.962	15601.03
668.312	15572.56
668.662	15617.3
669.011	15567.81
669.361	15640.58
669.711	15606
670.06	15624.08
670.41	15601.26
670.76	15637.64
671.109	15644.65
671.459	15625.89
671.808	15642.39
672.157	15720.35
672.507	15568.04
672.856	15625.44
673.205	15688.94
673.554	15651.88
673.904	15682.84
674.253	15688.94
674.602	15700.46
674.951	15596.96
675.3	15368.95
675.649	15579.56
675.998	15681.71
676.346	15749.95
676.695	15727.13
677.044	15579.34
677.393	15649.16
677.741	15637.19
678.09	15612.56
678.438	15619.79
678.787	15641.71
679.135	15662.5
679.484	15585.21
679.832	15671.54
680.181	15607.58
680.529	15667.92
680.877	15529.62
681.225	15555.38
681.573	15671.76
681.922	15653.68
682.27	15608.26
682.618	15654.59
682.966	15492.33
683.314	15664.31
683.661	15510.19
684.009	15517.64
684.357	15488.94
684.705	15408.95
685.053	15551.09
685.4	15493.24
685.748	15447.36
686.095	15490.98
686.443	15396.97
686.79	15389.96
687.138	15409.4
687.485	15455.72
687.832	15379.57
688.18	15434.48
688.527	15266.35
688.874	15285.11
689.221	15237.2
689.568	15250.76
689.915	15240.14
690.262	15280.36
690.609	15163.3
690.956	15093.25
691.303	15178.44
691.65	15130.76
691.997	15116.3
692.344	15053.47
692.69	15072.46
693.037	15007.15
693.383	14913.36
693.73	14996.53
694.077	14917.43
694.423	14930.09
694.769	14958.34
695.116	14871.33
695.462	14845.12
695.808	14817.77
696.155	14844.21
696.501	14730.32
696.847	14754.95
697.193	14700.72
697.539	14697.55
697.885	14671.79
698.231	14550.66
698.577	14550.89
698.923	14585.46
699.269	14578.46
699.614	14427.95
699.96	14464.79
700.306	14532.36
700.651	14377.11
700.997	14456.88
701.342	14389.54
701.688	14387.5
702.033	14361.52
702.379	14366.71
702.724	14344.34
703.069	14338.01
703.415	14160.84
703.76	14263.89
704.105	14230.9
704.45	14202.42
704.795	14096.44
705.14	14093.27
705.485	14167.62
705.83	14055.99
706.175	14070.22
706.52	14095.76
706.865	14007.85
707.209	14007.63
707.554	13941.19
707.899	14013.95
708.243	13935.99
708.588	13951.81
708.932	13912.71
709.277	13872.04
709.621	13852.6
709.966	13742.55
710.31	13786.39
710.654	13819.16
710.998	13788.65
711.342	13824.13
711.687	13676.79
712.031	13663.23
712.375	13650.35
712.719	13714.98
713.063	13663.68
713.407	13716.79
713.75	13676.79
714.094	13650.57
714.438	13614.19
714.782	13597.92
715.125	13585.94
715.469	13571.71
715.812	13543.68
716.156	13336.23
716.499	13486.96
716.843	13529.67
717.186	13499.39
717.53	13500.75
717.873	13525.6
718.216	13485.61
718.559	13389.79
718.902	13300.07
719.246	13426.85
719.589	13365.16
719.932	13377.36
720.275	13345.27
720.617	13317.02
720.96	13334.2
721.303	13276.12
721.646	13364.48
721.989	13181.43
722.331	13372.39
722.674	13219.4
723.016	13282.22
723.359	13240.64
723.701	13339.4
724.044	13196.57
724.386	13155.22
724.729	13267.31
725.071	13228.21
725.413	13134.43
725.755	13176.24
726.097	13134.65
726.439	13106.86
726.782	13155.67
727.124	13216.46
727.465	13091.49
727.807	13036.13
728.149	13042.91
728.491	13009.01
728.833	13063.02
729.175	13006.07
729.516	13052.17
729.858	12994.32
730.199	13053.07
730.541	12946.86
730.882	12891.5
731.224	12981.44
731.565	12891.95
731.906	12835.68
732.248	12914.55
732.589	12828
732.93	12862.8
733.271	12846.3
733.612	12992.96
733.953	12912.06
734.294	12845.85
734.635	12750.71
734.976	12815.34
735.317	12834.1
735.658	12791.84
735.999	12808.79
736.339	12796.58
736.68	12845.85
737.021	12747.77
737.361	12740.31
737.702	12766.98
738.042	12707.77
738.383	12671.84
738.723	12733.76
739.063	12676.81
739.404	12696.7
739.744	12715.46
740.084	12661.45
740.424	12610.6
740.764	12697.38
741.104	12686.08
741.444	12612.86
741.784	12565.86
742.124	12538.29
742.464	12501.68
742.804	12501.68
743.143	12415.8
743.483	12526.76
743.823	12408.12
744.162	12483.37
744.502	12442.02
744.841	12431.4
745.181	12397.95
745.52	12426.88
745.86	12370.38
746.199	12344.17
746.538	12248.8
746.877	12329.03
747.216	12364.96
747.556	12249.03
747.895	12269.59
748.234	12228.24
748.573	12241.12
748.911	12195.7
749.25	12262.14
749.589	12191.63
749.928	12207.45
750.267	12159.99
750.605	12066.89
750.944	12149.37
751.283	12043.84
751.621	12067.56
751.96	12059.43
752.298	11933.33
752.636	11997.74
752.975	11941.01
753.313	11887.46
753.651	11928.13
753.989	11858.08
754.327	11816.27
754.666	11769.04
755.004	11805.42
755.342	11772.88
755.679	11693.79
756.017	11688.36
756.355	11701.47
756.693	11698.99
757.031	11696.05
757.368	11588.25
757.706	11543.06
758.044	11543.51
758.381	11501.7
758.719	11463.06
759.056	11469.16
759.394	11443.17
759.731	11321.82
760.068	11320.01
760.405	11322.5
