Data from brown_tile_FLMS001491_052.txt Node
Date: Tue Feb 07 10:37:41 GMT 2017
User: dcchb
Spectrometer: FLMS00149
Trigger mode: 0
Integration Time (sec): 2.000000E-2
Scans to average: 10
Electric dark correction enabled: true
Nonlinearity correction enabled: false
Boxcar width: 0
XAxis mode: Wavelengths
Number of Pixels in Spectrum: 2048
>>>>>Begin Spectral Data<<<<<
341.393	-10.72
341.776	-10.72
342.16	-10.72
342.543	-66.31
342.927	-61.11
343.31	-71.74
343.693	-69.25
344.077	-56.59
344.46	-68.35
344.843	-56.82
345.226	-37.16
345.61	-10.49
345.993	-15.69
346.376	-5.52
346.759	6
347.142	12.56
347.525	29.96
347.908	67.02
348.291	77.87
348.674	96.4
349.057	101.82
349.44	113.57
349.823	128.49
350.206	166.68
350.588	179.33
350.971	182.04
351.354	196.51
351.737	241.93
352.119	232.89
352.502	258.43
352.884	268.14
353.267	285.32
353.65	277.41
354.032	258.43
354.414	315.37
354.797	291.87
355.179	320.57
355.562	279.89
355.944	281.7
356.326	313.57
356.709	322.38
357.091	323.96
357.473	340.23
357.855	307.24
358.238	325.77
358.62	342.27
359.002	312.44
359.384	328.25
359.766	325.32
360.148	330.06
360.53	325.99
360.912	327.58
361.294	303.17
361.676	298.65
362.057	297.29
362.439	317.86
362.821	304.75
363.203	298.65
363.584	306.56
363.966	295.71
364.348	288.03
364.729	296.16
365.111	317.18
365.493	287.58
365.874	311.31
366.256	283.06
366.637	296.39
367.019	276.73
367.4	311.53
367.781	289.84
368.163	297.97
368.544	285.54
368.925	290.51
369.306	293.68
369.688	286.22
370.069	304.3
370.45	305.43
370.831	287.13
371.212	316.05
371.593	315.37
371.974	293.68
372.355	293.23
372.736	284.41
373.117	291.87
373.498	299.78
373.879	285.54
374.26	313.79
374.641	283.96
375.021	292.1
375.402	307.01
375.783	296.84
376.163	325.09
376.544	301.81
376.925	293.45
377.305	302.04
377.686	311.53
378.066	296.62
378.447	312.44
378.827	309.5
379.208	286.45
379.588	337.97
379.968	326.67
380.349	331.42
380.729	306.11
381.109	324.64
381.489	304.53
381.87	325.09
382.25	306.11
382.63	316.5
383.01	317.18
383.39	321.47
383.77	332.1
384.15	338.65
384.53	338.42
384.91	324.64
385.29	338.65
385.67	322.6
386.049	367.12
386.429	347.91
386.809	346.11
387.189	305.2
387.568	329.61
387.948	328.25
388.328	332.55
388.707	328.71
389.087	346.33
389.466	334.58
389.846	330.97
390.225	351.98
390.605	331.19
390.984	358.54
391.363	352.66
391.743	347.91
392.122	357.63
392.501	346.78
392.881	347.69
393.26	363.96
393.639	355.15
394.018	350.63
394.397	344.75
394.776	350.4
395.155	349.27
395.534	356.05
395.913	371.19
396.292	346.78
396.671	347.69
397.05	354.69
397.429	356.05
397.808	368.03
398.186	365.09
398.565	373.9
398.944	369.83
399.323	368.7
399.701	365.77
400.08	370.96
400.458	384.98
400.837	389.5
401.215	381.13
401.594	386.33
401.972	372.09
402.351	368.93
402.729	355.82
403.107	388.37
403.486	405.31
403.864	404.86
404.242	389.04
404.62	382.49
404.999	384.3
405.377	396.95
405.755	381.13
406.133	390.85
406.511	413.9
406.889	404.18
407.267	405.77
407.645	413.9
408.023	411.19
408.401	420.91
408.779	398.99
409.156	405.54
409.534	435.37
409.912	441.92
410.29	432.66
410.667	424.75
411.045	435.37
411.422	413.45
411.8	418.65
412.178	424.97
412.555	389.72
412.933	443.05
413.31	435.82
413.687	429.04
414.065	444.64
414.442	453
414.819	429.95
415.197	435.14
415.574	448.7
415.951	429.72
416.328	467.91
416.705	439.44
417.082	444.64
417.46	467.01
417.837	473.11
418.214	454.13
418.591	468.59
418.967	460.68
419.344	472.43
419.721	472.43
420.098	470.17
420.475	468.59
420.852	476.05
421.228	469.49
421.605	507.01
421.982	479.44
422.358	485.99
422.735	474.92
423.111	509.72
423.488	487.57
423.864	505.42
424.241	502.71
424.617	517.18
424.994	509.49
425.37	504.75
425.746	521.47
426.123	503.16
426.499	514.69
426.875	514.01
427.251	522.15
427.627	527.57
428.003	519.44
428.379	545.42
428.756	527.12
429.132	533.67
429.507	536.16
429.883	541.36
430.259	545.65
430.635	537.97
431.011	554.91
431.387	554.91
431.763	560.11
432.138	570.06
432.514	569.15
432.89	597.17
433.265	554.01
433.641	594.46
434.016	584.97
434.392	588.36
434.767	595.59
435.143	617.96
435.518	592.88
435.894	618.87
436.269	608.7
436.644	638.75
437.02	629.94
437.395	616.61
437.77	629.72
438.145	637.4
438.52	648.7
438.895	663.39
439.271	641.24
439.646	691.63
440.021	672.88
440.395	655.93
440.77	668.13
441.145	669.71
441.52	673.56
441.895	678.3
442.27	680.56
442.645	666.55
443.019	677.17
443.394	687.34
443.769	688.7
444.143	699.32
444.518	692.99
444.892	727.79
445.267	705.19
445.641	708.81
446.016	714.01
446.39	706.1
446.764	723.95
447.139	735.93
447.513	743.16
447.887	700
448.262	729.37
448.636	733.67
449.01	742.93
449.384	751.52
449.758	738.41
450.132	739.54
450.506	750.62
450.88	768.47
451.254	748.13
451.628	745.64
452.002	767.34
452.376	791.29
452.75	804.17
453.123	783.38
453.497	802.59
453.871	803.5
454.244	823.16
454.618	797.62
454.992	819.09
455.365	808.24
455.739	832.87
456.112	845.53
456.486	826.32
456.859	836.94
457.232	878.52
457.606	860.9
457.979	867
458.352	874.23
458.725	898.86
459.099	898.18
459.472	894.79
459.845	920.1
460.218	944.74
460.591	954.68
460.964	912.65
461.337	939.31
461.71	955.36
462.083	945.19
462.456	968.46
462.829	950.38
463.201	970.95
463.574	982.02
463.947	999.65
464.32	1017.5
464.692	989.71
465.065	1033.09
465.438	1032.19
465.81	1032.42
466.183	1061.34
466.555	1070.83
466.928	1051.17
467.3	1076.03
467.672	1106.09
468.045	1120.78
468.417	1133.43
468.789	1127.78
469.161	1121.45
469.534	1133.88
469.906	1171.62
470.278	1170.94
470.65	1180.21
471.022	1206.2
471.394	1212.98
471.766	1229.25
472.138	1228.34
472.51	1267.21
472.882	1259.98
473.253	1258.17
473.625	1294.56
473.997	1341.56
474.369	1315.35
474.74	1362.35
475.112	1368.68
475.484	1376.36
475.855	1388.79
476.227	1404.61
476.598	1466.08
476.97	1427.66
477.341	1494.78
477.713	1500.43
478.084	1478.28
478.455	1526.87
478.827	1525.96
479.198	1597.83
479.569	1557.37
479.94	1616.36
480.311	1620.2
480.682	1655.9
481.053	1675.79
481.424	1721.44
481.795	1712.62
482.166	1741.55
482.537	1743.81
482.908	1817.25
483.279	1802.79
483.65	1823.13
484.021	1865.39
484.391	1885.73
484.762	1898.83
485.133	1911.26
485.503	1960.75
485.874	1962.34
486.244	1951.49
486.615	2006.63
486.985	2029.9
487.356	2084.59
487.726	2087.3
488.097	2125.95
488.467	2113.52
488.837	2168.43
489.207	2205.72
489.578	2222.67
489.948	2250.01
490.318	2292.04
490.688	2273.97
491.058	2322.78
491.428	2352.16
491.798	2370.23
492.168	2385.15
492.538	2398.26
492.908	2452.94
493.278	2448.42
493.648	2467.18
494.017	2513.51
494.387	2553.05
494.757	2568.2
495.126	2546.05
495.496	2582.21
495.866	2626.05
496.235	2639.61
496.605	2661.07
496.974	2664.92
497.344	2682.54
497.713	2694.75
498.082	2709.21
498.452	2725.71
498.821	2776.1
499.19	2766.83
499.559	2830.56
499.928	2870.79
500.298	2813.39
500.667	2864.01
501.036	2854.52
501.405	2888.41
501.774	2889.99
502.143	2975.19
502.512	2934.74
502.88	2945.59
503.249	2977
503.618	2988.52
503.987	3014.06
504.356	2996.43
504.724	3028.75
505.093	3070.1
505.462	3047.5
505.83	3109.2
506.199	3111.68
506.567	3157.56
506.936	3158.69
507.304	3195.07
507.672	3213.38
508.041	3202.3
508.409	3239.59
508.777	3251.34
509.145	3299.25
509.514	3337.21
509.882	3312.58
510.25	3311.45
510.618	3398
510.986	3390.09
511.354	3395.97
511.722	3442.97
512.09	3468.96
512.458	3521.16
512.826	3496.31
513.193	3543.76
513.561	3541.5
513.929	3563.2
514.297	3620.6
514.664	3609.98
515.032	3650.2
515.4	3726.58
515.767	3718
516.135	3765
516.502	3712.57
516.869	3811.78
517.237	3830.08
517.604	3798.67
517.972	3819.24
518.339	3865.11
518.706	3867.14
519.073	3940.36
519.44	3954.15
519.808	3983.3
520.175	3986.91
520.542	4008.84
520.909	4064.43
521.276	4115.27
521.643	4123.18
522.009	4177.87
522.376	4169.28
522.743	4220.58
523.11	4240.02
523.477	4299.68
523.843	4339.22
524.21	4366.79
524.577	4370.41
524.943	4406.34
525.31	4449.5
525.676	4514.36
526.043	4508.48
526.409	4531.53
526.776	4598.88
527.142	4619.44
527.508	4622.6
527.874	4675.03
528.241	4688.14
528.607	4754.58
528.973	4778.31
529.339	4788.02
529.705	4855.82
530.071	4876.16
530.437	4962.26
530.803	4936.95
531.169	4997.51
531.535	5007.45
531.901	4990.73
532.267	5063.04
532.632	5096.49
532.998	5129.94
533.364	5150.95
533.73	5210.84
534.095	5204.28
534.461	5267.33
534.826	5263.49
535.192	5290.84
535.557	5330.16
535.923	5346.88
536.288	5412.19
536.653	5438.4
537.019	5434.56
537.384	5479.08
537.749	5502.58
538.114	5513.65
538.479	5546.2
538.845	5564.73
539.21	5589.13
539.575	5626.87
539.94	5611.96
540.305	5710.03
540.67	5726.76
541.034	5721.33
541.399	5783.93
541.764	5822.12
542.129	5834.55
542.494	5880.65
542.858	5872.06
543.223	5915.9
543.587	5973.53
543.952	6003.59
544.316	6004.04
544.681	6069.57
545.045	6078.39
545.41	6119.06
545.774	6172.85
546.138	6229.34
546.503	6220.53
546.867	6234.09
547.231	6287.19
547.595	6343.46
547.959	6370.13
548.324	6394.99
548.688	6406.06
549.052	6482.44
549.416	6475.44
549.779	6531.71
550.143	6588.88
550.507	6651.03
550.871	6661.19
551.235	6686.28
551.599	6740.74
551.962	6856.22
552.326	6827.29
552.689	6884.92
553.053	6827.52
553.417	6926.05
553.78	7136.21
554.143	7088.08
554.507	7099.6
554.87	7172.82
555.234	7229.54
555.597	7213.72
555.96	7282.42
556.323	7371.23
556.686	7336.88
557.05	7501.85
557.413	7564.9
557.776	7633.6
558.139	7670.89
558.502	7710.66
558.865	7775.74
559.228	7850.32
559.59	7914.95
559.953	7939.81
560.316	8082.4
560.679	8152.91
561.041	8227.71
561.404	8242.17
561.767	8366.69
562.129	8372.34
562.492	8491.43
562.854	8554.7
563.217	8530.75
563.579	8687.36
563.941	8778.2
564.304	8816.62
564.666	8937.29
565.028	8940.46
565.39	9013.68
565.753	9150.62
566.115	9189.26
566.477	9295.7
566.839	9319.2
567.201	9395.81
567.563	9522.81
567.925	9615.92
568.287	9692.53
568.648	9733.2
569.01	9816.59
569.372	9975.01
569.734	9956.7
570.095	10149.24
570.457	10126.41
570.819	10255
571.18	10314.43
571.542	10332.06
571.903	10443.24
572.265	10530.47
572.626	10531.6
572.987	10642.33
573.349	10636.01
573.71	10821.31
574.071	10978.82
574.432	11008.88
574.794	11125.48
575.155	11129.55
575.516	11198.02
575.877	11231.47
576.238	11359.38
576.599	11401.41
576.96	11461.75
577.32	11590.1
577.681	11625.13
578.042	11754.62
578.403	11777.22
578.763	11859.48
579.124	11903.54
579.485	12012.24
579.845	12021.51
580.206	12118
580.566	12191.44
580.927	12217.21
581.287	12291.78
581.648	12313.25
582.008	12400.25
582.368	12378.33
582.728	12495.84
583.089	12614.48
583.449	12593.24
583.809	12642.05
584.169	12679.12
584.529	12738.55
584.889	12852.22
585.249	12834.59
585.609	12856.51
585.969	12905.78
586.329	13009.73
586.688	13059.67
587.048	13089.5
587.408	13044.53
587.768	13216.95
588.127	13197.07
588.487	13215.6
588.846	13365.43
589.206	13274.35
589.565	13287.01
589.925	13423.73
590.284	13447.91
590.643	13450.85
591.003	13534.01
591.362	13677.51
591.721	13607
592.08	13640.67
592.44	13757.05
592.799	13741.91
593.158	13727.9
593.517	13866.66
593.876	13856.03
594.235	13834.79
594.593	13842.02
594.952	13959.08
595.311	13888.35
595.67	13956.6
596.029	14090.38
596.387	14155.69
596.746	14207.66
597.104	14143.71
597.463	14269.36
597.822	14263.03
598.18	14257.61
598.538	14309.36
598.897	14347.55
599.255	14328.11
599.613	14469.8
599.972	14441.56
600.33	14531.95
600.688	14479.75
601.046	14593.42
601.404	14574.21
601.762	14611.72
602.12	14763.13
602.478	14703.47
602.836	14799.06
603.194	14698.05
603.552	14810.59
603.91	14695.33
604.268	14852.17
604.625	14845.84
604.983	14936.91
605.341	14860.3
605.698	14980.07
606.056	14983.01
606.413	15027.08
606.771	15089.67
607.128	15136.68
607.485	15057.58
607.843	15092.39
608.2	15217.13
608.557	15180.07
608.914	15260.06
609.272	15304.58
609.629	15300.29
609.986	15450.12
610.343	15301.65
610.7	15422.55
611.057	15504.58
611.414	15428.65
611.771	15487.18
612.127	15545.71
612.484	15623.9
612.841	15698.7
613.198	15504.13
613.554	15593.16
613.911	15699.38
614.267	15710.22
614.624	15662.99
614.98	15772.14
615.337	15829.77
615.693	15872.93
616.05	15806.94
616.406	15922.19
616.762	15879.71
617.118	15937.79
617.475	15886.94
617.831	15995.64
618.187	15963.1
618.543	15931.91
618.899	15997.45
619.255	16062.3
619.611	16072.25
619.967	16131.45
620.323	16168.06
620.678	16152.24
621.034	16098.46
621.39	16129.65
621.746	16128.52
622.101	16309.08
622.457	16174.62
622.812	16174.84
623.168	16213.49
623.523	16256.87
623.879	16331.22
624.234	16171.45
624.589	16265.69
624.945	16294.39
625.3	16272.92
625.655	16308.4
626.01	16454.61
626.365	16274.95
626.72	16340.71
627.075	16263.65
627.43	16391.11
627.785	16294.39
628.14	16342.52
628.495	16247.16
628.85	16326.7
629.205	16229.53
629.559	16348.17
629.914	16275.63
630.269	16267.27
630.623	16333.26
630.978	16201.28
631.332	16371
631.687	16342.52
632.041	16297.33
632.396	16313.37
632.75	16262.3
633.104	16249.19
633.459	16132.58
633.813	16189.53
634.167	16191.79
634.521	16208.97
634.875	16168.29
635.229	16150.44
635.583	16162.41
635.937	16130.32
636.291	16043.1
636.645	16048.07
636.999	16129.19
637.352	16080.61
637.706	16040.16
638.06	16156.54
638.413	16044.23
638.767	15978.46
639.121	16062.53
639.474	15971.68
639.828	15905.25
640.181	16089.65
640.534	16090.1
640.888	15952.7
641.241	15858.02
641.594	16016.2
641.947	16016.2
642.301	15851.24
642.654	15994.51
643.007	15944.57
643.36	15899.14
643.713	15855.76
644.066	15923.78
644.419	15890.1
644.771	15764.68
645.124	15640.17
645.477	15664.35
645.83	15458.7
646.182	15420.74
646.535	15358.37
646.888	15358.59
647.24	15368.76
647.593	15426.84
647.945	15366.28
648.298	15329.67
648.65	15270.01
649.002	15235.88
649.355	15364.24
649.707	15322.66
650.059	15378.93
650.411	15543.45
650.763	15532.83
651.115	15748.64
651.467	15632.03
651.819	15650.56
652.171	15713.39
652.523	15660.28
652.875	15652.14
653.227	15629.09
653.578	15669.09
653.93	15673.39
654.282	15575.99
654.633	15567.63
654.985	15664.12
655.337	15573.5
655.688	15628.87
656.039	15718.58
656.391	15563.79
656.742	15595.65
657.094	15597.01
657.445	15666.61
657.796	15613.73
658.147	15577.57
658.498	15524.92
658.849	15604.91
659.2	15547.51
659.551	15633.61
659.902	15607.17
660.253	15579.38
660.604	15642.65
660.955	15474.07
661.306	15669.32
661.656	15539.38
662.007	15583.45
662.358	15569.89
662.708	15686.04
663.059	15573.5
663.409	15464.13
663.76	15641.3
664.11	15652.6
664.461	15618.25
664.811	15608.53
665.161	15600.62
665.511	15513.17
665.862	15574.18
666.212	15690.11
666.562	15734.85
666.912	15626.83
667.262	15642.65
667.612	15748.64
667.962	15612.82
668.312	15669.55
668.662	15682.88
669.011	15660.96
669.361	15671.13
669.711	15644.69
670.06	15629.77
670.41	15646.72
670.76	15602.65
671.109	15682.65
671.459	15624.35
671.808	15590
672.157	15765.36
672.507	15601.98
672.856	15636.55
673.205	15713.16
673.554	15669.55
673.904	15674.97
674.253	15727.62
674.602	15794.06
674.951	15440.4
675.3	15445.14
675.649	15654.63
675.998	15715.42
676.346	15730.33
676.695	15690.11
677.044	15595.2
677.393	15682.43
677.741	15634.29
678.09	15582.32
678.438	15694.4
678.787	15686.27
679.135	15726.72
679.484	15641.98
679.832	15625.7
680.181	15498.93
680.529	15626.61
680.877	15551.36
681.225	15607.4
681.573	15680.39
681.922	15646.95
682.27	15599.72
682.618	15653.27
682.966	15578.7
683.314	15653.95
683.661	15493.51
684.009	15428.65
684.357	15508.87
684.705	15505.48
685.053	15514.97
685.4	15580.28
685.748	15427.52
686.095	15476.33
686.443	15449.44
686.79	15347.07
687.138	15435.43
687.485	15372.15
687.832	15310.68
688.18	15424.58
688.527	15324.02
688.874	15346.84
689.221	15259.61
689.568	15246.28
689.915	15280.4
690.262	15233.4
690.609	15242.44
690.956	15180.97
691.303	15164.47
691.65	15110.01
691.997	15065.27
692.344	15067.75
692.69	14987.08
693.037	15131.25
693.383	14998.15
693.73	15041.54
694.077	14959.28
694.423	14904.37
694.769	14929.9
695.116	14866.85
695.462	14916.8
695.808	14883.13
696.155	14888.32
696.501	14821.66
696.847	14772.39
697.193	14687.42
697.539	14789.12
697.885	14649.91
698.231	14646.52
698.577	14678.39
698.923	14555.22
699.269	14577.14
699.614	14571.72
699.96	14473.64
700.306	14544.15
700.651	14532.4
700.997	14343.03
701.342	14430.93
701.688	14385.74
702.033	14435.91
702.379	14445.62
702.724	14361.33
703.069	14419.63
703.415	14240.66
703.76	14223.48
704.105	14342.35
704.45	14253.09
704.795	14155.24
705.14	14084.05
705.485	14111.17
705.83	14155.69
706.175	14128.8
706.52	14072.07
706.865	14082.02
707.209	14018.97
707.554	14110.04
707.899	14075.01
708.243	13978.74
708.588	14082.69
708.932	13820.33
709.277	13877.28
709.621	13939.2
709.966	13804.06
710.31	13862.14
710.654	13795.24
710.998	13787.34
711.342	13855.81
711.687	13748.69
712.031	13800.89
712.375	13680.45
712.719	13699.2
713.063	13772.19
713.407	13774.91
713.75	13723.38
714.094	13715.02
714.438	13682.71
714.782	13665.98
715.125	13543.5
715.469	13580.79
715.812	13534.01
716.156	13492.2
716.499	13579.43
716.843	13545.08
717.186	13484.07
717.53	13504.63
717.873	13414.46
718.216	13571.3
718.559	13434.58
718.902	13379.89
719.246	13363.62
719.589	13311.64
719.932	13310.74
720.275	13365.2
720.617	13334.01
720.96	13369.49
721.303	13312.32
721.646	13360.68
721.989	13264.64
722.331	13369.49
722.674	13347.12
723.016	13320.45
723.359	13299.89
723.701	13268.03
724.044	13196.39
724.386	13151.87
724.729	13237.52
725.071	13175.37
725.413	13202.27
725.755	13211.31
726.097	13145.77
726.439	13105.77
726.782	13173.11
727.124	13272.77
727.465	13085.21
727.807	13080.46
728.149	13061.48
728.491	12931.09
728.833	13082.49
729.175	13034.59
729.516	12989.39
729.858	13139.67
730.199	13104.64
730.541	12938.54
730.882	13017.86
731.224	12995.27
731.565	12942.16
731.906	12984.64
732.248	12941.71
732.589	12966.57
732.93	12832.33
733.271	12852.44
733.612	12892.9
733.953	12885.21
734.294	12830.52
734.635	12760.7
734.976	12817.42
735.317	12731.32
735.658	12811.99
735.999	12764.31
736.339	12746.01
736.68	12723.41
737.021	12717.31
737.361	12695.39
737.702	12812.22
738.042	12683.18
738.383	12728.83
738.723	12671.21
739.063	12638.21
739.404	12637.99
739.744	12716.18
740.084	12596.63
740.424	12596.63
740.764	12668.72
741.104	12649.51
741.444	12561.83
741.784	12520.93
742.124	12490.19
742.464	12485.45
742.804	12504.66
743.143	12421.5
743.483	12487.93
743.823	12496.97
744.162	12399.58
744.502	12441.16
744.841	12370.2
745.181	12404.32
745.52	12402.06
745.86	12400.93
746.199	12339.92
746.538	12333.36
746.877	12347.6
747.216	12279.58
747.556	12292.01
747.895	12260.6
748.234	12282.97
748.573	12216.53
748.911	12244.1
749.25	12151.45
749.589	12126.81
749.928	12112.13
750.267	12137.89
750.605	12085.46
750.944	12087.04
751.283	12029.42
751.621	12102.86
751.96	12033.26
752.298	11999.36
752.636	11934.28
752.975	11895.41
753.313	11868.97
753.651	11925.24
753.989	11870.32
754.327	11791.23
754.666	11766.6
755.004	11771.12
755.342	11810.89
755.679	11783.32
756.017	11738.35
756.355	11736.77
756.693	11695.41
757.031	11719.14
757.368	11538.13
757.706	11565.7
758.044	11548.3
758.381	11528.41
758.719	11506.94
759.056	11489.09
759.394	11401.64
759.731	11370.22
760.068	11211.36
760.405	11317.12
760.743	11334.07
