Data from brown_tile_FLMS001491_045.txt Node
Date: Tue Feb 07 10:37:34 GMT 2017
User: dcchb
Spectrometer: FLMS00149
Trigger mode: 0
Integration Time (sec): 2.000000E-2
Scans to average: 10
Electric dark correction enabled: true
Nonlinearity correction enabled: false
Boxcar width: 0
XAxis mode: Wavelengths
Number of Pixels in Spectrum: 2048
>>>>>Begin Spectral Data<<<<<
341.393	-9.12
341.776	-9.12
342.16	-9.12
342.543	-58.16
342.927	-56.35
343.31	-61.1
343.693	-84.6
344.077	-65.85
344.46	-60.87
344.843	-46.64
345.226	-41.89
345.61	-22.01
345.993	-23.36
346.376	-20.88
346.759	-9.8
347.142	32
347.525	57.77
347.908	74.26
348.291	69.74
348.674	92.12
349.057	111.1
349.44	137.54
349.823	129.18
350.206	165.33
350.588	185.22
350.971	200.36
351.354	204.43
351.737	202.62
352.119	226.58
352.502	243.07
352.884	241.49
353.267	257.99
353.65	262.96
354.032	267.93
354.414	286.69
354.797	275.39
355.179	300.02
355.562	293.92
355.944	295.05
356.326	307.25
356.709	305.22
357.091	313.58
357.473	318.32
357.855	333.47
358.238	299.57
358.62	317.2
359.002	307.03
359.384	324.65
359.766	315.61
360.148	329.62
360.53	330.3
360.912	323.75
361.294	322.62
361.676	310.64
362.057	281.94
362.439	319.23
362.821	317.42
363.203	306.57
363.584	304.99
363.966	301.38
364.348	289.4
364.729	317.2
365.111	286.01
365.493	314.48
365.874	288.04
366.256	304.77
366.637	321.26
367.019	288.5
367.4	293.47
367.781	280.81
368.163	296.18
368.544	299.57
368.925	302.05
369.306	284.65
369.688	309.74
370.069	265.9
370.45	273.58
370.831	300.7
371.212	309.06
371.593	281.72
371.974	315.16
372.355	305.22
372.736	303.64
373.117	300.47
373.498	290.08
373.879	294.37
374.26	302.05
374.641	289.4
375.021	307.25
375.402	305.9
375.783	301.38
376.163	317.87
376.544	304.09
376.925	289.4
377.305	315.39
377.686	301.6
378.066	312
378.447	315.84
378.827	319.68
379.208	307.25
379.588	297.99
379.968	318.1
380.349	315.39
380.729	324.65
381.109	307.93
381.489	296.63
381.87	297.99
382.25	313.35
382.63	302.96
383.01	306.57
383.39	330.53
383.77	320.58
384.15	326.46
384.53	316.52
384.91	328.49
385.29	331.43
385.67	316.52
386.049	340.47
386.429	319.45
386.809	313.58
387.189	323.52
387.568	320.58
387.948	335.95
388.328	326.91
388.707	324.43
389.087	337.99
389.466	318.32
389.846	337.31
390.225	321.26
390.605	353.8
390.984	360.13
391.363	326.23
391.743	331.66
392.122	327.59
392.501	334.82
392.881	355.61
393.26	361.26
393.639	350.19
394.018	356.52
394.397	363.07
394.776	347.25
395.155	367.14
395.534	345.89
395.913	360.36
396.292	344.09
396.671	340.47
397.05	353.13
397.429	353.13
397.808	356.97
398.186	361.71
398.565	358.78
398.944	353.13
399.323	357.65
399.701	395.84
400.08	372.33
400.458	384.09
400.837	373.24
401.215	394.48
401.594	373.46
401.972	375.95
402.351	393.13
402.729	373.69
403.107	403.29
403.486	386.57
403.864	362.84
404.242	370.53
404.62	401.26
404.999	384.09
405.377	390.41
405.755	392.22
406.133	410.53
406.511	399.9
406.889	401.94
407.267	406.91
407.645	395.39
408.023	399.9
408.401	378.89
408.779	406.46
409.156	406.68
409.534	413.46
409.912	433.58
410.29	395.39
410.667	417.53
411.045	446.68
411.422	420.47
411.8	425.44
412.178	413.92
412.555	412.33
412.933	439.45
413.31	439.68
413.687	437.87
414.065	436.06
414.442	431.32
414.819	424.31
415.197	437.64
415.574	446.01
415.951	474.93
416.328	436.74
416.705	460.02
417.082	456.17
417.46	464.99
417.837	436.29
418.214	463.63
418.591	451.88
418.967	453.69
419.344	477.19
419.721	490.98
420.098	481.94
420.475	483.74
420.852	493.01
421.228	491.65
421.605	482.61
421.982	499.11
422.358	470.19
422.735	495.95
423.111	502.95
423.488	498.66
423.864	484.2
424.241	502.95
424.617	508.38
424.994	490.75
425.37	491.88
425.746	511.31
426.123	521.71
426.499	514.93
426.875	521.03
427.251	549.73
427.627	514.7
428.003	544.31
428.379	535.27
428.756	556.06
429.132	524.42
429.507	543.86
429.883	562.39
430.259	537.08
430.635	556.51
431.011	562.84
431.387	550.64
431.763	566.23
432.138	589.28
432.514	573.46
432.89	584.53
433.265	594.02
433.641	593.57
434.016	574.59
434.392	583.18
434.767	596.51
435.143	590.86
435.518	584.76
435.894	590.86
436.269	628.37
436.644	622.72
437.02	611.2
437.395	632.67
437.77	626.79
438.145	651.65
438.52	629.5
438.895	651.65
439.271	663.4
439.646	638.99
440.021	688.03
440.395	648.71
440.77	655.04
441.145	677.64
441.52	674.93
441.895	683.51
442.27	674.7
442.645	668.37
443.019	677.19
443.394	675.6
443.769	683.97
444.143	695.72
444.518	699.11
444.892	709.95
445.267	712.66
445.641	709.28
446.016	713.57
446.39	703.4
446.764	730.29
447.139	730.29
447.513	712.21
447.887	725.32
448.262	744.08
448.636	725.55
449.01	744.53
449.384	728.48
449.758	744.75
450.132	751.53
450.506	738.65
450.88	755.83
451.254	777.75
451.628	774.13
452.002	779.78
452.376	782.72
452.75	775.49
453.123	787.47
453.497	793.79
453.871	786.56
454.244	829.72
454.618	824.53
454.992	832.66
455.365	835.6
455.739	838.54
456.112	841.93
456.486	853
456.859	832.21
457.232	850.74
457.606	873.79
457.979	858.88
458.352	870.63
458.725	895.48
459.099	915.82
459.472	904.3
459.845	925.77
460.218	913.79
460.591	958.99
460.964	929.61
461.337	954.01
461.71	957.86
462.083	971.87
462.456	982.26
462.829	985.2
463.201	993.34
463.574	986.1
463.947	1010.51
464.32	1009.38
464.692	1041.92
465.065	1021.81
465.438	1045.99
465.81	1042.15
466.183	1090.06
466.555	1060.68
466.928	1096.38
467.3	1114.46
467.672	1112.88
468.045	1145.2
468.417	1097.51
468.789	1118.53
469.161	1133.22
469.534	1152.43
469.906	1178.87
470.278	1157.62
470.65	1176.16
471.022	1215.48
471.394	1229.49
471.766	1233.56
472.138	1231.07
472.51	1252.99
472.882	1286.89
473.253	1272.2
473.625	1316.94
473.997	1333.44
474.369	1349.03
474.74	1347.9
475.112	1364.4
475.484	1393.78
475.855	1395.36
476.227	1424.51
476.598	1425.64
476.97	1454.57
477.341	1474.45
477.713	1497.95
478.084	1501.12
478.455	1577.73
478.827	1530.04
479.198	1558.29
479.569	1606.2
479.94	1639.65
480.311	1634
480.682	1683.94
481.053	1664.05
481.424	1723.71
481.795	1766.42
482.166	1736.82
482.537	1757.16
482.908	1787.66
483.279	1816.59
483.65	1853.88
484.021	1866.08
484.391	1885.97
484.762	1904.27
485.133	1918.06
485.503	1957.6
485.874	2002.12
486.244	2019.3
486.615	2021.33
486.985	2031.05
487.356	2111.27
487.726	2118.73
488.097	2145.62
488.467	2171.38
488.837	2210.03
489.207	2233.98
489.578	2286.18
489.948	2275.79
490.318	2296.35
490.688	2307.2
491.058	2324.83
491.428	2365.28
491.798	2362.34
492.168	2422.22
492.538	2446.18
492.908	2483.69
493.278	2459.96
493.648	2471.49
494.017	2503.13
494.387	2531.83
494.757	2566.18
495.126	2602.78
495.496	2601.65
495.866	2613.86
496.235	2651.37
496.605	2724.82
496.974	2655.66
497.344	2703.35
497.713	2723.01
498.082	2747.64
498.452	2765.94
498.821	2762.1
499.19	2807.3
499.559	2836.22
499.928	2836.45
500.298	2871.93
500.667	2882.55
501.036	2905.38
501.405	2899.95
501.774	2912.38
502.143	2955.77
502.512	2981.98
502.88	3002.1
503.249	2983.57
503.618	3025.6
503.987	3004.81
504.356	3051.36
504.724	3083.45
505.093	3098.82
505.462	3118.03
505.83	3130.23
506.199	3185.14
506.567	3208.19
506.936	3208.19
507.304	3230.11
507.672	3274.18
508.041	3259.26
508.409	3279.38
508.777	3342.43
509.145	3345.14
509.514	3330.45
509.882	3351.24
510.25	3379.94
510.618	3360.96
510.986	3440.95
511.354	3456.32
511.722	3470.33
512.09	3489.09
512.458	3514.85
512.826	3531.57
513.193	3574.51
513.561	3586.49
513.929	3627.62
514.297	3654.96
514.664	3675.98
515.032	3690.44
515.4	3727.5
515.767	3743.55
516.135	3746.26
516.502	3767.05
516.869	3830.77
517.237	3886.37
517.604	3837.55
517.972	3892.47
518.339	3940.15
518.706	3953.94
519.073	3991.45
519.44	3982.64
519.808	4072.58
520.175	4041.62
520.542	4074.61
520.909	4111.22
521.276	4110.99
521.643	4182.63
522.009	4210.2
522.376	4245.23
522.743	4249.75
523.11	4340.59
523.477	4358.9
523.843	4372.46
524.21	4419.01
524.577	4408.61
524.943	4478.89
525.31	4519.57
525.676	4529.97
526.043	4565.44
526.409	4553.02
526.776	4663.07
527.142	4661.94
527.508	4726.12
527.874	4732.22
528.241	4762.73
528.607	4753.01
528.973	4819.45
529.339	4881.37
529.705	4875.72
530.071	4968.82
530.437	4958.88
530.803	5004.3
531.169	4992.55
531.535	4990.74
531.901	5089.27
532.267	5104.19
532.632	5142.38
532.998	5197.74
533.364	5188.71
533.73	5171.53
534.095	5271.87
534.461	5324.07
534.826	5316.16
535.192	5374.46
535.557	5362.03
535.923	5400
536.288	5393.67
536.653	5472.54
537.019	5472.77
537.384	5520.45
537.749	5532.65
538.114	5540.33
538.479	5621.24
538.845	5647.9
539.21	5604.06
539.575	5667.79
539.94	5736.71
540.305	5773.77
540.67	5798.86
541.034	5822.14
541.399	5824.39
541.764	5882.47
542.129	5892.64
542.494	5976.03
542.858	5912.08
543.223	5982.58
543.587	6018.74
543.952	6007.67
544.316	6048.34
544.681	6129.7
545.045	6139.87
545.41	6202.01
545.774	6257.38
546.138	6267.55
546.503	6291.28
546.867	6292.63
547.231	6383.02
547.595	6422.35
547.959	6427.54
548.324	6437.49
548.688	6521.33
549.052	6481.55
549.416	6603.13
549.779	6698.04
550.143	6609.46
550.507	6742.56
550.871	6743.92
551.235	6807.42
551.599	6849.68
551.962	6894.88
552.326	6967.64
552.689	6957.7
553.053	6959.05
553.417	7035.21
553.78	7177.81
554.143	7159.28
554.507	7242.44
554.87	7293.73
555.234	7396.56
555.597	7331.7
555.96	7440.4
556.323	7443.11
556.686	7527.4
557.05	7558.36
557.413	7607.62
557.776	7684.23
558.139	7775.98
558.502	7839.03
558.865	7891.46
559.228	7991.12
559.59	8022.76
559.953	8045.81
560.316	8154.05
560.679	8181.85
561.041	8289.87
561.404	8338
561.767	8411.45
562.129	8507.26
562.492	8606.47
562.854	8593.36
563.217	8593.14
563.579	8752.91
563.941	8817.54
564.304	8966.91
564.666	8977.31
565.028	9081.71
565.39	9085.78
565.753	9182.05
566.115	9294.36
566.477	9332.55
566.839	9356.28
567.201	9517.86
567.563	9547.46
567.925	9738.64
568.287	9719.21
568.648	9758.3
569.01	9916.94
569.372	10035.36
569.734	10010.95
570.095	10144.28
570.457	10258.18
570.819	10302.24
571.18	10322.81
571.542	10412.3
571.903	10531.16
572.265	10557.38
572.626	10702.68
572.987	10700.88
573.349	10858.84
573.71	10904.04
574.071	10982
574.432	11050.92
574.794	11177.7
575.155	11145.61
575.516	11248.21
575.877	11369.56
576.238	11416.79
576.599	11507.18
576.96	11522.1
577.32	11594.41
577.681	11714.41
578.042	11780.4
578.403	11773.62
578.763	11908.98
579.124	12035.31
579.485	12072.82
579.845	12168.86
580.206	12174.51
580.566	12201.4
580.927	12238.92
581.287	12365.69
581.648	12314.39
582.008	12370.21
582.368	12460.6
582.728	12529.53
583.089	12567.72
583.449	12638
583.809	12662.86
584.169	12748.96
584.529	12768.85
584.889	12851.78
585.249	12800.93
585.609	12863.98
585.969	12953.02
586.329	13007.71
586.688	13124.77
587.048	12982.62
587.408	13039.57
587.768	13149.4
588.127	13280.47
588.487	13222.39
588.846	13319.79
589.206	13294.03
589.565	13293.58
589.925	13453.35
590.284	13435.49
590.643	13535.83
591.003	13515.04
591.362	13500.8
591.721	13644.3
592.08	13615.38
592.44	13784.19
592.799	13734.24
593.158	13706.22
593.517	13739.44
593.876	13825.99
594.235	13892.21
594.593	13887.91
594.952	13969.04
595.311	13949.15
595.67	14022.37
596.029	14147.34
596.387	14136.72
596.746	14208.81
597.104	14192.08
597.463	14182.37
597.822	14230.28
598.18	14252.2
598.538	14289.26
598.897	14446.32
599.255	14294
599.613	14550.49
599.972	14481.34
600.33	14564.96
600.688	14554.11
601.046	14549.59
601.404	14544.62
601.762	14628.23
602.12	14752.75
602.478	14714.33
602.836	14715.23
603.194	14673.43
603.552	14784.39
603.91	14688.12
604.268	14842.46
604.625	14834.1
604.983	14931.95
605.341	14856.93
605.698	15009.46
606.056	15013.31
606.413	14995.45
606.771	15065.28
607.128	15073.64
607.485	15072.97
607.843	15082.68
608.2	15155.45
608.557	15200.87
608.914	15242.9
609.272	15274.54
609.629	15298.95
609.986	15336.69
610.343	15287.42
610.7	15449.23
611.057	15414.43
611.414	15421.88
611.771	15409.68
612.127	15512.28
612.484	15576.45
612.841	15599.28
613.198	15557.02
613.554	15581.43
613.911	15694.87
614.267	15725.38
614.624	15633.63
614.98	15706.39
615.337	15874.07
615.693	15787.3
616.05	15858.93
616.406	15888.76
616.762	15884.92
617.118	15871.36
617.475	15878.82
617.831	15976.67
618.187	16015.54
618.543	16001.08
618.899	16021.19
619.255	16061.64
619.611	16043.11
619.967	16104.58
620.323	16158.59
620.678	16145.71
621.034	16112.49
621.39	16139.6
621.746	16084.69
622.101	16229.32
622.457	16079.72
622.812	16198.13
623.168	16171.69
623.523	16262.54
623.879	16346.83
624.234	16073.84
624.589	16162.2
624.945	16283.55
625.3	16322.65
625.655	16293.27
626.01	16296.89
626.365	16382.08
626.72	16245.14
627.075	16313.61
627.43	16304.57
627.785	16251.92
628.14	16317.45
628.495	16287.85
628.85	16306.15
629.205	16219.6
629.559	16376.89
629.914	16167.85
630.269	16276.78
630.623	16275.19
630.978	16241.97
631.332	16235.65
631.687	16291.46
632.041	16215.76
632.396	16289.2
632.75	16150.9
633.104	16306.61
633.459	16148.19
633.813	16183.67
634.167	16245.14
634.521	16196.78
634.875	16111.58
635.229	16145.71
635.583	16070.91
635.937	16117.23
636.291	16060.06
636.645	16165.82
636.999	16091.92
637.352	16057.35
637.706	15954.3
638.06	16160.17
638.413	16088.98
638.767	15975.99
639.121	16083.11
639.474	15997.23
639.828	15958.37
640.181	16043.11
640.534	16047.4
640.888	16023.9
641.241	15855.77
641.594	15921.98
641.947	15928.99
642.301	16001.98
642.654	16002.88
643.007	15993.62
643.36	15987.07
643.713	15897.12
644.066	15906.16
644.419	15888.76
644.771	15692.16
645.124	15535.78
645.477	15638.83
645.83	15565.61
646.182	15480.19
646.535	15482.9
646.888	15564.48
647.24	15386.18
647.593	15456.68
647.945	15461.43
648.298	15370.81
648.65	15279.97
649.002	15331.72
649.355	15453.29
649.707	15293.52
650.059	15407.19
650.411	15692.16
650.763	15561.54
651.115	15721.08
651.467	15658.71
651.819	15728.54
652.171	15635.44
652.523	15667.53
652.875	15673.4
653.227	15632.95
653.578	15739.16
653.93	15640.18
654.282	15529.9
654.633	15580.75
654.985	15651.93
655.337	15559.73
655.688	15576
656.039	15592.27
656.391	15557.47
656.742	15568.77
657.094	15551.37
657.445	15620.75
657.796	15604.48
658.147	15596.57
658.498	15590.01
658.849	15571.26
659.2	15637.92
659.551	15587.53
659.902	15636.34
660.253	15614.65
660.604	15642.89
660.955	15576.68
661.306	15637.7
661.656	15606.96
662.007	15651.48
662.358	15625.04
662.708	15651.03
663.059	15589.56
663.409	15523.35
663.76	15645.61
664.11	15649.67
664.461	15730.58
664.811	15573.97
665.161	15710.24
665.511	15603.12
665.862	15637.47
666.212	15756.34
666.562	15681.08
666.912	15665.72
667.262	15676.57
667.612	15629.79
667.962	15652.16
668.312	15676.11
668.662	15676.34
669.011	15714.76
669.361	15632.27
669.711	15634.08
670.06	15563.8
670.41	15611.93
670.76	15609.45
671.109	15690.8
671.459	15661.42
671.808	15674.08
672.157	15681.54
672.507	15531.03
672.856	15707.52
673.205	15633.85
673.554	15755.66
673.904	15635.21
674.253	15730.35
674.602	15700.97
674.951	15394.99
675.3	15385.5
675.649	15591.37
675.998	15643.35
676.346	15707.52
676.695	15763.79
677.044	15610.8
677.393	15651.26
677.741	15610.8
678.09	15642.44
678.438	15540.98
678.787	15690.8
679.135	15689.22
679.484	15505.95
679.832	15674.76
680.181	15579.39
680.529	15679.95
680.877	15625.95
681.225	15610.8
681.573	15654.19
681.922	15485.84
682.27	15529.45
682.618	15600.63
682.966	15523.57
683.314	15611.03
683.661	15529.22
684.009	15497.59
684.357	15498.49
684.705	15461.2
685.053	15476.34
685.4	15439.74
685.748	15359.51
686.095	15404.26
686.443	15331.94
686.79	15361.55
687.138	15356.57
687.485	15422.56
687.832	15377.59
688.18	15358.16
688.527	15289.91
688.874	15229.12
689.221	15252.85
689.568	15251.94
689.915	15223.47
690.262	15280.64
690.609	15253.98
690.956	15142.34
691.303	15148.44
691.65	15100.31
691.997	15066.64
692.344	14975.57
692.69	14991.16
693.037	14986.19
693.383	14918.39
693.73	14952.52
694.077	14872.07
694.423	14944.83
694.769	14914.1
695.116	14829.58
695.462	14829.58
695.808	14825.97
696.155	14703.94
696.501	14742.8
696.847	14774.67
697.193	14653.54
697.539	14705.29
697.885	14692.18
698.231	14613.09
698.577	14618.06
698.923	14586.42
699.269	14551.85
699.614	14468.46
699.96	14446.77
700.306	14474.34
700.651	14407.67
700.997	14395.24
701.342	14425.98
701.688	14332.42
702.033	14351.4
702.379	14343.49
702.724	14363.83
703.069	14335.81
703.415	14235.47
703.76	14217.39
704.105	14226.43
704.45	14198.64
704.795	14178.3
705.14	14118.41
705.485	14107.34
705.83	14056.72
706.175	14047
706.52	14023.5
706.865	14081.58
707.209	14028.47
707.554	13988.7
707.899	13987.57
708.243	14045.42
708.588	13838.65
708.932	13896.5
709.277	13930.62
709.621	13929.94
709.966	13790.51
710.31	13885.43
710.654	13782.83
710.998	13769.5
711.342	13816.95
711.687	13764.53
712.031	13680.23
712.375	13671.19
712.719	13657.86
713.063	13671.87
713.407	13772.21
713.75	13697.18
714.094	13632.78
714.438	13591.87
714.782	13619.44
715.125	13576.51
715.469	13636.62
715.812	13597.98
716.156	13447.25
716.499	13484.98
716.843	13567.47
717.186	13439.56
717.53	13503.97
717.873	13543.97
718.216	13451.09
718.559	13452.44
718.902	13297.87
719.246	13431.2
719.589	13337.19
719.932	13221.94
720.275	13355.04
720.617	13312.33
720.96	13289.74
721.303	13364.99
721.646	13345.78
721.989	13262.39
722.331	13341.49
722.674	13217.87
723.016	13336.51
723.359	13155.5
723.701	13270.07
724.044	13226.91
724.386	13097.65
724.729	13188.72
725.071	13091.55
725.413	13165.22
725.755	13188.5
726.097	13123.64
726.439	13064.2
726.782	13051.78
727.124	13132.68
727.465	13040.48
727.807	13160.47
728.149	12972.68
728.491	13044.54
728.833	13101.04
729.175	13001.61
729.516	12995.96
729.858	12955.05
730.199	12967.71
730.541	12887.26
730.882	12952.57
731.224	12992.34
731.565	12889.29
731.906	12902.63
732.248	12965.9
732.589	12869.86
732.93	12816.98
733.271	12794.83
733.612	12796.87
733.953	12843.19
734.294	12859.92
734.635	12795.51
734.976	12828.73
735.317	12722.52
735.658	12863.76
735.999	12716.87
736.339	12729.75
736.68	12843.42
737.021	12700.37
737.361	12711.9
737.702	12734.04
738.042	12729.3
738.383	12656.98
738.723	12720.26
739.063	12629.41
739.404	12657.44
739.744	12633.48
740.084	12637.78
740.424	12619.47
740.764	12567.49
741.104	12626.7
741.444	12496.31
741.784	12461.51
742.124	12563.65
742.464	12503.99
742.804	12456.99
743.143	12466.93
743.483	12431.9
743.823	12376.54
744.162	12419.93
744.502	12394.39
744.841	12459.02
745.181	12385.58
745.52	12289.76
745.86	12347.39
746.199	12411.11
746.538	12238.69
746.877	12326.37
747.216	12226.03
747.556	12244.79
747.895	12296.54
748.234	12147.84
748.573	12197.79
748.911	12209.09
749.25	12138.58
749.589	12124.12
749.928	12133.83
750.267	12110.78
750.605	12084.12
750.944	12015.19
751.283	11983.78
751.621	11978.36
751.96	11974.29
752.298	11904.91
752.636	11980.17
752.975	11943.78
753.313	11891.58
753.651	11898.59
753.989	11780.4
754.327	11831.69
754.666	11765.26
755.004	11730.45
755.342	11744.24
755.679	11666.5
756.017	11688.2
756.355	11691.59
756.693	11596.67
757.031	11651.59
757.368	11598.03
757.706	11527.07
758.044	11593.06
758.381	11554.19
758.719	11514.64
759.056	11397.58
759.394	11433.06
759.731	11306.06
760.068	11307.64
760.405	11306.51
