Data from brown_tile_FLMS001491_091.txt Node
Date: Tue Feb 07 10:38:15 GMT 2017
User: dcchb
Spectrometer: FLMS00149
Trigger mode: 0
Integration Time (sec): 2.000000E-2
Scans to average: 10
Electric dark correction enabled: true
Nonlinearity correction enabled: false
Boxcar width: 0
XAxis mode: Wavelengths
Number of Pixels in Spectrum: 2048
>>>>>Begin Spectral Data<<<<<
341.393	-7.99
341.776	-7.99
342.16	-7.99
342.543	-64.26
342.927	-59.74
343.31	-60.65
343.693	-63.59
344.077	-61.1
344.46	-62.23
344.843	-36.92
345.226	-54.77
345.61	-36.69
345.993	-10.03
346.376	-11.84
346.759	22.29
347.142	15.06
347.525	37.65
347.908	40.59
348.291	73.81
348.674	119.46
349.057	88.95
349.44	145.45
349.823	159.23
350.206	182.51
350.588	176.41
350.971	188.16
351.354	215.28
351.737	229.51
352.119	230.64
352.502	249.4
352.884	264.09
353.267	255.73
353.65	290.53
354.032	288.04
354.414	308.83
354.797	291.43
355.179	282.62
355.562	307.93
355.944	312.45
356.326	327.82
356.709	323.97
357.091	312.22
357.473	326.69
357.855	316.97
358.238	336.18
358.62	327.14
359.002	317.87
359.384	323.52
359.766	319.68
360.148	327.82
360.53	323.97
360.912	317.87
361.294	308.83
361.676	320.13
362.057	312.22
362.439	335.73
362.821	317.87
363.203	318.1
363.584	310.42
363.966	316.74
364.348	290.76
364.729	311.77
365.111	288.04
365.493	294.37
365.874	292.56
366.256	310.64
366.637	299.57
367.019	288.72
367.4	306.8
367.781	296.86
368.163	283.52
368.544	306.8
368.925	304.54
369.306	288.72
369.688	284.2
370.069	286.69
370.45	290.76
370.831	291.66
371.212	288.27
371.593	283.75
371.974	302.28
372.355	324.65
372.736	310.19
373.117	304.54
373.498	292.56
373.879	316.74
374.26	283.52
374.641	293.24
375.021	295.73
375.402	322.39
375.783	294.82
376.163	296.86
376.544	306.12
376.925	301.38
377.305	305.9
377.686	295.73
378.066	294.6
378.447	320.58
378.827	323.3
379.208	315.61
379.588	322.84
379.968	335.95
380.349	312
380.729	323.75
381.109	308.38
381.489	307.25
381.87	330.3
382.25	321.04
382.63	328.72
383.01	318.78
383.39	325.1
383.77	327.59
384.15	336.4
384.53	338.21
384.91	330.3
385.29	330.08
385.67	306.35
386.049	326.23
386.429	320.36
386.809	346.8
387.189	335.27
387.568	336.86
387.948	348.83
388.328	361.94
388.707	345.22
389.087	340.7
389.466	352.45
389.846	356.74
390.225	327.36
390.605	349.28
390.984	345.89
391.363	342.73
391.743	361.04
392.122	344.99
392.501	367.82
392.881	333.01
393.26	352
393.639	363.3
394.018	357.19
394.397	337.08
394.776	349.06
395.155	355.39
395.534	368.27
395.913	342.28
396.292	375.27
396.671	382.73
397.05	367.59
397.429	350.64
397.808	366.46
398.186	373.46
398.565	381.15
398.944	362.39
399.323	363.75
399.701	368.72
400.08	378.21
400.458	356.52
400.837	367.59
401.215	380.92
401.594	396.51
401.972	389.96
402.351	377.08
402.729	376.4
403.107	379.79
403.486	373.69
403.864	373.69
404.242	373.24
404.62	400.81
404.999	391.32
405.377	395.84
405.755	414.14
406.133	395.84
406.511	383.63
406.889	392
407.267	375.95
407.645	402.84
408.023	425.89
408.401	414.82
408.779	420.7
409.156	398.32
409.534	427.47
409.912	408.72
410.29	420.02
410.667	387.93
411.045	434.03
411.422	420.92
411.8	430.41
412.178	448.27
412.555	424.99
412.933	433.35
413.31	412.11
413.687	422.95
414.065	442.16
414.442	438.32
414.819	468.15
415.197	465.44
415.574	453.24
415.951	469.73
416.328	449.62
416.705	464.99
417.082	448.49
417.46	472.67
417.837	462.73
418.214	487.81
418.591	479.45
418.967	467.02
419.344	468.15
419.721	462.28
420.098	475.83
420.475	471.99
420.852	478.09
421.228	489.17
421.605	489.39
421.982	514.93
422.358	471.09
422.735	490.3
423.111	500.24
423.488	506.34
423.864	500.24
424.241	512.67
424.617	507.92
424.994	502.05
425.37	512.9
425.746	504.31
426.123	523.29
426.499	527.81
426.875	503.86
427.251	537.98
427.627	524.42
428.003	519.22
428.379	546.57
428.756	563.74
429.132	556.28
429.507	547.47
429.883	551.09
430.259	550.64
430.635	566.68
431.011	577.98
431.387	573.69
431.763	578.43
432.138	583.4
432.514	599
432.89	580.92
433.265	594.7
433.641	603.52
434.016	607.81
434.392	596.96
434.767	635.38
435.143	618.2
435.518	618.88
435.894	618.43
436.269	613.68
436.644	642.16
437.02	605.55
437.395	641.25
437.77	645.77
438.145	638.99
438.52	635.15
438.895	636.06
439.271	657.75
439.646	662.04
440.021	664.76
440.395	667.02
440.77	659.33
441.145	696.62
441.52	682.84
441.895	680.58
442.27	692.55
442.645	695.04
443.019	686.22
443.394	700.01
443.769	693
444.143	712.89
444.518	693.23
444.892	710.18
445.267	712.89
445.641	724.87
446.016	732.1
446.39	740.69
446.764	728.26
447.139	733.23
447.513	750.86
447.887	749.05
448.262	717.41
448.636	752.21
449.01	756.05
449.384	761.25
449.758	750.18
450.132	753.79
450.506	759.22
450.88	769.16
451.254	765.32
451.628	779.78
452.002	776.17
452.376	808.93
452.75	801.25
453.123	795.83
453.497	800.35
453.871	806.22
454.244	834.92
454.618	827.24
454.992	827.24
455.365	845.77
455.739	842.15
456.112	877.18
456.486	844.19
456.859	835.15
457.232	880.57
457.606	874.02
457.979	883.73
458.352	895.71
458.725	889.16
459.099	904.3
459.472	932.09
459.845	934.81
460.218	897.74
460.591	927.57
460.964	936.61
461.337	976.39
461.71	958.53
462.083	970.74
462.456	988.14
462.829	986.78
463.201	1023.84
463.574	997.86
463.947	1013.22
464.32	1017.06
464.692	1027.01
465.065	1036.5
465.438	1061.36
465.81	1038.98
466.183	1051.41
466.555	1076.27
466.928	1068.14
467.3	1107.91
467.672	1103.39
468.045	1133.9
468.417	1124.63
468.789	1138.42
469.161	1155.59
469.534	1180
469.906	1168.92
470.278	1193.78
470.65	1187.68
471.022	1233.56
471.394	1248.92
471.766	1224.06
472.138	1283.72
472.51	1266.32
472.882	1282.82
473.253	1315.81
473.625	1307.9
473.997	1342.48
474.369	1357.17
474.74	1361.69
475.112	1396.71
475.484	1419.99
475.855	1434.91
476.227	1419.31
476.598	1468.8
476.97	1465.41
477.341	1491.85
477.713	1519.2
478.084	1517.84
478.455	1580.21
478.827	1584.51
479.198	1631.96
479.569	1619.76
479.94	1631.28
480.311	1660.89
480.682	1705.41
481.053	1692.07
481.424	1751.73
481.795	1757.61
482.166	1774.33
482.537	1819.3
482.908	1831.73
483.279	1881.45
483.65	1899.98
484.021	1942.92
484.391	1919.86
484.762	1945.63
485.133	1969.35
485.503	1972.07
485.874	1999.64
486.244	2018.39
486.615	2084.15
486.985	2105.85
487.356	2114.44
487.726	2166.41
488.097	2207.09
488.467	2200.99
488.837	2206.18
489.207	2260.87
489.578	2286.41
489.948	2289.8
490.318	2321.21
490.688	2346.29
491.058	2365.05
491.428	2409.34
491.798	2414.54
492.168	2460.42
492.538	2459.96
492.908	2474.88
493.278	2529.79
493.648	2540.19
494.017	2523.46
494.387	2589.9
494.757	2596.91
495.126	2629
495.496	2666.29
495.866	2694.99
496.235	2704.48
496.605	2723.23
496.974	2684.14
497.344	2746.96
497.713	2741.54
498.082	2792.61
498.452	2781.09
498.821	2829.45
499.19	2822.21
499.559	2854.98
499.928	2891.14
500.298	2923.23
500.667	2917.35
501.036	2923.45
501.405	2960.06
501.774	2969.1
502.143	3003.45
502.512	3002.77
502.88	3060.4
503.249	3007.07
503.618	3082.77
503.987	3083.68
504.356	3103.11
504.724	3117.12
505.093	3127.97
505.462	3181.3
505.83	3162.54
506.199	3195.76
506.567	3223.56
506.936	3255.65
507.304	3312.6
507.672	3288.64
508.041	3308.53
508.409	3299.94
508.777	3350.34
509.145	3357.34
509.514	3370.9
509.882	3458.13
510.25	3444.8
510.618	3453.16
510.986	3500.84
511.354	3498.58
511.722	3533.38
512.09	3585.13
512.458	3591.91
512.826	3599.37
513.193	3647.28
513.561	3654.51
513.929	3694.96
514.297	3712.81
514.664	3725.69
515.032	3778.8
515.4	3764.11
515.767	3838.91
516.135	3841.62
516.502	3819.48
516.869	3868.97
517.237	3849.76
517.604	3916.65
517.972	3925.91
518.339	3968.85
518.706	3964.56
519.073	4051.11
519.44	4068.06
519.808	4080.03
520.175	4055.18
520.542	4132.46
520.909	4195.96
521.276	4122.52
521.643	4227.83
522.009	4242.29
522.376	4293.59
522.743	4316.41
523.11	4353.02
523.477	4444.77
523.843	4416.3
524.21	4484.77
524.577	4488.61
524.943	4527.48
525.31	4561.15
525.676	4602.73
526.043	4652
526.409	4669.4
526.776	4761.82
527.142	4706.23
527.508	4760.24
527.874	4801.37
528.241	4842.73
528.607	4889.96
528.973	4905.77
529.339	4917.3
529.705	4980.12
530.071	5050.86
530.437	5046.79
530.803	5084.98
531.169	5102.15
531.535	5096.5
531.901	5175.37
532.267	5185.99
532.632	5234.58
532.998	5285.2
533.364	5275.71
533.73	5275.03
534.095	5369.94
534.461	5387.12
534.826	5403.61
535.192	5443.84
535.557	5472.77
535.923	5468.92
536.288	5529.71
536.653	5564.06
537.019	5607.9
537.384	5633.67
537.749	5673.21
538.114	5644.06
538.479	5684.96
538.845	5745.75
539.21	5743.72
539.575	5787.33
539.94	5790.05
540.305	5858.07
540.67	5806.99
541.034	5895.81
541.399	5949.82
541.764	5925.41
542.129	5957.05
542.494	6031.17
542.858	6080.43
543.223	6097.16
543.587	6114.33
543.952	6132.41
544.316	6146.65
544.681	6193.2
545.045	6230.49
545.41	6304.38
545.774	6337.6
546.138	6326.08
546.503	6395.45
546.867	6380.54
547.231	6485.85
547.595	6523.81
547.959	6571.04
548.324	6578.73
548.688	6602
549.052	6639.29
549.416	6652.85
549.779	6713.41
550.143	6738.04
550.507	6838.15
550.871	6906.4
551.235	6923.58
551.599	6983.69
551.962	6999.96
552.326	7020.07
552.689	7065.27
553.053	7119.73
553.417	7173.96
553.78	7291.25
554.143	7285.83
554.507	7348.2
554.87	7396.78
555.234	7483.33
555.597	7496.67
555.96	7590.9
556.323	7673.16
556.686	7704.12
557.05	7716.32
557.413	7840.16
557.776	7893.72
558.139	7967.84
558.502	7954.96
558.865	8058.01
559.228	8070.89
559.59	8171
559.953	8198.57
560.316	8381.84
560.679	8389.07
561.041	8549.75
561.404	8559.01
561.767	8672.68
562.129	8639.46
562.492	8752.91
562.854	8808.05
563.217	8875.61
563.579	8901.6
563.941	9069.73
564.304	9085.78
564.666	9215.94
565.028	9223.4
565.39	9366.22
565.753	9468.37
566.115	9518.99
566.477	9592.88
566.839	9686.21
567.201	9811.63
567.563	9845.08
567.925	9891.18
568.287	9981.57
568.648	10110.16
569.01	10154.68
569.372	10310.15
569.734	10312.64
570.095	10397.61
570.457	10537.49
570.819	10515.57
571.18	10635.34
571.542	10758.5
571.903	10749.46
572.265	10887.31
572.626	10955.33
572.987	11041.43
573.349	11144.71
573.71	11252.73
574.071	11216.34
574.432	11376.57
574.794	11473.96
575.155	11553.28
575.516	11566.62
575.877	11630.57
576.238	11661.98
576.599	11910.34
576.96	11887.96
577.32	11933.16
577.681	12057
578.042	12137.22
578.403	12192.59
578.763	12257.22
579.124	12315.98
579.485	12428.52
579.845	12466.25
580.206	12548.51
580.566	12564.78
580.927	12639.58
581.287	12779.92
581.648	12731.78
582.008	12865.57
582.368	12856.07
582.728	12921.84
583.089	12943.53
583.449	13063.75
583.809	12995.05
584.169	13186.69
584.529	13132.9
584.889	13319.57
585.249	13388.04
585.609	13374.25
585.969	13456.06
586.329	13510.52
586.688	13496.96
587.048	13587.13
587.408	13615.38
587.768	13638.2
588.127	13757.97
588.487	13664.87
588.846	13844.3
589.206	13911.87
589.565	13823.05
589.925	13932.66
590.284	13935.14
590.643	14057.17
591.003	14021.02
591.362	14118.64
591.721	14099.88
592.08	14190.28
592.44	14291.52
592.799	14310.95
593.158	14352.76
593.517	14360.22
593.876	14363.38
594.235	14361.12
594.593	14463.04
594.952	14551.85
595.311	14509.36
595.67	14548.46
596.029	14694.67
596.387	14720.21
596.746	14712.75
597.104	14781.22
597.463	14655.35
597.822	14810.6
598.18	14867.09
598.538	14892.63
598.897	14939.86
599.255	14865.51
599.613	15121.55
599.972	15023.02
600.33	14973.31
600.688	15051.27
601.046	15106.64
601.404	15206.75
601.762	15256.46
602.12	15305.5
602.478	15314.54
602.836	15317.48
603.194	15262.79
603.552	15425.95
603.91	15378.49
604.268	15460.53
604.625	15482.22
604.983	15531.48
605.341	15495.78
605.698	15556.34
606.056	15604.93
606.413	15571.03
606.771	15722.89
607.128	15726.28
607.485	15645.38
607.843	15703.01
608.2	15838.37
608.557	15889.89
608.914	15760.4
609.272	15880.85
609.629	15915.43
609.986	16043.34
610.343	15932.83
610.7	16079.94
611.057	16096.89
611.414	16096.89
611.771	16075.42
612.127	16253.27
612.484	16243.33
612.841	16270
613.198	16209.66
613.554	16288.75
613.911	16355.87
614.267	16311.58
614.624	16356.77
614.98	16488.75
615.337	16467.5
615.693	16484
616.05	16498.01
616.406	16593.83
616.762	16524.23
617.118	16560.38
617.475	16552.47
617.831	16580.72
618.187	16667.5
618.543	16647.16
618.899	16744.56
619.255	16760.15
619.611	16763.77
619.967	16785.01
620.323	16774.62
620.678	16719.7
621.034	16838.57
621.39	16697.56
621.746	16766.48
622.101	16979.58
622.457	16809.19
622.812	16793.15
623.168	16973.93
623.523	16925.35
623.879	16994.5
624.234	16763.54
624.589	17000.6
624.945	17014.16
625.3	17051.44
625.655	16974.38
626.01	17058.9
626.365	16921.73
626.72	17068.17
627.075	17007.38
627.43	17000.6
627.785	16989.07
628.14	17032.24
628.495	17020.26
628.85	17044.66
629.205	17008.51
629.559	17062.29
629.914	16982.07
630.269	17051.22
630.623	16982.52
630.978	16920.83
631.332	17057.55
631.687	17040.15
632.041	16966.47
632.396	16991.33
632.75	16963.31
633.104	16955.4
633.459	16864.56
633.813	16898.91
634.167	16909.75
634.521	16930.77
634.875	16960.37
635.229	16923.54
635.583	16884.9
635.937	16848.29
636.291	16759.47
636.645	16799.02
636.999	16771.23
637.352	16900.26
637.706	16730.1
638.06	16796.54
638.413	16849.87
638.767	16750.89
639.121	16821.62
639.474	16713.37
639.828	16734.39
640.181	16810.09
640.534	16789.98
640.888	16672.25
641.241	16663.66
641.594	16673.6
641.947	16733.94
642.301	16654.62
642.654	16638.57
643.007	16700.72
643.36	16659.59
643.713	16597.9
644.066	16620.04
644.419	16606.94
644.771	16495.98
645.124	16289.88
645.477	16233.84
645.83	16217.79
646.182	16119.94
646.535	16120.17
646.888	16100.51
647.24	16019.38
647.593	16103.67
647.945	16091.47
648.298	15968.53
648.65	16057.12
649.002	16055.09
649.355	16075.2
649.707	15998.82
650.059	16093.96
650.411	16286.72
650.763	16345.02
651.115	16481.29
651.467	16385.47
651.819	16484.68
652.171	16431.35
652.523	16458.92
652.875	16405.59
653.227	16317.9
653.578	16378.47
653.93	16493.49
654.282	16382.99
654.633	16343.21
654.985	16297.11
655.337	16390.67
655.688	16371.01
656.039	16440.39
656.391	16234.97
656.742	16272.26
657.094	16317.68
657.445	16380.95
657.796	16303.22
658.147	16267.51
658.498	16244.91
658.849	16414.85
659.2	16373.5
659.551	16267.51
659.902	16349.99
660.253	16398.35
660.604	16296.89
660.955	16239.49
661.306	16305.02
661.656	16365.36
662.007	16251.69
662.358	16301.86
662.708	16321.52
663.059	16376.89
663.409	16217.57
663.76	16443.32
664.11	16414.62
664.461	16335.53
664.811	16384.8
665.161	16385.93
665.511	16255.98
665.862	16431.12
666.212	16461.86
666.562	16430.67
666.912	16437.68
667.262	16349.77
667.612	16361.29
667.962	16444.23
668.312	16375.53
668.662	16475.19
669.011	16538.01
669.361	16371.69
669.711	16351.12
670.06	16438.81
670.41	16395.42
670.76	16408.07
671.109	16416.88
671.459	16422.76
671.808	16458.47
672.157	16469.54
672.507	16392.03
672.856	16333.72
673.205	16396.77
673.554	16491.01
673.904	16388.18
674.253	16535.3
674.602	16446.71
674.951	16235.87
675.3	16157
675.649	16413.72
675.998	16371.01
676.346	16484.91
676.695	16479.26
677.044	16359.03
677.393	16446.26
677.741	16426.83
678.09	16372.59
678.438	16440.61
678.787	16453.95
679.135	16461.63
679.484	16315.19
679.832	16424.12
680.181	16273.84
680.529	16426.15
680.877	16345.7
681.225	16319.49
681.573	16380.73
681.922	16351.35
682.27	16222.77
682.618	16309.99
682.966	16264.8
683.314	16247.62
683.661	16220.96
684.009	16192.26
684.357	16156.33
684.705	16235.19
685.053	16206.72
685.4	16244.46
685.748	16055.09
686.095	16111.36
686.443	16068.65
686.79	16183.9
687.138	16179.15
687.485	16131.47
687.832	15998.82
688.18	16063.45
688.527	15974.86
688.874	16085.82
689.221	15974.86
689.568	16015.99
689.915	15832.72
690.262	15873.17
690.609	15969.89
690.956	15812.83
691.303	15801.53
691.65	15771.48
691.997	15836.34
692.344	15680.18
692.69	15708.43
693.037	15797.92
693.383	15621.88
693.73	15806.96
694.077	15659.62
694.423	15709.78
694.769	15627.07
695.116	15609
695.462	15666.62
695.808	15540.3
696.155	15570.35
696.501	15483.12
696.847	15560.64
697.193	15403.35
697.539	15444.03
697.885	15387.53
698.231	15360.42
698.577	15362.22
698.923	15390.02
699.269	15311.6
699.614	15227.09
699.96	15232.74
700.306	15215.56
700.651	15195.9
700.997	15101.44
701.342	15111.38
701.688	15151.61
702.033	15044.72
702.379	15062.12
702.724	15024.15
703.069	15013.53
703.415	14931.95
703.76	15048.79
704.105	14936.47
704.45	14899.41
704.795	14962.46
705.14	14783.48
705.485	14779.19
705.83	14731.28
706.175	14776.48
706.52	14821.9
706.865	14690.6
707.209	14691.51
707.554	14715.46
707.899	14776.7
708.243	14669.36
708.588	14654.67
708.932	14598.18
709.277	14525.18
709.621	14547.1
709.966	14489.03
710.31	14608.8
710.654	14453.77
710.998	14462.81
711.342	14500.1
711.687	14472.08
712.031	14423.49
712.375	14346.2
712.719	14370.38
713.063	14370.61
713.407	14391.63
713.75	14351.85
714.094	14401.12
714.438	14321.8
714.782	14409.03
715.125	14199.99
715.469	14294
715.812	14201.12
716.156	14132.2
716.499	14251.74
716.843	14156.38
717.186	14139.2
717.53	14242.03
717.873	14231.41
718.216	14188.24
718.559	14104.86
718.902	14084.74
719.246	14041.81
719.589	14059.21
719.932	13924.75
720.275	14035.7
720.617	13986.44
720.96	13983.95
721.303	13995.93
721.646	14001.13
721.989	13859.66
722.331	13974.01
722.674	13980.56
723.016	14037.29
723.359	13992.32
723.701	13997.29
724.044	13860.57
724.386	13802.04
724.729	13883.17
725.071	13825.77
725.413	13815.15
725.755	13807.69
726.097	13753.45
726.439	13775.15
726.782	13736.96
727.124	13816.5
727.465	13689.05
727.807	13733.11
728.149	13659.22
728.491	13694.92
728.833	13605.89
729.175	13679.78
729.516	13610.4
729.858	13644.53
730.199	13588.48
730.541	13585.55
730.882	13648.6
731.224	13656.96
731.565	13606.79
731.906	13656.05
732.248	13578.99
732.589	13582.38
732.93	13450.41
733.271	13491.54
733.612	13597.75
733.953	13644.53
734.294	13472.78
734.635	13481.37
734.976	13442.5
735.317	13507.13
735.658	13389.39
735.999	13425.55
736.339	13423.07
736.68	13505.32
737.021	13320.24
737.361	13346.23
737.702	13390.75
738.042	13361.37
738.383	13374.93
738.723	13370.64
739.063	13355.95
739.404	13325.89
739.744	13308.72
740.084	13252.45
740.424	13301.71
740.764	13246.35
741.104	13315.72
741.444	13214.26
741.784	13202.96
742.124	13238.21
742.464	13211.32
742.804	13143.98
743.143	13082.28
743.483	13050.19
743.823	13062.62
744.162	13014.94
744.502	13087.48
744.841	13041.38
745.181	13100.36
745.52	13014.26
745.86	13002.29
746.199	13074.15
746.538	12951.89
746.877	12974.72
747.216	12991.21
747.556	12896.75
747.895	12845
748.234	12858.79
748.573	12881.84
748.911	12760.48
749.25	12901.27
749.589	12762.74
749.928	12853.59
750.267	12844.55
750.605	12795.96
750.944	12732.01
751.283	12735.85
751.621	12675.29
751.96	12604.1
752.298	12626.48
752.636	12580.38
752.975	12524.33
753.313	12533.15
753.651	12532.47
753.989	12535.63
754.327	12463.32
754.666	12379.02
755.004	12407.27
755.342	12461.06
755.679	12436.65
756.017	12256.77
756.355	12332.7
756.693	12313.26
757.031	12271.01
757.368	12237.79
757.706	12208.63
758.044	12209.09
758.381	12206.6
758.719	12071.24
759.056	12151.01
759.394	12072.82
759.731	11999.6
760.068	11926.38
760.405	11906.72
760.743	11856.1
