Data from brown_tile_FLMS001491_034.txt Node
Date: Tue Feb 07 10:37:25 GMT 2017
User: dcchb
Spectrometer: FLMS00149
Trigger mode: 0
Integration Time (sec): 2.000000E-2
Scans to average: 10
Electric dark correction enabled: true
Nonlinearity correction enabled: false
Boxcar width: 0
XAxis mode: Wavelengths
Number of Pixels in Spectrum: 2048
>>>>>Begin Spectral Data<<<<<
341.393	-14.84
341.776	-14.84
342.16	-14.84
342.543	-56.2
342.927	-45.58
343.31	-69.08
343.693	-70.21
344.077	-56.43
344.46	-62.53
344.843	-64.79
345.226	-28.86
345.61	-32.02
345.993	-27.95
346.376	-8.74
346.759	22.22
347.142	6.62
347.525	61.99
347.908	58.37
348.291	81.65
348.674	78.26
349.057	111.48
349.44	130.01
349.823	136.56
350.206	158.48
350.588	162.33
350.971	189.22
351.354	210.01
351.737	221.31
352.119	203.46
352.502	245.04
352.884	262.44
353.267	274.87
353.65	273.96
354.032	272.38
354.414	285.94
354.797	297.24
355.179	329.55
355.562	294.98
355.944	328.88
356.326	300.18
356.709	332.72
357.091	316.45
357.473	326.16
357.855	326.39
358.238	316.9
358.62	317.8
359.002	318.48
359.384	323
359.766	339.95
360.148	327.97
360.53	313.51
360.912	309.89
361.294	328.2
361.676	311.47
362.057	330.01
362.439	347.63
362.821	299.95
363.203	316.67
363.584	298.59
363.966	319.61
364.348	317.8
364.729	329.1
365.111	297.69
365.493	296.79
365.874	309.89
366.256	303.79
366.637	290.68
367.019	291.36
367.4	312.15
367.781	294.53
368.163	311.93
368.544	294.3
368.925	286.62
369.306	313.51
369.688	289.1
370.069	269.67
370.45	304.92
370.831	274.41
371.212	309.44
371.593	300.4
371.974	289.1
372.355	301.31
372.736	292.27
373.117	310.34
373.498	299.05
373.879	294.07
374.26	291.81
374.641	301.31
375.021	293.17
375.402	312.83
375.783	280.52
376.163	313.06
376.544	298.59
376.925	299.95
377.305	308.54
377.686	305.37
378.066	307.63
378.447	327.07
378.827	292.49
379.208	306.28
379.588	325.49
379.968	310.57
380.349	307.18
380.729	319.61
381.109	340.85
381.489	315.99
381.87	338.14
382.25	330.46
382.63	339.95
383.01	323.23
383.39	311.93
383.77	318.93
384.15	334.07
384.53	321.42
384.91	322.55
385.29	342.66
385.67	323.68
386.049	333.62
386.429	331.81
386.809	338.14
387.189	323.9
387.568	316.45
387.948	342.89
388.328	329.55
388.707	320.97
389.087	335.88
389.466	313.73
389.846	333.4
390.225	348.54
390.605	325.94
390.984	347.18
391.363	353.06
391.743	347.63
392.122	337.46
392.501	362.55
392.881	369.33
393.26	344.47
393.639	363.45
394.018	344.02
394.397	361.87
394.776	345.82
395.155	365.71
395.534	353.73
395.913	353.96
396.292	360.06
396.671	346.05
397.05	361.19
397.429	359.61
397.808	365.71
398.186	358.71
398.565	373.85
398.944	372.04
399.323	360.97
399.701	357.58
400.08	367.52
400.458	386.28
400.837	378.37
401.215	371.59
401.594	381.76
401.972	377.01
402.351	376.11
402.729	387.18
403.107	368.87
403.486	378.82
403.864	386.5
404.242	390.12
404.62	374.52
404.999	393.73
405.377	380.63
405.755	384.69
406.133	412.04
406.511	376.78
406.889	387.63
407.267	397.35
407.645	405.03
408.023	391.02
408.401	409.55
408.779	387.86
409.156	402.32
409.534	417.23
409.912	410.46
410.29	408.65
410.667	405.03
411.045	421.75
411.422	414.07
411.8	438.93
412.178	424.69
412.555	426.73
412.933	434.64
413.31	410.46
413.687	434.86
414.065	434.64
414.442	434.64
414.819	471.24
415.197	442.77
415.574	448.19
415.951	446.84
416.328	431.02
416.705	439.38
417.082	434.86
417.46	463.34
417.837	466.5
418.214	459.27
418.591	481.41
418.967	465.6
419.344	486.39
419.721	470.11
420.098	462.88
420.475	467.63
420.852	479.61
421.228	487.52
421.605	457.23
421.982	478.7
422.358	471.92
422.735	499.27
423.111	473.96
423.488	494.52
423.864	495.88
424.241	487.29
424.617	493.16
424.994	498.36
425.37	516.89
425.746	486.16
426.123	500.85
426.499	506.72
426.875	502.66
427.251	513.5
427.627	514.41
428.003	532.49
428.379	525.71
428.756	550.34
429.132	531.13
429.507	556.67
429.883	538.81
430.259	529.77
430.635	548.08
431.011	557.8
431.387	573.84
431.763	576.78
432.138	558.47
432.514	558.02
432.89	562.77
433.265	573.39
433.641	582.43
434.016	598.7
434.392	600.96
434.767	609.55
435.143	605.48
435.518	608.87
435.894	616.1
436.269	610.22
436.644	596.21
437.02	600.05
437.395	630.56
437.77	629.88
438.145	623.11
438.52	638.7
438.895	641.41
439.271	635.53
439.646	661.97
440.021	642.54
440.395	667.4
440.77	638.25
441.145	661.3
441.52	656.32
441.895	685.25
442.27	674.63
442.645	652.26
443.019	660.84
443.394	678.92
443.769	715.31
444.143	689.54
444.518	697.23
444.892	694.74
445.267	677.34
445.641	701.07
446.016	720.73
446.39	691.13
446.764	730.45
447.139	704.01
447.513	718.92
447.887	723.89
448.262	694.52
448.636	704.46
449.01	715.76
449.384	728.41
449.758	754.18
450.132	745.81
450.506	764.57
450.88	753.95
451.254	745.36
451.628	776.77
452.002	770.9
452.376	760.5
452.75	757.79
453.123	766.83
453.497	776.1
453.871	812.93
454.244	800.73
454.618	796.21
454.992	807.73
455.365	814.06
455.739	816.55
456.112	831.46
456.486	830.33
456.859	827.62
457.232	840.73
457.606	856.09
457.979	844.79
458.352	882.99
458.725	889.99
459.099	895.64
459.472	893.61
459.845	882.31
460.218	913.72
460.591	920.5
460.964	943.32
461.337	941.97
461.71	937.67
462.083	949.2
462.456	943.77
462.829	937.22
463.201	954.85
463.574	941.74
463.947	980.38
464.32	1004.56
464.692	1018.8
465.065	1026.26
465.438	1004.11
465.81	1038.69
466.183	1028.74
466.555	1049.76
466.928	1075.3
467.3	1067.39
467.672	1081.85
468.045	1067.61
468.417	1086.14
468.789	1093.15
469.161	1108.29
469.534	1132.47
469.906	1129.53
470.278	1164.79
470.65	1163.88
471.022	1167.95
471.394	1192.13
471.766	1211.11
472.138	1230.55
472.51	1244.33
472.882	1254.05
473.253	1270.32
473.625	1279.58
473.997	1290.43
474.369	1288.85
474.74	1306.25
475.112	1346.93
475.484	1329.98
475.855	1369.98
476.227	1375.85
476.598	1411.78
476.97	1394.84
477.341	1443.2
477.713	1447.49
478.084	1464.21
478.455	1495.17
478.827	1487.26
479.198	1544.44
479.569	1554.15
479.94	1579.92
480.311	1610.65
480.682	1619.69
481.053	1667.37
481.424	1664.66
481.795	1699.91
482.166	1694.72
482.537	1734.71
482.908	1742.85
483.279	1788.5
483.65	1790.76
484.021	1826.92
484.391	1834.15
484.762	1862.17
485.133	1892.9
485.503	1908.72
485.874	1924.09
486.244	1930.19
486.615	1962.5
486.985	2005.44
487.356	2029.62
487.726	2045.44
488.097	2050.64
488.467	2088.83
488.837	2136.06
489.207	2148.94
489.578	2149.84
489.948	2201.82
490.318	2224.42
490.688	2246.79
491.058	2263.06
491.428	2276.85
491.798	2321.37
492.168	2379.22
492.538	2357.52
492.908	2417.18
493.278	2359.78
493.648	2418.99
494.017	2459.21
494.387	2444.53
494.757	2471.87
495.126	2520.68
495.496	2542.83
495.866	2541.25
496.235	2586.67
496.605	2610.17
496.974	2615.37
497.344	2644.75
497.713	2666.67
498.082	2670.51
498.452	2723.61
498.821	2728.36
499.19	2713.9
499.559	2716.38
499.928	2752.54
500.298	2793.67
500.667	2792.54
501.036	2808.58
501.405	2859.2
501.774	2861.46
502.143	2843.39
502.512	2870.73
502.88	2900.79
503.249	2944.17
503.618	2912.31
503.987	2939.43
504.356	2977.17
504.724	2951.41
505.093	2970.84
505.462	3008.13
505.83	3033.66
506.199	3049.03
506.567	3084.06
506.936	3094.45
507.304	3113.66
507.672	3155.24
508.041	3178.97
508.409	3175.81
508.777	3197.05
509.145	3257.84
509.514	3262.36
509.882	3268.01
510.25	3275.92
510.618	3314.11
510.986	3328.34
511.354	3308.91
511.722	3364.5
512.09	3431.62
512.458	3374.9
512.826	3396.37
513.193	3467.32
513.561	3498.06
513.929	3507.32
514.297	3562.01
514.664	3551.16
515.032	3585.74
515.4	3587.77
515.767	3630.94
516.135	3647.88
516.502	3634.1
516.869	3718.16
517.237	3730.37
517.604	3687.43
517.972	3764.49
518.339	3773.08
518.706	3806.75
519.073	3830.7
519.44	3880.19
519.808	3903.92
520.175	3915.67
520.542	3970.14
520.909	3970.81
521.276	3964.71
521.643	4067.99
522.009	4103.24
522.376	4115.44
522.743	4114.09
523.11	4178.27
523.477	4204.25
523.843	4263.69
524.21	4263.24
524.577	4337.36
524.943	4368.32
525.31	4347.3
525.676	4439.28
526.043	4432.27
526.409	4454.42
526.776	4541.42
527.142	4580.97
527.508	4557.24
527.874	4602.89
528.241	4624.13
528.607	4668.42
528.973	4712.26
529.339	4751.81
529.705	4744.13
530.071	4787.74
530.437	4825.93
530.803	4871.35
531.169	4874.52
531.535	4883.78
531.901	4910.22
532.267	4948.19
532.632	4985.93
532.998	5013.95
533.364	5056.66
533.73	5052.82
534.095	5083.55
534.461	5104.57
534.826	5151.57
535.192	5147.96
535.557	5220.05
535.923	5237.9
536.288	5225.92
536.653	5296.65
537.019	5302.53
537.384	5408.52
537.749	5428.4
538.114	5403.77
538.479	5447.16
538.845	5472.7
539.21	5541.17
539.575	5556.99
539.94	5576.42
540.305	5571.9
540.67	5618
541.034	5626.36
541.399	5665.46
541.764	5679.47
542.129	5732.8
542.494	5740.94
542.858	5788.17
543.223	5787.26
543.587	5856.41
543.952	5871.1
544.316	5871.78
544.681	5940.48
545.045	5980.48
545.41	6008.5
545.774	6049.4
546.138	6093.02
546.503	6095.5
546.867	6128.72
547.231	6236.74
547.595	6236.74
547.959	6279
548.324	6299.11
548.688	6294.14
549.052	6340.92
549.416	6422.5
549.779	6441.48
550.143	6438.09
550.507	6586.56
550.871	6570.07
551.235	6508.15
551.599	6639.67
551.962	6707.01
552.326	6700.01
552.689	6806.22
553.053	6775.94
553.417	6829.5
553.78	6909.27
554.143	6951.75
554.507	6984.07
554.87	7109.71
555.234	7170.05
555.597	7228.13
555.96	7214.12
556.323	7304.74
556.686	7283.04
557.05	7429.93
557.413	7431.29
557.776	7490.04
558.139	7595.35
558.502	7562.81
558.865	7670.15
559.228	7766.19
559.59	7793.99
559.953	7909.92
560.316	7999.18
560.679	7937.26
561.041	8145.17
561.404	8160.53
561.767	8289.57
562.129	8291.83
562.492	8428.78
562.854	8410.02
563.217	8500.19
563.579	8558.49
563.941	8573.4
564.304	8704.47
564.666	8867.41
565.028	8904.92
565.39	8919.16
565.753	9019.95
566.115	9075.09
566.477	9207.51
566.839	9271.01
567.201	9365.7
567.563	9361.41
567.925	9520.5
568.287	9606.37
568.648	9637.78
569.01	9695.86
569.372	9804.56
569.734	9823.77
570.095	10015.4
570.457	10116.19
570.819	10155.96
571.18	10154.38
571.542	10258.33
571.903	10358.89
572.265	10456.74
572.626	10536.06
572.987	10551.43
573.349	10590.53
573.71	10797.3
574.071	10823.06
574.432	10835.49
574.794	10946.45
575.155	11051.08
575.516	11047.69
575.877	11149.16
576.238	11270.96
576.599	11325.2
576.96	11390.96
577.32	11420.11
577.681	11578.75
578.042	11697.84
578.403	11764.06
578.763	11739.87
579.124	11900.55
579.485	11936.71
579.845	12034.56
580.206	11970.38
580.566	12140.54
580.927	12159.75
581.287	12285.85
581.648	12191.84
582.008	12359.07
582.368	12368.11
582.728	12429.12
583.089	12510.25
583.449	12511.61
583.809	12667.53
584.169	12646.74
584.529	12682.22
584.889	12831.37
585.249	12829.11
585.609	12851.71
585.969	12878.83
586.329	12969.22
586.688	13024.13
587.048	13089.22
587.408	13035.66
587.768	13110.69
588.127	13180.97
588.487	13222.32
588.846	13385.93
589.206	13243.56
589.565	13401.53
589.925	13450.11
590.284	13422.09
590.643	13535.08
591.003	13542.99
591.362	13569.21
591.721	13662.76
592.08	13643.1
592.44	13694.85
592.799	13780.27
593.158	13762.19
593.517	13865.92
593.876	13862.76
594.235	13910.21
594.593	13927.16
594.952	14112.02
595.311	13983.88
595.67	14076.76
596.029	14145.24
596.387	14167.83
596.746	14198.12
597.104	14173.48
597.463	14222.75
597.822	14259.58
598.18	14290.32
598.538	14239.47
598.897	14371.44
599.255	14258.45
599.613	14488.5
599.972	14623.64
600.33	14537.09
600.688	14497.77
601.046	14615.96
601.404	14675.16
601.762	14613.7
602.12	14705.45
602.478	14760.59
602.836	14828.38
603.194	14770.76
603.552	14726.46
603.91	14745.67
604.268	14878.78
604.625	14864.54
604.983	14967.13
605.341	14854.6
605.698	15030.64
606.056	15047.13
606.413	15004.42
606.771	15075.15
607.128	15242.83
607.485	15136.85
607.843	15123.29
608.2	15212.1
608.557	15245.09
608.914	15193.34
609.272	15377.07
609.629	15314.24
609.986	15439.66
610.343	15260.69
610.7	15452.32
611.057	15493.22
611.414	15470.17
611.771	15538.19
612.127	15558.98
612.484	15582.71
612.841	15652.54
613.198	15692.54
613.554	15692.99
613.911	15740.22
614.267	15782.48
614.624	15795.59
614.98	15777.73
615.337	15849.15
615.693	15818.64
616.05	15839.2
616.406	15978.18
616.762	15938.18
617.118	15887.56
617.475	15925.98
617.831	16023.6
618.187	16039.65
618.543	16051.85
618.899	16097.95
619.255	15996.71
619.611	16098.63
619.967	16163.49
620.323	16129.82
620.678	16164.17
621.034	16128.23
621.39	16143.83
621.746	16114.9
622.101	16245.97
622.457	16147.89
622.812	16198.51
623.168	16266.99
623.523	16334.1
623.879	16307.89
624.234	16177.95
624.589	16322.58
624.945	16392.41
625.3	16330.26
625.655	16345.4
626.01	16307.66
626.365	16418.85
626.72	16351.96
627.075	16323.26
627.43	16352.86
627.785	16372.97
628.14	16301.79
628.495	16387.44
628.85	16339.53
629.205	16396.02
629.559	16353.54
629.914	16365.97
630.269	16311.05
630.623	16279.87
630.978	16310.38
631.332	16346.76
631.687	16386.98
632.041	16278.06
632.396	16318.51
632.75	16340.88
633.104	16247.33
633.459	16261.11
633.813	16255.69
634.167	16258.17
634.521	16266.99
634.875	16431.05
635.229	16191.28
635.583	16169.81
635.937	16262.92
636.291	16187.44
636.645	16258.63
636.999	16096.14
637.352	16191.74
637.706	16193.77
638.06	16243.26
638.413	16170.94
638.767	16132.53
639.121	16067.44
639.474	16060.21
639.828	16001.23
640.181	16029.71
640.534	16076.03
640.888	16073.77
641.241	16001.91
641.594	15945.64
641.947	16010.95
642.301	15991.51
642.654	15948.58
643.007	15970.72
643.36	16070.16
643.713	15971.18
644.066	16050.5
644.419	15950.61
644.771	15849.15
645.124	15728.7
645.477	15685.31
645.83	15564.18
646.182	15467.23
646.535	15482.83
646.888	15544.07
647.24	15457.74
647.593	15466.1
647.945	15419.1
648.298	15425.2
648.65	15357.63
649.002	15326.9
649.355	15402.38
649.707	15329.84
650.059	15542.71
650.411	15674.91
650.763	15701.35
651.115	15874
651.467	15832.87
651.819	15805.53
652.171	15816.83
652.523	15740.22
652.875	15765.98
653.227	15653.9
653.578	15746.32
653.93	15783.84
654.282	15737.06
654.633	15676.72
654.985	15646.66
655.337	15676.49
655.688	15736.38
656.039	15803.04
656.391	15616.38
656.742	15680.56
657.094	15637.4
657.445	15724.18
657.796	15786.1
658.147	15706.32
658.498	15681.92
658.849	15728.02
659.2	15696.61
659.551	15633.78
659.902	15669.04
660.253	15679.66
660.604	15844.4
660.955	15740.45
661.306	15738.19
661.656	15667.23
662.007	15667.46
662.358	15700.45
662.708	15687.57
663.059	15723.05
663.409	15570.73
663.76	15748.81
664.11	15697.74
664.461	15862.03
664.811	15808.69
665.161	15777.96
665.511	15697.96
665.862	15832.2
666.212	15814.12
666.562	15697.96
666.912	15890.05
667.262	15779.32
667.612	15774.35
667.962	15856.15
668.312	15826.1
668.662	15923.27
669.011	15846.66
669.361	15790.84
669.711	15772.54
670.06	15851.18
670.41	15769.6
670.76	15813.89
671.109	15887.11
671.459	15815.47
671.808	15796.27
672.157	15823.16
672.507	15702.48
672.856	15776.15
673.205	15841.46
673.554	15836.94
673.904	15810.73
674.253	15860.44
674.602	15871.74
674.951	15571.64
675.3	15544.97
675.649	15821.58
675.998	15827.68
676.346	15791.07
676.695	15861.35
677.044	15698.64
677.393	15788.36
677.741	15850.05
678.09	15789.49
678.438	15688.92
678.787	15826.77
679.135	15768.92
679.484	15656.61
679.832	15843.5
680.181	15624.07
680.529	15764.85
680.877	15706.1
681.225	15729.15
681.573	15856.15
681.922	15731.18
682.27	15701.35
682.618	15719.43
682.966	15674.23
683.314	15747
683.661	15648.7
684.009	15678.53
684.357	15583.84
684.705	15589.94
685.053	15636.27
685.4	15684.63
685.748	15546.78
686.095	15619.55
686.443	15540.23
686.79	15524.86
687.138	15443.51
687.485	15502.49
687.832	15472.43
688.18	15514.01
688.527	15465.88
688.874	15391.98
689.221	15357.41
689.568	15427.69
689.915	15396.05
690.262	15419.1
690.609	15347.01
690.956	15228.6
691.303	15303.85
691.65	15259.56
691.997	15213.23
692.344	15173.91
692.69	15219.33
693.037	15204.19
693.383	15120.35
693.73	15062.73
694.077	15020.92
694.423	15150.63
694.769	15017.75
695.116	14910.19
695.462	14985.89
695.808	14971.43
696.155	15016.17
696.501	14950.19
696.847	14883.52
697.193	14847.36
697.539	14908.61
697.885	14810.75
698.231	14794.94
698.577	14853.24
698.923	14724.66
699.269	14758.78
699.614	14676.75
699.96	14641.72
700.306	14646.47
700.651	14594.04
700.997	14530.54
701.342	14570.31
701.688	14599.69
702.033	14453.48
702.379	14596.52
702.724	14501.84
703.069	14504.32
703.415	14372.35
703.76	14378.22
704.105	14374.38
704.45	14385.46
704.795	14315.85
705.14	14288.06
705.485	14318.34
705.83	14229.3
706.175	14219.13
706.52	14253.93
706.865	14217.1
707.209	14196.08
707.554	14091.68
707.899	14121.06
708.243	14067.05
708.588	14111.79
708.932	14009.87
709.277	14121.96
709.621	14062.3
709.966	13968.97
710.31	14060.94
710.654	13911.8
710.998	13955.41
711.342	14033.83
711.687	13973.71
712.031	13886.71
712.375	13871.8
712.719	13901.63
713.063	13852.14
713.407	13911.34
713.75	13852.59
714.094	13853.94
714.438	13817.11
714.782	13751.12
715.125	13742.08
715.469	13815.53
715.812	13727.85
716.156	13631.58
716.499	13591.58
716.843	13674.51
717.186	13541.64
717.53	13759.48
717.873	13610.56
718.216	13658.92
718.559	13558.58
718.902	13515.65
719.246	13558.13
719.589	13500.28
719.932	13575.08
720.275	13510.9
720.617	13528.53
720.96	13456.21
721.303	13505.48
721.646	13476.33
721.989	13438.14
722.331	13425.48
722.674	13443.11
723.016	13398.36
723.359	13392.49
723.701	13486.5
724.044	13344.58
724.386	13291.02
724.729	13298.7
725.071	13377.57
725.413	13349.1
725.755	13338.25
726.097	13270
726.439	13247.18
726.782	13245.82
727.124	13323.56
727.465	13291.25
727.807	13328.31
728.149	13235.65
728.491	13179.84
728.833	13240.4
729.175	13165.6
729.516	13163.57
729.858	13154.08
730.199	13170.57
730.541	13205.15
730.882	13090.8
731.224	13238.59
731.565	13098.03
731.906	13067.07
732.248	13143.91
732.589	13041.99
732.93	13002.89
733.271	13128.54
733.612	13042.44
733.953	13062.1
734.294	13013.74
734.635	12982.55
734.976	13025.04
735.317	13006.51
735.658	12945.49
735.999	12913.4
736.339	12926.96
736.68	12990.46
737.021	12924.48
737.361	12837.25
737.702	12990.92
738.042	12896.45
738.383	12954.76
738.723	12911.14
739.063	12821.43
739.404	12805.84
739.744	12792.73
740.084	12728.78
740.424	12786.63
740.764	12706.63
741.104	12742.33
741.444	12612.17
741.784	12663.24
742.124	12678.83
742.464	12719.28
742.804	12711.6
743.143	12689.91
743.483	12673.64
743.823	12527.65
744.162	12573.07
744.502	12602.9
744.841	12532.4
745.181	12608.1
745.52	12465.73
745.86	12529.91
746.199	12526.07
746.538	12507.31
746.877	12532.85
747.216	12496.92
747.556	12461.21
747.895	12477.26
748.234	12404.49
748.573	12309.8
748.911	12325.62
749.25	12283.59
749.589	12357.49
749.928	12315.23
750.267	12367.2
750.605	12292.85
750.944	12321.1
751.283	12155.68
751.621	12264.38
751.96	12133.31
752.298	12207.43
752.636	12110.26
752.975	12085.4
753.313	12083.14
753.651	12080.88
753.989	12028.23
754.327	12062.35
754.666	12011.73
755.004	11978.06
755.342	11981.68
755.679	11961.56
756.017	11801.34
756.355	11870.27
756.693	11842.25
757.031	11859.87
757.368	11792.3
757.706	11721.34
758.044	11663.94
758.381	11716.82
758.719	11649.48
759.056	11693.32
759.394	11635.7
759.731	11538.52
760.068	11530.16
760.405	11458.75
