Data from brown_tile_FLMS001491_040.txt Node
Date: Tue Feb 07 10:37:26 GMT 2017
User: dcchb
Spectrometer: FLMS00149
Trigger mode: 0
Integration Time (sec): 2.000000E-2
Scans to average: 10
Electric dark correction enabled: true
Nonlinearity correction enabled: false
Boxcar width: 0
XAxis mode: Wavelengths
Number of Pixels in Spectrum: 2048
>>>>>Begin Spectral Data<<<<<
341.393	-23.97
341.776	-23.97
342.16	-23.97
342.543	-75.72
342.927	-81.37
343.31	-76.62
343.693	-79.11
344.077	-74.59
344.46	-58.32
344.843	-63.29
345.226	-42.72
345.61	-37.08
345.993	-19
346.376	-14.25
346.759	14.22
347.142	40.44
347.525	37.95
347.908	71.85
348.291	96.03
348.674	86.99
349.057	117.5
349.44	128.8
349.823	159.08
350.206	140.32
350.588	155.91
350.971	183.03
351.354	207.21
351.737	205.86
352.119	235.01
352.502	236.14
352.884	243.14
353.267	249.24
353.65	270.71
354.032	284.05
354.414	301.22
354.797	283.59
355.179	310.03
355.562	299.64
355.944	309.13
356.326	311.39
356.709	326.98
357.091	305.97
357.473	315.68
357.855	333.99
358.238	329.02
358.62	324.95
359.002	306.64
359.384	325.18
359.766	333.76
360.148	310.49
360.53	331.5
360.912	326.98
361.294	332.18
361.676	322.24
362.057	313.65
362.439	331.28
362.821	304.84
363.203	316.81
363.584	305.97
363.966	298.74
364.348	300.99
364.729	302.12
365.111	320.43
365.493	307.55
365.874	305.06
366.256	278.85
366.637	307.1
367.019	296.48
367.4	285.63
367.781	306.42
368.163	305.06
368.544	288.34
368.925	293.54
369.306	323.37
369.688	311.62
370.069	291.05
370.45	297.83
370.831	291.73
371.212	271.62
371.593	291.73
371.974	311.16
372.355	286.98
372.736	286.31
373.117	300.54
373.498	301.22
373.879	291.5
374.26	277.04
374.641	292.18
375.021	303.03
375.402	297.61
375.783	307.1
376.163	293.31
376.544	326.08
376.925	286.76
377.305	315.01
377.686	305.97
378.066	297.83
378.447	330.37
378.827	311.39
379.208	300.32
379.588	302.12
379.968	293.31
380.349	327.89
380.729	319.75
381.109	310.71
381.489	316.81
381.87	296.48
382.25	324.5
382.63	310.71
383.01	314.78
383.39	315.46
383.77	311.84
384.15	309.36
384.53	336.7
384.91	312.07
385.29	345.97
385.67	333.31
386.049	335.8
386.429	332.63
386.809	322.01
387.189	306.19
387.568	330.37
387.948	319.98
388.328	346.42
388.707	337.38
389.087	334.67
389.466	358.39
389.846	349.81
390.225	341.67
390.605	335.34
390.984	331.73
391.363	340.32
391.743	333.31
392.122	354.78
392.501	348.68
392.881	334.21
393.26	355.68
393.639	359.52
394.018	350.71
394.397	354.33
394.776	355.23
395.155	343.25
395.534	360.2
395.913	357.26
396.292	355.23
396.671	347.77
397.05	385.51
397.429	348
397.808	373.76
398.186	380.09
398.565	366.53
398.944	368.11
399.323	383.93
399.701	381.22
400.08	363.37
400.458	359.07
400.837	390.94
401.215	373.99
401.594	369.47
401.972	367.66
402.351	371.5
402.729	378.06
403.107	362.91
403.486	388.68
403.864	373.54
404.242	391.84
404.62	376.93
404.999	423.48
405.377	383.7
405.755	365.4
406.133	394.55
406.511	407.43
406.889	406.53
407.267	405.4
407.645	388.22
408.023	415.34
408.401	395.46
408.779	402.46
409.156	401.78
409.534	410.37
409.912	390.71
410.29	406.75
410.667	407.66
411.045	405.17
411.422	408.56
411.8	412.86
412.178	431.84
412.555	410.14
412.933	430.03
413.31	435.23
413.687	433.65
414.065	427.55
414.442	447.21
414.819	428.45
415.197	449.01
415.574	456.25
415.951	432.97
416.328	438.39
416.705	426.42
417.082	444.72
417.46	452.18
417.837	469.35
418.214	459.41
418.591	453.99
418.967	473.42
419.344	453.53
419.721	464.83
420.098	450.14
420.475	483.81
420.852	468.67
421.228	464.83
421.605	461.89
421.982	472.52
422.358	498.5
422.735	473.19
423.111	493.08
423.488	470.93
423.864	497.37
424.241	496.92
424.617	517.94
424.994	495.11
425.37	497.83
425.746	515.23
426.123	505.51
426.499	525.62
426.875	516.81
427.251	500.09
427.627	516.81
428.003	527.66
428.379	529.24
428.756	554.32
429.132	525.62
429.507	548.67
429.883	559.52
430.259	539.18
430.635	557.26
431.011	524.04
431.387	568.11
431.763	570.59
432.138	555.45
432.514	544.6
432.89	559.75
433.265	567.88
433.641	584.6
434.016	592.29
434.392	565.62
434.767	600.2
435.143	583.47
435.518	600.42
435.894	593.42
436.269	618.05
436.644	602.46
437.02	614.88
437.395	630.93
437.77	626.64
438.145	630.03
438.52	632.06
438.895	627.99
439.271	650.36
439.646	654.21
440.021	645.39
440.395	654.88
440.77	670.48
441.145	638.39
441.52	653.08
441.895	667.54
442.27	642.45
442.645	683.13
443.019	682.91
443.394	663.92
443.769	698.95
444.143	674.09
444.518	697.82
444.892	701.44
445.267	695.11
445.641	705.96
446.016	704.6
446.39	695.56
446.764	706.86
447.139	708.89
447.513	730.59
447.887	722
448.262	706.86
448.636	710.7
449.01	737.82
449.384	720.42
449.758	750.47
450.132	720.42
450.506	740.08
450.88	740.31
451.254	759.97
451.628	770.59
452.002	762.23
452.376	762.9
452.75	780.76
453.123	761.1
453.497	772.85
453.871	774.43
454.244	803.35
454.618	821.89
454.992	812.85
455.365	818.95
455.739	820.76
456.112	808.55
456.486	828.89
456.859	828.66
457.232	863.92
457.606	858.95
457.979	831.83
458.352	877.7
458.725	874.54
459.099	898.95
459.472	899.85
459.845	915.67
460.218	902.11
460.591	914.76
460.964	926.06
461.337	956.8
461.71	915.89
462.083	952.96
462.456	942.79
462.829	932.84
463.201	956.57
463.574	971.71
463.947	984.37
464.32	966.74
464.692	992.28
465.065	991.6
465.438	1014.2
465.81	1038.15
466.183	1026.63
466.555	1039.96
466.928	1067.53
467.3	1028.66
467.672	1071.37
468.045	1080.86
468.417	1095.78
468.789	1079.51
469.161	1107.53
469.534	1131.48
469.906	1149.79
470.278	1152.5
470.65	1170.8
471.022	1178.26
471.394	1200.18
471.766	1201.54
472.138	1186.17
472.51	1253.29
472.882	1233.85
473.253	1247.18
473.625	1292.38
473.997	1280.4
474.369	1308.43
474.74	1326.28
475.112	1314.08
475.484	1345.49
475.855	1375.32
476.227	1368.09
476.598	1401.53
476.97	1423.9
477.341	1432.94
477.713	1459.16
478.084	1458.93
478.455	1490.12
478.827	1531.92
479.198	1529.66
479.569	1558.36
479.94	1575.76
480.311	1584.58
480.682	1625.71
481.053	1647.85
481.424	1683.78
481.795	1675.87
482.166	1721.75
482.537	1741.41
482.908	1783.67
483.279	1773.5
483.65	1787.74
484.021	1822.31
484.391	1873.83
484.762	1875.87
485.133	1876.09
485.503	1918.58
485.874	1942.08
486.244	1964.68
486.615	1998.58
486.985	1987.05
487.356	2028.86
487.726	2046.26
488.097	2076.54
488.467	2093.49
488.837	2118.12
489.207	2151.79
489.578	2169.42
489.948	2177.33
490.318	2215.97
490.688	2234.05
491.058	2251.23
491.428	2294.16
491.798	2304.11
492.168	2349.75
492.538	2368.96
492.908	2373.93
493.278	2396.53
493.648	2419.13
494.017	2428.85
494.387	2503.2
494.757	2530.31
495.126	2536.42
495.496	2559.24
495.866	2544.1
496.235	2564.66
496.605	2585.91
496.974	2595.4
497.344	2632.69
497.713	2656.87
498.082	2647.83
498.452	2709.29
498.821	2689.41
499.19	2736.64
499.559	2736.86
499.928	2779.35
500.298	2755.39
500.667	2798.56
501.036	2808.05
501.405	2831.55
501.774	2862.06
502.143	2860.48
502.512	2913.58
502.88	2912.68
503.249	2922.17
503.618	2932.56
503.987	2977.08
504.356	2978.89
504.724	2965.11
505.093	3006.46
505.462	3030.87
505.83	3038.32
506.199	3049.17
506.567	3092.33
506.936	3096.63
507.304	3120.36
507.672	3164.87
508.041	3162.16
508.409	3182.73
508.777	3177.3
509.145	3228.83
509.514	3245.55
509.882	3251.43
510.25	3254.36
510.618	3284.87
510.986	3292.78
511.354	3337.3
511.722	3382.72
512.09	3450.29
512.458	3382.5
512.826	3442.38
513.193	3468.14
513.561	3453.68
513.929	3525.54
514.297	3532.55
514.664	3583.85
515.032	3547.24
515.4	3610.74
515.767	3614.35
516.135	3669.72
516.502	3672.43
516.869	3748.14
517.237	3714.69
517.604	3731.64
517.972	3779.55
518.339	3834.01
518.706	3822.03
519.073	3837.17
519.44	3846.21
519.808	3909.94
520.175	3904.06
520.542	3987.45
520.909	3968.92
521.276	3987.68
521.643	4025.64
522.009	4067
522.376	4096.6
522.743	4141.12
523.11	4175.02
523.477	4219.31
523.843	4217.28
524.21	4257.73
524.577	4287.78
524.943	4297.05
525.31	4360.1
525.676	4377.05
526.043	4411.62
526.409	4467.44
526.776	4474.22
527.142	4541.34
527.508	4570.94
527.874	4647.55
528.241	4695.68
528.607	4668.79
528.973	4704.04
529.339	4739.52
529.705	4781.33
530.071	4805.96
530.437	4865.17
530.803	4830.59
531.169	4931.16
531.535	4873.08
531.901	4892.06
532.267	4931.61
532.632	4980.65
532.998	5000.98
533.364	5055.22
533.73	5051.6
534.095	5127.53
534.461	5127.53
534.826	5218.61
535.192	5175.67
535.557	5230.36
535.923	5217.48
536.288	5302.45
536.653	5306.06
537.019	5277.36
537.384	5353.74
537.749	5368.21
538.114	5400.97
538.479	5395.78
538.845	5439.62
539.21	5446.85
539.575	5488.66
539.94	5507.41
540.305	5562.1
540.67	5606.39
541.034	5641.19
541.399	5679.38
541.764	5720.74
542.129	5706.73
542.494	5756.44
542.858	5805.03
543.223	5844.8
543.587	5869.21
543.952	5885.93
544.316	5925.25
544.681	5903.56
545.045	5936.1
545.41	6023.33
545.774	6034.18
546.138	6066.72
546.503	6092.71
546.867	6127.96
547.231	6155.76
547.595	6198.69
547.959	6234.17
548.324	6320.95
548.688	6311.23
549.052	6335.41
549.416	6393.94
549.779	6357.11
550.143	6503.54
550.507	6527.27
550.871	6600.49
551.235	6572.47
551.599	6639.81
551.962	6722.75
552.326	6708.28
552.689	6724.1
553.053	6810.88
553.417	6782.41
553.78	6948.73
554.143	6932.46
554.507	7032.12
554.87	7074.15
555.234	7173.81
555.597	7117.54
555.96	7235.28
556.323	7292
556.686	7345.56
557.05	7376.29
557.413	7453.35
557.776	7493.57
558.139	7560.69
558.502	7646.11
558.865	7711.42
559.228	7722.72
559.59	7851.76
559.953	7811.76
560.316	7933.34
560.679	8027.8
561.041	8062.82
561.404	8162.26
561.767	8241.35
562.129	8291.97
562.492	8375.81
562.854	8432.76
563.217	8460.1
563.579	8531.96
563.941	8637.5
564.304	8730.6
564.666	8841.34
565.028	8842.47
565.39	8931.5
565.753	9042.91
566.115	9116.81
566.477	9169.01
566.839	9223.92
567.201	9345.73
567.563	9378.04
567.925	9463.01
568.287	9568.77
568.648	9667.53
569.01	9719.5
569.372	9820.29
569.734	9829.33
570.095	9999.5
570.457	10030.46
570.819	10076.11
571.18	10122.88
571.542	10275.42
571.903	10356.55
572.265	10434.97
572.626	10469.77
572.987	10551.12
573.349	10653.72
573.71	10728.07
574.071	10750.21
574.432	10864.78
574.794	11022.97
575.155	11079.47
575.516	11065.46
575.877	11213.93
576.238	11219.13
576.599	11352.91
576.96	11414.38
577.32	11502.06
577.681	11630.64
578.042	11674.26
578.403	11650.53
578.763	11757.19
579.124	11826.79
579.485	11966.45
579.845	11996.05
580.206	12007.81
580.566	12137.75
580.927	12123.51
581.287	12226.78
581.648	12233.79
582.008	12386.1
582.368	12312.66
582.728	12485.08
583.089	12488.7
583.449	12529.15
583.809	12633.78
584.169	12672.87
584.529	12734.34
584.889	12837.16
585.249	12826.99
585.609	12886.43
585.969	12937.27
586.329	12937.5
586.688	13027.21
587.048	13082.58
587.408	13046.65
587.768	13158.51
588.127	13142.24
588.487	13160.54
588.846	13339.97
589.206	13262.91
589.565	13355.57
589.925	13521.66
590.284	13483.7
590.643	13501.33
591.003	13566.41
591.362	13633.3
591.721	13549.23
592.08	13653.41
592.44	13734.09
592.799	13689.34
593.158	13820.41
593.517	13791.26
593.876	13874.42
594.235	13953.52
594.593	13910.13
594.952	14062.44
595.311	13989.67
595.67	14017.7
596.029	14161.2
596.387	14160.74
596.746	14251.36
597.104	14169.33
597.463	14246.39
597.822	14267.86
598.18	14262.21
598.538	14330
598.897	14452.26
599.255	14284.58
599.613	14613.16
599.972	14515.31
600.33	14464.01
600.688	14554.41
601.046	14572.26
601.404	14672.14
601.762	14598.47
602.12	14760.73
602.478	14765.02
602.836	14791.69
603.194	14628.53
603.552	14819.26
603.91	14746.72
604.268	14840.73
604.625	14819.71
604.983	14903.32
605.341	14905.81
605.698	14993.49
606.056	15039.59
606.413	15069.19
606.771	15152.36
607.128	15190.09
607.485	15094.28
607.843	15089.31
608.2	15187.61
608.557	15334.05
608.914	15260.38
609.272	15302.18
609.629	15386.7
609.986	15440.71
610.343	15375.85
610.7	15450.43
611.057	15449.98
611.414	15452.91
611.771	15587.37
612.127	15597.32
612.484	15549.18
612.841	15597.77
613.198	15653.13
613.554	15655.62
613.911	15782.17
614.267	15708.95
614.624	15739.69
614.98	15736.75
615.337	15935.84
615.693	15835.05
616.05	15759.57
616.406	15917.31
616.762	15877.53
617.118	15857.2
617.475	15887.93
617.831	15988.04
618.187	16041.82
618.543	15991.66
618.899	16044.76
619.255	15992.33
619.611	16163.4
619.967	16209.96
620.323	16095.16
620.678	16146.68
621.034	16108.94
621.39	16113.91
621.746	16125.89
622.101	16284.76
622.457	16143.06
622.812	16221.48
623.168	16280.46
623.523	16251.54
623.879	16234.59
624.234	16211.31
624.589	16293.12
624.945	16319.78
625.3	16312.1
625.655	16351.65
626.01	16345.77
626.365	16403.62
626.72	16371.98
627.075	16429.84
627.43	16339.22
627.785	16261.25
628.14	16334.92
628.495	16382.61
628.85	16352.1
629.205	16263.97
629.559	16408.82
629.914	16355.04
630.269	16305.55
630.623	16281.59
630.978	16177.64
631.332	16371.76
631.687	16382.15
632.041	16341.93
632.396	16443.62
632.75	16274.36
633.104	16303.96
633.459	16242.27
633.813	16196.17
634.167	16202.95
634.521	16205.89
634.875	16243.85
635.229	16306
635.583	16204.53
635.937	16240.69
636.291	16144.87
636.645	16224.87
636.999	16152.56
637.352	16167.02
637.706	16177.19
638.06	16207.7
638.413	16169.96
638.767	16126.57
639.121	16066.91
639.474	16058.32
639.828	16069.17
640.181	16095.16
640.534	16113.46
640.888	16090.64
641.241	15929.96
641.594	16010.19
641.947	16135.61
642.301	16027.14
642.654	16019.45
643.007	15978.1
643.36	15965.89
643.713	15890.87
644.066	15954.37
644.419	16005.67
644.771	15796.86
645.124	15673.92
645.477	15638.44
645.83	15635.05
646.182	15553.02
646.535	15475.06
646.888	15569.29
647.24	15474.61
647.593	15580.37
647.945	15520.93
648.298	15437.55
648.65	15407.04
649.002	15393.93
649.355	15395.74
649.707	15418.79
650.059	15524.32
650.411	15589.63
650.763	15733.81
651.115	15887.93
651.467	15794.37
651.819	15826.01
652.171	15764.32
652.523	15755.28
652.875	15723.87
653.227	15665.11
653.578	15752.57
653.93	15773.58
654.282	15748.27
654.633	15695.84
654.985	15700.36
655.337	15734.04
655.688	15687.48
656.039	15799.57
656.391	15666.92
656.742	15611.1
657.094	15677.31
657.445	15703.75
657.796	15689.52
658.147	15693.81
658.498	15658.56
658.849	15796.18
659.2	15649.07
659.551	15701.95
659.902	15670.08
660.253	15713.92
660.604	15701.95
660.955	15675.96
661.306	15682.96
661.656	15747.59
662.007	15723.19
662.358	15663.75
662.708	15704.66
663.059	15723.87
663.409	15527.26
663.76	15732
664.11	15699.01
664.461	15801.83
664.811	15687.71
665.161	15734.71
665.511	15642.51
665.862	15771.32
666.212	15833.02
666.562	15800.93
666.912	15735.39
667.262	15799.12
667.612	15764.77
667.962	15786.69
668.312	15826.69
668.662	15803.64
669.011	15835.5
669.361	15814.94
669.711	15784.88
670.06	15857.65
670.41	15797.76
670.76	15809.74
671.109	15814.49
671.459	15845.44
671.808	15761.61
672.157	15843.19
672.507	15735.84
672.856	15715.96
673.205	15792.11
673.554	15804.09
673.904	15815.62
674.253	15906.01
674.602	15788.5
674.951	15623.76
675.3	15540.14
675.649	15793.92
675.998	15832.11
676.346	15804.09
676.695	15856.97
677.044	15767.03
677.393	15773.13
677.741	15793.69
678.09	15780.14
678.438	15841.6
678.787	15777.65
679.135	15804.77
679.484	15757.31
679.832	15802.06
680.181	15663.75
680.529	15746.69
680.877	15763.87
681.225	15760.7
681.573	15771.77
681.922	15721.83
682.27	15652.91
682.618	15714.37
682.966	15730.19
683.314	15722.28
683.661	15723.19
684.009	15639.12
684.357	15656.52
684.705	15596.64
685.053	15700.36
685.4	15630.99
685.748	15577.66
686.095	15552.57
686.443	15505.11
686.79	15443.2
687.138	15558.45
687.485	15544.21
687.832	15409.52
688.18	15530.88
688.527	15464.44
688.874	15387.15
689.221	15490.2
689.568	15452.01
689.915	15264.22
690.262	15367.94
690.609	15333.82
690.956	15388.51
691.303	15298.57
691.65	15288.62
691.997	15236.2
692.344	15118.91
692.69	15210.43
693.037	15149.87
693.383	15083.66
693.73	15130.21
694.077	15070.32
694.423	15111.9
694.769	15018.12
695.116	15019.7
695.462	15061.74
695.808	14952.59
696.155	15037.33
696.501	14847.51
696.847	14995.07
697.193	14819.03
697.539	14907.39
697.885	14823.55
698.231	14691.13
698.577	14751.46
698.923	14802.76
699.269	14755.08
699.614	14629.88
699.96	14636.89
700.306	14650.22
700.651	14554.86
700.997	14508.3
701.342	14570.9
701.688	14493.84
702.033	14533.84
702.379	14486.16
702.724	14481.19
703.069	14560.73
703.415	14344.69
703.76	14296.79
704.105	14399.83
704.45	14341.53
704.795	14269.67
705.14	14258.59
705.485	14256.33
705.83	14222.66
706.175	14275.99
706.52	14229.44
706.865	14148.77
707.209	14188.77
707.554	14110.58
707.899	14174.75
708.243	14098.37
708.588	14102.67
708.932	14042.55
709.277	14009.79
709.621	14074.64
709.966	13979.28
710.31	13994.87
710.654	13879.39
710.998	14041.42
711.342	13964.14
711.687	13945.61
712.031	13899.51
712.375	13844.37
712.719	13881.65
713.063	13839.17
713.407	13882.33
713.75	13796.69
714.094	13803.01
714.438	13754.2
714.782	13768.44
715.125	13718.27
715.469	13736.57
715.812	13695.67
716.156	13602.34
716.499	13720.76
716.843	13726.4
717.186	13599.4
717.53	13725.05
717.873	13717.82
718.216	13593.53
718.559	13600.08
718.902	13443.02
719.246	13549.91
719.589	13451.61
719.932	13514.43
720.275	13502.91
720.617	13503.36
720.96	13482.8
721.303	13484.15
721.646	13427.2
721.989	13346.98
722.331	13483.47
722.674	13448.22
723.016	13411.84
723.359	13395.11
723.701	13406.19
724.044	13325.96
724.386	13294.78
724.729	13359.63
725.071	13349.24
725.413	13353.99
725.755	13353.99
726.097	13243.48
726.439	13183.14
726.782	13232.18
727.124	13351.95
727.465	13263.59
727.807	13325.51
728.149	13168
728.491	13194.44
728.833	13205.06
729.175	13156.7
729.516	13126.87
729.858	13083.94
730.199	13147.66
730.541	13188.34
730.882	13149.02
731.224	13151.5
731.565	13106.31
731.906	13116.7
732.248	13051.17
732.589	13116.03
732.93	13043.94
733.271	13052.75
733.612	13094.56
733.953	13104.95
734.294	13037.84
734.635	13014.11
734.976	13058.85
735.317	13006.2
735.658	12899.76
735.999	12969.36
736.339	12942.92
736.68	12903.83
737.021	12955.13
737.361	12822.02
737.702	12944.5
738.042	12929.59
738.383	12898.4
738.723	12931.17
739.063	12888.69
739.404	12853.43
739.744	12853.66
740.084	12823.15
740.424	12803.94
740.764	12735.47
741.104	12746.32
741.444	12697.28
741.784	12670.61
742.124	12701.35
742.464	12620.9
742.804	12617.28
743.143	12599.65
743.483	12580.22
743.823	12602.37
744.162	12531.86
744.502	12604.85
744.841	12504.06
745.181	12614.57
745.52	12535.25
745.86	12595.59
746.199	12458.42
746.538	12513.1
746.877	12564.63
747.216	12514.46
747.556	12496.15
747.895	12493.22
748.234	12292.54
748.573	12372.77
748.911	12305.43
749.25	12337.74
749.589	12309.27
749.928	12340.23
750.267	12344.75
750.605	12302.71
750.944	12267.01
751.283	12234.92
751.621	12255.71
751.96	12107.69
752.298	12173.23
752.636	12171.19
752.975	12171.64
753.313	12075.15
753.651	12139.78
753.989	12072.21
754.327	12095.94
754.666	12010.74
755.004	11932.33
755.342	12011.65
755.679	12011.2
756.017	11880.13
756.355	11939.11
756.693	11845.32
757.031	11864.08
757.368	11756.74
757.706	11764.65
758.044	11790.86
758.381	11732.78
758.719	11694.37
759.056	11673.58
759.394	11625.44
759.731	11521.04
760.068	11451.21
