Data from brown_tile_FLMS001491_003.txt Node
Date: Tue Feb 07 10:36:59 GMT 2017
User: dcchb
Spectrometer: FLMS00149
Trigger mode: 0
Integration Time (sec): 2.000000E-2
Scans to average: 10
Electric dark correction enabled: true
Nonlinearity correction enabled: false
Boxcar width: 0
XAxis mode: Wavelengths
Number of Pixels in Spectrum: 2048
>>>>>Begin Spectral Data<<<<<
341.393	-15.17
341.776	-15.17
342.16	-15.17
342.543	-44.77
342.927	-63.08
343.31	-70.76
343.693	-68.5
344.077	-57.2
344.46	-52.68
344.843	-44.09
345.226	-30.76
345.61	-42.74
345.993	-18.33
346.376	-11.33
346.759	18.28
347.142	22.8
347.525	19.41
347.908	63.02
348.291	83.81
348.674	89.46
349.057	99.63
349.44	116.58
349.823	146.18
350.206	151.83
350.588	193.64
350.971	192.28
351.354	204.94
351.737	211.94
352.119	228.44
352.502	237.71
352.884	242.68
353.267	256.69
353.65	279.96
354.032	267.99
354.414	293.75
354.797	297.82
355.179	305.95
355.562	312.73
355.944	305.05
356.326	301.88
356.709	317.7
357.091	315.44
357.473	327.19
357.855	303.92
358.238	322.9
358.62	323.81
359.002	322.45
359.384	350.25
359.766	324.71
360.148	322.9
360.53	327.65
360.912	323.35
361.294	338.95
361.676	329.68
362.057	320.19
362.439	323.13
362.821	319.51
363.203	290.36
363.584	310.02
363.966	311.38
364.348	320.87
364.729	300.08
365.111	319.51
365.493	290.59
365.874	300.98
366.256	312.96
366.637	308.44
367.019	302.11
367.4	299.62
367.781	311.6
368.163	280.64
368.544	299.17
368.925	308.21
369.306	284.71
369.688	326.97
370.069	287.2
370.45	301.43
370.831	330.36
371.212	291.72
371.593	305.5
371.974	314.54
372.355	317.7
372.736	304.82
373.117	310.02
373.498	310.02
373.879	306.86
374.26	286.52
374.641	287.2
375.021	281.32
375.402	305.27
375.783	303.92
376.163	317.7
376.544	321.09
376.925	310.02
377.305	324.71
377.686	313.64
378.066	307.08
378.447	334.65
378.827	313.18
379.208	310.25
379.588	309.12
379.968	321.32
380.349	318.61
380.729	317.48
381.109	291.26
381.489	292.85
381.87	331.71
382.25	334.65
382.63	322.68
383.01	343.24
383.39	336.46
383.77	340.98
384.15	315.44
384.53	341.88
384.91	335.33
385.29	339.62
385.67	340.53
386.049	331.94
386.429	326.06
386.809	337.59
387.189	356.12
387.568	342.56
387.948	350.47
388.328	335.33
388.707	326.06
389.087	321.55
389.466	332.84
389.846	349.34
390.225	345.95
390.605	365.16
390.984	347.99
391.363	354.54
391.743	363.35
392.122	343.69
392.501	359.51
392.881	356.12
393.26	367.19
393.639	353.63
394.018	359.28
394.397	369
394.776	350.7
395.155	369.45
395.534	367.65
395.913	367.19
396.292	381.66
396.671	394.99
397.05	366.29
397.429	358.38
397.808	374.43
398.186	368.55
398.565	373.75
398.944	369.45
399.323	371.94
399.701	396.8
400.08	384.14
400.458	391.15
400.837	387.76
401.215	376.01
401.594	391.83
401.972	377.36
402.351	393.63
402.729	405.38
403.107	382.56
403.486	377.59
403.864	413.07
404.242	421.43
404.62	385.5
404.999	411.03
405.377	387.76
405.755	405.16
406.133	416.01
406.511	412.62
406.889	420.75
407.267	417.59
407.645	430.92
408.023	427.08
408.401	415.1
408.779	436.8
409.156	440.19
409.534	436.57
409.912	436.8
410.29	433.41
410.667	437.02
411.045	457.81
411.422	455.33
411.8	452.16
412.178	452.84
412.555	479.51
412.933	447.64
413.31	458.04
413.687	467.53
414.065	469.34
414.442	456
414.819	476.34
415.197	471.6
415.574	474.31
415.951	494.65
416.328	480.86
416.705	483.35
417.082	511.14
417.46	505.72
417.837	509.11
418.214	479.96
418.591	474.08
418.967	492.61
419.344	505.5
419.721	511.82
420.098	488.32
420.475	507.98
420.852	491.94
421.228	520.64
421.605	488.77
421.982	530.35
422.358	507.08
422.735	512.27
423.111	513.18
423.488	507.08
423.864	550.24
424.241	537.58
424.617	542.56
424.994	521.09
425.37	558.38
425.746	538.71
426.123	547.75
426.499	551.82
426.875	567.64
427.251	553.4
427.627	561.09
428.003	575.1
428.379	587.75
428.756	578.26
429.132	589.79
429.507	603.57
429.883	579.62
430.259	572.16
430.635	591.59
431.011	620.97
431.387	631.37
431.763	638.15
432.138	636.79
432.514	606.51
432.89	622.1
433.265	623.01
433.641	657.13
434.016	644.25
434.392	663.91
434.767	642.89
435.143	658.03
435.518	649.22
435.894	672.72
436.269	705.26
436.644	682.44
437.02	677.92
437.395	691.7
437.77	707.75
438.145	696.9
438.52	702.78
438.895	703.91
439.271	713.85
439.646	736.68
440.021	732.16
440.395	721.31
440.77	706.39
441.145	727.41
441.52	727.41
441.895	730.8
442.27	754.3
442.645	745.94
443.019	740.97
443.394	746.39
443.769	741.42
444.143	775.54
444.518	789.33
444.892	761.31
445.267	745.49
445.641	776
446.016	796.79
446.39	773.74
446.764	784.36
447.139	799.72
447.513	791.59
447.887	797.24
448.262	801.98
448.636	791.59
449.01	821.19
449.384	818.71
449.758	828.2
450.132	860.51
450.506	854.41
450.88	824.81
451.254	822.32
451.628	823.68
452.002	861.42
452.376	864.81
452.75	878.14
453.123	867.75
453.497	890.12
453.871	880.17
454.244	885.15
454.618	898.25
454.992	916.78
455.365	917.24
455.739	928.99
456.112	924.92
456.486	956.78
456.859	951.36
457.232	973.96
457.606	960.4
457.979	940.96
458.352	974.41
458.725	998.36
459.099	990.91
459.472	1007.63
459.845	1025.93
460.218	1034.07
460.591	1021.41
460.964	1063.22
461.337	1054.86
461.71	1072.94
462.083	1069.1
462.456	1068.64
462.829	1078.36
463.201	1108.19
463.574	1113.16
463.947	1095.99
464.32	1138.92
464.692	1121.07
465.065	1140.96
465.438	1140.96
465.81	1181.41
466.183	1183.22
466.555	1209.88
466.928	1223.89
467.3	1213.27
467.672	1268.41
468.045	1283.1
468.417	1246.72
468.789	1262.99
469.161	1295.98
469.534	1274.06
469.906	1319.26
470.278	1331.01
470.65	1334.85
471.022	1361.74
471.394	1395.87
471.766	1373.72
472.138	1406.04
472.51	1403.78
472.882	1447.39
473.253	1446.49
473.625	1463.21
473.997	1496.2
474.369	1526.49
474.74	1518.35
475.112	1541.17
475.484	1605.13
475.855	1569.42
476.227	1572.36
476.598	1648.74
476.97	1678.57
477.341	1687.39
477.713	1705.01
478.084	1684.67
478.455	1747.04
478.827	1752.02
479.198	1789.3
479.569	1795.4
479.94	1839.47
480.311	1842.18
480.682	1901.62
481.053	1927.15
481.424	1939.58
481.795	1918.34
482.166	2009.86
482.537	2011.67
482.908	2061.84
483.279	2068.84
483.65	2123.76
484.021	2119.69
484.391	2198.78
484.762	2175.51
485.133	2187.26
485.503	2214.38
485.874	2272.68
486.244	2268.16
486.615	2317.2
486.985	2344.77
487.356	2388.38
487.726	2410.76
488.097	2448.49
488.467	2466.8
488.837	2521.04
489.207	2522.39
489.578	2545.67
489.948	2587.47
490.318	2628.6
490.688	2642.39
491.058	2662.73
491.428	2677.19
491.798	2716.28
492.168	2761.48
492.538	2787.92
492.908	2834.93
493.278	2863.85
493.648	2859.78
494.017	2902.95
494.387	2943.62
494.757	2964.64
495.126	2975.49
495.496	2944.08
495.866	2990.63
496.235	3036.05
496.605	3059.1
496.974	3070.17
497.344	3111.08
497.713	3130.96
498.082	3153.79
498.452	3206.67
498.821	3196.27
499.19	3179.78
499.559	3240.34
499.928	3260.68
500.298	3267.91
500.667	3322.37
501.036	3283.28
501.405	3344.74
501.774	3333.67
502.143	3347.45
502.512	3383.61
502.88	3396.94
503.249	3393.1
503.618	3457.96
503.987	3472.65
504.356	3513.55
504.724	3505.64
505.093	3542.03
505.462	3584.51
505.83	3581.35
506.199	3613.44
506.567	3665.19
506.936	3694.56
507.304	3689.59
507.672	3726.65
508.041	3707.67
508.409	3758.97
508.777	3793.09
509.145	3803.26
509.514	3823.15
509.882	3836.71
510.25	3889.14
510.618	3897.72
510.986	3890.49
511.354	3951.96
511.722	3959.42
512.09	4018.17
512.458	4024.95
512.826	4025.4
513.193	4105.85
513.561	4099.75
513.929	4179.97
514.297	4175.68
514.664	4241.44
515.032	4224.72
515.4	4259.97
515.767	4284.6
516.135	4323.93
516.502	4327.32
516.869	4376.81
517.237	4378.84
517.604	4433.75
517.972	4491.38
518.339	4455.45
518.706	4484.37
519.073	4559.4
519.44	4564.82
519.808	4563.24
520.175	4573.64
520.542	4621.09
520.909	4698.61
521.276	4703.58
521.643	4760.3
522.009	4825.16
522.376	4867.41
522.743	4918.94
523.11	4951.25
523.477	5005.72
523.843	4982.67
524.21	5067.18
524.577	5094.98
524.943	5127.07
525.31	5154.41
525.676	5195.99
526.043	5224.92
526.409	5270.57
526.776	5297.46
527.142	5339.72
527.508	5383.33
527.874	5393.05
528.241	5490.22
528.607	5445.03
528.973	5553.5
529.339	5534.97
529.705	5646.38
530.071	5656.32
530.437	5686.83
530.803	5710.1
531.169	5767.96
531.535	5717.79
531.901	5791.46
532.267	5886.14
532.632	5884.79
532.998	5943.09
533.364	5927.95
533.73	5986.03
534.095	6086.82
534.461	6087.5
534.826	6109.42
535.192	6162.97
535.557	6167.27
535.923	6198
536.288	6230.32
536.653	6232.35
537.019	6295.85
537.384	6302.63
537.749	6320.48
538.114	6384.66
538.479	6455.85
538.845	6402.52
539.21	6466.69
539.575	6498.11
539.94	6542.17
540.305	6572.68
540.67	6571.78
541.034	6576.3
541.399	6701.49
541.764	6690.87
542.129	6717.08
542.494	6740.13
542.858	6787.14
543.223	6864.2
543.587	6894.03
543.952	6902.84
544.316	6906.91
544.681	6968.83
545.045	7041.37
545.41	7106.23
545.774	7135.15
546.138	7180.57
546.503	7179.44
546.867	7219.44
547.231	7321.59
547.595	7329.72
547.959	7371.08
548.324	7304.41
548.688	7444.3
549.052	7516.84
549.416	7515.25
549.779	7583.73
550.143	7628.47
550.507	7685.42
550.871	7703.27
551.235	7761.8
551.599	7838.18
551.962	7870.05
552.326	7892.87
552.689	8007.22
553.053	7942.59
553.417	8035.92
553.78	8154.33
554.143	8164.28
554.507	8216.7
554.87	8254.9
555.234	8389.36
555.597	8354.78
555.96	8451.05
556.323	8461.22
556.686	8504.38
557.05	8746.63
557.413	8728.1
557.776	8757.48
558.139	8909.12
558.502	8852.85
558.865	9030.47
559.228	9173.06
559.59	9189.79
559.953	9185.72
560.316	9297.35
560.679	9319.95
561.041	9471.14
561.404	9574.18
561.767	9622.54
562.129	9610.79
562.492	9747.06
562.854	9839.04
563.217	9859.15
563.579	9966.94
563.941	10067.96
564.304	10170.1
564.666	10251.91
565.028	10307.05
565.39	10392.69
565.753	10500.49
566.115	10578.9
566.477	10699.8
566.839	10717.43
567.201	10832.23
567.563	10888.05
567.925	11032.22
568.287	11111.09
568.648	11188.83
569.01	11279
569.372	11396.06
569.734	11377.98
570.095	11582.49
570.457	11647.8
570.819	11713.56
571.18	11751.3
571.542	11895.48
571.903	11984.06
572.265	12052.54
572.626	12143.61
572.987	12282.59
573.349	12383.15
573.71	12450.27
574.071	12486.65
574.432	12633.54
574.794	12783.82
575.155	12880.76
575.516	12850.03
575.877	12944.94
576.238	12988.56
576.599	13086.41
576.96	13172.05
577.32	13253.63
577.681	13424.93
578.042	13494.98
578.403	13546.28
578.763	13530.69
579.124	13604.81
579.485	13672.83
579.845	13791.02
580.206	13768.88
580.566	13939.94
580.927	13935.65
581.287	13947.4
581.648	14034.18
582.008	14182.88
582.368	14186.72
582.728	14360.27
583.089	14334.06
583.449	14363.44
583.809	14442.3
584.169	14546.71
584.529	14554.62
584.889	14680.94
585.249	14659.7
585.609	14678.46
585.969	14772.69
586.329	14787.15
586.688	14877.32
587.048	14896.3
587.408	14888.62
587.768	14968.62
588.127	14970.43
588.487	15099.69
588.846	15162.06
589.206	15132.23
589.565	15165.45
589.925	15309.4
590.284	15334.94
590.643	15318.67
591.003	15382.84
591.362	15441.83
591.721	15430.3
592.08	15474.14
592.44	15563.86
592.799	15633.46
593.158	15663.74
593.517	15720.69
593.876	15741.48
594.235	15700.8
594.593	15886.11
594.952	15828.48
595.311	15795.04
595.67	15959.78
596.029	16098.98
596.387	16136.5
596.746	16232.31
597.104	16094.46
597.463	16120.9
597.822	16249.94
598.18	16105.09
598.538	16171.75
598.897	16411.07
599.255	16281.8
599.613	16557.28
599.972	16402.25
600.33	16517.5
600.688	16462.14
601.046	16578.74
601.404	16662.13
601.762	16615.58
602.12	16686.99
602.478	16722.24
602.836	16817.38
603.194	16679.53
603.552	16749.81
603.91	16712.07
604.268	16883.37
604.625	16828.46
604.983	16875.91
605.341	16880.21
605.698	17070.26
606.056	17054.21
606.413	16987.77
606.771	17136.92
607.128	17131.27
607.485	17060.77
607.843	17139.63
608.2	17352.96
608.557	17349.35
608.914	17255.34
609.272	17327.43
609.629	17497.14
609.986	17444.71
610.343	17336.92
610.7	17547.76
611.057	17555.89
611.414	17611.71
611.771	17540.3
612.127	17685.83
612.484	17663.69
612.841	17770.13
613.198	17689
613.554	17664.59
613.911	17820.29
614.267	17800.18
614.624	17835.66
614.98	17871.82
615.337	17929.67
615.693	17933.06
616.05	17881.76
616.406	18038.59
616.762	18050.57
617.118	18048.54
617.475	18031.59
617.831	18058.25
618.187	18139.16
618.543	18134.64
618.899	18247.63
619.255	18225.03
619.611	18327.4
619.967	18286.72
620.323	18304.12
620.678	18283.11
621.034	18266.16
621.39	18314.52
621.746	18265.71
622.101	18431.13
622.457	18291.24
622.812	18403.56
623.168	18402.43
623.523	18336.89
623.879	18480.39
624.234	18380.51
624.589	18388.64
624.945	18482.65
625.3	18424.57
625.655	18459.15
626.01	18431.8
626.365	18469.54
626.72	18451.01
627.075	18432.93
627.43	18454.85
627.785	18418.7
628.14	18416.66
628.495	18461.41
628.85	18466.6
629.205	18339.83
629.559	18463.89
629.914	18512.93
630.269	18371.69
630.623	18428.41
630.978	18396.1
631.332	18502.54
631.687	18419.37
632.041	18405.14
632.396	18509.99
632.75	18337.57
633.104	18354.97
633.459	18313.16
633.813	18314.29
634.167	18320.62
634.521	18313.61
634.875	18361.75
635.229	18269.55
635.583	18202.66
635.937	18139.61
636.291	18209.44
636.645	18323.56
636.999	18196.56
637.352	18233.84
637.706	18093.73
638.06	18183.22
638.413	18134.86
638.767	18166.5
639.121	18202.21
639.474	18062.77
639.828	18064.58
640.181	18164.24
640.534	18130.12
640.888	17996.79
641.241	17961.76
641.594	17982.1
641.947	18078.59
642.301	18056.45
642.654	18022.55
643.007	18028.88
643.36	18045.37
643.713	17974.87
644.066	18072.72
644.419	17849.67
644.771	17860.75
645.124	17643.8
645.477	17599.73
645.83	17463.69
646.182	17448.1
646.535	17347.31
646.888	17448.1
647.24	17371.04
647.593	17500.3
647.945	17477.48
648.298	17393.86
648.65	17282.23
649.002	17213.08
649.355	17370.59
649.707	17330.14
650.059	17410.36
650.411	17645.84
650.763	17712.05
651.115	17861.87
651.467	17836.56
651.819	17741.43
652.171	17775.32
652.523	17727.19
652.875	17750.01
653.227	17680.86
653.578	17738.49
653.93	17736.91
654.282	17681.99
654.633	17584.37
654.985	17626.4
655.337	17701.43
655.688	17722.9
656.039	17699.17
656.391	17584.37
656.742	17631.6
657.094	17706.85
657.445	17744.59
657.796	17660.75
658.147	17700.75
658.498	17576.46
658.849	17672.28
659.2	17661.43
659.551	17606.29
659.902	17589.34
660.253	17647.87
660.604	17684.93
660.955	17616.68
661.306	17678.6
661.656	17643.8
662.007	17668.89
662.358	17646.51
662.708	17651.71
663.059	17593.18
663.409	17561.32
663.76	17696.23
664.11	17660.52
664.461	17651.03
664.811	17678.15
665.161	17757.92
665.511	17679.73
665.862	17652.61
666.212	17719.28
666.562	17691.94
666.912	17678.15
667.262	17665.95
667.612	17709.56
667.962	17756.34
668.312	17731.93
668.662	17862.33
669.011	17784.36
669.361	17729.22
669.711	17808.09
670.06	17701.65
670.41	17708.21
670.76	17773.29
671.109	17812.61
671.459	17790.46
671.808	17771.26
672.157	17755.21
672.507	17635.21
672.856	17658.04
673.205	17747.08
673.554	17789.11
673.904	17719.96
674.253	17829.56
674.602	17642.22
674.951	17432.28
675.3	17418.72
675.649	17748.66
675.998	17656.91
676.346	17722.44
676.695	17782.56
677.044	17576.46
677.393	17624.82
677.741	17710.69
678.09	17645.38
678.438	17633.86
678.787	17625.95
679.135	17737.36
679.484	17646.74
679.832	17613.07
680.181	17565.84
680.529	17621.43
680.877	17651.03
681.225	17649.9
681.573	17729.68
681.922	17676.12
682.27	17560.64
682.618	17615.55
682.966	17546.18
683.314	17575.33
683.661	17540.3
684.009	17507.31
684.357	17461.21
684.705	17446.29
685.053	17423.69
685.4	17503.69
685.748	17408.1
686.095	17376.69
686.443	17373.3
686.79	17311.38
687.138	17360.19
687.485	17411.72
687.832	17394.99
688.18	17351.83
688.527	17268.67
688.874	17362.23
689.221	17255.79
689.568	17282
689.915	17112.97
690.262	17149.13
690.609	17092.63
690.956	17106.64
691.303	17032.97
691.65	16987.55
691.997	16994.1
692.344	16993.88
692.69	16951.84
693.037	17011.95
693.383	16817.83
693.73	16866.42
694.077	16794.33
694.423	16771.51
694.769	16735.58
695.116	16807.67
695.462	16746.2
695.808	16640.66
696.155	16805.18
696.501	16521.8
696.847	16619.87
697.193	16461.69
697.539	16531.29
697.885	16438.86
698.231	16402.7
698.577	16439.77
698.923	16464.62
699.269	16359.54
699.614	16345.76
699.96	16352.31
700.306	16311.86
700.651	16289.94
700.997	16208.13
701.342	16163.16
701.688	16219.88
702.033	16168.36
702.379	16202.26
702.724	16115.93
703.069	16218.3
703.415	16014.47
703.76	16064.86
704.105	16058.98
704.45	16038.87
704.795	15900.57
705.14	15960.68
705.485	15909.84
705.83	15818.99
706.175	15915.26
706.52	15801.14
706.865	15759.78
707.209	15807.92
707.554	15748.94
707.899	15860.12
708.243	15680.24
708.588	15693.57
708.932	15568.38
709.277	15615.38
709.621	15588.26
709.966	15550.98
710.31	15614.48
710.654	15456.51
710.998	15560.92
711.342	15505.55
711.687	15546.91
712.031	15447.25
712.375	15473.24
712.719	15400.92
713.063	15455.16
713.407	15451.54
713.75	15364.77
714.094	15325.9
714.438	15383.52
714.782	15386.01
715.125	15281.15
715.469	15225.79
715.812	15232.34
716.156	15246.35
716.499	15277.54
716.843	15296.07
717.186	15116.41
717.53	15163.19
717.873	15310.3
718.216	15155.96
718.559	15165.67
718.902	15110.08
719.246	15035.06
719.589	14994.15
719.932	14939.47
720.275	14848.39
720.617	15004.1
720.96	14956.41
721.303	14945.57
721.646	15001.16
721.989	14825.12
722.331	14969.52
722.674	14978.56
723.016	14898.56
723.359	14861.95
723.701	14938.34
724.044	14742.41
724.386	14700.6
724.729	14897.89
725.071	14798.23
725.413	14791.67
725.755	14866.25
726.097	14714.84
726.439	14685.24
726.782	14642.52
727.124	14790.32
727.465	14702.18
727.807	14685.24
728.149	14532.92
728.491	14624.45
728.833	14772.01
729.175	14595.07
729.516	14583.77
729.858	14627.84
730.199	14605.24
730.541	14557.1
730.882	14522.98
731.224	14561.4
731.565	14521.4
731.906	14567.72
732.248	14613.6
732.589	14468.97
732.93	14400.27
733.271	14486.82
733.612	14495.64
733.953	14434.17
734.294	14463.77
734.635	14462.42
734.976	14445.47
735.317	14402.98
735.658	14363.21
735.999	14343.55
736.339	14362.08
736.68	14343.32
737.021	14375.64
737.361	14296.09
737.702	14396.66
738.042	14322.31
738.383	14248.18
738.723	14199.37
739.063	14213.38
739.404	14258.13
739.744	14108.3
740.084	14177.23
740.424	14102.88
740.764	14186.04
741.104	14126.15
741.444	14145.59
741.784	14059.72
742.124	14087.96
742.464	14044.8
742.804	14045.48
743.143	13978.59
743.483	13977.23
743.823	13997.12
744.162	14022.65
744.502	14023.11
744.841	13871.25
745.181	13895.65
745.52	13864.92
745.86	13861.3
746.199	13842.09
746.538	13826.5
746.877	13859.49
747.216	13899.49
747.556	13777.69
747.895	13815.88
748.234	13723.45
748.573	13707.63
748.911	13683.45
749.25	13744.47
749.589	13647.3
749.928	13603.23
750.267	13753.51
750.605	13557.13
750.944	13637.35
751.283	13586.51
751.621	13505.38
751.96	13430.35
752.298	13434.87
752.636	13470.8
752.975	13357.81
753.313	13277.36
753.651	13427.64
753.989	13294.99
754.327	13243.01
754.666	13253.86
755.004	13252.5
755.342	13230.58
755.679	13161.89
756.017	13103.36
756.355	13114.66
756.693	13087.76
757.031	13007.77
757.368	13037.6
757.706	13023.81
758.044	12928.67
758.381	12937.71
758.719	12924.6
759.056	12931.84
759.394	12913.53
759.731	12781.78
