Data from brown_tile_FLMS001491_100.txt Node
Date: Tue Feb 07 10:38:17 GMT 2017
User: dcchb
Spectrometer: FLMS00149
Trigger mode: 0
Integration Time (sec): 2.000000E-2
Scans to average: 10
Electric dark correction enabled: true
Nonlinearity correction enabled: false
Boxcar width: 0
XAxis mode: Wavelengths
Number of Pixels in Spectrum: 2048
>>>>>Begin Spectral Data<<<<<
341.393	-14.45
341.776	-14.45
342.16	-14.45
342.543	-70.72
342.927	-73.66
343.31	-60.1
343.693	-73.88
344.077	-47.89
344.46	-51.28
344.843	-70.04
345.226	-35.47
345.61	-21.45
345.993	-44.28
346.376	-7.9
346.759	-7.22
347.142	36.85
347.525	44.53
347.908	49.5
348.291	77.75
348.674	95.15
349.057	115.72
349.44	140.8
349.823	168.6
350.206	162.72
350.588	157.98
350.971	182.16
351.354	210.4
351.737	224.42
352.119	229.39
352.502	244.3
352.884	264.41
353.267	278.42
353.65	279.33
354.032	281.36
354.414	290.4
354.797	280.91
355.179	290.63
355.562	287.92
355.944	290.4
356.326	317.75
356.709	311.87
357.091	314.36
357.473	313.23
357.855	317.75
358.238	322.27
358.62	325.66
359.002	327.92
359.384	320.68
359.766	335.82
360.148	303.06
360.53	315.94
360.912	309.84
361.294	320.46
361.676	292.89
362.057	309.61
362.439	325.88
362.821	298.31
363.203	315.49
363.584	310.51
363.966	316.39
364.348	318.88
364.729	310.29
365.111	285.88
365.493	289.95
365.874	278.65
366.256	289.95
366.637	293.34
367.019	304.19
367.4	298.76
367.781	297.86
368.163	286.56
368.544	271.87
368.925	287.92
369.306	331.3
369.688	308.25
370.069	292.21
370.45	315.94
370.831	308.03
371.212	293.57
371.593	287.69
371.974	270.97
372.355	292.66
372.736	299.67
373.117	296.96
373.498	300.12
373.879	303.96
374.26	294.02
374.641	307.12
375.021	288.82
375.402	297.41
375.783	315.49
376.163	309.38
376.544	309.84
376.925	290.63
377.305	305.77
377.686	308.93
378.066	321.81
378.447	300.57
378.827	318.88
379.208	311.87
379.588	336.05
379.968	324.07
380.349	330.17
380.729	299.89
381.109	314.13
381.489	303.73
381.87	338.08
382.25	334.02
382.63	326.79
383.01	310.97
383.39	323.62
383.77	318.65
384.15	340.8
384.53	314.58
384.91	353.9
385.29	326.11
385.67	326.56
386.049	323.4
386.429	325.2
386.809	334.92
387.189	321.59
387.568	331.53
387.948	363.85
388.328	348.48
388.707	333.56
389.087	329.27
389.466	342.83
389.846	327.69
390.225	341.25
390.605	339.67
390.984	327.46
391.363	344.19
391.743	345.54
392.122	368.14
392.501	355.94
392.881	356.39
393.26	349.16
393.639	375.6
394.018	349.84
394.397	358.42
394.776	380.8
395.155	338.99
395.534	353.68
395.913	353.68
396.292	341.47
396.671	347.58
397.05	360.68
397.429	362.94
397.808	385.54
398.186	367.24
398.565	388.25
398.944	373.11
399.323	372.89
399.701	378.31
400.08	357.74
400.458	356.39
400.837	375.82
401.215	365.43
401.594	383.51
401.972	390.06
402.351	389.61
402.729	400.46
403.107	360.23
403.486	391.19
403.864	356.16
404.242	402.04
404.62	404.98
404.999	392.77
405.377	351.64
405.755	386.9
406.133	398.42
406.511	415.82
406.889	398.87
407.267	410.4
407.645	401.36
408.023	410.17
408.401	421.92
408.779	418.53
409.156	410.85
409.534	405.65
409.912	410.62
410.29	405.43
410.667	428.93
411.045	426.22
411.422	427.8
411.8	437.06
412.178	439.55
412.555	428.03
412.933	450.17
413.31	429.61
413.687	435.71
414.065	448.59
414.442	428.93
414.819	453.56
415.197	444.3
415.574	449.72
415.951	440.91
416.328	451.75
416.705	471.41
417.082	469.38
417.46	454.24
417.837	463.05
418.214	484.07
418.591	462.6
418.967	472.32
419.344	462.37
419.721	466.44
420.098	474.8
420.475	475.03
420.852	454.69
421.228	515.48
421.605	465.31
421.982	498.76
422.358	487.68
422.735	484.07
423.111	504.86
423.488	500.79
423.864	491.07
424.241	487.01
424.617	498.98
424.994	522.26
425.37	508.7
425.746	520.68
426.123	513.9
426.499	486.33
426.875	508.48
427.251	540.56
427.627	540.34
428.003	533.33
428.379	536.05
428.756	553.9
429.132	562.03
429.507	560.23
429.883	565.87
430.259	538.76
430.635	560.45
431.011	564.07
431.387	556.84
431.763	558.87
432.138	578.08
432.514	591.19
432.89	589.6
433.265	587.34
433.641	601.81
434.016	604.52
434.392	610.62
434.767	612.88
435.143	602.26
435.518	613.56
435.894	613.33
436.269	639.77
436.644	617.63
437.02	631.64
437.395	626.44
437.77	663.95
438.145	645.87
438.52	646.32
438.895	669.83
439.271	655.14
439.646	672.76
440.021	676.61
440.395	644.29
440.77	657.4
441.145	675.02
441.52	687
441.895	672.54
442.27	694.46
442.645	659.88
443.019	691.07
443.394	670.05
443.769	707.34
444.143	674.12
444.518	698.53
444.892	687.68
445.267	705.98
445.641	715.48
446.016	710.96
446.39	732.65
446.764	749.6
447.139	740.11
447.513	736.27
447.887	728.13
448.262	741.92
448.636	741.01
449.01	753.21
449.384	737.62
449.758	766.1
450.132	761.12
450.506	774.01
450.88	749.6
451.254	763.61
451.628	796.15
452.002	772.65
452.376	795.47
452.75	776.72
453.123	775.59
453.497	796.38
453.871	810.39
454.244	825.3
454.618	821.46
454.992	853.78
455.365	814.46
455.739	850.39
456.112	864.17
456.486	860.78
456.859	861.01
457.232	894
457.606	886.32
457.979	878.18
458.352	897.17
458.725	906.66
459.099	929.71
459.472	922.93
459.845	928.58
460.218	949.37
460.591	941.91
460.964	947.11
461.337	962.7
461.71	971.06
462.083	988.01
462.456	985.98
462.829	984.85
463.201	977.39
463.574	1035.69
463.947	999.99
464.32	1005.86
464.692	1056.26
465.065	1085.64
465.438	1081.79
465.81	1056.71
466.183	1082.25
466.555	1098.97
466.928	1097.61
467.3	1083.6
467.672	1117.05
468.045	1146.65
468.417	1152.53
468.789	1135.58
469.161	1138.74
469.534	1175.58
469.906	1191.85
470.278	1189.14
470.65	1214.9
471.022	1212.64
471.394	1240.66
471.766	1250.83
472.138	1256.48
472.51	1296.03
472.882	1293.54
473.253	1323.82
473.625	1331.73
473.997	1332.18
474.369	1377.15
474.74	1370.6
475.112	1368.11
475.484	1412.63
475.855	1432.07
476.227	1430.03
476.598	1463.03
476.97	1456.02
477.341	1532.63
477.713	1517.04
478.084	1514.55
478.455	1572.85
478.827	1572.63
479.198	1589.35
479.569	1621.44
479.94	1647.88
480.311	1628.22
480.682	1691.72
481.053	1721.1
481.424	1734.88
481.795	1755.67
482.166	1758.61
482.537	1787.31
482.908	1815.33
483.279	1837.25
483.65	1887.87
484.021	1894.43
484.391	1940.98
484.762	1946.18
485.133	1955.44
485.503	2008.77
485.874	2042.9
486.244	2027.53
486.615	2080.64
486.985	2077.93
487.356	2123.35
487.726	2121.09
488.097	2177.13
488.467	2190.92
488.837	2221.88
489.207	2251.93
489.578	2258.26
489.948	2320.86
490.318	2327.86
490.688	2305.26
491.058	2382.1
491.428	2381.19
491.798	2451.93
492.168	2480.17
492.538	2492.6
492.908	2538.03
493.278	2531.25
493.648	2533.05
494.017	2548.42
494.387	2583
494.757	2602.66
495.126	2608.76
495.496	2640.17
495.866	2670.23
496.235	2688.76
496.605	2690.11
496.974	2739.6
497.344	2731.69
497.713	2743.67
498.082	2792.03
498.452	2819.6
498.821	2836.32
499.19	2827.96
499.559	2836.32
499.928	2839.71
500.298	2874.29
500.667	2949.54
501.036	2900.28
501.405	2944.34
501.774	2946.38
502.143	3018.92
502.512	3025.47
502.88	3045.13
503.249	3001.97
503.618	3074.28
503.987	3088.75
504.356	3105.24
504.724	3077.45
505.093	3145.69
505.462	3165.35
505.83	3142.53
506.199	3218.23
506.567	3242.87
506.936	3261.62
507.304	3260.49
507.672	3292.81
508.041	3309.31
508.409	3355.86
508.777	3377.55
509.145	3350.66
509.514	3404.9
509.882	3400.83
510.25	3391.11
510.618	3480.15
510.986	3489.19
511.354	3509.53
511.722	3548.62
512.09	3585.91
512.458	3600.82
512.826	3620.03
513.193	3636.3
513.561	3636.75
513.929	3712.23
514.297	3684.89
514.664	3718.79
515.032	3756.75
515.4	3759.92
515.767	3790.2
516.135	3778.45
516.502	3815.73
516.869	3878.33
517.237	3913.58
517.604	3926.24
517.972	3974.6
518.339	3959.68
518.706	3991.77
519.073	4004.43
519.44	4035.84
519.808	4100.25
520.175	4092.34
520.542	4117.65
520.909	4210.75
521.276	4150.41
521.643	4251.2
522.009	4258.66
522.376	4317.19
522.743	4331.2
523.11	4403.97
523.477	4414.14
523.843	4429.95
524.21	4428.6
524.577	4520.57
524.943	4518.09
525.31	4594.92
525.676	4587.01
526.043	4675.82
526.409	4692.09
526.776	4727.35
527.142	4777.06
527.508	4784.97
527.874	4808.7
528.241	4846.89
528.607	4883.28
528.973	4941.81
529.339	4935.48
529.705	4974.35
530.071	5007.57
530.437	5094.34
530.803	5087.56
531.169	5071.97
531.535	5123.5
531.901	5169.14
532.267	5182.7
532.632	5245.53
532.998	5210.05
533.364	5294.56
533.73	5330.72
534.095	5385.86
534.461	5410.27
534.826	5409.14
535.192	5483.03
535.557	5488.68
535.923	5496.14
536.288	5514.45
536.653	5596.7
537.019	5582.24
537.384	5604.61
537.749	5644.16
538.114	5620.66
538.479	5688.9
538.845	5719.19
539.21	5720.09
539.575	5755.79
539.94	5787.43
540.305	5855
540.67	5864.94
541.034	5896.36
541.399	5948.78
541.764	5982.23
542.129	5980.65
542.494	6029.46
542.858	6126.86
543.223	6092.28
543.587	6134.99
543.952	6135.9
544.316	6208.21
544.681	6203.92
545.045	6247.99
545.41	6329.79
545.774	6318.27
546.138	6342.67
546.503	6378.15
546.867	6413.18
547.231	6484.59
547.595	6418.15
547.959	6535.21
548.324	6566.62
548.688	6580.63
549.052	6625.15
549.416	6665.15
549.779	6729.78
550.143	6810.68
550.507	6816.56
550.871	6928.87
551.235	6938.81
551.599	6986.05
551.962	6984.92
552.326	7050.68
552.689	7116.66
553.053	7122.31
553.417	7193.72
553.78	7233.04
554.143	7318.24
554.507	7391.68
554.87	7363.21
555.234	7486.14
555.597	7479.14
555.96	7528.63
556.323	7687.5
556.686	7664.9
557.05	7752.35
557.413	7817.44
557.776	7819.7
558.139	7925.23
558.502	8015.4
558.865	8020.14
559.228	8115.05
559.59	8163.19
559.953	8234.15
560.316	8357.31
560.679	8388.72
561.041	8478.21
561.404	8538.55
561.767	8619
562.129	8626.23
562.492	8799.56
562.854	8828.48
563.217	8874.36
563.579	8919.1
563.941	9127.23
564.304	9127.91
564.666	9237.51
565.028	9251.07
565.39	9404.06
565.753	9462.82
566.115	9575.81
566.477	9646.09
566.839	9649.03
567.201	9764.05
567.563	9813.77
567.925	9959.53
568.287	9998.62
568.648	10083.14
569.01	10148.22
569.372	10301.89
569.734	10253.3
570.095	10378.5
570.457	10486.52
570.819	10591.37
571.18	10615.55
571.542	10733.74
571.903	10818.03
572.265	10847.86
572.626	11012.15
572.987	11040.4
573.349	11094.19
573.71	11205.6
574.071	11271.13
574.432	11373.73
574.794	11452.14
575.155	11512.03
575.516	11604.45
575.877	11686.26
576.238	11744.11
576.599	11833.6
576.96	11953.15
577.32	11922.19
577.681	12055.74
578.042	12131.22
578.403	12168.28
578.763	12242.18
579.124	12331.89
579.485	12393.59
579.845	12448.95
580.206	12493.47
580.566	12524.2
580.927	12639.91
581.287	12666.12
581.648	12723.52
582.008	12839
582.368	12885.1
582.728	12912.22
583.089	12940.46
583.449	13072.66
583.809	13015.04
584.169	13143.62
584.529	13207.12
584.889	13356.5
585.249	13309.27
585.609	13298.2
585.969	13501.81
586.329	13455.93
586.688	13438.3
587.048	13600.79
587.408	13624.06
587.768	13681.01
588.127	13653.44
588.487	13684.85
588.846	13779.99
589.206	13804.62
589.565	13822.7
589.925	13948.12
590.284	13900.21
590.643	14034.45
591.003	14000.55
591.362	14152.18
591.721	14219.3
592.08	14135.69
592.44	14297.94
592.799	14317.83
593.158	14201.22
593.517	14382.01
593.876	14410.93
594.235	14364.38
594.593	14554.89
594.952	14509.69
595.311	14474.89
595.67	14615.9
596.029	14792.85
596.387	14732.73
596.746	14707.2
597.104	14706.07
597.463	14773.64
597.822	14820.19
598.18	14857.93
598.538	14775.67
598.897	14963.91
599.255	14800.53
599.613	15104.48
599.972	15025.83
600.33	15091.14
600.688	15067.87
601.046	15084.14
601.404	15129.79
601.762	15220.18
602.12	15288.43
602.478	15316.22
602.836	15316.22
603.194	15267.86
603.552	15295.21
603.91	15293.62
604.268	15382.21
604.625	15466.5
604.983	15574.07
605.341	15504.24
605.698	15553.28
606.056	15541.07
606.413	15650.68
606.771	15761.63
607.128	15738.13
607.485	15721.63
607.843	15642.31
608.2	15883.66
608.557	15907.62
608.914	15828.98
609.272	15910.56
609.629	15978.13
609.986	16048.18
610.343	15994.62
610.7	16081.4
611.057	16024
611.414	16148.74
611.771	16180.61
612.127	16155.3
612.484	16251.56
612.841	16240.49
613.198	16209.53
613.554	16371.79
613.911	16277.78
614.267	16322.07
614.624	16401.62
614.98	16383.09
615.337	16538.56
615.693	16508.28
616.05	16480.71
616.406	16531.1
616.762	16480.71
617.118	16527.94
617.475	16537.66
617.831	16594.15
618.187	16727.03
618.543	16698.78
618.899	16785.56
619.255	16669.18
619.611	16752.12
619.967	16784.21
620.323	16784.21
620.678	16876.86
621.034	16679.12
621.39	16664.66
621.746	16806.8
622.101	16998.21
622.457	16762.29
622.812	16878.44
623.168	16889.74
623.523	16974.26
623.879	16984.65
624.234	16825.33
624.589	16924.99
624.945	17028.72
625.3	16942.85
625.655	16983.3
626.01	17036.4
626.365	17028.72
626.72	16949.62
627.075	17031.66
627.43	16939.46
627.785	16877.08
628.14	17078.44
628.495	16899.68
628.85	17009.74
629.205	16980.81
629.559	17077.31
629.914	17031.66
630.269	17082.73
630.623	16993.92
630.978	16897.42
631.332	17024.43
631.687	17062.84
632.041	16852.45
632.396	17052.9
632.75	16939.68
633.104	17034.82
633.459	16785.34
633.813	16909.63
634.167	16858.1
634.521	16951.43
634.875	16944.2
635.229	16910.76
635.583	16928.83
635.937	16896.29
636.291	16812.45
636.645	16744.88
636.999	16796.18
637.352	16830.53
637.706	16700.59
638.06	16809.97
638.413	16825.33
638.767	16788.95
639.121	16797.54
639.474	16679.8
639.828	16808.61
640.181	16641.16
640.534	16739.01
640.888	16676.64
641.241	16627.6
641.594	16714.6
641.947	16717.09
642.301	16531.1
642.654	16666.24
643.007	16664.89
643.36	16562.06
643.713	16577.43
644.066	16676.19
644.419	16479.35
644.771	16400.03
645.124	16307.16
645.477	16339.7
645.83	16145.58
646.182	16145.13
646.535	16111.23
646.888	16160.95
647.24	16060.38
647.593	16177.22
647.945	16152.58
648.298	16110.55
648.65	16028.75
649.002	15950.1
649.355	16065.35
649.707	16047.05
650.059	16189.87
650.411	16216.31
650.763	16302.41
651.115	16512.12
651.467	16464.21
651.819	16416.53
652.171	16455.85
652.523	16490.43
652.875	16415.4
653.227	16324.33
653.578	16463.08
653.93	16379.7
654.282	16344.44
654.633	16235.75
654.985	16428.96
655.337	16317.1
655.688	16319.59
656.039	16356.42
656.391	16221.51
656.742	16276.87
657.094	16268.74
657.445	16292.47
657.796	16330.43
658.147	16295.4
658.498	16319.81
658.849	16363.2
659.2	16351.67
659.551	16274.84
659.902	16327.27
660.253	16371.34
660.604	16403.2
660.955	16236.65
661.306	16359.36
661.656	16369.53
662.007	16333.14
662.358	16326.14
662.708	16261.96
663.059	16292.47
663.409	16227.84
663.76	16348.51
664.11	16423.09
664.461	16378.34
664.811	16393.03
665.161	16422.41
665.511	16310.55
665.862	16405.68
666.212	16461.05
666.562	16400.49
666.912	16416.76
667.262	16392.35
667.612	16487.72
667.962	16414.05
668.312	16412.92
668.662	16568.17
669.011	16385.57
669.361	16343.54
669.711	16406.36
670.06	16527.04
670.41	16378.57
670.76	16412.92
671.109	16388.28
671.459	16440.26
671.808	16338.34
672.157	16475.29
672.507	16234.62
672.856	16462.86
673.205	16390.77
673.554	16448.17
673.904	16327.72
674.253	16581.05
674.602	16426.7
674.951	16298.57
675.3	16167.05
675.649	16437.32
675.998	16353.03
676.346	16463.54
676.695	16507.83
677.044	16392.8
677.393	16449.07
677.741	16431.9
678.09	16391
678.438	16376.98
678.787	16418.34
679.135	16540.14
679.484	16341.96
679.832	16390.54
680.181	16269.64
680.529	16458.34
680.877	16308.96
681.225	16289.76
681.573	16360.04
681.922	16285.91
682.27	16286.59
682.618	16287.95
682.966	16298.57
683.314	16272.13
683.661	16226.03
684.009	16244.78
684.357	16169.31
684.705	16265.58
685.053	16152.58
685.4	16181.06
685.748	16078.46
686.095	16118.46
686.443	16094.73
686.79	16073.04
687.138	16026.26
687.485	16024.45
687.832	15974.74
688.18	16005.02
688.527	16019.48
688.874	15969.76
689.221	15947.62
689.568	15984.9
689.915	15990.33
690.262	15873.04
690.609	15968.63
690.956	15804.12
691.303	15838.02
691.65	15802.31
691.997	15796.21
692.344	15817
692.69	15671.69
693.037	15671.69
693.383	15652.71
693.73	15715.76
694.077	15687.96
694.423	15694.29
694.769	15636.89
695.116	15610.9
695.462	15642.54
695.808	15579.49
696.155	15562.77
696.501	15418.14
696.847	15433.05
697.193	15418.37
697.539	15601.86
697.885	15411.36
698.231	15316
698.577	15328.2
698.923	15422.43
699.269	15337.24
699.614	15177.47
699.96	15105.15
700.306	15163.68
700.651	15135.89
700.997	15093.4
701.342	15148.09
701.688	15132.05
702.033	15026.29
702.379	15059.51
702.724	15045.95
703.069	15083.01
703.415	14871.71
703.76	14942.45
704.105	14941.09
704.45	14927.31
704.795	14810.02
705.14	14821.32
705.485	14809.34
705.83	14808.66
706.175	14765.28
706.52	14767.54
706.865	14714.43
707.209	14695.67
707.554	14716.69
707.899	14683.24
708.243	14644.83
708.588	14633.98
708.932	14569.12
709.277	14496.36
709.621	14662.68
709.966	14467.66
710.31	14503.59
710.654	14451.16
710.998	14456.13
711.342	14493.42
711.687	14407.09
712.031	14434.66
712.375	14322.58
712.719	14395.34
713.063	14359.64
713.407	14481.22
713.75	14364.16
714.094	14332.74
714.438	14374.78
714.782	14289.13
715.125	14281.22
715.469	14287.77
715.812	14222.01
716.156	14194.67
716.499	14135.69
716.843	14203.48
717.186	14084.62
717.53	14243.26
717.873	14242.13
718.216	14207.78
718.559	14135.69
718.902	14022.24
719.246	14018.18
719.589	14071.51
719.932	14011.17
720.275	13964.62
720.617	14059.53
720.96	14002.58
721.303	14040.55
721.646	13993.32
721.989	13966.65
722.331	14018.4
722.674	13967.33
723.016	13966.65
723.359	13877.62
723.701	13976.14
724.044	13851.85
724.386	13773.89
724.729	13879.88
725.071	13830.84
725.413	13783.61
725.755	13836.49
726.097	13741.35
726.439	13722.59
726.782	13673.78
727.124	13877.39
727.465	13714.91
727.807	13742.03
728.149	13725.3
728.491	13756.26
728.833	13674.91
729.175	13677.39
729.516	13639.43
729.858	13565.53
730.199	13618.64
730.541	13736.38
730.882	13545.87
731.224	13628.58
731.565	13580.45
731.906	13547.23
732.248	13608.47
732.589	13527.79
732.93	13473.56
733.271	13549.71
733.612	13550.62
733.953	13556.49
734.294	13578.64
734.635	13451.64
734.976	13446.21
735.317	13443.95
735.658	13443.73
735.999	13467.68
736.339	13441.47
736.68	13432.2
737.021	13434.24
737.361	13322.38
737.702	13416.84
738.042	13320.79
738.383	13347.91
738.723	13306.1
739.063	13390.17
739.404	13403.73
739.744	13245.32
740.084	13220.46
740.424	13317.4
740.764	13203.51
741.104	13294.58
741.444	13224.07
741.784	13210.29
742.124	13240.12
742.464	13144.3
742.804	13161.02
743.143	13125.54
743.483	13149.05
743.823	13050.07
744.162	13022.5
744.502	13027.24
744.841	13013.91
745.181	13051.2
745.52	13032.67
745.86	13087.13
746.199	13026.34
746.538	13024.3
746.877	12977.75
747.216	13037.86
747.556	12965.1
747.895	12962.61
748.234	12880.58
748.573	12865.44
748.911	12788.83
749.25	12863.63
749.589	12759
749.928	12655.05
750.267	12841.03
750.605	12766.68
750.944	12710.19
751.283	12677.65
751.621	12764.2
751.96	12552.9
752.298	12564.88
752.636	12592.23
752.975	12599.68
753.313	12495.73
753.651	12487.14
753.989	12477.43
754.327	12472.23
754.666	12387.94
755.004	12502.51
755.342	12490.53
755.679	12415.28
756.017	12337.32
756.355	12350.88
756.693	12354.94
757.031	12335.51
757.368	12200.6
757.706	12187.04
758.044	12121.5
758.381	12175.29
758.719	12095.97
759.056	12157.43
759.394	12061.84
759.731	11987.95
760.068	12011.9
760.405	11889.42
