Data from brown_tile_FLMS001491_039.txt Node
Date: Tue Feb 07 10:37:26 GMT 2017
User: dcchb
Spectrometer: FLMS00149
Trigger mode: 0
Integration Time (sec): 2.000000E-2
Scans to average: 10
Electric dark correction enabled: true
Nonlinearity correction enabled: false
Boxcar width: 0
XAxis mode: Wavelengths
Number of Pixels in Spectrum: 2048
>>>>>Begin Spectral Data<<<<<
341.393	-5.73
341.776	-5.73
342.16	-5.73
342.543	-57.71
342.927	-72.63
343.31	-57.48
343.693	-45.73
344.077	-74.66
344.46	-56.58
344.843	-52.29
345.226	-36.24
345.61	-19.75
345.993	-28.11
346.376	-17.49
346.759	11.89
347.142	25.9
347.525	44.89
347.908	53.02
348.291	80.37
348.674	65.68
349.057	106.58
349.44	122.4
349.823	128.05
350.206	160.36
350.588	168.27
350.971	182.96
351.354	205.56
351.737	222.73
352.119	242.85
352.502	260.47
352.884	240.81
353.267	270.87
353.65	268.83
354.032	276.29
354.414	295.27
354.797	288.95
355.179	304.99
355.562	325.56
355.944	310.42
356.326	314.03
356.709	325.56
357.091	310.87
357.473	321.04
357.855	334.37
358.238	328.49
358.62	336.63
359.002	314.71
359.384	312
359.766	312.22
360.148	316.97
360.53	331.88
360.912	354.93
361.294	328.49
361.676	330.3
362.057	320.13
362.439	317.87
362.821	308.61
363.203	312.45
363.584	306.57
363.966	309.96
364.348	319.23
364.729	300.92
365.111	290.08
365.493	296.4
365.874	320.13
366.256	291.21
366.637	298.21
367.019	305.22
367.4	299.79
367.781	290.76
368.163	309.51
368.544	304.54
368.925	320.36
369.306	315.61
369.688	295.27
370.069	295.73
370.45	303.18
370.831	274.48
371.212	296.86
371.593	295.5
371.974	287.37
372.355	289.17
372.736	310.42
373.117	283.98
373.498	309.51
373.879	299.79
374.26	321.94
374.641	307.48
375.021	307.25
375.402	300.02
375.783	328.04
376.163	328.27
376.544	308.83
376.925	293.01
377.305	321.04
377.686	317.42
378.066	306.12
378.447	289.4
378.827	295.73
379.208	309.06
379.588	317.42
379.968	315.84
380.349	318.78
380.729	330.75
381.109	327.14
381.489	320.13
381.87	319.91
382.25	318.32
382.63	337.53
383.01	314.71
383.39	316.07
383.77	336.4
384.15	327.36
384.53	328.72
384.91	320.13
385.29	332.79
385.67	330.75
386.049	342.96
386.429	327.59
386.809	352.45
387.189	342.96
387.568	331.43
387.948	311.77
388.328	347.7
388.707	324.2
389.087	336.4
389.466	349.28
389.846	333.47
390.225	338.89
390.605	333.24
390.984	330.98
391.363	349.06
391.743	347.48
392.122	347.7
392.501	350.19
392.881	337.99
393.26	337.53
393.639	346.12
394.018	360.36
394.397	363.52
394.776	357.19
395.155	350.19
395.534	362.39
395.913	349.51
396.292	374.59
396.671	387.93
397.05	375.95
397.429	368.04
397.808	350.41
398.186	366.69
398.565	360.36
398.944	357.65
399.323	381.6
399.701	392.45
400.08	364.88
400.458	368.27
400.837	381.6
401.215	389.06
401.594	387.93
401.972	384.54
402.351	380.24
402.729	380.24
403.107	369.4
403.486	382.05
403.864	392
404.242	375.05
404.62	380.92
404.999	375.27
405.377	373.46
405.755	391.09
406.133	384.54
406.511	400.58
406.889	393.58
407.267	394.03
407.645	414.82
408.023	384.99
408.401	420.7
408.779	395.61
409.156	397.64
409.534	404.65
409.912	443.07
410.29	409.62
410.667	438.1
411.045	392.22
411.422	410.98
411.8	438.32
412.178	400.36
412.555	422.28
412.933	425.89
413.31	424.31
413.687	437.19
414.065	448.94
414.442	438.55
414.819	449.17
415.197	435.38
415.574	450.07
415.951	449.85
416.328	429.28
416.705	446.91
417.082	445.78
417.46	458.66
417.837	481.94
418.214	468.15
418.591	460.24
418.967	469.96
419.344	467.93
419.721	469.96
420.098	483.74
420.475	486.68
420.852	475.83
421.228	487.36
421.605	479
421.982	477.19
422.358	486.23
422.735	462.95
423.111	494.14
423.488	500.69
423.864	482.39
424.241	490.07
424.617	488.26
424.994	490.75
425.37	514.7
425.746	520.58
426.123	511.31
426.499	506.79
426.875	502.27
427.251	530.75
427.627	504.53
428.003	519.45
428.379	527.13
428.756	530.3
429.132	531.43
429.507	527.81
429.883	537.75
430.259	555.83
430.635	560.13
431.011	537.98
431.387	569.62
431.763	575.27
432.138	578.88
432.514	582.05
432.89	548.83
433.265	587.24
433.641	574.59
434.016	569.17
434.392	576.85
434.767	596.74
435.143	596.74
435.518	609.16
435.894	619.11
436.269	619.56
436.644	621.37
437.02	619.56
437.395	617.98
437.77	631.09
438.145	631.09
438.52	652.1
438.895	645.55
439.271	625.66
439.646	640.58
440.021	653.68
440.395	645.1
440.77	660.91
441.145	641.93
441.52	684.87
441.895	652.33
442.27	674.7
442.645	681.03
443.019	677.41
443.394	685.55
443.769	673.12
444.143	687.58
444.518	670.86
444.892	687.81
445.267	715.83
445.641	702.5
446.016	702.95
446.39	693
446.764	706.11
447.139	706.79
447.513	714.47
447.887	745.43
448.262	706.34
448.636	718.09
449.01	749.27
449.384	720.8
449.758	731.2
450.132	761.48
450.506	749.05
450.88	762.61
451.254	734.59
451.628	746.56
452.002	763.51
452.376	773.45
452.75	774.81
453.123	758.99
453.497	782.49
453.871	789.95
454.244	801.02
454.618	791.53
454.992	808.48
455.365	790.18
455.739	829.5
456.112	865.88
456.486	835.6
456.859	850.97
457.232	840.8
457.606	874.47
457.979	880.8
458.352	863.17
458.725	871.98
459.099	890.97
459.472	899.1
459.845	880.12
460.218	897.07
460.591	891.19
460.964	915.82
461.337	922.38
461.71	935.94
462.083	973.22
462.456	958.08
462.829	942.26
463.201	984.75
463.574	974.35
463.947	982.04
464.32	1009.15
464.692	1004.86
465.065	1011.19
465.438	1031.07
465.81	1018.65
466.183	1037.63
466.555	1073.56
466.928	1051.86
467.3	1073.56
467.672	1092.99
468.045	1087.8
468.417	1103.84
468.789	1122.37
469.161	1096.38
469.534	1140.22
469.906	1136.61
470.278	1156.95
470.65	1159.21
471.022	1198.98
471.394	1203.73
471.766	1191.75
472.138	1216.61
472.51	1207.57
472.882	1238.98
473.253	1256.61
473.625	1272.42
473.997	1285.53
474.369	1282.37
474.74	1338.19
475.112	1338.41
475.484	1358.75
475.855	1362.59
476.227	1358.3
476.598	1417.73
476.97	1432.19
477.341	1448.46
477.713	1454.11
478.084	1462.7
478.455	1508.58
478.827	1527.56
479.198	1550.16
479.569	1547.67
479.94	1582.7
480.311	1589.48
480.682	1665.63
481.053	1674.67
481.424	1685.97
481.795	1671.51
482.166	1683.94
482.537	1724.62
482.908	1770.49
483.279	1782.47
483.65	1793.31
484.021	1832.18
484.391	1839.41
484.762	1817.04
485.133	1871.96
485.503	1887.55
485.874	1935.91
486.244	1963.48
486.615	1970.03
486.985	2010.94
487.356	2063.36
487.726	2055.68
488.097	2099.3
488.467	2111.95
488.837	2135.9
489.207	2163.7
489.578	2191.72
489.948	2196.02
490.318	2237.37
490.688	2223.81
491.058	2268.33
491.428	2289.57
491.798	2303.58
492.168	2337.71
492.538	2398.95
492.908	2391.94
493.278	2420.19
493.648	2402.34
494.017	2462.68
494.387	2452.05
494.757	2498.15
495.126	2535.89
495.496	2541.32
495.866	2545.16
496.235	2610.24
496.605	2590.36
496.974	2632.84
497.344	2638.26
497.713	2652.73
498.082	2669.68
498.452	2699.51
498.821	2699.05
499.19	2687.75
499.559	2764.81
499.928	2762.1
500.298	2772.05
500.667	2816.11
501.036	2795.1
501.405	2830.35
501.774	2847.98
502.143	2869.22
502.512	2861.99
502.88	2929.1
503.249	2904.7
503.618	2939.27
503.987	2956.22
504.356	2932.95
504.724	2992.6
505.093	2981.53
505.462	3012.27
505.83	3047.07
506.199	3059.5
506.567	3085.26
506.936	3109.66
507.304	3134.75
507.672	3162.09
508.041	3198.25
508.409	3170.23
508.777	3189.66
509.145	3190.79
509.514	3207.51
509.882	3304.46
510.25	3286.61
510.618	3315.53
510.986	3338.36
511.354	3329.77
511.722	3367.06
512.09	3394.18
512.458	3406.61
512.826	3419.49
513.193	3410.45
513.561	3488.86
513.929	3495.19
514.297	3548.07
514.664	3551.23
515.032	3595.98
515.4	3624.9
515.767	3610.22
516.135	3662.64
516.502	3626.71
516.869	3680.72
517.237	3769.53
517.604	3732.92
517.972	3770.21
518.339	3801.4
518.706	3791.91
519.073	3874.16
519.44	3826.03
519.808	3918.46
520.175	3904.67
520.542	3954.61
520.909	4022.86
521.276	3974.05
521.643	4025.12
522.009	4068.28
522.376	4114.38
522.743	4126.81
523.11	4139.47
523.477	4197.77
523.843	4222.4
524.21	4296.07
524.577	4344.66
524.943	4379.46
525.31	4378.33
525.676	4446.8
526.043	4442.28
526.409	4522.96
526.776	4555.05
527.142	4543.52
527.508	4584.88
527.874	4602.73
528.241	4669.85
528.607	4654.03
528.973	4692.22
529.339	4744.42
529.705	4716.63
530.071	4809.05
530.437	4857.87
530.803	4865.32
531.169	4922.95
531.535	4883.18
531.901	4946
532.267	4974.93
532.632	4975.6
532.998	4993
533.364	5085.43
533.73	5081.82
534.095	5127.92
534.461	5105.32
534.826	5186.9
535.192	5213.79
535.557	5256.27
535.923	5238.87
536.288	5284.97
536.653	5316.39
537.019	5362.49
537.384	5391.41
537.749	5383.95
538.114	5415.14
538.479	5465.99
538.845	5494.01
539.21	5488.58
539.575	5578.07
539.94	5541.24
540.305	5597.06
540.67	5600.9
541.034	5648.58
541.399	5681.35
541.764	5716.83
542.129	5680.9
542.494	5787.33
542.858	5819.65
543.223	5832.53
543.587	5829.82
543.952	5899.42
544.316	5920.44
544.681	5932.87
545.045	5992.75
545.41	6018.06
545.774	6045.63
546.138	6100.32
546.503	6129.02
546.867	6098.51
547.231	6175.35
547.595	6266.42
547.959	6248.56
548.324	6299.41
548.688	6260.77
549.052	6422.57
549.416	6431.61
549.779	6423.48
550.143	6445.62
550.507	6516.13
550.871	6573.98
551.235	6625.96
551.599	6664.15
551.962	6684.71
552.326	6692.85
552.689	6778.49
553.053	6794.99
553.417	6867.08
553.78	6919.28
554.143	6961.09
554.507	6988.88
554.87	7038.83
555.234	7106.17
555.597	7159.5
555.96	7234.53
556.323	7284.47
556.686	7284.02
557.05	7375.54
557.413	7455.31
557.776	7553.61
558.139	7558.59
558.502	7646.72
558.865	7649.88
559.228	7797.68
559.59	7827.28
559.953	7842.42
560.316	8026.82
560.679	8035.41
561.041	8060.72
561.404	8182.98
561.767	8265.23
562.129	8309.08
562.492	8410.77
562.854	8453.7
563.217	8444.44
563.579	8576.64
563.941	8663.64
564.304	8742.96
564.666	8844.65
565.028	8888.72
565.39	8931.66
565.753	9041.71
566.115	9098.89
566.477	9173.23
566.839	9261.14
567.201	9404.87
567.563	9366.67
567.925	9450.06
568.287	9587.01
568.648	9609.83
569.01	9765.53
569.372	9832.65
569.734	9821.35
570.095	9989.48
570.457	10002.36
570.819	10170.5
571.18	10180.66
571.542	10263.6
571.903	10293.2
572.265	10412.97
572.626	10488.23
572.987	10591.28
573.349	10662.01
573.71	10717.83
574.071	10801.44
574.432	10842.34
574.794	11049.79
575.155	11057.25
575.516	11081.21
575.877	11199.17
576.238	11270.58
576.599	11389.9
576.96	11374.98
577.32	11428.09
577.681	11603.23
578.042	11637.35
578.403	11674.86
578.763	11693.85
579.124	11744.69
579.485	11944.01
579.845	11911.69
580.206	11978.81
580.566	12071.46
580.927	12172.02
581.287	12287.5
581.648	12271.68
582.008	12385.13
582.368	12386.93
582.728	12547.16
583.089	12538.79
583.449	12569.3
583.809	12624.44
584.169	12645.91
584.529	12703.31
584.889	12904.89
585.249	12770.43
585.609	12806.81
585.969	12961.61
586.329	12919.8
586.688	12943.53
587.048	13070.98
587.408	13054.71
587.768	13114.6
588.127	13173.35
588.487	13252.45
588.846	13397.53
589.206	13326.57
589.565	13322.05
589.925	13450.64
590.284	13466.68
590.643	13499
591.003	13616.73
591.362	13594.81
591.721	13622.61
592.08	13698.99
592.44	13737.63
592.799	13822.6
593.158	13823.51
593.517	13723.4
593.876	13868.7
594.235	13922.49
594.593	13905.76
594.952	14024.41
595.311	13952.32
595.67	14052.65
596.029	14096.49
596.387	14181.01
596.746	14244.96
597.104	14197.51
597.463	14211.52
597.822	14334.68
598.18	14185.3
598.538	14332.87
598.897	14499.65
599.255	14300.78
599.613	14597.72
599.972	14417.16
600.33	14582.58
600.688	14542.58
601.046	14620.77
601.404	14615.8
601.762	14653.09
602.12	14749.36
602.478	14769.47
602.836	14762.24
603.194	14717.72
603.552	14809.02
603.91	14769.02
604.268	14846.08
604.625	14862.58
604.983	14960.2
605.341	14856.7
605.698	14886.08
606.056	14968.11
606.413	15080.42
606.771	15078.84
607.128	15121.55
607.485	15149.8
607.843	15144.6
608.2	15219.18
608.557	15288.55
608.914	15298.72
609.272	15357.48
609.629	15333.98
609.986	15412.62
610.343	15423.24
610.7	15463.24
611.057	15457.14
611.414	15496.68
611.771	15545.27
612.127	15678.15
612.484	15584.36
612.841	15690.35
613.198	15642.67
613.554	15591.37
613.911	15772.38
614.267	15762.21
614.624	15701.42
614.98	15890.8
615.337	15867.75
615.693	15854.19
616.05	15748.2
616.406	15927.18
616.762	15827.3
617.118	15938.48
617.475	15946.84
617.831	16056.89
618.187	16049.44
618.543	15971.47
618.899	16125.37
619.255	16083.79
619.611	16056.67
619.967	16138.25
620.323	16163.11
620.678	16182.09
621.034	16142.54
621.39	16084.69
621.746	16121.3
622.101	16286.72
622.457	16217.12
622.812	16262.54
623.168	16265.93
623.523	16290.56
623.879	16391.12
624.234	16199.49
624.589	16320.16
624.945	16310.9
625.3	16392.48
625.655	16366.94
626.01	16387.51
626.365	16388.41
626.72	16302.54
627.075	16287.4
627.43	16293.05
627.785	16269.54
628.14	16340.95
628.495	16393.83
628.85	16426.83
629.205	16287.62
629.559	16477.9
629.914	16349.77
630.269	16404.91
630.623	16385.7
630.978	16350.67
631.332	16432.7
631.687	16377.11
632.041	16322.65
632.396	16335.98
632.75	16330.11
633.104	16338.47
633.459	16180.51
633.813	16226.61
634.167	16220.96
634.521	16219.83
634.875	16302.54
635.229	16233.61
635.583	16215.08
635.937	16207.17
636.291	16190.68
636.645	16123.33
636.999	16202.43
637.352	16211.92
637.706	16137.12
638.06	16206.72
638.413	16151.81
638.767	16122.43
639.121	16107.74
639.474	16088.08
639.828	16098.02
640.181	16054.18
640.534	16044.69
640.888	16065.03
641.241	15911.81
641.594	16033.39
641.947	16060.51
642.301	16059.61
642.654	15969.21
643.007	15990.46
643.36	15984.35
643.713	16002.66
644.066	15985.94
644.419	15910.91
644.771	15810.8
645.124	15640.63
645.477	15647.64
645.83	15566.29
646.182	15526.74
646.535	15478.6
646.888	15424.14
647.24	15380.3
647.593	15530.35
647.945	15479.96
648.298	15419.17
648.65	15384.82
649.002	15323.81
649.355	15389.79
649.707	15410.13
650.059	15467.98
650.411	15611.26
650.763	15644.7
651.115	15832.04
651.467	15788.88
651.819	15676.79
652.171	15724.02
652.523	15714.98
652.875	15678.6
653.227	15725.38
653.578	15772.61
653.93	15742.78
654.282	15710.69
654.633	15640.86
654.985	15645.15
655.337	15728.09
655.688	15730.35
656.039	15781.2
656.391	15578.71
656.742	15680.18
657.094	15645.15
657.445	15705.72
657.796	15695.32
658.147	15546.63
658.498	15747.75
658.849	15776.45
659.2	15808.77
659.551	15622.56
659.902	15651.93
660.253	15639.05
660.604	15762.66
660.955	15565.61
661.306	15710.46
661.656	15602.67
662.007	15661.65
662.358	15664.81
662.708	15735.55
663.059	15716.34
663.409	15681.31
663.76	15748.2
664.11	15715.89
664.461	15670.46
664.811	15734.19
665.161	15770.8
665.511	15699.16
665.862	15731.93
666.212	15817.8
666.562	15831.14
666.912	15831.82
667.262	15745.49
667.612	15765.6
667.962	15733.06
668.312	15829.56
668.662	15914.07
669.011	15843.11
669.361	15931.25
669.711	15833.85
670.06	15785.26
670.41	15780.74
670.76	15797.47
671.109	15861.87
671.459	15799.27
671.808	15746.85
672.157	15866.62
672.507	15756.79
672.856	15764.25
673.205	15823.91
673.554	15957.46
673.904	15717.92
674.253	15854.87
674.602	15793.4
674.951	15583.23
675.3	15559.73
675.649	15760.63
675.998	15799.73
676.346	15827.07
676.695	15781.87
677.044	15722.44
677.393	15796.79
677.741	15871.14
678.09	15737.35
678.438	15825.26
678.787	15792.27
679.135	15760.86
679.484	15768.09
679.832	15803.57
680.181	15783
680.529	15799.95
680.877	15626.85
681.225	15759.05
681.573	15794.08
681.922	15696.9
682.27	15739.61
682.618	15731.03
682.966	15685.83
683.314	15743.46
683.661	15755.89
684.009	15573.97
684.357	15631.14
684.705	15522.67
685.053	15639.73
685.4	15603.35
685.748	15611.71
686.095	15525.38
686.443	15556.79
686.79	15461.2
687.138	15518.83
687.485	15524.03
687.832	15465.72
688.18	15529.68
688.527	15411.04
688.874	15456.68
689.221	15452.16
689.568	15371.71
689.915	15362.68
690.262	15366.97
690.609	15324.94
690.956	15354.77
691.303	15326.97
691.65	15175.34
691.997	15294.2
692.344	15160.19
692.69	15169.46
693.037	15223.24
693.383	15186.86
693.73	15163.81
694.077	15052.17
694.423	15100.54
694.769	15016.7
695.116	15101.67
695.462	15030.03
695.808	14980.31
696.155	14980.76
696.501	14863.25
696.847	14910.94
697.193	14884.95
697.539	14887.21
697.885	14847.21
698.231	14725.18
698.577	14750.04
698.923	14835.01
699.269	14763.37
699.614	14721.34
699.96	14627.78
700.306	14638.63
700.651	14601.57
700.997	14499.42
701.342	14565.18
701.688	14545.75
702.033	14512.08
702.379	14512.3
702.724	14477.05
703.069	14592.53
703.415	14341.01
703.76	14359.99
704.105	14442.02
704.45	14365.41
704.795	14341.23
705.14	14294.68
705.485	14284.29
705.83	14161.12
706.175	14273.21
706.52	14283.83
706.865	14133.55
707.209	14239.31
707.554	14110.5
707.899	14197.51
708.243	14152.31
708.588	14100.34
708.932	13920.23
709.277	13992.99
709.621	14035.7
709.966	14006.33
710.31	13993.67
710.654	13878.42
710.998	13957.51
711.342	13892.43
711.687	13938.98
712.031	13914.58
712.375	13891.75
712.719	13836.39
713.063	13830.74
713.407	13900.79
713.75	13822.6
714.094	13884.75
714.438	13752.32
714.782	13764.07
715.125	13700.12
715.469	13781.02
715.812	13678.43
716.156	13683.85
716.499	13696.96
716.843	13696.96
717.186	13565.21
717.53	13608.37
717.873	13663.96
718.216	13651.53
718.559	13628.48
718.902	13444.53
719.246	13537.19
719.589	13575.15
719.932	13431.65
720.275	13388.04
720.617	13501.71
720.96	13491.99
721.303	13527.02
721.646	13462.84
721.989	13413.57
722.331	13466
722.674	13451.09
723.016	13445.21
723.359	13478.2
723.701	13351.43
724.044	13295.84
724.386	13205.9
724.729	13364.76
725.071	13261.04
725.413	13373.12
725.755	13411.09
726.097	13297.42
726.439	13286.57
726.782	13268.27
727.124	13257.87
727.465	13273.46
727.807	13288.15
728.149	13259.45
728.491	13196.63
728.833	13201.15
729.175	13184.2
729.516	13152.79
729.858	13151.21
730.199	13153.02
730.541	13139.46
730.882	13145.78
731.224	13189.4
731.565	13087.25
731.906	13100.81
732.248	13157.76
732.589	12982.62
732.93	13005.22
733.271	12994.6
733.612	13037.54
733.953	13023.08
734.294	13028.27
734.635	13131.55
734.976	13061.72
735.317	12869.63
735.658	12950.31
735.999	13046.8
736.339	12963.87
736.68	12981.04
737.021	12908.95
737.361	12887.94
737.702	12930.65
738.042	12946.69
738.383	12858.79
738.723	12841.39
739.063	12769.52
739.404	12812.46
739.744	12872.35
740.084	12791.67
740.424	12675.97
740.764	12748.05
741.104	12854.04
741.444	12777.21
741.784	12703.99
742.124	12697.43
742.464	12713.93
742.804	12621.05
743.143	12595.29
743.483	12635.52
743.823	12577.44
744.162	12605.23
744.502	12559.13
744.841	12524.78
745.181	12534.95
745.52	12466.71
745.86	12526.82
746.199	12469.42
746.538	12463.77
746.877	12523.65
747.216	12495.18
747.556	12450.21
747.895	12510.77
748.234	12395.97
748.573	12382.87
748.911	12345.35
749.25	12365.92
749.589	12253.38
749.928	12322.3
750.267	12346.94
750.605	12310.55
750.944	12265.13
751.283	12215.87
751.621	12254.51
751.96	12206.15
752.298	12228.52
752.636	12138.58
752.975	12138.58
753.313	12067.62
753.651	12118.92
753.989	12034.63
754.327	12030.33
754.666	11950.79
755.004	11962.09
755.342	11963.22
755.679	11890.45
756.017	11913.73
756.355	11912.37
756.693	11852.94
757.031	11859.72
757.368	11784.92
757.706	11809.77
758.044	11755.31
758.381	11763.9
758.719	11702.66
759.056	11703.56
759.394	11632.83
759.731	11491.59
760.068	11509.9
760.405	11457.02
