Data from brown_tile_FLMS001491_007.txt Node
Date: Tue Feb 07 10:37:00 GMT 2017
User: dcchb
Spectrometer: FLMS00149
Trigger mode: 0
Integration Time (sec): 2.000000E-2
Scans to average: 10
Electric dark correction enabled: true
Nonlinearity correction enabled: false
Boxcar width: 0
XAxis mode: Wavelengths
Number of Pixels in Spectrum: 2048
>>>>>Begin Spectral Data<<<<<
341.393	0.92
341.776	0.92
342.16	0.92
342.543	-46.54
342.927	-67.55
343.31	-56.26
343.693	-71.62
344.077	-72.07
344.46	-56.71
344.843	-39.98
345.226	-49.93
345.61	-25.07
345.993	-21.45
346.376	-6.54
346.759	-1.12
347.142	29.62
347.525	39.11
347.908	58.77
348.291	66.45
348.674	93.12
349.057	113.68
349.44	127.69
349.823	153.23
350.206	148.71
350.588	180.57
350.971	204.08
351.354	218.09
351.737	222.38
352.119	235.94
352.502	264.19
352.884	263.28
353.267	264.64
353.65	282.27
354.032	292.21
354.414	284.53
354.797	299.89
355.179	323.85
355.562	302.61
355.944	299.44
356.326	324.98
356.709	311.42
357.091	320.91
357.473	335.82
357.855	330.85
358.238	332.89
358.62	324.07
359.002	342.38
359.384	323.62
359.766	322.72
360.148	295.15
360.53	323.62
360.912	324.3
361.294	323.62
361.676	324.07
362.057	319.78
362.439	303.96
362.821	321.14
363.203	311.19
363.584	294.47
363.966	320.23
364.348	297.63
364.729	315.94
365.111	315.03
365.493	311.87
365.874	301.25
366.256	310.74
366.637	309.61
367.019	299.89
367.4	326.33
367.781	292.89
368.163	317.07
368.544	304.64
368.925	308.03
369.306	295.15
369.688	320.68
370.069	289.95
370.45	316.16
370.831	302.38
371.212	306.45
371.593	303.96
371.974	306.67
372.355	312.55
372.736	316.16
373.117	315.94
373.498	310.06
373.879	328.14
374.26	323.17
374.641	293.79
375.021	281.81
375.402	306.67
375.783	330.4
376.163	320.68
376.544	299.89
376.925	320.68
377.305	318.65
377.686	331.3
378.066	308.25
378.447	317.97
378.827	296.05
379.208	331.76
379.588	324.53
379.968	319.33
380.349	323.62
380.729	345.32
381.109	328.82
381.489	322.72
381.87	336.28
382.25	321.36
382.63	319.33
383.01	322.94
383.39	332.66
383.77	329.05
384.15	348.71
384.53	333.79
384.91	332.89
385.29	351.19
385.67	351.64
386.049	362.49
386.429	324.98
386.809	353
387.189	344.64
387.568	341.02
387.948	344.86
388.328	331.3
388.707	333.79
389.087	345.09
389.466	344.19
389.846	339.67
390.225	368.14
390.605	360.68
390.984	349.38
391.363	345.32
391.743	339.67
392.122	369.27
392.501	355.03
392.881	380.12
393.26	370.63
393.639	389.61
394.018	382.83
394.397	365.65
394.776	357.74
395.155	382.15
395.534	398.65
395.913	358.87
396.292	396.16
396.671	393.68
397.05	375.82
397.429	395.48
397.808	374.24
398.186	384.86
398.565	389.38
398.944	380.57
399.323	393.22
399.701	390.51
400.08	399.55
400.458	404.3
400.837	395.03
401.215	403.62
401.594	402.94
401.972	400.46
402.351	388.93
402.729	389.38
403.107	412.21
403.486	388.7
403.864	404.3
404.242	377.41
404.62	393.9
404.999	388.03
405.377	398.65
405.755	419.44
406.133	407.01
406.511	422.83
406.889	409.49
407.267	422.83
407.645	420.79
408.023	418.53
408.401	428.7
408.779	450.17
409.156	409.27
409.534	424.18
409.912	422.38
410.29	439.1
410.667	458.76
411.045	452.21
411.422	440.91
411.8	432.09
412.178	457.18
412.555	463.5
412.933	485.43
413.31	447.69
413.687	460.79
414.065	457.86
414.442	468.48
414.819	478.19
415.197	458.53
415.574	484.3
415.951	480
416.328	494.24
416.705	489.72
417.082	468.48
417.46	487.23
417.837	477.06
418.214	466.89
418.591	481.58
418.967	493.11
419.344	498.76
419.721	508.25
420.098	487.91
420.475	530.4
420.852	501.47
421.228	513.22
421.605	524.97
421.982	516.38
422.358	520
422.735	525.42
423.111	532.88
423.488	521.13
423.864	539.89
424.241	544.41
424.617	531.3
424.994	534.01
425.37	534.24
425.746	538.76
426.123	562.94
426.499	557.74
426.875	562.71
427.251	591.19
427.627	583.05
428.003	589.15
428.379	569.04
428.756	591.86
429.132	580.56
429.507	591.41
429.883	591.86
430.259	586.44
430.635	598.64
431.011	590.51
431.387	607.91
431.763	614.69
432.138	651.52
432.514	626.89
432.89	613.33
433.265	629.38
433.641	640.9
434.016	632.77
434.392	672.31
434.767	666.89
435.143	648.36
435.518	652.2
435.894	659.66
436.269	696.04
436.644	674.12
437.02	680.67
437.395	675.93
437.77	710.96
438.145	693.1
438.52	708.02
438.895	706.21
439.271	702.14
439.646	709.15
440.021	724.06
440.395	741.92
440.77	728.36
441.145	721.13
441.52	731.97
441.895	741.46
442.27	763.16
442.645	748.7
443.019	730.84
443.394	750.73
443.769	772.88
444.143	780.33
444.518	775.59
444.892	773.33
445.267	771.07
445.641	783.72
446.016	794.12
446.39	778.3
446.764	788.02
447.139	803.61
447.513	803.38
447.887	800.45
448.262	809.94
448.636	802.03
449.01	817.62
449.384	830.73
449.758	828.24
450.132	810.16
450.506	820.56
450.88	840.44
451.254	824.4
451.628	865.98
452.002	850.16
452.376	871.4
452.75	875.7
453.123	873.44
453.497	881.8
453.871	893.32
454.244	894.68
454.618	934.9
454.992	908.46
455.365	917.73
455.739	927.9
456.112	946.43
456.486	948.46
456.859	939.88
457.232	952.53
457.606	953.89
457.979	975.13
458.352	983.94
458.725	1016.48
459.099	1000.44
459.472	1029.59
459.845	1018.29
460.218	1045.41
460.591	1048.8
460.964	1054.45
461.337	1046.77
461.71	1065.07
462.083	1098.97
462.456	1075.92
462.829	1092.87
463.201	1102.81
463.574	1110.27
463.947	1121.79
464.32	1166.76
464.692	1145.07
465.065	1154.79
465.438	1175.58
465.81	1194.33
466.183	1194.33
466.555	1228.46
466.928	1212.64
467.3	1227.33
467.672	1210.15
468.045	1231.85
468.417	1260.55
468.789	1268.68
469.161	1281.11
469.534	1286.53
469.906	1293.77
470.278	1314.78
470.65	1351.39
471.022	1357.27
471.394	1390.26
471.766	1409.92
472.138	1417.15
472.51	1428.23
472.882	1420.77
473.253	1435.23
473.625	1462.12
473.997	1500.77
474.369	1508.68
474.74	1520.65
475.112	1549.35
475.484	1571.72
475.855	1578.28
476.227	1593.64
476.598	1633.87
476.97	1647.43
477.341	1667.09
477.713	1703.02
478.084	1734.21
478.455	1743.25
478.827	1722.45
479.198	1795.67
479.569	1767.43
479.94	1829.12
480.311	1846.29
480.682	1875.45
481.053	1945.5
481.424	1990.7
481.795	1959.51
482.166	2014.2
482.537	2036.57
482.908	2027.53
483.279	2084.48
483.65	2085.83
484.021	2159.96
484.391	2182.78
484.762	2165.83
485.133	2175.1
485.503	2223.68
485.874	2292.61
486.244	2284.47
486.615	2328.09
486.985	2311.14
487.356	2356.79
487.726	2421.65
488.097	2444.47
488.467	2465.71
488.837	2553.85
489.207	2527.86
489.578	2558.14
489.948	2577.35
490.318	2591.81
490.688	2646.72
491.058	2648.53
491.428	2748.87
491.798	2688.53
492.168	2802.88
492.538	2768.3
492.908	2811.92
493.278	2860.05
493.648	2867.28
494.017	2878.58
494.387	2887.4
494.757	2920.39
495.126	2968.3
495.496	2956.55
495.866	2994.06
496.235	3022.08
496.605	3065.92
496.974	3085.58
497.344	3119.93
497.713	3106.83
498.082	3110.21
498.452	3210.78
498.821	3183.43
499.19	3171
499.559	3278.12
499.928	3261.85
500.298	3275.41
500.667	3313.6
501.036	3295.07
501.405	3327.84
501.774	3366.48
502.143	3379.81
502.512	3382.52
502.88	3417.78
503.249	3423.2
503.618	3450.54
503.987	3483.54
504.356	3498
504.724	3554.95
505.093	3522.63
505.462	3529.86
505.83	3573.71
506.199	3635.62
506.567	3676.53
506.936	3693.02
507.304	3714.72
507.672	3712.68
508.041	3780.25
508.409	3742.97
508.777	3760.37
509.145	3835.85
509.514	3811.21
509.882	3879.46
510.25	3820.48
510.618	3884.88
510.986	3917.65
511.354	3974.37
511.722	4002.62
512.09	4022.06
512.458	4027.03
512.826	4056.63
513.193	4112.9
513.561	4100.7
513.929	4138.66
514.297	4156.06
514.664	4200.58
515.032	4251.88
515.4	4275.83
515.767	4346.79
516.135	4308.83
516.502	4304.53
516.869	4413.01
517.237	4335.95
517.604	4404.19
517.972	4470.86
518.339	4512.66
518.706	4500.91
519.073	4521.03
519.44	4551.31
519.808	4624.07
520.175	4613.45
520.542	4672.43
520.909	4681.02
521.276	4715.6
521.643	4742.26
522.009	4824.29
522.376	4836.95
522.743	4929.38
523.11	4931.86
523.477	5026.1
523.843	4996.49
524.21	5074.91
524.577	5093.21
524.943	5142.93
525.31	5167.11
525.676	5201.23
526.043	5283.72
526.409	5327.56
526.776	5326.65
527.142	5354.68
527.508	5363.49
527.874	5408.23
528.241	5462.92
528.607	5460.44
528.973	5534.11
529.339	5522.35
529.705	5651.39
530.071	5683.71
530.437	5701.56
530.803	5723.93
531.169	5748.79
531.535	5754.89
531.901	5795.57
532.267	5866.07
532.632	5894.55
532.998	5917.37
533.364	5944.49
533.73	5972.51
534.095	6039.63
534.461	6058.39
534.826	6144.94
535.192	6177.25
535.557	6220.42
535.923	6237.59
536.288	6230.36
536.653	6287.76
537.019	6282.79
537.384	6291.37
537.749	6363.24
538.114	6358.49
538.479	6392.16
538.845	6390.81
539.21	6442.56
539.575	6489.11
539.94	6512.84
540.305	6567.53
540.67	6620.18
541.034	6634.87
541.399	6701.76
541.764	6696.34
542.129	6755.54
542.494	6747.18
542.858	6846.84
543.223	6821.53
543.587	6865.82
543.952	6871.02
544.316	6962.54
544.681	6941.53
545.045	7051.81
545.41	7101.97
545.774	7152.59
546.138	7089.55
546.503	7170.22
546.867	7241.18
547.231	7309.88
547.595	7301.52
547.959	7359.14
548.324	7456.09
548.688	7512.36
549.052	7502.87
549.416	7526.37
549.779	7601.62
550.143	7636.2
550.507	7686.14
550.871	7674.61
551.235	7731.11
551.599	7832.58
551.962	7898.56
552.326	7935.85
552.689	7970.88
553.053	7982.86
553.417	8060.37
553.78	8197.09
554.143	8157.99
554.507	8249.51
554.87	8255.39
555.234	8406.12
555.597	8401.15
555.96	8503.52
556.323	8493.35
556.686	8608.6
557.05	8607.92
557.413	8742.84
557.776	8806.11
558.139	8864.19
558.502	8880.23
558.865	8946.67
559.228	9073
559.59	9125.88
559.953	9159.55
560.316	9330.62
560.679	9351.86
561.041	9388.24
561.404	9485.87
561.767	9674.34
562.129	9642.7
562.492	9714.11
562.854	9790.72
563.217	9892.86
563.579	10007.43
563.941	10048.34
564.304	10186.64
564.666	10301.89
565.028	10286.98
565.39	10366.52
565.753	10541.88
566.115	10614.2
566.477	10597.93
566.839	10824.81
567.201	10845.15
567.563	10961.08
567.925	11094.19
568.287	11114.52
568.648	11184.58
569.01	11275.88
569.372	11414.86
569.734	11472.71
570.095	11548.41
570.457	11682.64
570.819	11686.94
571.18	11852.36
571.542	11952.47
571.903	12029.75
572.265	12047.38
572.626	12166.02
572.987	12241.27
573.349	12288.73
573.71	12428.84
574.071	12530.53
574.432	12592.9
574.794	12740.24
575.155	12775.05
575.516	12791.54
575.877	12968.94
576.238	13057.07
576.599	13094.36
576.96	13179.55
577.32	13254.81
577.681	13356.5
578.042	13401.02
578.403	13432.43
578.763	13556.95
579.124	13595.59
579.485	13751.74
579.845	13822.93
580.206	13823.38
580.566	13855.92
580.927	13950.16
581.287	14042.36
581.648	14052.53
582.008	14218.17
582.368	14200.54
582.728	14197.38
583.089	14223.14
583.449	14371.16
583.809	14529.58
584.169	14577.03
584.529	14592.4
584.889	14787.65
585.249	14655
585.609	14613.19
585.969	14750.59
586.329	14864.93
586.688	14937.47
587.048	14843.92
587.408	14956.46
587.768	14925.72
588.127	15047.08
588.487	15045.49
588.846	15131.82
589.206	15186.96
589.565	15159.62
589.925	15310.57
590.284	15258.6
590.643	15364.13
591.003	15410.46
591.362	15456.78
591.721	15497.69
592.08	15533.84
592.44	15619.94
592.799	15614.29
593.158	15643.44
593.517	15690.68
593.876	15707.4
594.235	15732.93
594.593	15822.87
594.952	15893.38
595.311	15855.87
595.67	15948.3
596.029	16102.64
596.387	16096.09
596.746	16140.83
597.104	16099.48
597.463	16224.67
597.822	16258.57
598.18	16230.55
598.538	16314.61
598.897	16457.21
599.255	16275.29
599.613	16568.17
599.972	16456.76
600.33	16479.81
600.688	16506.92
601.046	16549.18
601.404	16632.8
601.762	16604.1
602.12	16695.39
602.478	16795.05
602.836	16777.43
603.194	16766.8
603.552	16804.54
603.91	16801.15
604.268	16895.39
604.625	16863.98
604.983	16957.08
605.341	17004.76
605.698	16962.73
606.056	16975.16
606.413	16994.6
606.771	17135.83
607.128	17203.4
607.485	17071.88
607.843	17254.48
608.2	17211.31
608.557	17327.47
608.914	17324.76
609.272	17454.47
609.629	17302.84
609.986	17471.65
610.343	17390.97
610.7	17591.42
611.057	17550.97
611.414	17554.58
611.771	17678.19
612.127	17604.07
612.484	17716.61
612.841	17690.17
613.198	17588.48
613.554	17723.39
613.911	17842.93
614.267	17816.04
614.624	17886.32
614.98	17852.43
615.337	17901.69
615.693	17943.95
616.05	17973.33
616.406	18170.38
616.762	17993.67
617.118	18059.88
617.475	17961.58
617.831	18061.23
618.187	18139.65
618.543	18100.33
618.899	18260.32
619.255	18246.99
619.611	18136.71
619.967	18281.57
620.323	18370.15
620.678	18284.73
621.034	18241.34
621.39	18303.94
621.746	18197.28
622.101	18518.4
622.457	18247.22
622.812	18303.49
623.168	18301
623.523	18352.98
623.879	18536.02
624.234	18373.77
624.589	18371.73
624.945	18404.05
625.3	18533.09
625.655	18498.96
626.01	18433.88
626.365	18417.38
626.72	18450.6
627.075	18480.88
627.43	18440.21
627.785	18430.04
628.14	18421.22
628.495	18566.76
628.85	18479.3
629.205	18417.16
629.559	18490.38
629.914	18374.9
630.269	18437.5
630.623	18373.09
630.978	18411.96
631.332	18471.17
631.687	18469.13
632.041	18490.15
632.396	18366.54
632.75	18460.32
633.104	18397.27
633.459	18290.15
633.813	18336.48
634.167	18369.93
634.521	18252.87
634.875	18322.02
635.229	18301
635.583	18222.36
635.937	18278.18
636.291	18241.12
636.645	18263.26
636.999	18137.62
637.352	18318.4
637.706	18136.26
638.06	18208.12
638.413	18204.28
638.767	18055.36
639.121	18200.21
639.474	18116.15
639.828	18113.66
640.181	18102.14
640.534	18067.34
640.888	18089.03
641.241	18023.27
641.594	17938.3
641.947	18073.21
642.301	17996.83
642.654	18004.29
643.007	17976.04
643.36	17939.43
643.713	18017.85
644.066	18007.22
644.419	17885.65
644.771	17791.41
645.124	17607.46
645.477	17644.07
645.83	17594.35
646.182	17516.84
646.535	17328.15
646.888	17402.04
647.24	17385.09
647.593	17478.65
647.945	17392.78
648.298	17349.84
648.65	17321.14
649.002	17258.32
649.355	17390.29
649.707	17336.73
650.059	17429.61
650.411	17618.76
650.763	17657.63
651.115	17861.01
651.467	17705.99
651.819	17719.1
652.171	17771.07
652.523	17721.36
652.875	17715.25
653.227	17660.11
653.578	17806.78
653.93	17734.69
654.282	17791.86
654.633	17615.82
654.985	17706.22
655.337	17688.36
655.688	17674.58
656.039	17690.17
656.391	17632.09
656.742	17647.46
657.094	17564.3
657.445	17674.58
657.796	17679.78
658.147	17590.96
658.498	17634.13
658.849	17655.6
659.2	17653.56
659.551	17636.39
659.902	17812.2
660.253	17661.7
660.604	17768.13
660.955	17552.55
661.306	17691.07
661.656	17678.42
662.007	17635.71
662.358	17717.06
662.708	17588.03
663.059	17620.12
663.409	17563.62
663.76	17679.55
664.11	17685.42
664.461	17756.16
664.811	17721.13
665.161	17688.81
665.511	17733.79
665.862	17658.53
666.212	17830.96
666.562	17748.25
666.912	17750.06
667.262	17634.58
667.612	17719.32
667.962	17738.08
668.312	17827.79
668.662	17843.16
669.011	17719.55
669.361	17688.14
669.711	17674.8
670.06	17750.51
670.41	17755.25
670.76	17706.67
671.109	17796.16
671.459	17801.13
671.808	17694.92
672.157	17720.9
672.507	17597.52
672.856	17617.18
673.205	17641.58
673.554	17674.13
673.904	17635.71
674.253	17821.69
674.602	17770.85
674.951	17435.94
675.3	17402.27
675.649	17783.95
675.998	17666.89
676.346	17709.15
676.695	17833.9
677.044	17656.27
677.393	17689.04
677.741	17696.27
678.09	17671.41
678.438	17719.32
678.787	17717.74
679.135	17836.83
679.484	17579.89
679.832	17803.39
680.181	17598.2
680.529	17671.64
680.877	17612.21
681.225	17698.53
681.573	17781.02
681.922	17668.25
682.27	17560.91
682.618	17545.09
682.966	17616.05
683.314	17691.53
683.661	17642.71
684.009	17506.67
684.357	17434.13
684.705	17540.34
685.053	17482.49
685.4	17484.3
685.748	17325.66
686.095	17350.29
686.443	17379.9
686.79	17303.29
687.138	17264.64
687.485	17316.62
687.832	17306.45
688.18	17350.29
688.527	17222.39
688.874	17232.78
689.221	17216.06
689.568	17233.23
689.915	17148.04
690.262	17251.76
690.609	17119.56
690.956	17084.54
691.303	17075.05
691.65	17001.83
691.997	17056.29
692.344	16917.08
692.69	16956.86
693.037	16949.4
693.383	16880.7
693.73	16834.37
694.077	16806.13
694.423	16753.02
694.769	16743.98
695.116	16741.95
695.462	16802.06
695.808	16701.04
696.155	16667.15
696.501	16553.48
696.847	16623.08
697.193	16508.73
697.539	16632.35
697.885	16547.15
698.231	16465.12
698.577	16457.43
698.923	16475.29
699.269	16311
699.614	16254.05
699.96	16348.96
700.306	16304.67
700.651	16295.18
700.997	16233.26
701.342	16197.78
701.688	16253.37
702.033	16170.89
702.379	16228.97
702.724	16146.71
703.069	16249.08
703.415	16052.25
703.76	16066.48
704.105	16041.85
704.45	15976.09
704.795	16057.9
705.14	15907.84
705.485	15975.87
705.83	15901.52
706.175	15899.48
706.52	15870.56
706.865	15799.15
707.209	15828.52
707.554	15798.47
707.899	15804.57
708.243	15704.23
708.588	15647.74
708.932	15620.39
709.277	15671.47
709.621	15692.48
709.966	15553.73
710.31	15704.69
710.654	15514.41
710.998	15585.82
711.342	15597.8
711.687	15505.6
712.031	15398.48
712.375	15366.62
712.719	15439.61
713.063	15407.07
713.407	15501.3
713.75	15335.66
714.094	15359.38
714.438	15319.39
714.782	15341.76
715.125	15299.5
715.469	15369.33
715.812	15291.59
716.156	15136.34
716.499	15178.37
716.843	15202.78
717.186	15154.64
717.53	15255.21
717.873	15246.62
718.216	15188.09
718.559	15104.48
718.902	15040.07
719.246	15102.44
719.589	15086.17
719.932	15058.15
720.275	15019.96
720.617	14998.26
720.96	14986.51
721.303	14953.52
721.646	14953.75
721.989	14902.22
722.331	14932.95
722.674	14882.33
723.016	14978.6
723.359	14825.61
723.701	14886.63
724.044	14777.03
724.386	14829
724.729	14829.45
725.071	14878.94
725.413	14779.06
725.755	14831.04
726.097	14790.59
726.439	14679.63
726.782	14620.19
727.124	14788.33
727.465	14693.19
727.807	14664.94
728.149	14618.39
728.491	14669.46
728.833	14676.92
729.175	14566.86
729.516	14641.44
729.858	14547.88
730.199	14680.08
730.541	14596.92
730.882	14615.68
731.224	14592.62
731.565	14490.25
731.906	14543.36
732.248	14519.86
732.589	14499.07
732.93	14410.03
733.271	14483.25
733.612	14480.09
733.953	14547.2
734.294	14350.37
734.635	14422.91
734.976	14454.1
735.317	14326.19
735.658	14373.65
735.999	14489.58
736.339	14321.45
736.68	14417.49
737.021	14330.26
737.361	14241
737.702	14324.16
738.042	14303.37
738.383	14255.68
738.723	14288.45
739.063	14193.77
739.404	14258.4
739.744	14183.82
740.084	14187.66
740.424	14270.15
740.764	14160.77
741.104	14286.42
741.444	14175.46
741.784	14139.98
742.124	14220.66
742.464	14076.71
742.804	14093.65
743.143	14053.2
743.483	13974.79
743.823	13896.15
744.162	13954.22
744.502	13974.34
744.841	13871.97
745.181	13980.21
745.52	13911.51
745.86	13916.03
746.199	13768.01
746.538	13911.51
746.877	13824.51
747.216	13742.48
747.556	13828.8
747.895	13822.7
748.234	13742.25
748.573	13798.07
748.911	13630.39
749.25	13765.75
749.589	13625.42
749.928	13693.21
750.267	13689.15
750.605	13630.84
750.944	13620.45
751.283	13577.28
751.621	13568.7
751.96	13487.34
752.298	13506.1
752.636	13536.38
752.975	13424.52
753.313	13359.21
753.651	13341.58
753.989	13295.71
754.327	13315.82
754.666	13184.3
755.004	13306.56
755.342	13292.09
755.679	13266.56
756.017	13199.44
756.355	13141.36
756.693	13079.22
757.031	13096.84
757.368	13074.25
757.706	12987.24
758.044	12997.86
758.381	13028.6
758.719	12883.74
759.056	12857.08
759.394	12834.48
759.731	12724.2
