Data from brown_tile_FLMS001491_099.txt Node
Date: Tue Feb 07 10:38:17 GMT 2017
User: dcchb
Spectrometer: FLMS00149
Trigger mode: 0
Integration Time (sec): 2.000000E-2
Scans to average: 10
Electric dark correction enabled: true
Nonlinearity correction enabled: false
Boxcar width: 0
XAxis mode: Wavelengths
Number of Pixels in Spectrum: 2048
>>>>>Begin Spectral Data<<<<<
341.393	-6.31
341.776	-6.31
342.16	-6.31
342.543	-82.7
342.927	-68.23
343.31	-50.38
343.693	-70.04
344.077	-44.96
344.46	-74.79
344.843	-53.54
345.226	-39.98
345.61	-49.25
345.993	-20.55
346.376	-3.15
346.759	18.32
347.142	25.1
347.525	30.75
347.908	59.67
348.291	76.62
348.674	85.66
349.057	110.52
349.44	134.93
349.823	134.93
350.206	164.3
350.588	162.95
350.971	211.76
351.354	208.6
351.737	221.7
352.119	216.28
352.502	240.91
352.884	270.06
353.267	294.24
353.65	285.88
354.032	301.48
354.414	282.72
354.797	313.68
355.179	310.51
355.562	296.28
355.944	313.45
356.326	313.23
356.709	330.17
357.091	312.77
357.473	306.45
357.855	321.59
358.238	325.2
358.62	316.16
359.002	348.71
359.384	337.86
359.766	318.88
360.148	332.43
360.53	324.75
360.912	335.82
361.294	311.19
361.676	314.13
362.057	315.03
362.439	330.85
362.821	320.01
363.203	320.91
363.584	317.52
363.966	302.15
364.348	292.89
364.729	311.64
365.111	299.44
365.493	312.32
365.874	319.78
366.256	278.65
366.637	304.19
367.019	303.28
367.4	306.67
367.781	307.12
368.163	287.69
368.544	279.1
368.925	296.73
369.306	315.03
369.688	304.86
370.069	305.54
370.45	303.06
370.831	293.79
371.212	299.89
371.593	289.95
371.974	309.16
372.355	316.84
372.736	315.71
373.117	299.44
373.498	289.05
373.879	293.57
374.26	312.55
374.641	311.19
375.021	295.83
375.402	322.72
375.783	301.7
376.163	307.8
376.544	317.75
376.925	306.22
377.305	303.06
377.686	333.56
378.066	322.49
378.447	323.17
378.827	314.13
379.208	320.01
379.588	306.9
379.968	315.71
380.349	321.59
380.729	327.69
381.109	309.38
381.489	314.58
381.87	314.13
382.25	305.77
382.63	306.67
383.01	333.79
383.39	313.45
383.77	305.09
384.15	328.82
384.53	296.5
384.91	327.46
385.29	322.94
385.67	351.64
386.049	351.87
386.429	326.11
386.809	319.55
387.189	327.01
387.568	339.89
387.948	344.19
388.328	341.7
388.707	339.89
389.087	341.47
389.466	361.36
389.846	346.67
390.225	326.56
390.605	361.36
390.984	366.56
391.363	347.58
391.743	344.64
392.122	362.49
392.501	353.68
392.881	362.04
393.26	389.61
393.639	382.6
394.018	352.77
394.397	329.72
394.776	345.09
395.155	372.66
395.534	347.8
395.913	365.65
396.292	352.55
396.671	354.81
397.05	368.14
397.429	357.29
397.808	380.57
398.186	359.55
398.565	363.62
398.944	370.85
399.323	362.26
399.701	367.01
400.08	361.81
400.458	370.4
400.837	385.99
401.215	387.8
401.594	384.86
401.972	367.69
402.351	385.99
402.729	394.13
403.107	392.55
403.486	381.7
403.864	405.65
404.242	384.18
404.62	402.26
404.999	388.7
405.377	403.17
405.755	403.17
406.133	386.22
406.511	387.57
406.889	405.65
407.267	411.75
407.645	395.26
408.023	396.39
408.401	418.76
408.779	400.68
409.156	420.12
409.534	411.75
409.912	402.49
410.29	434.35
410.667	424.64
411.045	423.51
411.422	408.82
411.8	418.99
412.178	423.05
412.555	442.04
412.933	456.05
413.31	435.26
413.687	429.16
414.065	441.81
414.442	443.84
414.819	459.21
415.197	435.26
415.574	454.69
415.951	464.41
416.328	462.83
416.705	466.44
417.082	460.34
417.46	451.98
417.837	460.57
418.214	465.76
418.591	476.84
418.967	468.25
419.344	486.33
419.721	480.91
420.098	485.88
420.475	466.67
420.852	470.06
421.228	482.49
421.605	514.58
421.982	494.46
422.358	478.19
422.735	506.44
423.111	490.85
423.488	498.53
423.864	510.96
424.241	504.41
424.617	510.96
424.994	529.04
425.37	506.44
425.746	505.99
426.123	524.97
426.499	513.67
426.875	514.58
427.251	550.28
427.627	536.05
428.003	537.18
428.379	549.38
428.756	539.66
429.132	533.56
429.507	560
429.883	575.59
430.259	567.91
430.635	574.46
431.011	571.98
431.387	568.36
431.763	578.3
432.138	578.3
432.514	565.2
432.89	586.21
433.265	590.51
433.641	578.98
434.016	579.21
434.392	606.78
434.767	621.24
435.143	593.67
435.518	631.18
435.894	613.78
436.269	629.83
436.644	662.37
437.02	639.32
437.395	647
437.77	642.26
438.145	677.06
438.52	643.39
438.895	663.27
439.271	652.88
439.646	664.63
440.021	677.06
440.395	652.43
440.77	677.28
441.145	673.44
441.52	684.97
441.895	687.91
442.27	663.05
442.645	702.59
443.019	707.34
443.394	691.3
443.769	684.52
444.143	705.98
444.518	710.73
444.892	704.4
445.267	723.16
445.641	733.78
446.016	715.93
446.39	729.03
446.764	721.13
447.139	733.1
447.513	735.81
447.887	744.63
448.262	750.28
448.636	746.44
449.01	751.86
449.384	746.89
449.758	751.86
450.132	774.23
450.506	787.56
450.88	806.09
451.254	762.25
451.628	783.27
452.002	781.24
452.376	787.56
452.75	797.51
453.123	778.07
453.497	813.33
453.871	830.05
454.244	809.48
454.618	850.84
454.992	832.76
455.365	841.8
455.739	862.14
456.112	846.32
456.486	852.2
456.859	895.36
457.232	862.59
457.606	887.22
457.979	901.46
458.352	886.32
458.725	915.02
459.099	895.58
459.472	926.54
459.845	936.94
460.218	926.77
460.591	961.57
460.964	949.59
461.337	971.51
461.71	965.64
462.083	973.32
462.456	979.42
462.829	988.24
463.201	998.63
463.574	1004.28
463.947	1028.46
464.32	1045.64
464.692	1044.28
465.065	1066.65
465.438	1079.53
465.81	1075.69
466.183	1054.9
466.555	1064.39
466.928	1116.82
467.3	1136.03
467.672	1126.09
468.045	1132.64
468.417	1134.67
468.789	1188.23
469.161	1145.52
469.534	1180.77
469.906	1193.88
470.278	1175.58
470.65	1214.45
471.022	1234.56
471.394	1258.96
471.766	1224.16
472.138	1262.13
472.51	1285.18
472.882	1296.25
473.253	1303.48
473.625	1339.41
473.997	1337.83
474.369	1371.05
474.74	1373.54
475.112	1385.97
475.484	1410.15
475.855	1415.57
476.227	1428
476.598	1460.99
476.97	1456.7
477.341	1540.76
477.713	1519.75
478.084	1538.5
478.455	1571.95
478.827	1557.94
479.198	1619.63
479.569	1623.47
479.94	1657.82
480.311	1671.16
480.682	1690.14
481.053	1757.26
481.424	1759.06
481.795	1762
482.166	1798.16
482.537	1779.85
482.908	1839.51
483.279	1855.33
483.65	1904.6
484.021	1916.57
484.391	1906.18
484.762	1971.04
485.133	1970.81
485.503	1972.39
485.874	2035.89
486.244	2037.25
486.615	2098.72
486.985	2090.35
487.356	2117.02
487.726	2140.75
488.097	2200.86
488.467	2180.07
488.837	2205.61
489.207	2241.54
489.578	2260.75
489.948	2276.34
490.318	2340.29
490.688	2320.18
491.058	2393.17
491.428	2408.09
491.798	2432.72
492.168	2459.61
492.538	2477.69
492.908	2467.97
493.278	2523.11
493.648	2519.72
494.017	2588.87
494.387	2605.82
494.757	2595.2
495.126	2647.63
495.496	2648.08
495.866	2637.91
496.235	2686.05
496.605	2714.97
496.974	2748.87
497.344	2752.71
497.713	2785.03
498.082	2757
498.452	2818.92
498.821	2844.23
499.19	2847.85
499.559	2850.33
499.928	2879.71
500.298	2925.81
500.667	2916.32
501.036	2950.67
501.405	2941.41
501.774	2963.78
502.143	3012.82
502.512	3019.37
502.88	3028.41
503.249	3063.21
503.618	3091.91
503.987	3102.31
504.356	3103.44
504.724	3128.75
505.093	3126.71
505.462	3141.63
505.83	3199.7
506.199	3177.11
506.567	3213.94
506.936	3262.53
507.304	3278.35
507.672	3272.24
508.041	3320.15
508.409	3359.02
508.777	3377.78
509.145	3381.39
509.514	3336.42
509.882	3462.3
510.25	3467.04
510.618	3464.78
510.986	3472.69
511.354	3486.02
511.722	3544.33
512.09	3585.46
512.458	3557.66
512.826	3628.85
513.193	3660.71
513.561	3625.23
513.929	3675.17
514.297	3737.77
514.664	3714.49
515.032	3746.13
515.4	3770.54
515.767	3812.57
516.135	3864.77
516.502	3801.04
516.869	3875.62
517.237	3910.87
517.604	3913.81
517.972	3934.15
518.339	3994.03
518.706	4008.27
519.073	4003.75
519.44	4059.79
519.808	4095.5
520.175	4068.61
520.542	4114.26
520.909	4203.52
521.276	4163.07
521.643	4222.28
522.009	4271.54
522.376	4309.05
522.743	4288.71
523.11	4376.62
523.477	4410.29
523.843	4442.61
524.21	4523.29
524.577	4485.77
524.943	4549.95
525.31	4547.92
525.676	4658.42
526.043	4638.99
526.409	4669.04
526.776	4737.29
527.142	4698.87
527.508	4770.51
527.874	4809.61
528.241	4804.86
528.607	4859.1
528.973	4883.73
529.339	4916.72
529.705	5019.32
530.071	5025.87
530.437	5053.67
530.803	5097.06
531.169	5095.47
531.535	5139.99
531.901	5171.86
532.267	5215.7
532.632	5245.3
532.998	5259.08
533.364	5299.31
533.73	5336.6
534.095	5314.45
534.461	5408.46
534.826	5402.81
535.192	5406.43
535.557	5514.9
535.923	5497.04
536.288	5510.83
536.653	5563.48
537.019	5537.27
537.384	5586.76
537.749	5613.43
538.114	5672.63
538.479	5704.5
538.845	5726.64
539.21	5736.13
539.575	5811.16
539.94	5815.91
540.305	5877.15
540.67	5850.93
541.034	5876.24
541.399	5946.3
541.764	5932.29
542.129	5990.37
542.494	6051.38
542.858	6090.7
543.223	6080.31
543.587	6185.16
543.952	6183.81
544.316	6157.82
544.681	6160.76
545.045	6311.94
545.41	6268.55
545.774	6348.77
546.138	6357.81
546.503	6364.14
546.867	6439.17
547.231	6474.42
547.595	6498.6
547.959	6562.1
548.324	6563.23
548.688	6617.47
549.052	6637.58
549.416	6708.31
549.779	6722.78
550.143	6771.81
550.507	6831.47
550.871	6878.93
551.235	6910.79
551.599	7034.63
551.962	6986.72
552.326	7029.89
552.689	7077.12
553.053	7108.08
553.417	7166.61
553.78	7311.69
554.143	7287.05
554.507	7361.63
554.87	7397.11
555.234	7500.16
555.597	7528.86
555.96	7548.06
556.323	7616.54
556.686	7659.25
557.05	7775.85
557.413	7841.39
557.776	7802.07
558.139	7955.74
558.502	8000.71
558.865	8043.64
559.228	8120.03
559.59	8218.56
559.953	8208.61
560.316	8439.11
560.679	8356.18
561.041	8458.55
561.404	8530.41
561.767	8667.13
562.129	8613.8
562.492	8739.22
562.854	8842.95
563.217	8904.64
563.579	9013.79
563.941	9053.56
564.304	9106.67
564.666	9222.82
565.028	9313.89
565.39	9307.34
565.753	9436.38
566.115	9514.11
566.477	9623.26
566.839	9670.27
567.201	9786.42
567.563	9806.99
567.925	9953.42
568.287	9918.17
568.648	10051.28
569.01	10182.57
569.372	10237.26
569.734	10256.24
570.095	10410.14
570.457	10461.43
570.819	10569.45
571.18	10591.83
571.542	10773.52
571.903	10821.2
572.265	10904.36
572.626	10954.3
572.987	10993.4
573.349	11143.45
573.71	11218.7
574.071	11287.17
574.432	11315.2
574.794	11480.39
575.155	11495.76
575.516	11550.9
575.877	11704.11
576.238	11717.67
576.599	11844.22
576.96	11871.11
577.32	11978.23
577.681	12107.27
578.042	12146.14
578.403	12186.13
578.763	12256.64
579.124	12344.77
579.485	12413.25
579.845	12507.03
580.206	12507.26
580.566	12577.54
580.927	12606.01
581.287	12716.29
581.648	12765.1
582.008	12809.39
582.368	12819.34
582.728	12957.19
583.089	13015.72
583.449	12952.89
583.809	13072.89
584.169	13161.48
584.529	13208.03
584.889	13415.25
585.249	13313.56
585.609	13376.61
585.969	13429.72
586.329	13393.33
586.688	13545.42
587.048	13486.21
587.408	13606.44
587.768	13683.5
588.127	13618.19
588.487	13816.15
588.846	13866.09
589.206	13763.72
589.565	13772.08
589.925	13925.75
590.284	13854.34
590.643	14082.13
591.003	14129.81
591.362	14112.19
591.721	14190.6
592.08	14164.61
592.44	14263.59
592.799	14316.93
593.158	14279.86
593.517	14360.99
593.876	14378.17
594.235	14460.65
594.593	14518.95
594.952	14454.55
595.311	14573.64
595.67	14565.05
596.029	14753.3
596.387	14736.12
596.746	14738.84
597.104	14728.89
597.463	14670.81
597.822	14796.24
598.18	14756.24
598.538	14796.69
598.897	14841.21
599.255	14883.69
599.613	15100.41
599.972	15013.18
600.33	15048.43
600.688	15095.66
601.046	15133.85
601.404	15222.66
601.762	15215.89
602.12	15280.74
602.478	15304.92
602.836	15271.25
603.194	15375.2
603.552	15429.89
603.91	15343.11
604.268	15476.67
604.625	15449.1
604.983	15529.32
605.341	15473.05
605.698	15593.05
606.056	15598.7
606.413	15618.59
606.771	15753.72
607.128	15726.83
607.485	15647.29
607.843	15705.36
608.2	15817.45
608.557	15869.88
608.914	15885.92
609.272	15881.18
609.629	15965.02
609.986	15962.31
610.343	16025.58
610.7	16132.02
611.057	16063.09
611.414	16099.93
611.771	16167.95
612.127	16224.22
612.484	16190.32
612.841	16246.14
613.198	16224.45
613.554	16288.85
613.911	16379.24
614.267	16411.11
614.624	16329.98
614.98	16393.26
615.337	16505.79
615.693	16561.16
616.05	16470.09
616.406	16524.33
616.762	16502.63
617.118	16460.82
617.475	16558.67
617.831	16670.99
618.187	16654.04
618.543	16693.36
618.899	16690.42
619.255	16719.12
619.611	16819.46
619.967	16784.66
620.323	16774.04
620.678	16698.11
621.034	16750.76
621.39	16694.04
621.746	16757.09
622.101	16919.57
622.457	16768.16
622.812	16832.79
623.168	16903.98
623.523	16939.23
623.879	16976.52
624.234	16830.53
624.589	16957.76
624.945	16908.95
625.3	16894.26
625.655	16952.34
626.01	16996.63
626.365	17004.54
626.72	16943.98
627.075	16953.47
627.43	17003.18
627.785	16980.36
628.14	17040.02
628.495	17086.12
628.85	16900.13
629.205	16883.41
629.559	17078.44
629.914	16983.97
630.269	16996.4
630.623	16905.33
630.978	16931.55
631.332	17006.12
631.687	17047.93
632.041	16949.62
632.396	16944.43
632.75	16992.56
633.104	16971.55
633.459	16902.85
633.813	16874.37
634.167	16936.74
634.521	16905.33
634.875	16944.2
635.229	16892
635.583	16807.26
635.937	16826.24
636.291	16768.84
636.645	16881.38
636.999	16737.2
637.352	16774.04
637.706	16838.89
638.06	16819.23
638.413	16785.34
638.767	16699.91
639.121	16781.95
639.474	16750.31
639.828	16719.35
640.181	16765.67
640.534	16708.73
640.888	16658.11
641.241	16781.27
641.594	16731.33
641.947	16740.59
642.301	16645.9
642.654	16652.68
643.007	16740.59
643.36	16537.66
643.713	16623.53
644.066	16699.24
644.419	16525.46
644.771	16468.51
645.124	16315.97
645.477	16395.29
645.83	16211.57
646.182	16129.53
646.535	16133.38
646.888	16132.47
647.24	16005.02
647.593	16194.16
647.945	16145.8
648.298	16033.72
648.65	15968.41
649.002	15965.24
649.355	16024.23
649.707	16082.76
650.059	16144.22
650.411	16354.16
650.763	16264.22
651.115	16398.23
651.467	16476.87
651.819	16473.25
652.171	16416.98
652.523	16423.76
652.875	16406.59
653.227	16305.35
653.578	16461.95
653.93	16459.69
654.282	16362.07
654.633	16323.43
654.985	16274.84
655.337	16321.84
655.688	16307.38
656.039	16333.14
656.391	16244.11
656.742	16296.53
657.094	16266.48
657.445	16409.75
657.796	16241.62
658.147	16294.05
658.498	16298.34
658.849	16302.64
659.2	16269.42
659.551	16287.95
659.902	16396.87
660.253	16351.22
660.604	16394.61
660.955	16340.6
661.306	16355.29
661.656	16322.75
662.007	16305.57
662.358	16378.79
662.708	16368.17
663.059	16337.89
663.409	16226.03
663.76	16389.87
664.11	16349.64
664.461	16373.14
664.811	16381.96
665.161	16350.32
665.511	16300.15
665.862	16377.66
666.212	16490.88
666.562	16463.08
666.912	16326.36
667.262	16446.81
667.612	16408.62
667.962	16458.11
668.312	16385.8
668.662	16510.77
669.011	16425.12
669.361	16421.05
669.711	16455.17
670.06	16372.24
670.41	16414.5
670.76	16387.38
671.109	16525.46
671.459	16504.66
671.808	16438.68
672.157	16416.31
672.507	16348.06
672.856	16377.89
673.205	16407.72
673.554	16466.02
673.904	16351.45
674.253	16512.12
674.602	16391
674.951	16137.44
675.3	16215.18
675.649	16426.7
675.998	16447.27
676.346	16454.95
676.695	16484.33
677.044	16374.05
677.393	16438.68
677.741	16463.54
678.09	16484.55
678.438	16404.78
678.787	16383.09
679.135	16466.02
679.484	16355.29
679.832	16398.23
680.181	16292.92
680.529	16482.74
680.877	16301.28
681.225	16302.64
681.573	16456.98
681.922	16291.34
682.27	16327.95
682.618	16306.93
682.966	16277.78
683.314	16353.71
683.661	16215.18
684.009	16184.9
684.357	16221.06
684.705	16207.27
685.053	16166.59
685.4	16160.72
685.748	16129.31
686.095	16147.16
686.443	16088.4
686.79	16034.62
687.138	16045.24
687.485	16042.53
687.832	16087.95
688.18	16145.8
688.527	15984.23
688.874	16061.96
689.221	15963.21
689.568	15981.29
689.915	15981.74
690.262	15969.09
690.609	15868.3
690.956	15863.78
691.303	15901.29
691.65	15782.65
691.997	15786.72
692.344	15746.04
692.69	15773.61
693.037	15760.5
693.383	15661.07
693.73	15735.87
694.077	15714.63
694.423	15722.99
694.769	15574.29
695.116	15626.27
695.462	15574.52
695.808	15536.33
696.155	15616.55
696.501	15443.68
696.847	15474.64
697.193	15359.16
697.539	15493.84
697.885	15413.62
698.231	15305.6
698.577	15384.69
698.923	15322.32
699.269	15267.41
699.614	15251.14
699.96	15176.56
700.306	15299.72
700.651	15112.61
700.997	15171.82
701.342	15206.39
701.688	15120.52
702.033	14996.46
702.379	15044.14
702.724	15045.04
703.069	15111.48
703.415	14910.13
703.76	14839.85
704.105	14991.26
704.45	14914.42
704.795	14874.65
705.14	14827.87
705.485	14846.86
705.83	14861.09
706.175	14718.27
706.52	14696.35
706.865	14754.43
707.209	14747.2
707.554	14648.22
707.899	14823.58
708.243	14582.23
708.588	14598.5
708.932	14552.4
709.277	14614.32
709.621	14576.13
709.966	14443.7
710.31	14590.59
710.654	14472.4
710.998	14476.92
711.342	14455
711.687	14480.31
712.031	14412.29
712.375	14419.3
712.719	14384.27
713.063	14363.48
713.407	14375.46
713.75	14394.66
714.094	14379.07
714.438	14356.02
714.782	14359.18
715.125	14275.8
715.469	14292.29
715.812	14238.96
716.156	14111.06
716.499	14237.15
716.843	14222.69
717.186	14100.89
717.53	14187.66
717.873	14068.34
718.216	14194.9
718.559	14099.98
718.902	14031.96
719.246	14080.1
719.589	14044.62
719.932	13949.7
720.275	14019.53
720.617	14020.21
720.96	13948.35
721.303	13986.31
721.646	14002.36
721.989	13982.25
722.331	13913.77
722.674	13918.74
723.016	13942.92
723.359	13883.72
723.701	13903.38
724.044	13750.84
724.386	13773.89
724.729	13860.89
725.071	13874.45
725.413	13872.19
725.755	13831.29
726.097	13792.42
726.439	13730.27
726.782	13763.95
727.124	13763.27
727.465	13768.01
727.807	13721.91
728.149	13694.34
728.491	13686.21
728.833	13789.03
729.175	13707.68
729.516	13632.42
729.858	13617.28
730.199	13622.93
730.541	13650.95
730.882	13678.75
731.224	13678.98
731.565	13626.1
731.906	13614.8
732.248	13653.67
732.589	13533.67
732.93	13497.06
733.271	13549.04
733.612	13545.42
733.953	13509.94
734.294	13499.55
734.635	13425.65
734.976	13553.1
735.317	13415.93
735.658	13452.32
735.999	13405.54
736.339	13442.37
736.68	13488.02
737.021	13413.67
737.361	13354.47
737.702	13387.23
738.042	13398.31
738.383	13403.28
738.723	13406.89
739.063	13289.38
739.404	13278.76
739.744	13361.24
740.084	13262.49
740.424	13295.48
740.764	13269.27
741.104	13204.41
741.444	13154.92
741.784	13141.36
742.124	13203.51
742.464	13174.36
742.804	13169.61
743.143	13100.91
743.483	13114.25
743.823	13074.47
744.162	13006.45
744.502	13104.53
744.841	13031.08
745.181	13135.71
745.52	13025.43
745.86	13005.1
746.199	12959.67
746.538	12956.74
746.877	12975.94
747.216	12982.5
747.556	12903.18
747.895	13017.75
748.234	12877.87
748.573	12862.95
748.911	12806.23
749.25	12789.96
749.589	12789.96
749.928	12782.28
750.267	12749.51
750.605	12775.95
750.944	12737.98
751.283	12725.1
751.621	12716.74
751.96	12645.56
752.298	12665.22
752.636	12612.34
752.975	12564.88
753.313	12491.44
753.651	12561.04
753.989	12539.12
754.327	12462.06
754.666	12381.61
755.004	12429.52
755.342	12384.77
755.679	12396.52
756.017	12277.88
756.355	12398.56
756.693	12355.4
757.031	12314.72
757.368	12201.05
757.706	12222.07
758.044	12135.06
758.381	12161.73
758.719	12092.13
759.056	12109.75
759.394	12072.01
759.731	12011
760.068	11919.47
