Data from brown_tile_FLMS001491_083.txt Node
Date: Tue Feb 07 10:38:07 GMT 2017
User: dcchb
Spectrometer: FLMS00149
Trigger mode: 0
Integration Time (sec): 2.000000E-2
Scans to average: 10
Electric dark correction enabled: true
Nonlinearity correction enabled: false
Boxcar width: 0
XAxis mode: Wavelengths
Number of Pixels in Spectrum: 2048
>>>>>Begin Spectral Data<<<<<
341.393	-20.14
341.776	-20.14
342.16	-20.14
342.543	-62.63
342.927	-73.7
343.31	-52
343.693	-60.37
344.077	-74.6
344.46	-47.71
344.843	-33.02
345.226	-38.67
345.61	-29.63
345.993	-13.14
346.376	-19.01
346.759	17.15
347.142	23.93
347.525	15.56
347.908	55.11
348.291	61.89
348.674	92.4
349.057	102.12
349.44	135.56
349.823	133.53
350.206	147.76
350.588	177.37
350.971	192.28
351.354	222.34
351.737	211.94
352.119	260.53
352.502	246.52
352.884	238.61
353.267	236.35
353.65	271.6
354.032	271.38
354.414	275.9
354.797	298.27
355.179	310.02
355.562	311.6
355.944	302.79
356.326	309.79
356.709	325.61
357.091	312.05
357.473	323.81
357.855	328.78
358.238	316.12
358.62	317.93
359.002	328.55
359.384	314.77
359.766	329.68
360.148	307.31
360.53	317.48
360.912	338.95
361.294	320.64
361.676	311.38
362.057	298.72
362.439	315.44
362.821	312.73
363.203	284.48
363.584	304.14
363.966	302.11
364.348	308.44
364.729	292.85
365.111	289.46
365.493	296.46
365.874	303.01
366.256	292.17
366.637	298.04
367.019	300.3
367.4	306.86
367.781	297.59
368.163	300.3
368.544	293.98
368.925	301.21
369.306	292.39
369.688	281.55
370.069	309.57
370.45	282.68
370.831	311.83
371.212	288.55
371.593	292.39
371.974	281.77
372.355	313.64
372.736	293.52
373.117	298.95
373.498	301.66
373.879	284.71
374.26	304.6
374.641	283.58
375.021	285.61
375.402	316.57
375.783	303.69
376.163	294.43
376.544	301.66
376.925	293.3
377.305	293.52
377.686	308.66
378.066	298.72
378.447	301.43
378.827	298.27
379.208	303.92
379.588	298.72
379.968	314.54
380.349	324.03
380.729	299.17
381.109	317.25
381.489	317.48
381.87	338.49
382.25	309.57
382.63	310.47
383.01	326.52
383.39	321.55
383.77	308.66
384.15	333.97
384.53	298.72
384.91	309.79
385.29	327.87
385.67	345.95
386.049	305.5
386.429	328.32
386.809	335.78
387.189	319.74
387.568	337.14
387.948	333.75
388.328	340.53
388.707	320.42
389.087	312.51
389.466	322
389.846	313.18
390.225	317.93
390.605	337.82
390.984	339.85
391.363	330.36
391.743	326.29
392.122	339.62
392.501	324.03
392.881	373.75
393.26	337.14
393.639	336.69
394.018	340.75
394.397	345.73
394.776	364.93
395.155	343.01
395.534	343.47
395.913	336.23
396.292	361.54
396.671	338.27
397.05	351.37
397.429	350.02
397.808	349.12
398.186	371.26
398.565	375.33
398.944	369.45
399.323	353.18
399.701	365.61
400.08	371.94
400.458	344.37
400.837	368.55
401.215	350.47
401.594	360.64
401.972	364.03
402.351	374.88
402.729	377.59
403.107	364.71
403.486	370.81
403.864	357.7
404.242	369.68
404.62	385.72
404.999	362
405.377	381.88
405.755	376.01
406.133	393.86
406.511	386.63
406.889	366.29
407.267	401.09
407.645	395.67
408.023	390.02
408.401	385.5
408.779	412.16
409.156	400.87
409.534	385.5
409.912	383.46
410.29	392.5
410.667	399.74
411.045	404.03
411.422	413.07
411.8	436.8
412.178	427.31
412.555	414.65
412.933	417.36
413.31	418.94
413.687	430.02
414.065	431.6
414.442	412.62
414.819	424.37
415.197	428.44
415.574	416.01
415.951	438.6
416.328	433.41
416.705	417.59
417.082	454.65
417.46	452.62
417.837	432.28
418.214	456
418.591	447.87
418.967	428.44
419.344	446.97
419.721	441.99
420.098	453.97
420.475	479.06
420.852	473.63
421.228	470.24
421.605	469.11
421.982	491.03
422.358	502.11
422.735	483.8
423.111	489.9
423.488	489.68
423.864	489
424.241	472.73
424.617	475.21
424.994	483.12
425.37	484.03
425.746	495.33
426.123	504.37
426.499	494.2
426.875	500.75
427.251	507.53
427.627	494.2
428.003	516.79
428.379	514.31
428.756	518.6
429.132	523.12
429.507	526.74
429.883	543.46
430.259	533.74
430.635	527.42
431.011	544.14
431.387	535.1
431.763	561.76
432.138	554.99
432.514	559.28
432.89	559.28
433.265	575.55
433.641	560.18
434.016	561.31
434.392	547.08
434.767	602.89
435.143	564.7
435.518	570.13
435.894	594.53
436.269	607.87
436.644	591.82
437.02	582.33
437.395	605.83
437.77	610.58
438.145	623.01
438.52	622.78
438.895	607.87
439.271	613.29
439.646	634.31
440.021	646.06
440.395	637.47
440.77	621.42
441.145	630.46
441.52	664.36
441.895	655.55
442.27	647.64
442.645	636.11
443.019	658.94
443.394	654.87
443.769	661.42
444.143	647.19
444.518	676.11
444.892	676.79
445.267	695.32
445.641	700.97
446.016	677.47
446.39	679.5
446.764	666.17
447.139	711.14
447.513	686.96
447.887	686.96
448.262	683.8
448.636	673.4
449.01	691.93
449.384	695.55
449.758	696
450.132	721.31
450.506	717.92
450.88	740.74
451.254	713.63
451.628	750.46
452.002	734.64
452.376	721.08
452.75	744.58
453.123	744.58
453.497	776.45
453.871	764.92
454.244	757.47
454.618	780.29
454.992	785.71
455.365	778.71
455.739	797.69
456.112	780.29
456.486	786.84
456.859	806.05
457.232	799.72
457.606	816.45
457.979	815.09
458.352	831.81
458.725	841.08
459.099	827.29
459.472	867.97
459.845	854.41
460.218	850.12
460.591	870.46
460.964	870.23
461.337	897.35
461.71	891.7
462.083	901.42
462.456	926.5
462.829	917.91
463.201	941.64
463.574	930.79
463.947	958.59
464.32	952.94
464.692	981.41
465.065	984.35
465.438	981.87
465.81	989.78
466.183	1010.79
466.555	1024.35
466.928	1026.39
467.3	1016.22
467.672	1034.75
468.045	1060.73
468.417	1013.73
468.789	1088.3
469.161	1054.63
469.534	1055.31
469.906	1098.02
470.278	1085.37
470.65	1110.45
471.022	1124.69
471.394	1143.22
471.766	1153.84
472.138	1175.31
472.51	1151.35
472.882	1215.98
473.253	1224.12
473.625	1212.37
473.997	1238.36
474.369	1226.61
474.74	1241.3
475.112	1262.54
475.484	1278.36
475.855	1289.2
476.227	1301.86
476.598	1342.31
476.97	1335.98
477.341	1378.47
477.713	1398.58
478.084	1387.51
478.455	1414.4
478.827	1436.54
479.198	1457.33
479.569	1462.76
479.94	1500.27
480.311	1498.46
480.682	1576.2
481.053	1558.8
481.424	1638.12
481.795	1620.95
482.166	1646.03
482.537	1648.29
482.908	1692.81
483.279	1713.37
483.65	1720.6
484.021	1736.2
484.391	1754.28
484.762	1778.46
485.133	1782.07
485.503	1804.22
485.874	1887.83
486.244	1873.59
486.615	1872.92
486.985	1897.55
487.356	1929.86
487.726	1933.25
488.097	1989.75
488.467	2028.62
488.837	1999.69
489.207	2047.83
489.578	2070.2
489.948	2093.25
490.318	2119.01
490.688	2145.45
491.058	2173.25
491.428	2177.77
491.798	2195.39
492.168	2249.63
492.538	2267.03
492.908	2263.19
493.278	2292.79
493.648	2305.45
494.017	2345.9
494.387	2334.83
494.757	2345.45
495.126	2401.72
495.496	2383.64
495.866	2442.85
496.235	2454.37
496.605	2428.38
496.974	2487.82
497.344	2521.04
497.713	2545.22
498.082	2509.06
498.452	2544.09
498.821	2566.23
499.19	2569.62
499.559	2623.86
499.928	2587.93
500.298	2660.01
500.667	2648.94
501.036	2655.5
501.405	2713.57
501.774	2674.93
502.143	2736.85
502.512	2742.72
502.88	2746.57
503.249	2751.99
503.618	2762.61
503.987	2808.03
504.356	2824.3
504.724	2812.78
505.093	2856.85
505.462	2878.09
505.83	2875.83
506.199	2900.46
506.567	2951.53
506.936	2977.97
507.304	2966
507.672	3003.28
508.041	3004.41
508.409	3039.67
508.777	3063.39
509.145	3044.86
509.514	3078.31
509.882	3126.22
510.25	3115.6
510.618	3104.52
510.986	3141.13
511.354	3174.58
511.722	3174.8
512.09	3241.69
512.458	3285.99
512.826	3292.77
513.193	3277.85
513.561	3301.81
513.929	3285.76
514.297	3358.53
514.664	3372.99
515.032	3407.11
515.4	3438.3
515.767	3374.35
516.135	3458.41
516.502	3444.63
516.869	3514.23
517.237	3512.2
517.604	3542.93
517.972	3580.67
518.339	3637.84
518.706	3630.84
519.073	3640.33
519.44	3697.5
519.808	3683.94
520.175	3714.68
520.542	3746.31
520.909	3797.61
521.276	3786.76
521.643	3831.51
522.009	3871.96
522.376	3920.32
522.743	3915.8
523.11	3977.27
523.477	4019.75
523.843	4048.9
524.21	4076.7
524.577	4132.07
524.943	4082.58
525.31	4175.91
525.676	4181.1
526.043	4189.47
526.409	4261.78
526.776	4295.45
527.142	4297.49
527.508	4332.29
527.874	4371.83
528.241	4406.64
528.607	4405.96
528.973	4460.87
529.339	4452.74
529.705	4549
530.071	4583.35
530.437	4590.59
530.803	4620.42
531.169	4625.16
531.535	4675.78
531.901	4679.17
532.267	4720.07
532.632	4734.76
532.998	4749.68
533.364	4779.06
533.73	4834.19
534.095	4881.65
534.461	4884.14
534.826	4865.61
535.192	4903.12
535.557	4974.53
535.923	5012.5
536.288	5026.28
536.653	5030.12
537.019	5101.08
537.384	5121.42
537.749	5123
538.114	5120.52
538.479	5142.21
538.845	5238.48
539.21	5206.16
539.575	5224.24
539.94	5261.08
540.305	5307.18
540.67	5290.68
541.034	5341.98
541.399	5427.63
541.764	5389.89
542.129	5408.42
542.494	5451.58
542.858	5496.32
543.223	5505.82
543.587	5619.94
543.952	5590.56
544.316	5615.64
544.681	5618.13
545.045	5669.2
545.41	5704.68
545.774	5704.68
546.138	5807.95
546.503	5803.89
546.867	5812.25
547.231	5905.81
547.595	5890.89
547.959	5904.68
548.324	5964.11
548.688	6024.9
549.052	6035.75
549.416	6077.55
549.779	6110.09
550.143	6124.78
550.507	6185.8
550.871	6224.89
551.235	6265.57
551.599	6365.45
551.962	6343.76
552.326	6446.58
552.689	6466.92
553.053	6459.24
553.417	6463.76
553.78	6609.97
554.143	6612
554.507	6654.71
554.87	6643.19
555.234	6809.28
555.597	6806.57
555.96	6889.73
556.323	6892.22
556.686	6978.77
557.05	7035.04
557.413	7116.85
557.776	7153.23
558.139	7199.56
558.502	7258.54
558.865	7302.15
559.228	7416.73
559.59	7369.27
559.953	7531.75
560.316	7603.39
560.679	7601.13
561.041	7732.65
561.404	7867.11
561.767	7832.99
562.129	7886.54
562.492	8006.54
562.854	8015.58
563.217	8093.32
563.579	8151.85
563.941	8229.81
564.304	8334.67
564.666	8435.68
565.028	8479.3
565.39	8560.42
565.753	8614.21
566.115	8684.26
566.477	8808.78
566.839	8789.8
567.201	8943.01
567.563	8927.87
567.925	9058.94
568.287	9119.51
568.648	9169.22
569.01	9249.45
569.372	9391.82
569.734	9387.97
570.095	9492.15
570.457	9559.95
570.819	9684.01
571.18	9691.02
571.542	9775.08
571.903	9881.07
572.265	9986.38
572.626	9993.16
572.987	10108.41
573.349	10176.43
573.71	10281.51
574.071	10347.27
574.432	10435.4
574.794	10558.79
575.155	10550.2
575.516	10612.12
575.877	10700.26
576.238	10665.91
576.599	10881.72
576.96	10966.01
577.32	11003.07
577.681	11082.84
578.042	11125.78
578.403	11186.34
578.763	11296.17
579.124	11328.71
579.485	11358.09
579.845	11462.04
580.206	11448.26
580.566	11592.89
580.927	11605.77
581.287	11733.9
581.648	11729.15
582.008	11818.42
582.368	11843.5
582.728	11869.04
583.089	11980
583.449	11987.23
583.809	12063.61
584.169	12148.13
584.529	12132.08
584.889	12313.09
585.249	12259.76
585.609	12244.85
585.969	12356.71
586.329	12372.53
586.688	12440.55
587.048	12451.85
587.408	12516.93
587.768	12501.11
588.127	12556.93
588.487	12592.18
588.846	12736.59
589.206	12616.82
589.565	12752.63
589.925	12862.46
590.284	12810.93
590.643	12937.03
591.003	12918.05
591.362	12943.13
591.721	13021.55
592.08	13055.67
592.44	13103.36
592.799	13123.47
593.158	13109.46
593.517	13258.38
593.876	13287.76
594.235	13258.83
594.593	13310.58
594.952	13366.4
595.311	13319.4
595.67	13371.15
596.029	13502.89
596.387	13563.46
596.746	13537.02
597.104	13574.3
597.463	13579.05
597.822	13716.22
598.18	13686.84
598.538	13577.24
598.897	13749.89
599.255	13669.67
599.613	13895.43
599.972	13835.09
600.33	13807.07
600.688	13809.78
601.046	13963.22
601.404	13971.81
601.762	13994.63
602.12	14081.86
602.478	14115.31
602.836	14080.73
603.194	14062.2
603.552	14175.64
603.91	14149.43
604.268	14185.59
604.625	14216.32
604.983	14289.54
605.341	14261.74
605.698	14361.18
606.056	14410.67
606.413	14399.37
606.771	14424.9
607.128	14494.73
607.485	14443.66
607.843	14467.39
608.2	14609.98
608.557	14622.41
608.914	14482.3
609.272	14654.05
609.629	14686.37
609.986	14793.26
610.343	14809.53
610.7	14845.23
611.057	14821.28
611.414	14892.24
611.771	14817.44
612.127	14914.16
612.484	14959.8
612.841	15008.62
613.198	14960.48
613.554	14970.88
613.911	15072.34
614.267	15077.99
614.624	15101.27
614.98	15059.69
615.337	15206.58
615.693	15263.53
616.05	15202.96
616.406	15319.34
616.762	15287.93
617.118	15226.69
617.475	15257.42
617.831	15373.35
618.187	15348.95
618.543	15388.95
618.899	15454.25
619.255	15414.93
619.611	15449.51
619.967	15499.23
620.323	15602.27
620.678	15553.69
621.034	15426.91
621.39	15471.2
621.746	15555.49
622.101	15687.02
622.457	15512.78
622.812	15569.51
623.168	15637.07
623.523	15576.74
623.879	15609.28
624.234	15548.04
624.589	15658.54
624.945	15684.98
625.3	15584.42
625.655	15649.96
626.01	15678.2
626.365	15620.58
626.72	15630.07
627.075	15695.15
627.43	15634.59
627.785	15561.14
628.14	15687.24
628.495	15592.78
628.85	15661.25
629.205	15518.43
629.559	15719.56
629.914	15657.41
630.269	15639.56
630.623	15556.85
630.978	15604.53
631.332	15576.06
631.687	15652.67
632.041	15533.8
632.396	15710.52
632.75	15538.55
633.104	15500.13
633.459	15577.64
633.813	15615.61
634.167	15575.83
634.521	15484.54
634.875	15644.76
635.229	15555.95
635.583	15547.13
635.937	15502.84
636.291	15440.47
636.645	15514.59
636.999	15412
637.352	15476.17
637.706	15327.48
638.06	15454.71
638.413	15468.27
638.767	15480.47
639.121	15415.61
639.474	15353.47
639.828	15437.76
640.181	15440.02
640.534	15382.62
640.888	15343.75
641.241	15301.04
641.594	15380.81
641.947	15360.02
642.301	15350.75
642.654	15323.86
643.007	15315.05
643.36	15263.3
643.713	15309.63
644.066	15376.29
644.419	15234.6
644.771	15086.35
645.124	15003.65
645.477	15032.57
645.83	14883.65
646.182	14814.5
646.535	14879.58
646.888	14819.02
647.24	14757.32
647.593	14826.7
647.945	14839.58
648.298	14773.82
648.65	14797.55
649.002	14732.69
649.355	14777.66
649.707	14765.01
650.059	14750.54
650.411	15039.8
650.763	15128.16
651.115	15133.13
651.467	15143.98
651.819	15142.62
652.171	15206.8
652.523	15153.25
652.875	15127.71
653.227	14951.67
653.578	15129.07
653.93	15029.18
654.282	15035.06
654.633	15013.14
654.985	15026.47
655.337	15062.4
655.688	15035.96
656.039	15157.09
656.391	15028.28
656.742	15007.94
657.094	15062.63
657.445	15079.58
657.796	15008.84
658.147	14995.06
658.498	15070.31
658.849	15007.03
659.2	15000.26
659.551	14996.41
659.902	15089.07
660.253	15083.87
660.604	15127.03
660.955	14992.57
661.306	15058.11
661.656	15066.47
662.007	15077.54
662.358	15105.56
662.708	15005.45
663.059	15045.9
663.409	14925.23
663.76	15108.5
664.11	15094.72
664.461	15152.79
664.811	14969.75
665.161	15138.1
665.511	15050.65
665.862	15102.85
666.212	15165.22
666.562	15096.75
666.912	15066.24
667.262	15026.47
667.612	15130.42
667.962	15189.4
668.312	15099.01
668.662	15193.24
669.011	15206.13
669.361	15183.08
669.711	15052.91
670.06	15163.64
670.41	15163.64
670.76	15090.42
671.109	15194.37
671.459	15131.55
671.808	15173.13
672.157	15159.8
672.507	15041.16
672.856	15153.7
673.205	15197.54
673.554	15145.79
673.904	15166.35
674.253	15265.79
674.602	15193.47
674.951	14957.54
675.3	14897.21
675.649	15216.29
675.998	15126.35
676.346	15174.49
676.695	15244.99
677.044	15125.68
677.393	15129.97
677.741	15145.11
678.09	15175.39
678.438	15164.09
678.787	15169.97
679.135	15169.52
679.484	15081.84
679.832	15158.9
680.181	15040.25
680.529	15165
680.877	15133.59
681.225	15077.99
681.573	15120.25
681.922	15077.77
682.27	15074.83
682.618	15091.33
682.966	15061.27
683.314	15073.02
683.661	15114.15
684.009	15015.17
684.357	14941.05
684.705	14917.09
685.053	14962.29
685.4	14956.64
685.748	14943.08
686.095	14945.12
686.443	14902.86
686.79	14913.25
687.138	14984.21
687.485	14903.08
687.832	14862.18
688.18	14875.29
688.527	14912.8
688.874	14845.68
689.221	14813.82
689.568	14765.23
689.915	14762.75
690.262	14768.62
690.609	14701.96
690.956	14688.63
691.303	14679.36
691.65	14735.18
691.997	14702.18
692.344	14544.9
692.69	14588.74
693.037	14566.37
693.383	14363.89
693.73	14548.52
694.077	14440.04
694.423	14466.71
694.769	14435.3
695.116	14352.14
695.462	14490.21
695.808	14382.64
696.155	14431.23
696.501	14359.82
696.847	14298.58
697.193	14205.25
697.539	14260.84
697.885	14124.57
698.231	14190.11
698.577	14194.17
698.923	14194.85
699.269	14158.24
699.614	14031.47
699.96	14009.09
700.306	14059.49
700.651	13998.7
700.997	13982.43
701.342	13963.22
701.688	14061.52
702.033	13915.99
702.379	13977.46
702.724	13986.5
703.069	13994.41
703.415	13779.04
703.76	13804.58
704.105	13821.08
704.45	13791.47
704.795	13758.93
705.14	13757.12
705.485	13730.46
705.83	13640.29
706.175	13672.38
706.52	13621.76
706.865	13600.07
707.209	13642.32
707.554	13587.64
707.899	13599.61
708.243	13567.07
708.588	13474.65
708.932	13481.88
709.277	13378.83
709.621	13518.03
709.966	13405.27
710.31	13443.46
710.654	13409.34
710.998	13338.6
711.342	13360.98
711.687	13371.37
712.031	13325.72
712.375	13321.88
712.719	13354.2
713.063	13309.68
713.407	13275.55
713.75	13279.17
714.094	13261.09
714.438	13289.34
714.782	13238.49
715.125	13093.86
715.469	13184.94
715.812	13165.73
716.156	13125.28
716.499	13078.05
716.843	13157.59
717.186	13082.79
717.53	13155.78
717.873	13162.79
718.216	13093.86
718.559	13122.79
718.902	12999.86
719.246	13066.52
719.589	12983.59
719.932	13006.64
720.275	12952.17
720.617	12982.23
720.96	12975.9
721.303	12952.17
721.646	12967.31
721.989	12852.52
722.331	12874.44
722.674	12915.11
723.016	12885.28
723.359	12823.82
723.701	12880.99
724.044	12783.36
724.386	12790.82
724.729	12862.68
725.071	12751.5
725.413	12776.58
725.755	12773.87
726.097	12765.06
726.439	12668.57
726.782	12649.58
727.124	12729.35
727.465	12720.77
727.807	12675.57
728.149	12716.7
728.491	12697.27
728.833	12749.69
729.175	12625.85
729.516	12673.31
729.858	12629.02
730.199	12565.52
730.541	12609.36
730.882	12615.01
731.224	12609.36
731.565	12571.39
731.906	12596.93
732.248	12589.92
732.589	12505.86
732.93	12476.93
733.271	12555.57
733.612	12568.91
733.953	12491.17
734.294	12440.1
734.635	12446.88
734.976	12432.64
735.317	12421.79
735.658	12458.63
735.999	12459.53
736.339	12455.01
736.68	12467.21
737.021	12467.21
737.361	12308.57
737.702	12363.49
738.042	12360.78
738.383	12302.25
738.723	12323.04
739.063	12332.53
739.404	12326.65
739.744	12204.62
740.084	12228.12
740.424	12248.69
740.764	12209.14
741.104	12222.48
741.444	12202.59
741.784	12145.64
742.124	12211.85
742.464	12169.6
742.804	12174.11
743.143	12129.6
743.483	12147
743.823	12083.72
744.162	12056.83
744.502	12128.69
744.841	12008.02
745.181	12045.76
745.52	11940.9
745.86	12062.71
746.199	12033.1
746.538	11962.6
746.877	12019.32
747.216	11987.23
747.556	11927.57
747.895	11972.54
748.234	11865.2
748.573	11894.8
748.911	11866.1
749.25	11830.62
749.589	11817.06
749.928	11791.07
750.267	11780.23
750.605	11788.36
750.944	11788.81
751.283	11742.71
751.621	11665.43
751.96	11681.02
752.298	11691.87
752.636	11679.66
752.975	11548.59
753.313	11539.78
753.651	11627.46
753.989	11559.67
754.327	11522.15
754.666	11477.64
755.004	11476.73
755.342	11484.42
755.679	11397.41
756.017	11293.23
756.355	11373.68
756.693	11260.24
757.031	11330.07
757.368	11250.98
757.706	11217.3
758.044	11188.38
758.381	11235.16
758.719	11124.88
759.056	11181.82
759.394	11138.21
759.731	11068.16
760.068	11033.81
760.405	10979.8
760.743	10902.74
