Data from brown_tile_FLMS001491_064.txt Node
Date: Tue Feb 07 10:37:50 GMT 2017
User: dcchb
Spectrometer: FLMS00149
Trigger mode: 0
Integration Time (sec): 2.000000E-2
Scans to average: 10
Electric dark correction enabled: true
Nonlinearity correction enabled: false
Boxcar width: 0
XAxis mode: Wavelengths
Number of Pixels in Spectrum: 2048
>>>>>Begin Spectral Data<<<<<
341.393	-8.81
341.776	-8.81
342.16	-8.81
342.543	-83.61
342.927	-66.21
343.31	-68.02
343.693	-76.16
344.077	-69.38
344.46	-70.96
344.843	-55.82
345.226	-49.72
345.61	-18.3
345.993	-13.56
346.376	4.07
346.759	4.97
347.142	26.21
347.525	42.26
347.908	63.05
348.291	70.51
348.674	97.4
349.057	113.44
349.44	123.39
349.823	127.23
350.206	157.28
350.588	178.98
350.971	188.24
351.354	205.42
351.737	217.85
352.119	233.44
352.502	247.68
352.884	251.97
353.267	251.29
353.65	267.34
354.032	272.31
354.414	297.62
354.797	289.71
355.179	299.88
355.562	314.57
355.944	311.63
356.326	291.29
356.709	321.35
357.091	293.78
357.473	355.47
357.855	316.83
358.238	319.09
358.62	327.68
359.002	322.7
359.384	303.72
359.766	327.9
360.148	324.06
360.53	317.73
360.912	321.57
361.294	322.93
361.676	301.24
362.057	318.86
362.439	329.93
362.821	302.59
363.203	312.53
363.584	335.36
363.966	322.03
364.348	308.47
364.729	304.17
365.111	286.55
365.493	308.47
365.874	295.13
366.256	300.56
366.637	310.95
367.019	297.62
367.4	287.9
367.781	305.53
368.163	299.43
368.544	297.85
368.925	322.25
369.306	291.52
369.688	306.21
370.069	299.88
370.45	308.69
370.831	284.06
371.212	276.15
371.593	321.8
371.974	296.49
372.355	281.12
372.736	296.49
373.117	298.75
373.498	309.37
373.879	296.49
374.26	323.61
374.641	319.54
375.021	311.18
375.402	283.16
375.783	305.98
376.163	293.78
376.544	300.11
376.925	317.73
377.305	303.72
377.686	302.59
378.066	299.43
378.447	293.1
378.827	314.12
379.208	297.39
379.588	301.69
379.968	315.02
380.349	306.66
380.729	310.95
381.109	297.85
381.489	321.8
381.87	303.95
382.25	310.05
382.63	316.38
383.01	321.57
383.39	341.46
383.77	305.75
384.15	323.16
384.53	322.93
384.91	323.83
385.29	316.38
385.67	319.99
386.049	340.56
386.429	339.2
386.809	332.42
387.189	306.66
387.568	336.04
387.948	311.86
388.328	340.78
388.707	324.29
389.087	354.57
389.466	336.26
389.846	346.88
390.225	352.76
390.605	345.3
390.984	343.49
391.363	349.82
391.743	347.34
392.122	337.39
392.501	359.54
392.881	345.3
393.26	347.56
393.639	365.64
394.018	350.5
394.397	348.47
394.776	369.03
395.155	335.13
395.534	357.05
395.913	357.5
396.292	342.82
396.671	349.6
397.05	376.49
397.429	355.47
397.808	365.64
398.186	346.21
398.565	334
398.944	373.32
399.323	358.18
399.701	370.39
400.08	362.7
400.458	360.89
400.837	360.44
401.215	364.06
401.594	358.18
401.972	374.91
402.351	374.45
402.729	366.54
403.107	378.07
403.486	363.38
403.864	394.57
404.242	374
404.62	385.07
404.999	405.19
405.377	395.47
405.755	402.7
406.133	409.25
406.511	413.1
406.889	406.09
407.267	398.18
407.645	407.45
408.023	415.13
408.401	390.27
408.779	412.64
409.156	403.61
409.534	414.9
409.912	423.04
410.29	434.34
410.667	422.59
411.045	416.94
411.422	430.27
411.8	417.84
412.178	424.4
412.555	428.92
412.933	426.66
413.31	426.43
413.687	429.59
414.065	439.31
414.442	460.55
414.819	439.31
415.197	453.1
415.574	442.7
415.951	458.52
416.328	465.52
416.705	455.36
417.082	446.32
417.46	448.12
417.837	461.23
418.214	442.47
418.591	453.77
418.967	459.65
419.344	468.01
419.721	475.02
420.098	472.08
420.475	472.53
420.852	458.74
421.228	464.85
421.605	477.05
421.982	478.41
422.358	479.99
422.735	489.7
423.111	505.07
423.488	509.59
423.864	500.55
424.241	512.75
424.617	517.27
424.994	494
425.37	491.29
425.746	517.27
426.123	511.62
426.499	505.98
426.875	524.96
427.251	526.77
427.627	516.37
428.003	548.69
428.379	542.13
428.756	542.81
429.132	540.1
429.507	536.48
429.883	540.55
430.259	542.13
430.635	557.5
431.011	568.57
431.387	572.19
431.763	554.34
432.138	564.5
432.514	570.38
432.89	577.61
433.265	568.35
433.641	608.12
434.016	599.76
434.392	592.98
434.767	609.48
435.143	594.79
435.518	606.76
435.894	606.09
436.269	620.32
436.644	642.69
437.02	619.42
437.395	603.37
437.77	649.7
438.145	619.19
438.52	651.06
438.895	644.73
439.271	630.04
439.646	640.21
440.021	658.06
440.395	670.72
440.77	651.73
441.145	663.71
441.52	671.85
441.895	684.5
442.27	681.11
442.645	681.34
443.019	685.63
443.394	696.48
443.769	685.86
444.143	712.07
444.518	697.16
444.892	677.27
445.267	682.69
445.641	704.39
446.016	691.73
446.39	692.19
446.764	690.83
447.139	686.54
447.513	715.91
447.887	729.92
448.262	721.56
448.636	700.09
449.01	724.73
449.384	712.07
449.758	738.29
450.132	750.04
450.506	749.13
450.88	760.66
451.254	745.52
451.628	748.45
452.002	757.95
452.376	759.53
452.75	781.22
453.123	766.08
453.497	800.43
453.871	812.18
454.244	800.43
454.618	791.84
454.992	811.73
455.365	805.63
455.739	840.88
456.112	841.33
456.486	846.76
456.859	836.14
457.232	858.51
457.606	876.81
457.979	845.85
458.352	874.1
458.725	898.06
459.099	874.33
459.472	867.32
459.845	884.72
460.218	912.07
460.591	929.24
460.964	930.37
461.337	932.4
461.71	962.01
462.083	971.95
462.456	967.21
462.829	971.73
463.201	978.51
463.574	967.43
463.947	975.57
464.32	996.81
464.692	1025.06
465.065	1013.08
465.438	1028.67
465.81	1033.42
466.183	1048.79
466.555	1098.95
466.928	1087.88
467.3	1080.65
467.672	1086.98
468.045	1112.06
468.417	1115.22
468.789	1109.58
469.161	1106.41
469.534	1151.61
469.906	1182.57
470.278	1189.57
470.65	1161.1
471.022	1195.22
471.394	1216.92
471.766	1230.48
472.138	1206.52
472.51	1248.1
472.882	1270.25
473.253	1246.52
473.625	1289.23
473.997	1305.5
474.369	1311.6
474.74	1328.55
475.112	1349.34
475.484	1413.97
475.855	1403.13
476.227	1390.47
476.598	1425.27
476.97	1444.93
477.341	1465.5
477.713	1479.06
478.084	1486.74
478.455	1537.59
478.827	1532.16
479.198	1555.67
479.569	1570.35
479.94	1610.58
480.311	1625.27
480.682	1643.35
481.053	1668.66
481.424	1716.34
481.795	1732.84
482.166	1758.6
482.537	1752.27
482.908	1787.52
483.279	1770.35
483.65	1843.34
484.021	1875.2
484.391	1883.79
484.762	1888.76
485.133	1935.09
485.503	1938.48
485.874	1982.32
486.244	2014.18
486.615	2003.79
486.985	2079.72
487.356	2051.25
487.726	2095.09
488.097	2155.2
488.467	2109.78
488.837	2187.29
489.207	2185.03
489.578	2222.99
489.948	2267.51
490.318	2290.56
490.688	2269.54
491.058	2321.75
491.428	2328.98
491.798	2343.67
492.168	2391.8
492.538	2427.96
492.908	2435.42
493.278	2441.29
493.648	2449.65
494.017	2490.78
494.387	2551.8
494.757	2541.63
495.126	2524
495.496	2548.63
495.866	2572.59
496.235	2608.29
496.605	2666.37
496.974	2681.96
497.344	2675.18
497.713	2684
498.082	2687.16
498.452	2726.48
498.821	2742.07
499.19	2756.99
499.559	2761.96
499.928	2815.75
500.298	2845.57
500.667	2891.68
501.036	2856.42
501.405	2877.44
501.774	2943.65
502.143	2925.8
502.512	2957.89
502.88	2958.79
503.249	2979.13
503.618	2993.37
503.987	3022.07
504.356	3085.79
504.724	3071.33
505.093	3037.21
505.462	3025.91
505.83	3110.43
506.199	3136.41
506.567	3141.39
506.936	3201.95
507.304	3203.31
507.672	3173.48
508.041	3223.42
508.409	3256.41
508.777	3255.96
509.145	3306.58
509.514	3361.04
509.882	3295.73
510.25	3346.13
510.618	3392.91
510.986	3377.76
511.354	3424.99
511.722	3456.41
512.09	3481.04
512.458	3455.73
512.826	3487.59
513.193	3504.77
513.561	3547.25
513.929	3564.43
514.297	3600.13
514.664	3637.19
515.032	3653.01
515.4	3682.62
515.767	3683.97
516.135	3749.28
516.502	3702.73
516.869	3756.51
517.237	3816.4
517.604	3790.86
517.972	3806
518.339	3904.3
518.706	3868.15
519.073	3913.34
519.44	3878.99
519.808	3996.96
520.175	3998.76
520.542	4012.55
520.909	4063.17
521.276	4039.89
521.643	4174.58
522.009	4137.74
522.376	4180.23
522.743	4270.17
523.11	4249.83
523.477	4298.87
523.843	4318.76
524.21	4348.81
524.577	4415.93
524.943	4436.27
525.31	4453.89
525.676	4494.35
526.043	4504.06
526.409	4533.44
526.776	4610.5
527.142	4594.91
527.508	4680.55
527.874	4680.1
528.241	4733.89
528.607	4751.74
528.973	4819.08
529.339	4774.56
529.705	4841.23
530.071	4877.61
530.437	4902.24
530.803	4919.87
531.169	4986.54
531.535	4970.04
531.901	5020.21
532.267	5036.25
532.632	5046.65
532.998	5101.79
533.364	5149.92
533.73	5165.29
534.095	5272.63
534.461	5285.28
534.826	5320.54
535.192	5269.47
535.557	5358.73
535.923	5314.21
536.288	5366.41
536.653	5392.63
537.019	5412.51
537.384	5427.65
537.749	5495.45
538.114	5506.52
538.479	5544.94
538.845	5559.18
539.21	5542
539.575	5650.92
539.94	5602.11
540.305	5671.72
540.67	5693.64
541.034	5760.07
541.399	5831.94
541.764	5841.88
542.129	5864.7
542.494	5889.79
542.858	5910.58
543.223	5922.56
543.587	6007.3
543.952	6010.69
544.316	5984.25
544.681	6024.7
545.045	6071.03
545.41	6080.52
545.774	6125.26
546.138	6143.12
546.503	6191.7
546.867	6216.33
547.231	6350.34
547.595	6312.83
547.959	6341.98
548.324	6349.21
548.688	6399.15
549.052	6392.83
549.416	6461.07
549.779	6480.73
550.143	6530.68
550.507	6640.73
550.871	6634.4
551.235	6652.93
551.599	6733.38
551.962	6783.78
552.326	6826.26
552.689	6869.2
553.053	6915.75
553.417	6952.13
553.78	7098.8
554.143	7024.67
554.507	7094.95
554.87	7157.1
555.234	7222.18
555.597	7279.81
555.96	7267.15
556.323	7360.03
556.686	7468.73
557.05	7530.42
557.413	7501.5
557.776	7582.4
558.139	7650.42
558.502	7646.13
558.865	7792.34
559.228	7856.29
559.59	7939.23
559.953	8032.56
560.316	8114.36
560.679	8118.88
561.041	8167.92
561.404	8198.43
561.767	8437.29
562.129	8352.77
562.492	8523.17
562.854	8532.66
563.217	8599.55
563.579	8622.6
563.941	8787.34
564.304	8825.98
564.666	8930.84
565.028	8938.3
565.39	9010.84
565.753	9138.52
566.115	9238.4
566.477	9255.8
566.839	9406.08
567.201	9452.18
567.563	9460.77
567.925	9587.32
568.287	9650.82
568.648	9703.47
569.01	9819.18
569.372	9896.24
569.734	9888.78
570.095	9996.12
570.457	10152.73
570.819	10143.46
571.18	10288.09
571.542	10329.67
571.903	10416.22
572.265	10440.86
572.626	10542.55
572.987	10625.71
573.349	10684.46
573.71	10807.17
574.071	10834.52
574.432	10908.19
574.794	11051.01
575.155	11174.85
575.516	11051.69
575.877	11252.13
576.238	11282.64
576.599	11319.48
576.96	11427.95
577.32	11451
577.681	11634.04
578.042	11646.47
578.403	11632.46
578.763	11795.17
579.124	11751.56
579.485	11953.36
579.845	12083.52
580.206	12048.04
580.566	12071.1
580.927	12161.26
581.287	12306.12
581.648	12253.46
582.008	12366.23
582.368	12373.91
582.728	12495.72
583.089	12460.24
583.449	12535.49
583.809	12621.14
584.169	12672.89
584.529	12680.57
584.889	12832.2
585.249	12760.57
585.609	12795.6
585.969	12958.98
586.329	12968.92
586.688	12934.12
587.048	13017.28
587.408	13054.57
587.768	13057.74
588.127	13125.98
588.487	13119.88
588.846	13353.77
589.206	13222.25
589.565	13345.41
589.925	13405.07
590.284	13355.58
590.643	13442.81
591.003	13526.42
591.362	13567.33
591.721	13601.22
592.08	13614.33
592.44	13702.69
592.799	13632.18
593.158	13722.58
593.517	13754.89
593.876	13804.61
594.235	13798.96
594.593	13866.08
594.952	13873.08
595.311	13845.29
595.67	14002.57
596.029	14086.64
596.387	14083.02
596.746	14159.18
597.104	14047.09
597.463	14070.59
597.822	14261.09
598.18	14182.68
598.538	14224.94
598.897	14410.69
599.255	14239.4
599.613	14463.12
599.972	14381.32
600.33	14453.63
600.688	14356.46
601.046	14501.09
601.404	14596.45
601.762	14589.67
602.12	14658.6
602.478	14726.84
602.836	14713.96
603.194	14688.2
603.552	14769.78
603.91	14648.43
604.268	14815.88
604.625	14794.41
604.983	14892.49
605.341	14819.27
605.698	14984.69
606.056	14873.73
606.413	14977.46
606.771	14985.37
607.128	15053.84
607.485	14971.81
607.843	15029.66
608.2	15066.72
608.557	15109.21
608.914	15112.37
609.272	15230.79
609.629	15301.74
609.986	15297
610.343	15207.51
610.7	15435.07
611.057	15346.72
611.414	15343.78
611.771	15407.96
612.127	15543.77
612.484	15530.67
612.841	15542.64
613.198	15448.86
613.554	15556.65
613.911	15651.34
614.267	15646.59
614.624	15587.16
614.98	15569.08
615.337	15694.28
615.693	15677.78
616.05	15641.4
616.406	15869.87
616.762	15705.35
617.118	15808.4
617.475	15816.08
617.831	15851.11
618.187	15955.06
618.543	15873.48
618.899	15901.05
619.255	15853.82
619.611	15935.4
619.967	16059.69
620.323	16125.45
620.678	16056.53
621.034	15951.22
621.39	16095.17
621.746	16042.74
622.101	16157.54
622.457	16062.63
622.812	16064.21
623.168	16146.24
623.523	16137.65
623.879	16287.03
624.234	16136.75
624.589	16207.03
624.945	16134.04
625.3	16259.46
625.655	16183.3
626.01	16212.23
626.365	16258.1
626.72	16137.2
627.075	16162.74
627.43	16193.02
627.785	16155.51
628.14	16268.5
628.495	16265.34
628.85	16181.72
629.205	16101.72
629.559	16344.2
629.914	16078
630.269	16202.06
630.623	16087.03
630.978	16092.23
631.332	16175.39
631.687	16204.32
632.041	16182.63
632.396	16141.72
632.75	16106.92
633.104	16129.52
633.459	16068.5
633.813	15996.42
634.167	16055.17
634.521	16062.4
634.875	16117.77
635.229	15994.61
635.583	16003.42
635.937	16038.45
636.291	15989.64
636.645	16048.84
636.999	15949.86
637.352	16068.96
637.706	15937.43
638.06	15921.39
638.413	15978.34
638.767	15861.05
639.121	15943.99
639.474	15880.49
639.828	15943.99
640.181	15918.9
640.534	15879.13
640.888	15895.85
641.241	15808.85
641.594	15852.01
641.947	15865.12
642.301	15844.78
642.654	15983.99
643.007	15876.19
643.36	15841.17
643.713	15821.73
644.066	15879.36
644.419	15819.02
644.771	15741.51
645.124	15466.49
645.477	15490.89
645.83	15449.09
646.182	15447.5
646.535	15279.15
646.888	15349.2
647.24	15215.65
647.593	15372.93
647.945	15374.29
648.298	15288.64
648.65	15213.39
649.002	15249.99
649.355	15371.35
649.707	15271.01
650.059	15396.43
650.411	15500.16
650.763	15661.74
651.115	15772.69
651.467	15594.62
651.819	15686.82
652.171	15637.1
652.523	15647.27
652.875	15664.45
653.227	15661.51
653.578	15675.52
653.93	15679.14
654.282	15555.07
654.633	15458.58
654.985	15646.14
655.337	15612.47
655.688	15631.91
656.039	15614.28
656.391	15525.47
656.742	15394.85
657.094	15489.76
657.445	15562.3
657.796	15595.52
658.147	15582.87
658.498	15541.06
658.849	15553.72
659.2	15516.88
659.551	15531.12
659.902	15610.89
660.253	15525.69
660.604	15577.22
660.955	15513.26
661.306	15563.21
661.656	15508.52
662.007	15535.18
662.358	15577.44
662.708	15630.32
663.059	15525.92
663.409	15437.56
663.76	15620.15
664.11	15550.55
664.461	15566.37
664.811	15486.37
665.161	15536.09
665.511	15465.81
665.862	15582.87
666.212	15641.17
666.562	15663.99
666.912	15638.46
667.262	15559.36
667.612	15601.62
667.962	15635.52
668.312	15541.74
668.662	15577.9
669.011	15571.12
669.361	15544
669.711	15621.51
670.06	15609.31
670.41	15626.93
670.76	15571.34
671.109	15648.63
671.459	15652.24
671.808	15583.55
672.157	15690.43
672.507	15626.26
672.856	15625.8
673.205	15668.51
673.554	15726.82
673.904	15662.64
674.253	15660.38
674.602	15718.46
674.951	15469.42
675.3	15404.34
675.649	15607.5
675.998	15644.33
676.346	15677.1
676.695	15723.2
677.044	15663.32
677.393	15718.68
677.741	15741.73
678.09	15604.79
678.438	15633.94
678.787	15632.13
679.135	15645.69
679.484	15578.8
679.832	15650.44
680.181	15486.82
680.529	15659.02
680.877	15550.1
681.225	15544.68
681.573	15723.65
681.922	15582.42
682.27	15542.42
682.618	15574.05
682.966	15530.67
683.314	15617.44
683.661	15640.72
684.009	15524.34
684.357	15535.86
684.705	15449.99
685.053	15567.95
685.4	15431.91
685.748	15445.7
686.095	15377.9
686.443	15415.41
686.79	15399.6
687.138	15376.32
687.485	15456.99
687.832	15395.53
688.18	15388.75
688.527	15352.82
688.874	15314.85
689.221	15310.78
689.568	15249.09
689.915	15207.74
690.262	15239.37
690.609	15179.04
690.956	15160.73
691.303	15158.7
691.65	15091.58
691.997	15150.11
692.344	15039.15
692.69	14963.9
693.037	15059.04
693.383	14942.21
693.73	15014.52
694.077	14911.92
694.423	14919.83
694.769	14910.12
695.116	14837.12
695.462	14822.66
695.808	14801.19
696.155	14821.98
696.501	14727.97
696.847	14763.23
697.193	14602.33
697.539	14727.75
697.885	14579.96
698.231	14597.13
698.577	14547.41
698.923	14584.7
699.269	14569.33
699.614	14500.18
699.96	14517.36
700.306	14465.83
700.651	14388.1
700.997	14400.3
701.342	14451.15
701.688	14450.47
702.033	14360.98
702.379	14308.32
702.724	14252.05
703.069	14358.04
703.415	14180.42
703.76	14220.42
704.105	14267.42
704.45	14235.11
704.795	14142
705.14	14137.26
705.485	14102
705.83	14054.09
706.175	14110.82
706.52	13974.1
706.865	13991.27
707.209	13973.64
707.554	14010.03
707.899	13985.62
708.243	13971.16
708.588	13947.2
708.932	13918.05
709.277	13830.6
709.621	13900.2
709.966	13799.86
710.31	13839.64
710.654	13736.36
710.998	13734.33
711.342	13839.18
711.687	13768
712.031	13713.09
712.375	13730.03
712.719	13738.4
713.063	13689.81
713.407	13712.86
713.75	13651.39
714.094	13716.25
714.438	13652.97
714.782	13613.88
715.125	13540.21
715.469	13649.58
715.812	13557.38
716.156	13481.68
716.499	13559.19
716.843	13470.38
717.186	13460.89
717.53	13476.03
717.873	13544.05
718.216	13488.23
718.559	13544.05
718.902	13412.98
719.246	13365.07
719.589	13331.63
719.932	13303.83
720.275	13395.13
720.617	13331.4
720.96	13382.7
721.303	13378.86
721.646	13380.21
721.989	13181.8
722.331	13353.32
722.674	13255.47
723.016	13320.1
723.359	13292.76
723.701	13287.56
724.044	13136.83
724.386	13146.1
724.729	13276.49
725.071	13191.07
725.413	13152.2
725.755	13201.23
726.097	13196.26
726.439	13116.04
726.782	13142.93
727.124	13183.38
727.465	13113.55
727.807	13038.53
728.149	13095.93
728.491	13058.41
728.833	13130.05
729.175	13010.28
729.516	12954.91
729.858	12922.82
730.199	13009.38
730.541	12887.8
730.882	12992.2
731.224	13015.25
731.565	12913.33
731.906	12926.44
732.248	12933.22
732.589	12929.38
732.93	12850.96
733.271	12905.65
733.612	12887.12
733.953	12867.01
734.294	12821.36
734.635	12781.36
734.976	12946.78
735.317	12804.64
735.658	12787.69
735.999	12826.33
736.339	12742.94
736.68	12786.78
737.021	12793.34
737.361	12792.66
737.702	12831.75
738.042	12648.48
738.383	12748.82
738.723	12698.42
739.063	12676.95
739.404	12687.8
739.744	12681.02
740.084	12631.31
740.424	12629.72
740.764	12657.29
741.104	12657.52
741.444	12573
741.784	12533.68
742.124	12553.34
742.464	12581.59
742.804	12556.51
743.143	12417.3
743.483	12465.89
743.823	12449.62
744.162	12378.43
744.502	12464.31
744.841	12402.39
745.181	12419.33
745.52	12345.66
745.86	12331.88
746.199	12436.74
746.538	12372.1
746.877	12364.42
747.216	12314.03
747.556	12256.85
747.895	12302.28
748.234	12248.04
748.573	12189.06
748.911	12166.69
749.25	12236.74
749.589	12071.77
749.928	12188.61
750.267	12206.46
750.605	12096.86
750.944	12070.64
751.283	12030.19
751.621	12114.48
751.96	11983.19
752.298	11994.49
752.636	11939.8
752.975	11940.7
753.313	11977.09
753.651	11920.82
753.989	11854.83
754.327	11862.74
754.666	11818.22
755.004	11738.9
755.342	11794.27
755.679	11796.3
756.017	11583.88
756.355	11740.26
756.693	11681.5
757.031	11624.78
757.368	11589.07
757.706	11552.69
758.044	11610.32
758.381	11531.45
758.719	11563.99
759.056	11436.99
759.394	11437.67
759.731	11383.66
760.068	11381.62
760.405	11299.14
760.743	11270.89
761.08	11285.58
