Data from brown_tile_FLMS001491_082.txt Node
Date: Tue Feb 07 10:38:06 GMT 2017
User: dcchb
Spectrometer: FLMS00149
Trigger mode: 0
Integration Time (sec): 2.000000E-2
Scans to average: 10
Electric dark correction enabled: true
Nonlinearity correction enabled: false
Boxcar width: 0
XAxis mode: Wavelengths
Number of Pixels in Spectrum: 2048
>>>>>Begin Spectral Data<<<<<
341.393	-8.87
341.776	-8.87
342.16	-8.87
342.543	-72.37
342.927	-63.33
343.31	-75.53
343.693	-54.74
344.077	-60.39
344.46	-50.9
344.843	-45.71
345.226	-40.96
345.61	-28.53
345.993	-26.95
346.376	-15.42
346.759	11.02
347.142	11.47
347.525	44.46
347.908	45.82
348.291	79.26
348.674	89.43
349.057	117.68
349.44	111.13
349.823	134.63
350.206	161.97
350.588	169.2
350.971	194.97
351.354	208.53
351.737	215.08
352.119	247.62
352.502	234.74
352.884	248.75
353.267	266.15
353.65	277.45
354.032	292.59
354.414	305.7
354.797	298.01
355.179	302.08
355.562	328.52
355.944	303.44
356.326	324.45
356.709	332.59
357.091	312.93
357.473	328.07
357.855	316.55
358.238	314.51
358.62	325.81
359.002	331.91
359.384	311.57
359.766	305.02
360.148	313.38
360.53	321.97
360.912	305.47
361.294	324.23
361.676	307.73
362.057	302.08
362.439	302.76
362.821	305.25
363.203	295.3
363.584	311.8
363.966	312.93
364.348	300.5
364.729	296.66
365.111	312.7
365.493	315.87
365.874	308.18
366.256	315.64
366.637	302.99
367.019	281.97
367.4	286.94
367.781	293.04
368.163	288.75
368.544	293.27
368.925	287.39
369.306	305.47
369.688	299.6
370.069	293.5
370.45	314.74
370.831	296.21
371.212	294.85
371.593	305.92
371.974	290.56
372.355	295.98
372.736	306.6
373.117	301.18
373.498	291.69
373.879	292.37
374.26	293.5
374.641	305.25
375.021	291.69
375.402	289.2
375.783	310.67
376.163	307.73
376.544	295.53
376.925	319.48
377.305	315.19
377.686	306.83
378.066	309.09
378.447	317.45
378.827	301.18
379.208	295.75
379.588	329.43
379.968	322.87
380.349	321.52
380.729	307.96
381.109	314.29
381.489	305.7
381.87	309.31
382.25	320.61
382.63	329.43
383.01	338.92
383.39	293.5
383.77	306.6
384.15	310.44
384.53	329.2
384.91	315.42
385.29	300.27
385.67	326.49
386.049	338.47
386.429	338.47
386.809	347.5
387.189	320.61
387.568	340.05
387.948	330.1
388.328	328.52
388.707	312.7
389.087	332.82
389.466	329.88
389.846	352.02
390.225	340.73
390.605	336.21
390.984	361.29
391.363	345.02
391.743	322.65
392.122	342.31
392.501	334.4
392.881	367.39
393.26	350.89
393.639	340.5
394.018	350.67
394.397	356.09
394.776	373.94
395.155	360.84
395.534	372.14
395.913	357.22
396.292	335.53
396.671	342.31
397.05	360.39
397.429	353.83
397.808	357
398.186	354.28
398.565	370.78
398.944	363.32
399.323	364.45
399.701	389.31
400.08	380.05
400.458	364.68
400.837	359.93
401.215	379.14
401.594	375.53
401.972	374.4
402.351	370.1
402.729	353.61
403.107	366.04
403.486	392.93
403.864	391.57
404.242	380.5
404.62	395.41
404.999	389.09
405.377	381.4
405.755	399.71
406.133	395.64
406.511	399.71
406.889	391.12
407.267	394.96
407.645	407.84
408.023	399.03
408.401	408.97
408.779	395.19
409.156	419.82
409.534	422.53
409.912	401.29
410.29	414.4
410.667	410.78
411.045	413.27
411.422	423.66
411.8	420.5
412.178	418.46
412.555	418.46
412.933	408.29
413.31	433.6
413.687	421.63
414.065	416.88
414.442	415.98
414.819	464.79
415.197	410.33
415.574	403.77
415.951	450.55
416.328	448.97
416.705	443.32
417.082	444.68
417.46	441.51
417.837	453.26
418.214	451.23
418.591	454.17
418.967	455.07
419.344	447.16
419.721	461.63
420.098	462.08
420.475	477.9
420.852	467.05
421.228	463.21
421.605	450.78
421.982	474.51
422.358	480.83
422.735	463.21
423.111	471.12
423.488	488.29
423.864	466.37
424.241	481.96
424.617	487.84
424.994	508.18
425.37	488.52
425.746	486.03
426.123	497.56
426.499	483.77
426.875	490.33
427.251	497.11
427.627	518.35
428.003	537.56
428.379	510.89
428.756	539.59
429.132	505.24
429.507	552.47
429.883	548.18
430.259	558.35
430.635	540.49
431.011	519.93
431.387	556.54
431.763	571.91
432.138	550.44
432.514	570.78
432.89	572.58
433.265	564.67
433.641	577.78
434.016	578.91
434.392	564.22
434.767	578.69
435.143	587.27
435.518	598.8
435.894	590.89
436.269	617.1
436.644	618.91
437.02	607.39
437.395	596.76
437.77	594.73
438.145	609.64
438.52	602.19
438.895	599.02
439.271	612.13
439.646	637.21
440.021	651
440.395	641.96
440.77	630.66
441.145	633.37
441.52	643.77
441.895	668.63
442.27	657.55
442.645	630.89
443.019	658.46
443.394	674.05
443.769	681.28
444.143	662.52
444.518	671.56
444.892	674.05
445.267	673.15
445.641	662.98
446.016	681.73
446.39	669.3
446.764	652.58
447.139	683.54
447.513	714.28
447.887	686.25
448.262	695.52
448.636	713.6
449.01	703.88
449.384	719.47
449.758	718.12
450.132	721.28
450.506	702.98
450.88	735.97
451.254	753.6
451.628	730.55
452.002	747.27
452.376	753.37
452.75	754.5
453.123	750.21
453.497	754.95
453.871	761.05
454.244	785.46
454.618	778
454.992	776.87
455.365	800.37
455.739	783.43
456.112	786.14
456.486	813.71
456.859	816.42
457.232	818
457.606	817.1
457.979	835.18
458.352	829.98
458.725	853.93
459.099	851.22
459.472	874.72
459.845	869.07
460.218	891.67
460.591	880.6
460.964	886.25
461.337	911.78
461.71	905
462.083	914.95
462.456	925.12
462.829	917.43
463.201	931.44
463.574	944.1
463.947	961.27
464.32	972.35
464.692	964.21
465.065	973.48
465.438	982.29
465.81	1021.61
466.183	997.21
466.555	1022.97
466.928	1018.45
467.3	1003.08
467.672	1045.79
468.045	1048.28
468.417	1035.17
468.789	1083.76
469.161	1076.07
469.534	1088.5
469.906	1117.2
470.278	1124.66
470.65	1116.52
471.022	1136.41
471.394	1129.63
471.766	1184.09
472.138	1148.39
472.51	1184.77
472.882	1210.99
473.253	1199.91
473.625	1208.95
473.997	1247.37
474.369	1240.36
474.74	1274.94
475.112	1277.2
475.484	1288.05
475.855	1335.28
476.227	1316.52
476.598	1343.64
476.97	1361.72
477.341	1366.46
477.713	1391.55
478.084	1406.01
478.455	1436.06
478.827	1456.18
479.198	1491.66
479.569	1511.77
479.94	1538.66
480.311	1512.9
480.682	1561.94
481.053	1593.35
481.424	1611.65
481.795	1629.96
482.166	1614.59
482.537	1656.62
482.908	1669.5
483.279	1698.43
483.65	1708.6
484.021	1754.25
484.391	1787.47
484.762	1805.55
485.133	1790.86
485.503	1806.22
485.874	1842.15
486.244	1834.47
486.615	1899.55
486.985	1914.92
487.356	1956.73
487.726	1961.7
488.097	1985.2
488.467	1990.4
488.837	2053.67
489.207	2039.66
489.578	2096.84
489.948	2089.15
490.318	2135.48
490.688	2145.2
491.058	2179.1
491.428	2199.89
491.798	2225.42
492.168	2244.63
492.538	2267
492.908	2256.38
493.278	2292.31
493.648	2319.66
494.017	2319.88
494.387	2369.37
494.757	2391.52
495.126	2402.59
495.496	2414.12
495.866	2447.56
496.235	2440.33
496.605	2468.35
496.974	2475.13
497.344	2507.22
497.713	2497.73
498.082	2533.89
498.452	2526.43
498.821	2569.37
499.19	2596.49
499.559	2612.08
499.928	2617.5
500.298	2650.72
500.667	2669.03
501.036	2660.44
501.405	2710.61
501.774	2697.5
502.143	2703.83
502.512	2777.05
502.88	2787.21
503.249	2767.78
503.618	2779.53
503.987	2827.89
504.356	2820.43
504.724	2850.49
505.093	2814.78
505.462	2888.46
505.83	2856.82
506.199	2916.03
506.567	2942.01
506.936	2950.6
507.304	2945.63
507.672	3043.71
508.041	3021.56
508.409	3045.74
508.777	3025.4
509.145	3076.92
509.514	3133.65
509.882	3086.42
510.25	3117.6
510.618	3171.39
510.986	3175.23
511.354	3224.94
511.722	3187.43
512.09	3243.7
512.458	3214.55
512.826	3274.89
513.193	3301.1
513.561	3311.72
513.929	3358.5
514.297	3376.58
514.664	3345.62
515.032	3415.22
515.4	3438.27
515.767	3444.37
516.135	3484.6
516.502	3434.2
516.869	3550.81
517.237	3544.48
517.604	3554.88
517.972	3556.01
518.339	3604.82
518.706	3629.45
519.073	3657.47
519.44	3648.89
519.808	3760.97
520.175	3746.51
520.542	3768.88
520.909	3809.33
521.276	3805.04
521.643	3835.32
522.009	3853.85
522.376	3934.76
522.743	3938.37
523.11	3990.57
523.477	4000.97
523.843	4041.19
524.21	4052.49
524.577	4124.58
524.943	4141.08
525.31	4167.74
525.676	4212.26
526.043	4198.03
526.409	4275.76
526.776	4335.65
527.142	4303.79
527.508	4301.07
527.874	4378.13
528.241	4405.25
528.607	4416.32
528.973	4484.35
529.339	4468.3
529.705	4525.02
530.071	4542.87
530.437	4597.34
530.803	4640.27
531.169	4612.03
531.535	4635.98
531.901	4700.61
532.267	4705.81
532.632	4729.08
532.998	4736.09
533.364	4790.78
533.73	4807.95
534.095	4887.05
534.461	4935.86
534.826	4923.2
535.192	4944.45
535.557	5014.5
535.923	4955.29
536.288	5030.55
536.653	5042.07
537.019	5028.51
537.384	5102.41
537.749	5099.7
538.114	5143.09
538.479	5177.43
538.845	5202.52
539.21	5226.02
539.575	5252.46
539.94	5339.69
540.305	5301.73
540.67	5360.71
541.034	5356.86
541.399	5357.09
541.764	5431.44
542.129	5480.03
542.494	5466.01
542.858	5535.62
543.223	5495.39
543.587	5619.23
543.952	5612
544.316	5670.08
544.681	5634.15
545.045	5655.84
545.41	5744.88
545.774	5729.74
546.138	5738.32
546.503	5810.86
546.867	5830.98
547.231	5858.09
547.595	5884.08
547.959	5927.7
548.324	5980.58
548.688	6058.77
549.052	6054.93
549.416	6116.17
549.779	6131.08
550.143	6144.64
550.507	6288.59
550.871	6249.5
551.235	6261.02
551.599	6310.74
551.962	6400.68
552.326	6400.45
552.689	6421.47
553.053	6406.55
553.417	6526.1
553.78	6595.25
554.143	6646.32
554.507	6671.41
554.87	6682.71
555.234	6788.01
555.597	6816.94
555.96	6907.33
556.323	6896.49
556.686	7006.99
557.05	7040.89
557.413	7088.12
557.776	7170.38
558.139	7222.58
558.502	7286.76
558.865	7375.12
559.228	7406.53
559.59	7445.62
559.953	7509.12
560.316	7599.97
560.679	7653.08
561.041	7810.81
561.404	7809.91
561.767	7919.06
562.129	7843.58
562.492	8074.53
562.854	8074.08
563.217	8086.74
563.579	8165.15
563.941	8263.68
564.304	8323.34
564.666	8386.39
565.028	8484.47
565.39	8543.45
565.753	8629.1
566.115	8671.81
566.477	8743.89
566.839	8821.41
567.201	8879.26
567.563	8923.78
567.925	9107.27
568.287	9144.11
568.648	9224.56
569.01	9273.6
569.372	9339.13
569.734	9447.6
570.095	9508.17
570.457	9634.72
570.819	9702.29
571.18	9746.58
571.542	9796.52
571.903	9840.36
572.265	9988.16
572.626	10033.8
572.987	10067.25
573.349	10123.07
573.71	10267.24
574.071	10336.62
574.432	10459.1
574.794	10499.78
575.155	10622.94
575.516	10563.28
575.877	10680.57
576.238	10775.25
576.599	10895.25
576.96	10960.11
577.32	11025.42
577.681	11111.29
578.042	11229.93
578.403	11218.63
578.763	11146.09
579.124	11333.66
579.485	11384.05
579.845	11474.67
580.206	11513.09
580.566	11607.77
580.927	11598.28
581.287	11712.4
581.648	11640.54
582.008	11784.04
582.368	11950.14
582.728	11955.11
583.089	11937.03
583.449	12025.62
583.809	12072.85
584.169	12147.42
584.529	12277.36
584.889	12298.15
585.249	12173.86
585.609	12334.99
585.969	12366.62
586.329	12342.9
586.688	12433.51
587.048	12483.01
587.408	12500.41
587.768	12566.39
588.127	12619.27
588.487	12695.2
588.846	12715.32
589.206	12678.93
589.565	12763.68
589.925	12797.35
590.284	12796.9
590.643	12852.94
591.003	13014.97
591.362	13033.27
591.721	12969.32
592.08	13043.89
592.44	13098.81
592.799	13140.61
593.158	13146.94
593.517	13187.17
593.876	13289.31
594.235	13285.47
594.593	13275.53
594.952	13339.93
595.311	13325.92
595.67	13457.67
596.029	13506.26
596.387	13521.85
596.746	13529.31
597.104	13538.57
597.463	13571.34
597.822	13656.31
598.18	13511
598.538	13600.72
598.897	13746.25
599.255	13665.12
599.613	13867.38
599.972	13913.25
600.33	13908.73
600.688	13960.25
601.046	13900.59
601.404	14058.1
601.762	13985.11
602.12	14104.21
602.478	14145.79
602.836	14082.29
603.194	14030.08
603.552	14211.55
603.91	14102.17
604.268	14292.68
604.625	14210.42
604.983	14321.15
605.341	14200.93
605.698	14358.89
606.056	14277.53
606.413	14359.79
606.771	14456.06
607.128	14533.35
607.485	14488.6
607.843	14530.41
608.2	14634.59
608.557	14700.8
608.914	14602.05
609.272	14706.68
609.629	14675.26
609.986	14764.98
610.343	14705.09
610.7	14863.28
611.057	14871.42
611.414	14874.81
611.771	14976.27
612.127	14978.53
612.484	14960.68
612.841	15022.6
613.198	14991.19
613.554	15058.76
613.911	15160.45
614.267	15103.95
614.624	15208.13
614.98	15162.93
615.337	15195.48
615.693	15201.13
616.05	15178.75
616.406	15290.16
616.762	15198.41
617.118	15248.13
617.475	15295.13
617.831	15374.68
618.187	15298.3
618.543	15357.28
618.899	15552.75
619.255	15461.46
619.611	15458.52
619.967	15527.67
620.323	15656.48
620.678	15577.61
621.034	15505.07
621.39	15477.95
621.746	15450.84
622.101	15706.88
622.457	15537.84
622.812	15574
623.168	15630.94
623.523	15644.05
623.879	15637.5
624.234	15602.02
624.589	15635.24
624.945	15697.84
625.3	15686.31
625.655	15648.35
626.01	15609.48
626.365	15612.41
626.72	15605.41
627.075	15706.2
627.43	15609.48
627.785	15659.87
628.14	15666.65
628.495	15660.32
628.85	15599.53
629.205	15576.48
629.559	15741.68
629.914	15653.54
630.269	15645.41
630.623	15620.55
630.978	15648.35
631.332	15624.84
631.687	15653.54
632.041	15736.03
632.396	15576.71
632.75	15616.93
633.104	15592.53
633.459	15616.26
633.813	15591.17
634.167	15546.88
634.521	15540.33
634.875	15587.33
635.229	15531.51
635.583	15455.58
635.937	15493.55
636.291	15497.62
636.645	15535.58
636.999	15493.55
637.352	15507.33
637.706	15489.48
638.06	15507.56
638.413	15512.76
638.767	15399.54
639.121	15498.52
639.474	15407.45
639.828	15375.36
640.181	15395.47
640.534	15421.91
640.888	15363.38
641.241	15313.21
641.594	15365.42
641.947	15404.74
642.301	15305.76
642.654	15341.69
643.007	15286.32
643.36	15293.78
643.713	15265.76
644.066	15355.02
644.419	15214.46
644.771	15151.64
645.124	15014.01
645.477	15004.29
645.83	14948.25
646.182	14873.68
646.535	14864.19
646.888	14851.98
647.24	14773.34
647.593	14924.97
647.945	14851.53
648.298	14756.62
648.65	14766.33
649.002	14704.19
649.355	14829.38
649.707	14719.33
650.059	14824.19
650.411	14990.96
650.763	15058.98
651.115	15166.78
651.467	15094.24
651.819	15119.09
652.171	15056.04
652.523	15093.56
652.875	15135.14
653.227	14995.26
653.578	15095.59
653.93	15124.29
654.282	15083.84
654.633	15082.03
654.985	15013.33
655.337	15132.43
655.688	15114.12
656.039	15125.87
656.391	15082.48
656.742	15115.93
657.094	15080.68
657.445	15106.89
657.796	15095.82
658.147	14963.39
658.498	15010.4
658.849	15049.49
659.2	15092.2
659.551	15032.32
659.902	15077.06
660.253	15101.69
660.604	15023.96
660.955	15024.41
661.306	15108.47
661.656	15076.61
662.007	15011.53
662.358	15124.52
662.708	15009.94
663.059	15107.57
663.409	15072.09
663.76	15099.66
664.11	15137.4
664.461	15056.72
664.811	15013.33
665.161	15068.47
665.511	15035.25
665.862	15084.52
666.212	15125.2
666.562	15097.63
666.912	15134.91
667.262	15265.3
667.612	15160.22
667.962	15135.82
668.312	15139.21
668.662	15149.15
669.011	15160.67
669.361	15137.4
669.711	15120.22
670.06	15136.95
670.41	15063.28
670.76	15131.52
671.109	15294.91
671.459	15120.22
671.808	15113.22
672.157	15155.25
672.507	15088.81
672.856	15089.94
673.205	15067.34
673.554	15153.67
673.904	15189.83
674.253	15242.48
674.602	15181.69
674.951	14976.72
675.3	14838.2
675.649	15196.83
675.998	15213.55
676.346	15193.44
676.695	15154.35
677.044	15099.66
677.393	15171.52
677.741	15152.77
678.09	15086.1
678.438	15073.9
678.787	15143.73
679.135	15115.48
679.484	15056.95
679.832	15137.17
680.181	15073.67
680.529	15156.83
680.877	15057.85
681.225	15184.4
681.573	15200
681.922	15122.48
682.27	15091.07
682.618	15105.31
682.966	15073.67
683.314	15103.95
683.661	15039.55
684.009	14949.61
684.357	14974.01
684.705	14909.38
685.053	15050.62
685.4	14947.12
685.748	14967.23
686.095	14970.85
686.443	14871.42
686.79	14930.17
687.138	14893.79
687.485	14850.85
687.832	14883.85
688.18	14944.18
688.527	14846.78
688.874	14813.11
689.221	14797.07
689.568	14788.71
689.915	14688.6
690.262	14766.33
690.609	14733.12
690.956	14650.18
691.303	14653.34
691.65	14614.93
691.997	14596.85
692.344	14550.52
692.69	14498.77
693.037	14672.78
693.383	14462.84
693.73	14531.76
694.077	14366.35
694.423	14554.14
694.769	14448.6
695.116	14409.73
695.462	14467.59
695.808	14440.47
696.155	14414.03
696.501	14321.6
696.847	14265.11
697.193	14251.55
697.539	14291.77
697.885	14197.08
698.231	14231.43
698.577	14151.89
698.923	14217.42
699.269	14132.23
699.614	14106.69
699.96	14015.62
700.306	14115.73
700.651	14067.82
700.997	13882.06
701.342	14041.16
701.688	13961.61
702.033	13962.97
702.379	13924.55
702.724	13954.83
703.069	13934.27
703.415	13802.52
703.76	13907.6
704.105	13905.11
704.45	13815.63
704.795	13692.01
705.14	13748.73
705.485	13717.77
705.83	13660.38
706.175	13612.01
706.52	13643.43
706.865	13591.68
707.209	13622.64
707.554	13629.64
707.899	13629.64
708.243	13583.32
708.588	13542.86
708.932	13482.98
709.277	13511.45
709.621	13453.6
709.966	13435.07
710.31	13504.67
710.654	13349.87
710.998	13408.4
711.342	13363.43
711.687	13346.26
712.031	13294.96
712.375	13284.11
712.719	13267.84
713.063	13273.94
713.407	13357.33
713.75	13253.15
714.094	13349.87
714.438	13247.05
714.782	13285.7
715.125	13162.76
715.469	13191.01
715.812	13209.09
716.156	13099.26
716.499	13109.88
716.843	13145.36
717.186	13097.68
717.53	13176.09
717.873	13138.58
718.216	13123.89
718.559	13033.73
718.902	12940.85
719.246	13084.35
719.589	12980.85
719.932	12935.87
720.275	12982.88
720.617	12912.82
720.96	12904.46
721.303	12988.75
721.646	12908.98
721.989	12858.36
722.331	12936.1
722.674	12938.36
723.016	12842.09
723.359	12917.34
723.701	12840.06
724.044	12803
724.386	12726.39
724.729	12847.29
725.071	12824.69
725.413	12821.75
725.755	12737.24
726.097	12749.44
726.439	12685.94
726.782	12774.07
727.124	12734.98
727.465	12670.34
727.807	12632.61
728.149	12729.33
728.491	12660.18
728.833	12751.7
729.175	12564.36
729.516	12648.65
729.858	12617.24
730.199	12655.43
730.541	12646.84
730.882	12633.06
731.224	12650.68
731.565	12553.06
731.906	12542.66
732.248	12576.79
732.589	12599.84
732.93	12457.47
733.271	12506.96
733.612	12515.09
733.953	12495.66
734.294	12479.84
734.635	12425.83
734.976	12459.95
735.317	12420.41
735.658	12494.76
735.999	12424.7
736.339	12382.22
736.68	12499.95
737.021	12453.18
737.361	12332.05
737.702	12471.71
738.042	12278.94
738.383	12276.68
738.723	12351.48
739.063	12311.71
739.404	12274.42
739.744	12262.45
740.084	12320.3
740.424	12276
740.764	12262.45
741.104	12277.81
741.444	12276
741.784	12202.11
742.124	12252.05
742.464	12173.18
742.804	12146.29
743.143	12186.97
743.483	12091.38
743.823	12145.39
744.162	12076.69
744.502	12040.3
744.841	12058.84
745.181	12093.86
745.52	11995.33
745.86	11995.79
746.199	12003.24
746.538	11980.42
746.877	11990.14
747.216	11991.94
747.556	11964.83
747.895	11997.14
748.234	11981.1
748.573	11894.32
748.911	11866.3
749.25	11854.32
749.589	11836.02
749.928	11848.45
750.267	11839.41
750.605	11702.69
750.944	11745.62
751.283	11678.28
751.621	11722.12
751.96	11610.03
752.298	11669.92
752.636	11669.24
752.975	11556.02
753.313	11537.04
753.651	11545.63
753.989	11570.71
754.327	11501.79
754.666	11448.23
755.004	11464.27
755.342	11471.51
755.679	11482.13
756.017	11383.6
756.355	11382.02
756.693	11255.01
757.031	11316.71
757.368	11275.35
757.706	11291.85
758.044	11193.32
758.381	11283.04
758.719	11147
759.056	11180.67
759.394	11144.96
759.731	11062.48
760.068	11015.7
760.405	11052.53
760.743	11012.99
761.08	10957.62
