Data from brown_tile_FLMS001491_030.txt Node
Date: Tue Feb 07 10:37:18 GMT 2017
User: dcchb
Spectrometer: FLMS00149
Trigger mode: 0
Integration Time (sec): 2.000000E-2
Scans to average: 10
Electric dark correction enabled: true
Nonlinearity correction enabled: false
Boxcar width: 0
XAxis mode: Wavelengths
Number of Pixels in Spectrum: 2048
>>>>>Begin Spectral Data<<<<<
341.393	-12.81
341.776	-12.81
342.16	-12.81
342.543	-55.52
342.927	-83.32
343.31	-74.28
343.693	-58.91
344.077	-49.65
344.46	-38.57
344.843	-56.43
345.226	-42.41
345.61	-26.14
345.993	-26.82
346.376	-32.7
346.759	16.79
347.142	24.02
347.525	28.32
347.908	69.22
348.291	69.22
348.674	90.24
349.057	108.09
349.44	132.95
349.823	145.15
350.206	141.76
350.588	184.7
350.971	191.25
351.354	202.78
351.737	216.79
352.119	236.45
352.502	261.31
352.884	250.23
353.267	270.35
353.65	291.81
354.032	273.06
354.414	293.85
354.797	287.97
355.179	318.93
355.562	316.9
355.944	344.24
356.326	328.88
356.709	317.12
357.091	320.74
357.473	314.86
357.855	307.63
358.238	337.69
358.62	332.27
359.002	345.82
359.384	313.06
359.766	327.07
360.148	308.09
360.53	332.04
360.912	317.8
361.294	311.25
361.676	302.21
362.057	319.61
362.439	332.72
362.821	294.98
363.203	315.09
363.584	325.03
363.966	320.74
364.348	316.45
364.729	282.32
365.111	301.98
365.493	318.03
365.874	329.78
366.256	299.95
366.637	287.07
367.019	304.7
367.4	294.3
367.781	294.75
368.163	316.9
368.544	297.92
368.925	315.77
369.306	324.13
369.688	313.06
370.069	298.14
370.45	297.69
370.831	314.19
371.212	321.64
371.593	314.86
371.974	306.73
372.355	307.63
372.736	308.09
373.117	302.89
373.498	322.32
373.879	311.47
374.26	298.14
374.641	290.23
375.021	298.37
375.402	292.49
375.783	308.76
376.163	309.44
376.544	333.4
376.925	308.54
377.305	343.56
377.686	318.48
378.066	344.92
378.447	327.97
378.827	318.71
379.208	298.37
379.588	347.86
379.968	306.28
380.349	323.68
380.729	317.12
381.109	329.78
381.489	319.16
381.87	321.42
382.25	334.98
382.63	310.12
383.01	339.72
383.39	318.93
383.77	355.77
384.15	332.49
384.53	319.61
384.91	323.68
385.29	330.01
385.67	341.76
386.049	317.58
386.429	354.41
386.809	342.66
387.189	351.7
387.568	330.23
387.948	365.48
388.328	342.21
388.707	340.17
389.087	359.16
389.466	350.12
389.846	342.43
390.225	352.6
390.605	347.18
390.984	328.88
391.363	348.99
391.743	363.45
392.122	365.94
392.501	354.19
392.881	382.89
393.26	357.8
393.639	354.41
394.018	352.38
394.397	346.28
394.776	352.83
395.155	352.38
395.534	351.7
395.913	357.58
396.292	366.16
396.671	347.41
397.05	363.68
397.429	377.24
397.808	376.11
398.186	383.11
398.565	372.04
398.944	364.35
399.323	377.24
399.701	384.92
400.08	383.56
400.458	360.06
400.837	386.95
401.215	416.1
401.594	384.02
401.972	392.38
402.351	377.46
402.729	376.11
403.107	374.75
403.486	391.7
403.864	386.73
404.242	386.5
404.62	424.01
404.999	392.83
405.377	393.28
405.755	377.46
406.133	397.35
406.511	412.04
406.889	418.59
407.267	398.03
407.645	390.34
408.023	408.65
408.401	396.9
408.779	395.31
409.156	409.1
409.534	412.94
409.912	440.96
410.29	427.4
410.667	416.78
411.045	410
411.422	423.34
411.8	435.31
412.178	417.69
412.555	420.17
412.933	430.34
413.31	450.68
413.687	428.76
414.065	445.48
414.442	436.44
414.819	447.52
415.197	462.21
415.574	452.04
415.951	465.37
416.328	466.73
416.705	449.78
417.082	461.3
417.46	456.78
417.837	467.4
418.214	465.37
418.591	460.62
418.967	490.45
419.344	461.53
419.721	464.01
420.098	473.96
420.475	482.09
420.852	495.2
421.228	464.01
421.605	491.13
421.982	478.48
422.358	483.67
422.735	500.85
423.111	488.19
423.488	473.96
423.864	492.26
424.241	503.56
424.617	503.33
424.994	531.36
425.37	507.4
425.746	516.89
426.123	499.72
426.499	521.86
426.875	528.87
427.251	509.21
427.627	547.4
428.003	518.93
428.379	536.1
428.756	539.27
429.132	542.66
429.507	542.66
429.883	559.83
430.259	570.68
430.635	546.04
431.011	540.62
431.387	567.29
431.763	569.1
432.138	566.61
432.514	569.32
432.89	579.26
433.265	581.75
433.641	608.42
434.016	604.57
434.392	603.67
434.767	618.59
435.143	596.21
435.518	611.81
435.894	624.23
436.269	619.49
436.644	613.39
437.02	616.33
437.395	617.91
437.77	603.9
438.145	631.47
438.52	640.73
438.895	659.94
439.271	635.99
439.646	631.01
440.021	661.07
440.395	668.08
440.77	646.38
441.145	649.55
441.52	678.92
441.895	664.01
442.27	686.38
442.645	692.48
443.019	689.77
443.394	659.94
443.769	679.15
444.143	707.4
444.518	706.49
444.892	678.92
445.267	716.44
445.641	686.61
446.016	687.74
446.39	706.94
446.764	719.15
447.139	702.2
447.513	727.06
447.887	728.19
448.262	712.82
448.636	720.73
449.01	743.33
449.384	736.77
449.758	757.34
450.132	741.97
450.506	722.31
450.88	748.75
451.254	755.08
451.628	753.95
452.002	760.73
452.376	757.34
452.75	786.26
453.123	781.97
453.497	771.35
453.871	791.69
454.244	804.57
454.618	802.54
454.992	797.56
455.365	800.28
455.739	824.46
456.112	806.6
456.486	838.47
456.859	839.6
457.232	854.29
457.606	837.79
457.979	852.7
458.352	862.65
458.725	901.06
459.099	870.78
459.472	899.71
459.845	897.45
460.218	909.43
460.591	888.86
460.964	942.42
461.337	899.71
461.71	928.63
462.083	915.53
462.456	949.42
462.829	945.81
463.201	981.51
463.574	988.52
463.947	967.28
464.32	972.47
464.692	993.04
465.065	998.46
465.438	992.13
465.81	1032.81
466.183	1028.07
466.555	1029.65
466.928	1045.69
467.3	1060.61
467.672	1053.38
468.045	1063.32
468.417	1101.06
468.789	1074.62
469.161	1117.33
469.534	1156.2
469.906	1137.44
470.278	1183.32
470.65	1148.74
471.022	1151.9
471.394	1191.68
471.766	1193.71
472.138	1205.46
472.51	1220.6
472.882	1244.11
473.253	1220.15
473.625	1260.15
473.997	1285.69
474.369	1310.32
474.74	1315.06
475.112	1334.27
475.484	1329.53
475.855	1380.83
476.227	1353.48
476.598	1405.23
476.97	1412.69
477.341	1433.71
477.713	1462.41
478.084	1466.92
478.455	1492.69
478.827	1511.44
479.198	1559.58
479.569	1548.96
479.94	1579.69
480.311	1589.63
480.682	1603.42
481.053	1630.31
481.424	1681.83
481.795	1675.51
482.166	1685.68
482.537	1693.13
482.908	1733.81
483.279	1718.44
483.65	1805.67
484.021	1805.22
484.391	1807.03
484.762	1860.81
485.133	1836.41
485.503	1878.89
485.874	1907.37
486.244	1935.16
486.615	1959.34
486.985	1976.06
487.356	2022.39
487.726	2023.07
488.097	2040.92
488.467	2049.73
488.837	2098.09
489.207	2161.6
489.578	2143.97
489.948	2172.67
490.318	2203.85
490.688	2199.11
491.058	2278.65
491.428	2288.37
491.798	2324.3
492.168	2304.42
492.538	2318.88
492.908	2381.7
493.278	2384.41
493.648	2406.11
494.017	2404.75
494.387	2438.88
494.757	2437.29
495.126	2503.28
495.496	2468.93
495.866	2533.11
496.235	2524.3
496.605	2565.88
496.974	2545.77
497.344	2621.7
497.713	2620.57
498.082	2628.93
498.452	2668.93
498.821	2662.83
499.19	2679.32
499.559	2696.27
499.928	2745.54
500.298	2728.81
500.667	2740.79
501.036	2745.99
501.405	2801.13
501.774	2806.1
502.143	2824.18
502.512	2863.72
502.88	2848.13
503.249	2860.33
503.618	2855.59
503.987	2921.8
504.356	2889.94
504.724	2961.8
505.093	2956.15
505.462	2942.37
505.83	2963.83
506.199	3015.36
506.567	3023.27
506.936	3099.65
507.304	3102.81
507.672	3123.6
508.041	3120.67
508.409	3137.62
508.777	3142.13
509.145	3165.41
509.514	3174.9
509.882	3197.73
510.25	3210.61
510.618	3248.8
510.986	3244.05
511.354	3297.84
511.722	3316.37
512.09	3310.94
512.458	3337.84
512.826	3369.7
513.193	3400.43
513.561	3441.11
513.929	3415.57
514.297	3462.35
514.664	3508
515.032	3538.96
515.4	3556.59
515.767	3573.99
516.135	3586.87
516.502	3569.02
516.869	3639.52
517.237	3668
517.604	3634.78
517.972	3730.37
518.339	3724.49
518.706	3747.77
519.073	3755.45
519.44	3806.3
519.808	3840.87
520.175	3872.74
520.542	3906.41
520.909	3911.61
521.276	3942.79
521.643	3956.12
522.009	4000.87
522.376	4025.95
522.743	4068.44
523.11	4086.97
523.477	4187.53
523.843	4170.13
524.21	4233.86
524.577	4226.85
524.943	4269.56
525.31	4283.8
525.676	4347.07
526.043	4325.61
526.409	4370.8
526.776	4463.91
527.142	4494.87
527.508	4508.2
527.874	4517.24
528.241	4568.09
528.607	4605.15
528.973	4664.81
529.339	4654.19
529.705	4710.68
530.071	4709.1
530.437	4732.83
530.803	4783.22
531.169	4761.98
531.535	4802.2
531.901	4865.25
532.267	4851.69
532.632	4921.3
532.998	4953.39
533.364	4992.03
533.73	5017.57
534.095	4992.26
534.461	5102.76
534.826	5077.45
535.192	5105.47
535.557	5130.11
535.923	5168.07
536.288	5178.92
536.653	5236.09
537.019	5231.12
537.384	5258.69
537.749	5328.74
538.114	5356.54
538.479	5380.04
538.845	5370.32
539.21	5392.25
539.575	5426.37
539.94	5431.79
540.305	5515.41
540.67	5485.58
541.034	5531
541.399	5578.23
541.764	5671.56
542.129	5665.23
542.494	5674.27
542.858	5703.88
543.223	5730.54
543.587	5800.14
543.952	5799.24
544.316	5810.09
544.681	5809.18
545.045	5947.48
545.41	5949.74
545.774	5953.59
546.138	5930.76
546.503	5987.71
546.867	6072.91
547.231	6115.84
547.595	6142.73
547.959	6179.57
548.324	6230.87
548.688	6234.71
549.052	6260.24
549.416	6280.81
549.779	6311.77
550.143	6340.92
550.507	6395.83
550.871	6424.76
551.235	6438.77
551.599	6558.99
551.962	6577.3
552.326	6622.95
552.689	6683.06
553.053	6702.04
553.417	6749.5
553.78	6829.27
554.143	6815.94
554.507	6910.4
554.87	6984.52
555.234	7065.65
555.597	7052.31
555.96	7092.99
556.323	7173.22
556.686	7219.32
557.05	7260.9
557.413	7342.7
557.776	7339.09
558.139	7477.39
558.502	7563.26
558.865	7563.49
559.228	7694.78
559.59	7750.15
559.953	7777.95
560.316	7865.17
560.679	7888.22
561.041	8004.61
561.404	8031.27
561.767	8161.21
562.129	8136.58
562.492	8242.79
562.854	8333.41
563.217	8364.6
563.579	8414.54
563.941	8556.46
564.304	8636
564.666	8677.81
565.028	8775.89
565.39	8866.5
565.753	8892.72
566.115	9002.55
566.477	9031.92
566.839	9112.6
567.201	9186.04
567.563	9240.05
567.925	9377.45
568.287	9398.47
568.648	9533.38
569.01	9578.58
569.372	9677.1
569.734	9778.57
570.095	9867.61
570.457	9938.57
570.819	9973.37
571.18	10037.32
571.542	10198.9
571.903	10203.64
572.265	10350.08
572.626	10351.44
572.987	10394.37
573.349	10511.21
573.71	10573.35
574.071	10722.5
574.432	10709.17
574.794	10869.39
575.155	11040.01
575.516	10915.04
575.877	11006.11
576.238	11131.3
576.599	11262.83
576.96	11305.31
577.32	11289.72
577.681	11402.26
578.042	11451.97
578.403	11528.81
578.763	11592.76
579.124	11635.92
579.485	11781.68
579.845	11843.38
580.206	11788.91
580.566	11948.23
580.927	11918.63
581.287	12121.79
581.648	12123.82
582.008	12212.4
582.368	12170.37
582.728	12245.85
583.089	12249.69
583.449	12322.91
583.809	12371.72
584.169	12447.43
584.529	12515.9
584.889	12688.78
585.249	12587.31
585.609	12663.24
585.969	12733.75
586.329	12816.68
586.688	12787.53
587.048	12851.94
587.408	12802.45
587.768	12899.62
588.127	12959.28
588.487	12961.54
588.846	13085.38
589.206	12964.7
589.565	13098.94
589.925	13163.79
590.284	13158.14
590.643	13196.33
591.003	13320.4
591.362	13366.95
591.721	13348.42
592.08	13358.36
592.44	13540.28
592.799	13559.49
593.158	13478.59
593.517	13498.7
593.876	13579.37
594.235	13588.87
594.593	13688.52
594.952	13675.64
595.311	13695.98
595.67	13782.53
596.029	13839.25
596.387	13859.37
596.746	13946.14
597.104	13906.82
597.463	13974.62
597.822	14111.79
598.18	13975.97
598.538	14038.12
598.897	14121.28
599.255	14000.83
599.613	14233.82
599.972	14206.93
600.33	14258.23
600.688	14272.46
601.046	14298.68
601.404	14426.13
601.762	14363.31
602.12	14414.83
602.478	14427.49
602.836	14488.5
603.194	14501.16
603.552	14449.18
603.91	14481.72
604.268	14523.08
604.625	14596.97
604.983	14683.07
605.341	14653.92
605.698	14699.35
606.056	14726.69
606.413	14731.43
606.771	14876.74
607.128	14885.33
607.485	14779.12
607.843	14895.5
608.2	14942.5
608.557	14962.84
608.914	14955.38
609.272	14935.72
609.629	15078.77
609.986	15131.65
610.343	15049.84
610.7	15133.01
611.057	15118.54
611.414	15118.09
611.771	15171.88
612.127	15377.75
612.484	15295.71
612.841	15281.93
613.198	15267.01
613.554	15326.22
613.911	15342.04
614.267	15402.6
614.624	15475.82
614.98	15439.89
615.337	15530.96
615.693	15558.53
616.05	15509.27
616.406	15672.43
616.762	15594.69
617.118	15604.86
617.475	15540.9
617.831	15690.28
618.187	15653.9
618.543	15644.18
618.899	15727.34
619.255	15700.67
619.611	15781.12
619.967	15847.34
620.323	15918.07
620.678	15801.24
621.034	15815.47
621.39	15867.68
621.746	15796.94
622.101	15987.22
622.457	15835.36
622.812	15812.08
623.168	15934.79
623.523	15954.68
623.879	15933.66
624.234	15946.54
624.589	16061.8
624.945	15957.62
625.3	15989.48
625.655	16065.18
626.01	16022.7
626.365	16015.02
626.72	16048.69
627.075	15945.41
627.43	16055.92
627.785	15977.5
628.14	16030.61
628.495	16023.6
628.85	16057.05
629.205	16044.85
629.559	16052.08
629.914	16046.88
630.269	16057.95
630.623	16020.89
630.978	15988.12
631.332	16011.18
631.687	15987.67
632.041	15992.19
632.396	16049.59
632.75	15946.54
633.104	16059.54
633.459	15923.72
633.813	15845.3
634.167	15943.61
634.521	15920.56
634.875	15974.57
635.229	15952.19
635.583	15874
635.937	15815.7
636.291	15827
636.645	15925.3
636.999	15798.53
637.352	15929.37
637.706	15772.31
638.06	15876.49
638.413	15852.99
638.767	15743.16
639.121	15789.94
639.474	15627.68
639.828	15801.92
640.181	15789.71
640.534	15778.86
640.888	15690.28
641.241	15644.86
641.594	15687.57
641.947	15766.44
642.301	15734.12
642.654	15662.71
643.007	15753.55
643.36	15714.23
643.713	15654.35
644.066	15812.31
644.419	15598.3
644.771	15434.47
645.124	15416.16
645.477	15343.85
645.83	15261.59
646.182	15226.11
646.535	15182.04
646.888	15267.01
647.24	15131.42
647.593	15308.82
647.945	15127.36
648.298	15123.29
648.65	15172.78
649.002	15095.72
649.355	15161.48
649.707	15044.19
650.059	15190.18
650.411	15332.77
650.763	15395.82
651.115	15497.29
651.467	15454.58
651.819	15443.51
652.171	15494.8
652.523	15452.32
652.875	15451.42
653.227	15353.11
653.578	15457.29
653.93	15495.71
654.282	15336.84
654.633	15422.26
654.985	15436.95
655.337	15398.99
655.688	15433.11
656.039	15404.64
656.391	15335.94
656.742	15368.03
657.094	15323.51
657.445	15456.84
657.796	15432.66
658.147	15344.53
658.498	15326
658.849	15459.1
659.2	15341.59
659.551	15314.02
659.902	15335.26
660.253	15388.37
660.604	15474.47
660.955	15363.73
661.306	15367.12
661.656	15325.09
662.007	15370.29
662.358	15327.13
662.708	15361.7
663.059	15443.73
663.409	15301.14
663.76	15424.75
664.11	15422.49
664.461	15418.65
664.811	15456.84
665.161	15403.06
665.511	15315.15
665.862	15445.09
666.212	15460.46
666.562	15555.82
666.912	15438.31
667.262	15374.13
667.612	15414.13
667.962	15459.55
668.312	15452.55
668.662	15525.31
669.011	15456.16
669.361	15380.91
669.711	15388.59
670.06	15356.95
670.41	15402.38
670.76	15365.54
671.109	15474.47
671.459	15365.54
671.808	15364.41
672.157	15520.34
672.507	15403.73
672.856	15400.57
673.205	15461.58
673.554	15473.34
673.904	15431.76
674.253	15492.54
674.602	15547.01
674.951	15232.44
675.3	15187.02
675.649	15474.69
675.998	15427.01
676.346	15521.7
676.695	15545.88
677.044	15316.73
677.393	15420.68
677.741	15522.83
678.09	15402.15
678.438	15385.65
678.787	15430.4
679.135	15467.69
679.484	15428.37
679.832	15505.2
680.181	15300.01
680.529	15417.74
680.877	15308.82
681.225	15396.95
681.573	15490.06
681.922	15301.82
682.27	15332.32
682.618	15373
682.966	15308.82
683.314	15326.9
683.661	15330.29
684.009	15228.6
684.357	15261.14
684.705	15083.29
685.053	15248.94
685.4	15266.79
685.748	15257.3
686.095	15134.59
686.443	15214.13
686.79	15210.74
687.138	15123.74
687.485	15061.82
687.832	15050.3
688.18	15186.11
688.527	15011.65
688.874	15066.34
689.221	15049.84
689.568	14976.4
689.915	15017.75
690.262	15048.49
690.609	14972.33
690.956	14915.61
691.303	14995.38
691.65	14844.88
691.997	14927.59
692.344	14814.6
692.69	14727.59
693.037	14671.78
693.383	14789.96
693.73	14801.26
694.077	14744.09
694.423	14684.2
694.769	14636.75
695.116	14675.16
695.462	14666.58
695.808	14655.28
696.155	14622.29
696.501	14599.91
696.847	14645.56
697.193	14488.5
697.539	14608.5
697.885	14438.34
698.231	14460.48
698.577	14465.45
698.923	14421.84
699.269	14344.78
699.614	14269.53
699.96	14307.72
700.306	14272.24
700.651	14301.84
700.997	14205.8
701.342	14212.8
701.688	14233.59
702.033	14168.96
702.379	14185.69
702.724	14167.38
703.069	14266.59
703.415	14021.62
703.76	14055.52
704.105	14079.25
704.45	14022.75
704.795	14038.8
705.14	13968.74
705.485	13970.78
705.83	14061.85
706.175	13909.76
706.52	13902.98
706.865	13905.47
707.209	13933.26
707.554	13837.45
707.899	13933.72
708.243	13822.53
708.588	13875.86
708.932	13813.49
709.277	13764
709.621	13764.23
709.966	13671.8
710.31	13730.33
710.654	13580.96
710.998	13585.02
711.342	13636.32
711.687	13654.4
712.031	13589.32
712.375	13562.88
712.719	13554.97
713.063	13585.93
713.407	13604.91
713.75	13598.81
714.094	13528.53
714.438	13480.17
714.782	13505.93
715.125	13403.33
715.469	13500.73
715.812	13385.26
716.156	13376.67
716.499	13331.47
716.843	13407.63
717.186	13285.82
717.53	13332.6
717.873	13410.34
718.216	13280.17
718.559	13271.81
718.902	13299.83
719.246	13302.32
719.589	13286.5
719.932	13290.12
720.275	13200.85
720.617	13204.7
720.96	13133.51
721.303	13201.76
721.646	13234.3
721.989	13144.81
722.331	13211.02
722.674	13100.52
723.016	13171.7
723.359	13162.89
723.701	13199.95
724.044	13044.25
724.386	13130.12
724.729	13094.64
725.071	13079.5
725.413	13089.22
725.755	13056.45
726.097	12947.53
726.439	12923.12
726.782	13025.94
727.124	13033.85
727.465	12943.46
727.807	12996.34
728.149	12993.85
728.491	12938.04
728.833	12912.95
729.175	12888.32
729.516	12893.52
729.858	12822.78
730.199	12932.84
730.541	12872.95
730.882	12847.64
731.224	12860.07
731.565	12852.84
731.906	12788.89
732.248	12924.25
732.589	12785.05
732.93	12701.21
733.271	12790.69
733.612	12730.81
733.953	12727.42
734.294	12722.9
734.635	12764.71
734.976	12685.16
735.317	12641.55
735.658	12653.75
735.999	12644.94
736.339	12671.83
736.68	12644.71
737.021	12574.66
737.361	12658.27
737.702	12644.71
738.042	12621.21
738.383	12601.1
738.723	12641.32
739.063	12495.11
739.404	12554.09
739.744	12502.57
740.084	12475.45
740.424	12528.78
740.764	12523.58
741.104	12530.59
741.444	12402.23
741.784	12365.62
742.124	12367.88
742.464	12438.16
742.804	12369.24
743.143	12334.66
743.483	12325.85
743.823	12263.93
744.162	12292.4
744.502	12287.21
744.841	12245.85
745.181	12268.9
745.52	12250.82
745.86	12300.76
746.199	12144.84
746.538	12178.06
746.877	12208.79
747.216	12189.81
747.556	12192.29
747.895	12192.07
748.234	12142.12
748.573	12121.11
748.911	12109.81
749.25	12090.6
749.589	12028.45
749.928	12105.52
750.267	12044.73
750.605	12087.89
750.944	11989.36
751.283	11967.44
751.621	11908.91
751.96	11860.55
752.298	11886.54
752.636	11907.78
752.975	11762.93
753.313	11814.45
753.651	11811.74
753.989	11804.28
754.327	11683.83
754.666	11609.71
755.004	11704.17
755.342	11663.72
755.679	11612.42
756.017	11559.99
756.355	11600.9
756.693	11503.72
757.031	11525.87
757.368	11456.04
757.706	11465.98
758.044	11421.24
758.381	11415.59
758.719	11349.15
759.056	11411.07
759.394	11302.6
759.731	11196.39
760.068	11211.53
760.405	11207.69
760.743	11055.15
