Data from brown_tile_FLMS001491_022.txt Node
Date: Tue Feb 07 10:37:16 GMT 2017
User: dcchb
Spectrometer: FLMS00149
Trigger mode: 0
Integration Time (sec): 2.000000E-2
Scans to average: 10
Electric dark correction enabled: true
Nonlinearity correction enabled: false
Boxcar width: 0
XAxis mode: Wavelengths
Number of Pixels in Spectrum: 2048
>>>>>Begin Spectral Data<<<<<
341.393	-6.44
341.776	-6.44
342.16	-6.44
342.543	-46.89
342.927	-49.38
343.31	-80.79
343.693	-76.5
344.077	-70.85
344.46	-65.87
344.843	-54.12
345.226	-42.15
345.61	-24.97
345.993	-26.78
346.376	5.54
346.759	-2.6
347.142	26.1
347.525	31.07
347.908	73.78
348.291	81.24
348.674	92.54
349.057	134.35
349.44	126.89
349.823	127.34
350.206	175.25
350.588	177.28
350.971	193.78
351.354	210.28
351.737	217.73
352.119	220.45
352.502	252.99
352.884	303.38
353.267	257.51
353.65	281.46
354.032	290.5
354.414	286.89
354.797	290.5
355.179	341.57
355.562	299.31
355.944	327.56
356.326	321.46
356.709	330.95
357.091	333.21
357.473	316.04
357.855	334.57
358.238	318.75
358.62	336.6
359.002	323.95
359.384	323.72
359.766	330.73
360.148	330.27
360.53	326.88
360.912	313.55
361.294	328.47
361.676	321.46
362.057	344.96
362.439	301.35
362.821	316.94
363.203	302.48
363.584	316.94
363.966	323.95
364.348	316.94
364.729	320.78
365.111	327.34
365.493	292.76
365.874	312.87
366.256	290.27
366.637	310.61
367.019	315.81
367.4	314.46
367.781	304.74
368.163	306.55
368.544	311.07
368.925	302.93
369.306	281.24
369.688	289.37
370.069	299.31
370.45	313.1
370.831	282.59
371.212	286.66
371.593	296.15
371.974	304.51
372.355	286.89
372.736	281.24
373.117	301.35
373.498	289.14
373.879	299.09
374.26	296.38
374.641	281.69
375.021	309.94
375.402	315.36
375.783	300.9
376.163	302.03
376.544	313.55
376.925	300.44
377.305	307
377.686	313.33
378.066	295.25
378.447	317.39
378.827	308.58
379.208	282.14
379.588	327.34
379.968	332.53
380.349	307.22
380.729	325.75
381.109	306.09
381.489	299.77
381.87	301.57
382.25	320.78
382.63	321.91
383.01	329.37
383.39	317.84
383.77	341.35
384.15	314
384.53	328.92
384.91	327.79
385.29	346.32
385.67	333.66
386.049	333.89
386.429	344.28
386.809	328.24
387.189	347.9
387.568	340.44
387.948	339.54
388.328	338.64
388.707	318.07
389.087	332.53
389.466	329.82
389.846	345.19
390.225	342.93
390.605	330.27
390.984	344.06
391.363	328.01
391.743	323.04
392.122	324.17
392.501	319.65
392.881	354.23
393.26	345.87
393.639	354.68
394.018	362.82
394.397	347
394.776	350.16
395.155	368.92
395.534	353.55
395.913	366.88
396.292	354
396.671	364.62
397.05	365.53
397.429	375.02
397.808	363.72
398.186	372.08
398.565	376.15
398.944	363.95
399.323	372.76
399.701	388.8
400.08	354
400.458	377.5
400.837	370.95
401.215	374.79
401.594	399.2
401.972	372.76
402.351	369.82
402.729	376.83
403.107	399.65
403.486	375.02
403.864	387.22
404.242	368.01
404.62	391.06
404.999	387.67
405.377	386.09
405.755	387.67
406.133	409.14
406.511	383.15
406.889	410.72
407.267	401.68
407.645	399.88
408.023	420.89
408.401	388.35
408.779	407.11
409.156	427.9
409.534	419.54
409.912	413.66
410.29	434.9
410.667	430.38
411.045	436.03
411.422	418.86
411.8	420.67
412.178	423.6
412.555	430.84
412.933	426.54
413.31	444.4
413.687	440.78
414.065	446.88
414.442	434.23
414.819	422.93
415.197	462.47
415.574	437.39
415.951	444.4
416.328	455.47
416.705	473.09
417.082	459.76
417.46	473.55
417.837	451.17
418.214	461.8
418.591	460.89
418.967	460.21
419.344	471.74
419.721	474.9
420.098	485.75
420.475	469.48
420.852	485.75
421.228	454.79
421.605	463.83
421.982	513.09
422.358	496.37
422.735	496.15
423.111	495.69
423.488	493.43
423.864	488.69
424.241	506.54
424.617	496.6
424.994	498.18
425.37	492.76
425.746	511.29
426.123	511.06
426.499	531.85
426.875	523.94
427.251	508.12
427.627	545.64
428.003	532.53
428.379	537.73
428.756	532.53
429.132	527.1
429.507	575.69
429.883	525.97
430.259	582.47
430.635	547.9
431.011	561.68
431.387	548.57
431.763	563.04
432.138	549.48
432.514	571.4
432.89	570.95
433.265	596.26
433.641	594.67
434.016	577.5
434.392	586.54
434.767	593.32
435.143	607.1
435.518	628.57
435.894	604.62
436.269	619.76
436.644	620.89
437.02	611.62
437.395	626.54
437.77	627.89
438.145	619.98
438.52	618.63
438.895	656.14
439.271	643.71
439.646	633.77
440.021	655.24
440.395	661.79
440.77	644.84
441.145	657.5
441.52	687.33
441.895	651.17
442.27	666.08
442.645	664.73
443.019	673.54
443.394	668.8
443.769	678.51
444.143	673.54
444.518	675.8
444.892	681.68
445.267	706.76
445.641	707.89
446.016	703.15
446.39	691.85
446.764	719.42
447.139	681.9
447.513	707.21
447.887	718.96
448.262	736.36
448.636	719.19
449.01	720.32
449.384	723.26
449.758	725.29
450.132	757.61
450.506	708.79
450.88	758.06
451.254	746.53
451.628	744.95
452.002	756.03
452.376	762.13
452.75	745.18
453.123	771.17
453.497	778.62
453.871	797.83
454.244	794.44
454.618	792.41
454.992	808.45
455.365	801.9
455.739	796.48
456.112	820.88
456.486	829.24
456.859	843.71
457.232	845.29
457.606	849.81
457.979	859.53
458.352	878.51
458.725	855.23
459.099	855.91
459.472	890.71
459.845	895.91
460.218	886.64
460.591	905.63
460.964	910.6
461.337	915.57
461.71	931.84
462.083	946.75
462.456	943.14
462.829	943.59
463.201	965.29
463.574	972.97
463.947	974.55
464.32	1003.25
464.692	991.95
465.065	1010.48
465.438	1011.16
465.81	1041.22
466.183	1044.61
466.555	1039.41
466.928	1041.44
467.3	1054.1
467.672	1060.42
468.045	1091.61
468.417	1089.35
468.789	1075.34
469.161	1110.82
469.534	1138.61
469.906	1144.49
470.278	1139.97
470.65	1137.71
471.022	1188.33
471.394	1170.7
471.766	1172.51
472.138	1224.71
472.51	1183.81
472.882	1233.98
473.253	1233.3
473.625	1268.55
473.997	1277.37
474.369	1269.91
474.74	1293.41
475.112	1304.26
475.484	1353.3
475.855	1359.4
476.227	1343.35
476.598	1388.55
476.97	1408.44
477.341	1418.61
477.713	1440.08
478.084	1483.01
478.455	1462.9
478.827	1489.79
479.198	1529.11
479.569	1520.52
479.94	1574.76
480.311	1561.88
480.682	1605.49
481.053	1639.84
481.424	1678.71
481.795	1663.12
482.166	1671.93
482.537	1711.71
482.908	1740.18
483.279	1773.85
483.65	1791.03
484.021	1820.63
484.391	1801.42
484.762	1853.62
485.133	1849.33
485.503	1862.44
485.874	1936.79
486.244	1940.85
486.615	1969.33
486.985	1989.67
487.356	2015.43
487.726	2030.57
488.097	2059.72
488.467	2050.91
488.837	2107.18
489.207	2146.5
489.578	2164.8
489.948	2154.86
490.318	2210.68
490.688	2190.34
491.058	2243.44
491.428	2302.2
491.798	2304.01
492.168	2356.21
492.538	2298.36
492.908	2389.88
493.278	2369.09
493.648	2387.39
494.017	2428.07
494.387	2415.19
494.757	2461.29
495.126	2479.6
495.496	2513.95
495.866	2504.68
496.235	2527.05
496.605	2564.34
496.974	2568.86
497.344	2585.81
497.713	2584.45
498.082	2628.07
498.452	2613.38
498.821	2714.84
499.19	2675.3
499.559	2700.83
499.928	2733.83
500.298	2749.65
500.667	2747.39
501.036	2802.75
501.405	2783.09
501.774	2813.15
502.143	2815.63
502.512	2803.2
502.88	2851.79
503.249	2878.23
503.618	2885.23
503.987	2932.92
504.356	2933.37
504.724	2954.84
505.093	2959.13
505.462	2949.64
505.83	2986.48
506.199	3023.31
506.567	3063.54
506.936	3013.14
507.304	3057.43
507.672	3125.68
508.041	3106.92
508.409	3105.79
508.777	3141.27
509.145	3215.62
509.514	3229.86
509.882	3228.28
510.25	3214.27
510.618	3266.24
510.986	3288.84
511.354	3287.94
511.722	3338.56
512.09	3355.73
512.458	3359.12
512.826	3401.61
513.193	3405.22
513.561	3417.42
513.929	3425.56
514.297	3473.47
514.664	3486.12
515.032	3504.2
515.4	3529.29
515.767	3525.22
516.135	3617.42
516.502	3599.11
516.869	3655.38
517.237	3653.58
517.604	3695.16
517.972	3678.43
518.339	3714.82
518.706	3745.78
519.073	3745.55
519.44	3774.48
519.808	3848.6
520.175	3806.57
520.542	3864.19
520.909	3900.35
521.276	3942.38
521.643	3960.23
522.009	3969.73
522.376	4029.84
522.743	4113
523.11	4104.41
523.477	4118.2
523.843	4191.42
524.21	4210.4
524.577	4204.52
524.943	4257.18
525.31	4303.28
525.676	4343.28
526.043	4362.03
526.409	4396.16
526.776	4414.01
527.142	4401.13
527.508	4442.03
527.874	4530.39
528.241	4566.32
528.607	4585.53
528.973	4611.29
529.339	4573.78
529.705	4694.45
530.071	4713.89
530.437	4706.2
530.803	4750.27
531.169	4787.78
531.535	4798.86
531.901	4837.27
532.267	4866.65
532.632	4879.08
532.998	4909.14
533.364	5013.99
533.73	4987.55
534.095	4978.06
534.461	5054.67
534.826	5072.75
535.192	5123.37
535.557	5179.41
535.923	5140.99
536.288	5202.46
536.653	5280.2
537.019	5224.83
537.384	5219.64
537.749	5274.1
538.114	5336.47
538.479	5328.33
538.845	5380.54
539.21	5401.78
539.575	5449.46
539.94	5427.99
540.305	5503.92
540.67	5508.89
541.034	5508.67
541.399	5596.35
541.764	5640.64
542.129	5624.6
542.494	5694.43
542.858	5692.84
543.223	5727.65
543.587	5777.14
543.952	5786.63
544.316	5811.03
544.681	5817.36
545.045	5912.05
545.41	5928.54
545.774	5934.65
546.138	5977.81
546.503	5995.66
546.867	6038.15
547.231	6093.29
547.595	6065.94
547.959	6161.76
548.324	6167.63
548.688	6226.16
549.052	6242.43
549.416	6262.32
549.779	6349.55
550.143	6407.85
550.507	6381.87
550.871	6475.2
551.235	6528.3
551.599	6572.14
551.962	6626.61
552.326	6674.51
552.689	6672.03
553.053	6689.43
553.417	6744.34
553.78	6826.83
554.143	6816.43
554.507	6881.51
554.87	6955.41
555.234	7017.56
555.597	7020.72
555.96	7062.3
556.323	7187.49
556.686	7200.15
557.05	7249.87
557.413	7319.02
557.776	7356.3
558.139	7425.91
558.502	7480.82
558.865	7520.82
559.228	7621.38
559.59	7726.46
559.953	7717.88
560.316	7857.31
560.679	7890.08
561.041	7984.54
561.404	7997.42
561.767	8181.37
562.129	8104.31
562.492	8310.18
562.854	8296.17
563.217	8336.62
563.579	8408.48
563.941	8490.06
564.304	8635.37
564.666	8714.01
565.028	8711.75
565.39	8835.59
565.753	8880.56
566.115	8945.64
566.477	9064.28
566.839	9132.08
567.201	9210.49
567.563	9275.58
567.925	9386.08
568.287	9422.24
568.648	9490.03
569.01	9541.56
569.372	9750.82
569.734	9653.87
570.095	9857.48
570.457	9961.43
570.819	9999.4
571.18	10031.94
571.542	10177.7
571.903	10235.78
572.265	10339.28
572.626	10342.44
572.987	10443
573.349	10530.46
573.71	10656.33
574.071	10664.01
574.432	10740.17
574.794	10822.65
575.155	10855.42
575.516	10946.94
575.877	11049.77
576.238	11139.93
576.599	11176.54
576.96	11215.64
577.32	11362.53
577.681	11391.68
578.042	11438.91
578.403	11469.64
578.763	11529.53
579.124	11602.07
579.485	11759.13
579.845	11781.5
580.206	11814.49
580.566	11905.11
580.927	11967.48
581.287	12008.84
581.648	12045.22
582.008	12147.59
582.368	12261.94
582.728	12232.11
583.089	12265.78
583.449	12334.48
583.809	12419
584.169	12536.51
584.529	12416.06
584.889	12589.16
585.249	12620.12
585.609	12548.03
585.969	12626.22
586.329	12742.83
586.688	12834.13
587.048	12849.94
587.408	12854.24
587.768	12866.44
588.127	12946.67
588.487	12918.64
588.846	13042.71
589.206	12978.75
589.565	13088.58
589.925	13181.01
590.284	13198.41
590.643	13185.98
591.003	13251.06
591.362	13304.4
591.721	13421
592.08	13400.89
592.44	13531.28
592.799	13452.19
593.158	13493.09
593.517	13489.48
593.876	13602.02
594.235	13595.01
594.593	13689.7
594.952	13725.4
595.311	13712.07
595.67	13734.67
596.029	13896.7
596.387	13884.72
596.746	13950.03
597.104	13884.49
597.463	13921.55
597.822	13908.45
598.18	13959.07
598.538	14033.87
598.897	14163.36
599.255	14035.68
599.613	14261.88
599.972	14178.5
600.33	14238.83
600.688	14182.34
601.046	14274.54
601.404	14376.91
601.762	14371.49
602.12	14413.07
602.478	14431.37
602.836	14444.03
603.194	14402.9
603.552	14479.51
603.91	14464.82
604.268	14539.84
604.625	14482.22
604.983	14633.4
605.341	14562.67
605.698	14693.51
606.056	14706.62
606.413	14690.12
606.771	14798.82
607.128	14843.79
607.485	14780.97
607.843	14757.47
608.2	14909.33
608.557	14979.61
608.914	14911.13
609.272	14994.3
609.629	14999.72
609.986	15086.5
610.343	15066.16
610.7	15200.39
611.057	15115.87
611.414	15155.19
611.771	15219.6
612.127	15278.81
612.484	15285.13
612.841	15328.52
613.198	15299.37
613.554	15292.59
613.911	15495.3
614.267	15430.22
614.624	15410.78
614.98	15421.85
615.337	15556.31
615.693	15587.27
616.05	15516.09
616.406	15627.05
616.762	15647.61
617.118	15599.25
617.475	15674.05
617.831	15579.36
618.187	15625.01
618.543	15685.12
618.899	15863.2
619.255	15706.37
619.611	15754.05
619.967	15829.98
620.323	15807.38
620.678	15821.62
621.034	15740.04
621.39	15831.79
621.746	15862.29
622.101	16020.71
622.457	15814.16
622.812	15899.58
623.168	15978.9
623.523	15954.72
623.879	16002.63
624.234	15937.1
624.589	15955.63
624.945	16013.7
625.3	16032.23
625.655	16008.73
626.01	15992.46
626.365	16043.31
626.72	15982.97
627.075	16055.28
627.43	16000.82
627.785	15942.52
628.14	16112.46
628.495	16039.69
628.85	16029.52
629.205	15920.6
629.559	16149.74
629.914	16010.09
630.269	15995.17
630.623	16003.08
630.978	15970.54
631.332	16013.25
631.687	16001.05
632.041	16008.51
632.396	16078.79
632.75	15909.53
633.104	16010.77
633.459	15940.71
633.813	15921.5
634.167	15869.3
634.521	15954.95
634.875	15899.36
635.229	15831.11
635.583	15910.88
635.937	15885.57
636.291	15740.26
636.645	15843.54
636.999	15809.19
637.352	15914.04
637.706	15790.88
638.06	15817.1
638.413	15818.68
638.767	15748.17
639.121	15786.36
639.474	15705.69
639.828	15823.88
640.181	15792.24
640.534	15752.69
640.888	15646.71
641.241	15610.78
641.594	15670.44
641.947	15647.16
642.301	15668.18
642.654	15633.15
643.007	15702.52
643.36	15751.34
643.713	15629.76
644.066	15691.9
644.419	15580.72
644.771	15521.51
645.124	15348.64
645.477	15396.09
645.83	15330.56
646.182	15225.02
646.535	15180.05
646.888	15247.17
647.24	15213.72
647.593	15262.76
647.945	15227.28
648.298	15173.95
648.65	15094.41
649.002	14995.2
649.355	15104.35
649.707	15127.85
650.059	15132.37
650.411	15434.06
650.763	15391.57
651.115	15454.17
651.467	15500.95
651.819	15484.23
652.171	15430.44
652.523	15474.73
652.875	15435.87
653.227	15329.2
653.578	15470.21
653.93	15471.57
654.282	15455.98
654.633	15351.8
654.985	15443.32
655.337	15318.13
655.688	15340.27
656.039	15526.94
656.391	15292.59
656.742	15358.58
657.094	15376.43
657.445	15390.89
657.796	15356.32
658.147	15308.86
658.498	15448.97
658.849	15422.08
659.2	15372.82
659.551	15333.04
659.902	15401.52
660.253	15339.37
660.604	15334.4
660.955	15321.74
661.306	15348.86
661.656	15469.08
662.007	15377.56
662.358	15302.76
662.708	15469.31
663.059	15338.92
663.409	15355.87
663.76	15363.32
664.11	15489.65
664.461	15418.69
664.811	15399.48
665.161	15442.19
665.511	15347.51
665.862	15408.75
666.212	15457.11
666.562	15472.47
666.912	15494.62
667.262	15432.25
667.612	15453.94
667.962	15462.31
668.312	15331.69
668.662	15429.54
669.011	15480.84
669.361	15371.46
669.711	15391.12
670.06	15529.2
670.41	15449.88
670.76	15390.22
671.109	15483.77
671.459	15434.06
671.808	15411.91
672.157	15406.26
672.507	15409.88
672.856	15363.32
673.205	15469.76
673.554	15468.41
673.904	15394.51
674.253	15490.55
674.602	15446.94
674.951	15312.25
675.3	15144.12
675.649	15430.44
675.998	15403.32
676.346	15416.2
676.695	15464.57
677.044	15366.49
677.393	15418.46
677.741	15430.22
678.09	15371.69
678.438	15501.63
678.787	15431.35
679.135	15442.42
679.484	15293.72
679.832	15432.25
680.181	15322.42
680.529	15405.58
680.877	15376.66
681.225	15338.24
681.573	15422.53
681.922	15389.54
682.27	15261.41
682.618	15242.65
682.966	15333.27
683.314	15279.03
683.661	15227.51
684.009	15258.02
684.357	15203.1
684.705	15130.34
685.053	15168.08
685.4	15199.71
685.748	15147.06
686.095	15220.96
686.443	15126.27
686.79	15137.57
687.138	15129.21
687.485	15115.2
687.832	15141.64
688.18	15243.33
688.527	15109.32
688.874	15050.11
689.221	15058.47
689.568	14952.71
689.915	15048.3
690.262	14983.67
690.609	14969.44
690.956	14990.45
691.303	14943.67
691.65	14916.1
691.997	14842.66
692.344	14787.97
692.69	14857.58
693.037	14788.65
693.383	14790.68
693.73	14763.57
694.077	14658.03
694.423	14655.55
694.769	14638.37
695.116	14697.35
695.462	14674.53
695.808	14605.15
696.155	14643.34
696.501	14534.19
696.847	14590.92
697.193	14488.55
697.539	14552.95
697.885	14517.92
698.231	14492.39
698.577	14447.64
698.923	14471.82
699.269	14421.88
699.614	14372.16
699.96	14328.55
700.306	14365.16
700.651	14195.22
700.997	14273.18
701.342	14320.19
701.688	14092.85
702.033	14135.33
702.379	14158.38
702.724	14112.28
703.069	14133.07
703.415	14018.95
703.76	14131.04
704.105	14173.98
704.45	14037.48
704.795	13951.61
705.14	13996.81
705.485	13904.61
705.83	13957.94
706.175	13912.52
706.52	13841.1
706.865	13900.76
707.209	13909.8
707.554	13773.31
707.899	13825.51
708.243	13833.65
708.588	13834.1
708.932	13714.33
709.277	13741.9
709.621	13846.98
709.966	13655.8
710.31	13736.7
710.654	13638.62
710.998	13692.18
711.342	13613.99
711.687	13628.91
712.031	13563.15
712.375	13460.55
712.719	13564.05
713.063	13562.69
713.407	13545.52
713.75	13518.63
714.094	13505.97
714.438	13438.63
714.782	13450.15
715.125	13449.25
715.469	13461.68
715.812	13443.15
716.156	13371.74
716.499	13386.43
716.843	13369.7
717.186	13290.84
717.53	13402.02
717.873	13367.22
718.216	13358.86
718.559	13228.47
718.902	13271.85
719.246	13331.97
719.589	13254.68
719.932	13184.17
720.275	13255.58
720.617	13250.84
720.96	13188.01
721.303	13200.9
721.646	13256.04
721.989	13140.33
722.331	13192.31
722.674	13103.72
723.016	13215.13
723.359	13115.47
723.701	13121.35
724.044	13085.64
724.386	13009.26
724.729	13084.06
725.071	13024.18
725.413	13055.81
725.755	13000.68
726.097	13033.89
726.439	12938.98
726.782	13003.84
727.124	13166.77
727.465	12963.84
727.807	12948.93
728.149	12974.01
728.491	12916.16
728.833	12911.86
729.175	12938.3
729.516	12908.47
729.858	12764.98
730.199	12905.08
730.541	12839.32
730.882	12819.66
731.224	12862.6
731.565	12791.42
731.906	12868.93
732.248	12825.76
732.589	12741.02
732.93	12695.82
733.271	12737.18
733.612	12724.52
733.953	12776.95
734.294	12716.16
734.635	12762.26
734.976	12774.47
735.317	12671.19
735.658	12656.28
735.999	12677.07
736.339	12611.31
736.68	12774.01
737.021	12618.09
737.361	12546.22
737.702	12599.33
738.042	12633.91
738.383	12562.04
738.723	12568.82
739.063	12488.37
739.404	12585.54
739.744	12502.61
740.084	12489.5
740.424	12506.45
740.764	12420.58
741.104	12461.03
741.444	12431.65
741.784	12434.81
742.124	12464.19
742.464	12389.62
742.804	12288.38
743.143	12337.64
743.483	12404.08
743.823	12311.43
744.162	12257.64
744.502	12303.29
744.841	12169.74
745.181	12301.94
745.52	12219
745.86	12268.26
746.199	12235.95
746.538	12249.73
746.877	12212.22
747.216	12214.26
747.556	12109.4
747.895	12142.17
748.234	12095.39
748.573	12078.89
748.911	12097.65
749.25	12102.17
749.589	12071.21
749.928	12012.45
750.267	12006.58
750.605	11967.71
750.944	12012.45
751.283	11915.28
751.621	11946.47
751.96	11855.17
752.298	11905.56
752.636	11884.55
752.975	11791.22
753.313	11755.74
753.651	11848.84
753.989	11763.42
754.327	11711.44
754.666	11601.62
755.004	11648.85
755.342	11634.16
755.679	11642.29
756.017	11622.63
756.355	11609.98
756.693	11528.4
757.031	11533.82
757.368	11411.56
757.706	11511.9
758.044	11377.89
758.381	11427.61
758.719	11420.83
759.056	11383.77
759.394	11325.01
759.731	11303.09
760.068	11316.43
760.405	11180.16
