Data from brown_tile_FLMS001491_081.txt Node
Date: Tue Feb 07 10:38:06 GMT 2017
User: dcchb
Spectrometer: FLMS00149
Trigger mode: 0
Integration Time (sec): 2.000000E-2
Scans to average: 10
Electric dark correction enabled: true
Nonlinearity correction enabled: false
Boxcar width: 0
XAxis mode: Wavelengths
Number of Pixels in Spectrum: 2048
>>>>>Begin Spectral Data<<<<<
341.393	-9.08
341.776	-9.08
342.16	-9.08
342.543	-58.8
342.927	-62.64
343.31	-67.39
343.693	-68.29
344.077	-44.56
344.46	-48.4
344.843	-68.97
345.226	-38.69
345.61	-21.51
345.993	12.39
346.376	-20.83
346.759	-4.34
347.142	35.21
347.525	43.8
347.908	44.48
348.291	63.01
348.674	79.96
349.057	104.14
349.44	119.28
349.823	131.25
350.206	170.8
350.588	190.46
350.971	197.47
351.354	193.17
351.737	201.08
352.119	221.87
352.502	234.98
352.884	267.52
353.267	286.73
353.65	283.79
354.032	286.28
354.414	275.66
354.797	294.41
355.179	297.8
355.562	311.14
355.944	311.36
356.326	302.77
356.709	315.2
357.091	309.1
357.473	334.86
357.855	301.19
358.238	308.42
358.62	319.27
359.002	308.88
359.384	312.94
359.766	315.2
360.148	304.81
360.53	319.5
360.912	321.08
361.294	314.07
361.676	312.49
362.057	318.14
362.439	305.26
362.821	315.2
363.203	308.88
363.584	307.07
363.966	316.56
364.348	303
364.729	300.06
365.111	296
365.493	301.42
365.874	297.8
366.256	300.97
366.637	293.96
367.019	297.12
367.4	305.03
367.781	313.17
368.163	302.77
368.544	284.7
368.925	303
369.306	308.2
369.688	309.78
370.069	277.69
370.45	301.19
370.831	284.92
371.212	305.49
371.593	283.57
371.974	292.38
372.355	297.8
372.736	307.75
373.117	281.76
373.498	294.41
373.879	288.54
374.26	299.61
374.641	306.84
375.021	301.64
375.402	297.58
375.783	315.43
376.163	312.94
376.544	298.93
376.925	311.36
377.305	294.41
377.686	304.58
378.066	317.92
378.447	306.39
378.827	312.94
379.208	286.5
379.588	303.45
379.968	308.65
380.349	317.92
380.729	297.8
381.109	331.93
381.489	302.55
381.87	305.26
382.25	314.75
382.63	314.3
383.01	317.46
383.39	306.39
383.77	326.05
384.15	324.92
384.53	326.28
384.91	329.89
385.29	313.62
385.67	302.77
386.049	342.32
386.429	317.92
386.809	339.61
387.189	329.67
387.568	349.55
387.948	331.02
388.328	327.86
388.707	329.67
389.087	335.99
389.466	332.83
389.846	328.54
390.225	345.49
390.605	336.22
390.984	349.78
391.363	346.62
391.743	331.47
392.122	344.36
392.501	350.91
392.881	328.99
393.26	350.46
393.639	371.02
394.018	360.63
394.397	339.16
394.776	353.17
395.155	368.54
395.534	351.59
395.913	333.51
396.292	369.67
396.671	361.53
397.05	353.39
397.429	371.93
397.808	364.24
398.186	345.94
398.565	350.23
398.944	384.81
399.323	363.79
399.701	383
400.08	350.91
400.458	365.6
400.837	366.73
401.215	343.23
401.594	381.19
401.972	389.78
402.351	359.72
402.729	386.39
403.107	375.31
403.486	381.19
403.864	374.41
404.242	380.29
404.62	372.15
404.999	398.59
405.377	380.06
405.755	389.1
406.133	379.61
406.511	398.37
406.889	379.61
407.267	392.49
407.645	408.31
408.023	403.34
408.401	378.25
408.779	411.7
409.156	406.27
409.534	400.85
409.912	420.06
410.29	407.18
410.667	406.5
411.045	414.18
411.422	405.82
411.8	405.6
412.178	421.42
412.555	432.94
412.933	435.2
413.31	433.17
413.687	433.17
414.065	431.81
414.442	412.6
414.819	439.95
415.197	459.61
415.574	453.05
415.951	452.83
416.328	431.36
416.705	440.4
417.082	438.14
417.46	439.95
417.837	461.41
418.214	438.14
418.591	461.41
418.967	460.28
419.344	461.41
419.721	459.15
420.098	446.95
420.475	469.55
420.852	457.8
421.228	454.86
421.605	450.12
421.982	460.28
422.358	481.07
422.735	478.36
423.111	471.81
423.488	474.3
423.864	479.72
424.241	494.63
424.617	489.66
424.994	477.23
425.37	475.2
425.746	492.15
426.123	480.17
426.499	522.88
426.875	507.29
427.251	486.95
427.627	510
428.003	507.51
428.379	503.22
428.756	521.53
429.132	512.94
429.507	533.95
429.883	515.2
430.259	541.19
430.635	536.44
431.011	531.24
431.387	534.86
431.763	564.46
432.138	560.85
432.514	561.07
432.89	554.52
433.265	579.6
433.641	591.13
434.016	574.63
434.392	591.81
434.767	587.29
435.143	581.86
435.518	586.16
435.894	590.9
436.269	577.34
436.644	589.32
437.02	608.08
437.395	601.98
437.77	591.13
438.145	614.63
438.52	622.09
438.895	631.58
439.271	618.92
439.646	628.64
440.021	619.15
440.395	622.54
440.77	627.29
441.145	645.82
441.52	636.55
441.895	654.63
442.27	668.64
442.645	651.24
443.019	676.78
443.394	665.7
443.769	664.12
444.143	638.13
444.518	652.6
444.892	668.41
445.267	664.35
445.641	661.41
446.016	671.58
446.39	685.36
446.764	680.84
447.139	696.66
447.513	683.56
447.887	700.73
448.262	699.37
448.636	692.82
449.01	703.67
449.384	700.96
449.758	715.42
450.132	730.11
450.506	714.29
450.88	722.88
451.254	724.91
451.628	739.6
452.002	731.46
452.376	718.81
452.75	733.5
453.123	757.68
453.497	766.94
453.871	755.42
454.244	770.11
454.618	756.77
454.992	769.2
455.365	796.55
455.739	784.57
456.112	818.02
456.486	796.32
456.859	815.53
457.232	825.02
457.606	803.33
457.979	787.28
458.352	821.86
458.725	856.21
459.099	866.6
459.472	863.89
459.845	857.34
460.218	899.82
460.591	891.46
460.964	895.53
461.337	859.14
461.71	916.32
462.083	892.82
462.456	914.51
462.829	906.83
463.201	881.52
463.574	938.01
463.947	949.31
464.32	968.07
464.692	986.37
465.065	947.96
465.438	993.15
465.81	1002.19
466.183	994.51
466.555	1024.56
466.928	983.89
467.3	1017.56
467.672	1039.48
468.045	1056.88
468.417	1060.49
468.789	1066.14
469.161	1065.01
469.534	1094.17
469.906	1121.74
470.278	1112.7
470.65	1122.41
471.022	1146.14
471.394	1124.9
471.766	1160.15
472.138	1151.57
472.51	1166.25
472.882	1188.63
473.253	1195.86
473.625	1206.03
473.997	1232.92
474.369	1232.47
474.74	1258
475.112	1277.89
475.484	1298.45
475.855	1335.06
476.227	1323.99
476.598	1338.68
476.97	1370.32
477.341	1405.57
477.713	1406.25
478.084	1408.73
478.455	1446.02
478.827	1447.38
479.198	1481.95
479.569	1509.97
479.94	1513.82
480.311	1537.09
480.682	1554.04
481.053	1579.13
481.424	1569.18
481.795	1616.19
482.166	1641.04
482.537	1637.88
482.908	1649.18
483.279	1683.76
483.65	1725.11
484.021	1742.51
484.391	1749.52
484.762	1775.73
485.133	1795.62
485.503	1837.42
485.874	1855.05
486.244	1856.18
486.615	1887.59
486.985	1900.92
487.356	1938.89
487.726	1948.15
488.097	1998.55
488.467	2009.4
488.837	2024.99
489.207	2073.35
489.578	2085.33
489.948	2072.45
490.318	2099.34
490.688	2147.7
491.058	2139.11
491.428	2188.15
491.798	2187.47
492.168	2222.95
492.538	2256.85
492.908	2258.43
493.278	2291.65
493.648	2303.85
494.017	2340.91
494.387	2333.91
494.757	2391.76
495.126	2408.71
495.496	2398.09
495.866	2447.8
496.235	2447.35
496.605	2491.64
496.974	2489.84
497.344	2541.59
497.713	2497.07
498.082	2555.82
498.452	2549.27
498.821	2597.4
499.19	2579.1
499.559	2607.12
499.928	2616.39
500.298	2629.72
500.667	2640.79
501.036	2691.41
501.405	2677.4
501.774	2692.32
502.143	2716.04
502.512	2737.29
502.88	2765.76
503.249	2796.72
503.618	2807.12
503.987	2789.94
504.356	2859.32
504.724	2802.14
505.093	2866.32
505.462	2854.35
505.83	2869.49
506.199	2946.77
506.567	2959.43
506.936	2954.46
507.304	2956.94
507.672	2983.83
508.041	3029.93
508.409	3029.48
508.777	3035.13
509.145	3089.14
509.514	3113.77
509.882	3123.94
510.25	3110.61
510.618	3160.33
510.986	3158.97
511.354	3163.94
511.722	3202.81
512.09	3215.47
512.458	3272.41
512.826	3275.8
513.193	3315.12
513.561	3289.36
513.929	3332.75
514.297	3386.99
514.664	3382.69
515.032	3420.88
515.4	3417.95
515.767	3438.06
516.135	3495.46
516.502	3458.62
516.869	3516.02
517.237	3538.4
517.604	3533.65
517.972	3580.2
518.339	3614.55
518.706	3624.72
519.073	3650.71
519.44	3684.83
519.808	3642.35
520.175	3732.74
520.542	3748.56
520.909	3790.82
521.276	3771.38
521.643	3835.11
522.009	3901.78
522.376	3889.57
522.743	3904.71
523.11	3943.36
523.477	3971.15
523.843	4012.73
524.21	4032.85
524.577	4072.17
524.943	4080.98
525.31	4124.14
525.676	4167.98
526.043	4243.91
526.409	4222.45
526.776	4286.17
527.142	4309
527.508	4341.31
527.874	4358.26
528.241	4410.92
528.607	4430.12
528.973	4468.77
529.339	4474.64
529.705	4541.53
530.071	4558.26
530.437	4584.02
530.803	4617.69
531.169	4670.12
531.535	4640.97
531.901	4682.32
532.267	4738.36
532.632	4706.95
532.998	4797.12
533.364	4770.45
533.73	4827.85
534.095	4861.07
534.461	4878.25
534.826	4951.47
535.192	4923.22
535.557	4986.95
535.923	4983.56
536.288	5024.23
536.653	5069.43
537.019	5040.96
537.384	5052.03
537.749	5092.48
538.114	5162.76
538.479	5179.48
538.845	5162.53
539.21	5186.04
539.575	5247.73
539.94	5302.42
540.305	5285.24
540.67	5328.63
541.034	5367.05
541.399	5351.68
541.764	5422.87
542.129	5440.49
542.494	5464.9
542.858	5553.03
543.223	5514.16
543.587	5558.91
543.952	5564.56
544.316	5639.81
544.681	5617.21
545.045	5701.05
545.41	5738.34
545.774	5695.63
546.138	5772.24
546.503	5784.66
546.867	5825.79
547.231	5919.58
547.595	5904.44
547.959	5958.9
548.324	5925.45
548.688	6008.39
549.052	6059.46
549.416	6126.8
549.779	6143.3
550.143	6141.94
550.507	6181.26
550.871	6291.77
551.235	6273.69
551.599	6284.54
551.962	6335.38
552.326	6411.54
552.689	6494.7
553.053	6440.47
553.417	6526.79
553.78	6622.38
554.143	6585.32
554.507	6680.69
554.87	6727.92
555.234	6818.76
555.597	6847.24
555.96	6834.81
556.323	6921.81
556.686	6943.05
557.05	7073.9
557.413	7088.36
557.776	7148.47
558.139	7242.93
558.502	7309.37
558.865	7316.15
559.228	7407.45
559.59	7428.69
559.953	7539.42
560.316	7629.14
560.679	7595.24
561.041	7710.26
561.404	7786.87
561.767	7876.13
562.129	7923.59
562.492	7987.77
562.854	8026.64
563.217	8063.25
563.579	8146.86
563.941	8238.16
564.304	8339.63
564.666	8416.91
565.028	8479.28
565.39	8546.85
565.753	8611.93
566.115	8704.36
566.477	8717.47
566.839	8794.3
567.201	8903.23
567.563	8930.34
567.925	9061.41
568.287	9113.16
568.648	9237.45
569.01	9299.15
569.372	9367.39
569.734	9428.18
570.095	9502.98
570.457	9565.58
570.819	9640.38
571.18	9724.45
571.542	9818
571.903	9835.63
572.265	9967.83
572.626	9992.69
572.987	10079.47
573.349	10178.9
573.71	10225.45
574.071	10330.08
574.432	10445.56
574.794	10536.86
575.155	10548.38
575.516	10643.29
575.877	10676.74
576.238	10798.54
576.599	10879.45
576.96	10902.72
577.32	10982.04
577.681	11029.72
578.042	11149.04
578.403	11185.88
578.763	11281.24
579.124	11338.42
579.485	11364.4
579.845	11422.48
580.206	11543.83
580.566	11608.47
580.927	11605.3
581.287	11744.73
581.648	11733.89
582.008	11853.43
582.368	11912.86
582.728	11939.08
583.089	11977.04
583.449	12017.95
583.809	12168
584.169	12118.28
584.529	12122.35
584.889	12235.57
585.249	12312.85
585.609	12366.86
585.969	12406.86
586.329	12325.51
586.688	12471.72
587.048	12468.33
587.408	12477.37
587.768	12477.6
588.127	12617.7
588.487	12650.47
588.846	12701.32
589.206	12764.14
589.565	12629.91
589.925	12930.69
590.284	12843.91
590.643	12923.91
591.003	12935.44
591.362	12918.26
591.721	12997.36
592.08	13035.77
592.44	13142.21
592.799	13121.65
593.158	13235.99
593.517	13206.84
593.876	13284.58
594.235	13218.14
594.593	13310.34
594.952	13320.74
595.311	13332.04
595.67	13405.25
596.029	13525.7
596.387	13611.35
596.746	13532.71
597.104	13515.53
597.463	13576.78
597.822	13593.95
598.18	13581.3
598.538	13664.91
598.897	13780.61
599.255	13687.51
599.613	13885.47
599.972	13843.66
600.33	13865.58
600.688	13886.15
601.046	13924.56
601.404	13999.59
601.762	14008.4
602.12	14132.69
602.478	14108.06
602.836	14141.51
603.194	14058.35
603.552	14036.65
603.91	14157.1
604.268	14183.54
604.625	14207.95
604.983	14276.87
605.341	14321.16
605.698	14307.6
606.056	14395.29
606.413	14386.02
606.771	14408.62
607.128	14458.33
607.485	14481.84
607.843	14495.62
608.2	14606.13
608.557	14654.26
608.914	14564.55
609.272	14667.37
609.629	14685.45
609.986	14679.57
610.343	14717.76
610.7	14847.25
611.057	14858.1
611.414	14858.78
611.771	14891.09
612.127	14992.11
612.484	15006.12
612.841	15001.15
613.198	15048.38
613.554	15036.17
613.911	15129.96
614.267	15131.54
614.624	15109.84
614.98	15173.57
615.337	15175.15
615.693	15232.33
616.05	15242.95
616.406	15251.31
616.762	15259.44
617.118	15309.61
617.475	15327.01
617.831	15342.15
618.187	15399.1
618.543	15462.6
618.899	15476.61
619.255	15440.91
619.611	15450.85
619.967	15489.04
620.323	15559.77
620.678	15496.27
621.034	15515.26
621.39	15479.1
621.746	15462.15
622.101	15579.21
622.457	15461.25
622.812	15564.97
623.168	15625.08
623.523	15568.36
623.879	15640.9
624.234	15564.52
624.589	15663.73
624.945	15621.47
625.3	15725.87
625.655	15676.83
626.01	15688.13
626.365	15629.83
626.72	15710.5
627.075	15680.68
627.43	15597.74
627.785	15661.24
628.14	15697.17
628.495	15749.37
628.85	15708.02
629.205	15570.85
629.559	15755.7
629.914	15595.71
630.269	15628.25
630.623	15547.35
630.978	15556.38
631.332	15624.41
631.687	15651.52
632.041	15590.96
632.396	15582.37
632.75	15559.32
633.104	15582.37
633.459	15571.07
633.813	15636.38
634.167	15647.23
634.521	15553.22
634.875	15626.89
635.229	15570.17
635.583	15512.32
635.937	15601.13
636.291	15473.68
636.645	15490.4
636.999	15464.18
637.352	15511.41
637.706	15423.96
638.06	15440
638.413	15505.54
638.767	15419.67
639.121	15527.91
639.474	15289.27
639.828	15364.75
640.181	15413.34
640.534	15409.72
640.888	15420.57
641.241	15432.77
641.594	15334.92
641.947	15336.28
642.301	15338.09
642.654	15255.6
643.007	15315.49
643.36	15349.84
643.713	15354.13
644.066	15343.51
644.419	15377.86
644.771	15182.84
645.124	15080.92
645.477	15047.7
645.83	14955.72
646.182	14822.17
646.535	14834.6
646.888	14828.27
647.24	14817.42
647.593	14769.51
647.945	14890.19
648.298	14741.94
648.65	14681.83
649.002	14807.25
649.355	14817.42
649.707	14721.15
650.059	14849.51
650.411	15048.83
650.763	15047.7
651.115	15169.28
651.467	15106.91
651.819	15170.63
652.171	15091.54
652.523	15122.72
652.875	15173.34
653.227	15006.34
653.578	15242.27
653.93	15148.26
654.282	15056.06
654.633	14973.12
654.985	15061.03
655.337	15104.19
655.688	15097.41
656.039	15041.82
656.391	14988.04
656.742	15022.16
657.094	15030.52
657.445	15100.13
657.796	15017.19
658.147	15050.86
658.498	15055.15
658.849	15108.49
659.2	15014.03
659.551	14979.45
659.902	15101.93
660.253	15109.16
660.604	15118.66
660.955	15040.69
661.306	15054.25
661.656	15015.38
662.007	15126.34
662.358	15070.07
662.708	15141.71
663.059	15099
663.409	15045.89
663.76	15075.95
664.11	15062.61
664.461	15137.86
664.811	15020.13
665.161	15082.95
665.511	15044.08
665.862	15075.27
666.212	15219.22
666.562	15116.4
666.912	15095.38
667.262	15085.44
667.612	15100.8
667.962	15180.8
668.312	15156.62
668.662	15174.47
669.011	15196.17
669.361	15171.31
669.711	15155.04
670.06	15226.22
670.41	15138.32
670.76	15061.03
671.109	15125.21
671.459	15188.48
671.808	15095.83
672.157	15136.51
672.507	15090.86
672.856	15153.91
673.205	15113.46
673.554	15146.23
673.904	15175.83
674.253	15241.14
674.602	15159.11
674.951	14977.19
675.3	14874.82
675.649	15103.74
675.998	15168.6
676.346	15130.41
676.695	15201.82
677.044	15085.44
677.393	15200.01
677.741	15137.41
678.09	15148.94
678.438	15001.6
678.787	15155.04
679.135	15204.08
679.484	15055.83
679.832	15213.12
680.181	15079.34
680.529	15092.22
680.877	15122.27
681.225	15073.69
681.573	15259.9
681.922	15058.77
682.27	15083.63
682.618	15117.07
682.966	15064.19
683.314	15103.97
683.661	15044.76
684.009	15007.7
684.357	15017.42
684.705	14923.41
685.053	15048.15
685.4	14950.3
685.748	14934.48
686.095	14970.86
686.443	14974.93
686.79	14898.1
687.138	14910.3
687.485	14963.86
687.832	14893.13
688.18	14896.06
688.527	14825.78
688.874	14835.5
689.221	14710.53
689.568	14767.7
689.915	14724.09
690.262	14746.24
690.609	14731.32
690.956	14637.76
691.303	14645.45
691.65	14636.41
691.997	14577.88
692.344	14507.82
692.69	14525.45
693.037	14587.82
693.383	14388.96
693.73	14575.39
694.077	14425.12
694.423	14515.06
694.769	14434.83
695.116	14366.36
695.462	14466.02
695.808	14395.74
696.155	14348.73
696.501	14316.64
696.847	14421.05
697.193	14176.08
697.539	14339.69
697.885	14182.64
698.231	14252.92
698.577	14188.06
698.923	14174.05
699.269	14063.32
699.614	14118.68
699.96	14023.32
700.306	14040.49
700.651	14007.72
700.997	13952.13
701.342	13987.16
701.688	13925.47
702.033	13949.87
702.379	13899.25
702.724	13917.33
703.069	13954.17
703.415	13805.92
703.76	13878.01
704.105	13800.05
704.45	13773.15
704.795	13751.01
705.14	13695.42
705.485	13750.78
705.83	13672.82
706.175	13681.63
706.52	13723.89
706.865	13659.94
707.209	13588.98
707.554	13590.33
707.899	13572.26
708.243	13574.06
708.588	13540.62
708.932	13507.85
709.277	13567.96
709.621	13494.29
709.966	13446.61
710.31	13446.38
710.654	13347.63
710.998	13344.47
711.342	13431.92
711.687	13296.78
712.031	13232.83
712.375	13255.2
712.719	13351.24
713.063	13308.76
713.407	13283.68
713.75	13278.03
714.094	13273.05
714.438	13163.68
714.782	13205.49
715.125	13210.23
715.469	13191.48
715.812	13179.27
716.156	13129.56
716.499	13150.57
716.843	13151.93
717.186	13076.45
717.53	13110.8
717.873	13125.04
718.216	13110.35
718.559	13087.98
718.902	13002.55
719.246	12972.05
719.589	12990.35
719.932	12955.1
720.275	12899.73
720.617	12964.59
720.96	12962.33
721.303	12879.62
721.646	12914.87
721.989	12854.99
722.331	12921.43
722.674	12904.93
723.016	12875.33
723.359	12819.06
723.701	12803.01
724.044	12789.45
724.386	12850.47
724.729	12821.99
725.071	12779.73
725.413	12789
725.755	12709.68
726.097	12799.4
726.439	12653.18
726.782	12735.44
727.124	12763.46
727.465	12663.13
727.807	12649.12
728.149	12689.34
728.491	12692.96
728.833	12703.58
729.175	12674.88
729.516	12619.06
729.858	12565.73
730.199	12661.32
730.541	12664.03
730.882	12565.73
731.224	12732.5
731.565	12501.78
731.906	12559.85
732.248	12558.72
732.589	12568.44
732.93	12578.16
733.271	12586.07
733.612	12495.67
733.953	12515.56
734.294	12482.34
734.635	12486.63
734.976	12515.33
735.317	12375.68
735.658	12448.44
735.999	12450.7
736.339	12405.73
736.68	12371.61
737.021	12383.59
737.361	12320.99
737.702	12419.52
738.042	12424.26
738.383	12350.37
738.723	12380.88
739.063	12345.4
739.404	12353.08
739.744	12233.08
740.084	12320.76
740.424	12244.38
740.764	12217.72
741.104	12264.49
741.444	12208.22
741.784	12168
742.124	12167.77
742.464	12113.31
742.804	12175.91
743.143	12072.63
743.483	12127.55
743.823	12087.1
744.162	12106.76
744.502	12078.06
744.841	12108.34
745.181	12092.75
745.52	12086.42
745.86	12051.17
746.199	11991.28
746.538	11930.27
746.877	11986.08
747.216	11993.31
747.556	11934.33
747.895	11965.52
748.234	11917.84
748.573	11932.53
748.911	11918.29
749.25	11843.71
749.589	11886.65
749.928	11815.24
750.267	11785.18
750.605	11785.64
750.944	11723.72
751.283	11707.9
751.621	11739.08
751.96	11647.33
752.298	11753.32
752.636	11653.89
752.975	11647.79
753.313	11544.74
753.651	11594.91
753.989	11547.9
754.327	11542.25
754.666	11404.63
755.004	11472.2
755.342	11462.93
755.679	11470.84
756.017	11438.75
756.355	11386.1
756.693	11285.54
757.031	11365.31
757.368	11293.22
757.706	11270.85
758.044	11202.6
758.381	11084.64
758.719	11133.22
759.056	11123.73
759.394	11138.65
759.731	11052.1
760.068	11034.92
760.405	10951.53
760.743	11009.61
