Data from brown_tile_FLMS001491_068.txt Node
Date: Tue Feb 07 10:37:51 GMT 2017
User: dcchb
Spectrometer: FLMS00149
Trigger mode: 0
Integration Time (sec): 2.000000E-2
Scans to average: 10
Electric dark correction enabled: true
Nonlinearity correction enabled: false
Boxcar width: 0
XAxis mode: Wavelengths
Number of Pixels in Spectrum: 2048
>>>>>Begin Spectral Data<<<<<
341.393	10.4
341.776	10.4
342.16	10.4
342.543	-30.06
342.927	-51.98
343.31	-66.89
343.693	-67.12
344.077	-92.65
344.46	-48.36
344.843	-51.3
345.226	-30.06
345.61	-39.32
345.993	1.58
346.376	4.07
346.759	18.98
347.142	21.47
347.525	40
347.908	48.81
348.291	63.05
348.674	95.14
349.057	102.6
349.44	141.24
349.823	149.37
350.206	141.24
350.588	177.4
350.971	201.58
351.354	203.38
351.737	226.89
352.119	246.1
352.502	238.41
352.884	257.39
353.267	273.21
353.65	279.77
354.032	285.42
354.414	310.27
354.797	298.75
355.179	317.96
355.562	306.21
355.944	324.96
356.326	322.48
356.709	306.66
357.091	337.84
357.473	320.22
357.855	328.8
358.238	317.51
358.62	333.1
359.002	340.1
359.384	342.14
359.766	341.23
360.148	315.02
360.53	316.38
360.912	327.68
361.294	315.92
361.676	341.01
362.057	329.93
362.439	322.03
362.821	320.22
363.203	317.96
363.584	312.08
363.966	303.95
364.348	314.79
364.729	326.09
365.111	312.53
365.493	305.08
365.874	299.88
366.256	308.92
366.637	314.79
367.019	310.95
367.4	305.75
367.781	305.98
368.163	304.85
368.544	318.64
368.925	307.11
369.306	317.96
369.688	305.3
370.069	313.21
370.45	303.04
370.831	310.95
371.212	320.22
371.593	305.98
371.974	300.33
372.355	306.21
372.736	275.92
373.117	300.78
373.498	319.31
373.879	305.08
374.26	314.79
374.641	307.56
375.021	312.31
375.402	293.33
375.783	308.01
376.163	326.77
376.544	315.02
376.925	321.8
377.305	318.18
377.686	312.08
378.066	307.79
378.447	329.48
378.827	327.9
379.208	303.72
379.588	310.05
379.968	311.4
380.349	326.32
380.729	315.25
381.109	330.39
381.489	332.87
381.87	307.56
382.25	319.99
382.63	323.38
383.01	317.96
383.39	333.78
383.77	337.17
384.15	326.55
384.53	337.39
384.91	331.52
385.29	314.12
385.67	311.18
386.049	349.37
386.429	327
386.809	331.52
387.189	326.55
387.568	341.91
387.948	345.98
388.328	375.13
388.707	353.21
389.087	334.91
389.466	351.86
389.846	342.14
390.225	348.69
390.605	353.21
390.984	348.69
391.363	358.63
391.743	366.54
392.122	364.28
392.501	351.86
392.881	382.59
393.26	339.88
393.639	359.31
394.018	361.8
394.397	366.54
394.776	353.89
395.155	352.76
395.534	358.86
395.913	366.32
396.292	385.3
396.671	375.58
397.05	358.18
397.429	362.93
397.808	362.48
398.186	380.1
398.565	376.49
398.944	349.14
399.323	375.58
399.701	369.48
400.08	367.45
400.458	409.93
400.837	366.77
401.215	369.26
401.594	377.17
401.972	373.32
402.351	392.53
402.729	410.61
403.107	377.62
403.486	397.5
403.864	369.03
404.242	390.05
404.62	400.67
404.999	392.98
405.377	388.92
405.755	403.15
406.133	389.37
406.511	418.07
406.889	421.01
407.267	407.22
407.645	403.38
408.023	391.85
408.401	424.4
408.779	399.31
409.156	397.05
409.534	418.29
409.912	427.11
410.29	411.74
410.667	426.2
411.045	424.62
411.422	435.24
411.8	435.92
412.178	444.06
412.555	446.09
412.933	444.06
413.31	457.62
413.687	439.76
414.065	436.15
414.442	471.63
414.819	450.61
415.197	454.23
415.574	468.24
415.951	470.5
416.328	482.25
416.705	467.11
417.082	462.13
417.46	476.82
417.837	478.63
418.214	478.18
418.591	457.39
418.967	475.47
419.344	444.73
419.721	475.24
420.098	452.87
420.475	467.56
420.852	477.95
421.228	466.2
421.605	471.17
421.982	483.83
422.358	494
422.735	497.39
423.111	505.52
423.488	485.64
423.864	508.01
424.241	506.43
424.617	507.33
424.994	507.11
425.37	491.29
425.746	519.08
426.123	502.13
426.499	508.46
426.875	527.67
427.251	531.74
427.627	521.34
428.003	528.8
428.379	551.62
428.756	544.62
429.132	546.65
429.507	564.5
429.883	548.46
430.259	557.95
430.635	559.53
431.011	562.02
431.387	568.8
431.763	581.68
432.138	583.94
432.514	563.83
432.89	581.45
433.265	601.34
433.641	609.7
434.016	570.61
434.392	626.2
434.767	610.38
435.143	624.39
435.518	615.58
435.894	617.38
436.269	631.85
436.644	624.39
437.02	630.49
437.395	631.4
437.77	624.16
438.145	639.98
438.52	639.31
438.895	638.85
439.271	635.69
439.646	651.51
440.021	650.6
440.395	657.16
440.77	665.97
441.145	662.58
441.52	679.76
441.895	686.08
442.27	675.46
442.645	693.09
443.019	705.97
443.394	690.83
443.769	693.32
444.143	695.12
444.518	702.81
444.892	696.48
445.267	722.01
445.641	728.34
446.016	674.78
446.39	720.66
446.764	698.74
447.139	723.14
447.513	724.05
447.887	732.86
448.262	731.96
448.636	726.76
449.01	726.99
449.384	734.9
449.758	749.58
450.132	751.62
450.506	765.63
450.88	772.41
451.254	754.56
451.628	747.32
452.002	768.79
452.376	785.74
452.75	777.83
453.123	790.26
453.497	788.23
453.871	805.4
454.244	816.93
454.618	807.44
454.992	827.1
455.365	830.49
455.739	830.26
456.112	832.52
456.486	840.2
456.859	858.96
457.232	867.1
457.606	875.46
457.979	866.87
458.352	865.06
458.725	876.14
459.099	908.45
459.472	924.72
459.845	927.89
460.218	943.93
460.591	929.02
460.964	927.43
461.337	952.29
461.71	949.13
462.083	973.31
462.456	966.08
462.829	984.83
463.201	995.91
463.574	1002.23
463.947	1002.91
464.32	1036.58
464.692	1025.06
465.065	1019.63
465.438	1053.98
465.81	1035.23
466.183	1059.41
466.555	1083.36
466.928	1091.04
467.3	1080.88
467.672	1074.1
468.045	1091.95
468.417	1106.86
468.789	1145.28
469.161	1154.55
469.534	1165.17
469.906	1191.83
470.278	1164.72
470.65	1183.25
471.022	1207.88
471.394	1221.44
471.766	1233.64
472.138	1245.39
472.51	1257.14
472.882	1270.48
473.253	1282
473.625	1295.79
473.997	1298.04
474.369	1341.66
474.74	1311.83
475.112	1361.77
475.484	1355.44
475.855	1417.36
476.227	1427.08
476.598	1428.66
476.97	1447.19
477.341	1467.98
477.713	1472.28
478.084	1489.9
478.455	1550.24
478.827	1540.07
479.198	1575.55
479.569	1609
479.94	1621.2
480.311	1653.52
480.682	1657.58
481.053	1675.44
481.424	1712.72
481.795	1760.86
482.166	1747.52
482.537	1772.38
482.908	1801.53
483.279	1786.85
483.65	1830.01
484.021	1865.71
484.391	1891.48
484.762	1901.19
485.133	1928.76
485.503	1961.53
485.874	1991.36
486.244	2004.02
486.615	2043.11
486.985	2072.04
487.356	2096.22
487.726	2093.28
488.097	2103.9
488.467	2192.03
488.837	2179.83
489.207	2213.95
489.578	2232.03
489.948	2247.62
490.318	2279.26
490.688	2279.04
491.058	2317.45
491.428	2367.17
491.798	2362.88
492.168	2399.71
492.538	2430.22
492.908	2449.2
493.278	2494.4
493.648	2486.49
494.017	2481.74
494.387	2506.6
494.757	2528.3
495.126	2553.61
495.496	2582.3
495.866	2592.25
496.235	2615.98
496.605	2617.11
496.974	2686.48
497.344	2678.35
497.713	2700.95
498.082	2737.33
498.452	2717.22
498.821	2729.19
499.19	2740.27
499.559	2822.07
499.928	2830.66
500.298	2873.82
500.667	2882.64
501.036	2893.26
501.405	2907.95
501.774	2894.39
502.143	2942.52
502.512	2940.71
502.88	2959.92
503.249	2964.67
503.618	2998.79
503.987	3026.36
504.356	3020.71
504.724	3079.02
505.093	3064.33
505.462	3063.65
505.83	3114.04
506.199	3118.11
506.567	3152.69
506.936	3183.65
507.304	3251.89
507.672	3212.34
508.041	3242.85
508.409	3266.35
508.777	3264.77
509.145	3297.09
509.514	3346.8
509.882	3315.39
510.25	3350.65
510.618	3357.2
510.986	3422.51
511.354	3439.23
511.722	3436.75
512.09	3514.71
512.458	3472.23
512.826	3501.38
513.193	3558.55
513.561	3556.29
513.929	3584.09
514.297	3599.68
514.664	3623.18
515.032	3698.66
515.4	3648.49
515.767	3723.07
516.135	3762.39
516.502	3720.35
516.869	3786.79
517.237	3780.47
517.604	3833.8
517.972	3822.05
518.339	3840.35
518.706	3884.87
519.073	3926.9
519.44	3938.65
519.808	3983.85
520.175	3992.44
520.542	4080.57
520.909	4082.83
521.276	4102.72
521.643	4130.29
522.009	4162.38
522.376	4208.48
522.743	4222.49
523.11	4299.1
523.477	4308.36
523.843	4267.23
524.21	4348.13
524.577	4438.08
524.943	4458.87
525.31	4470.16
525.676	4467.45
526.043	4496.83
526.409	4533.21
526.776	4605.3
527.142	4676.71
527.508	4675.13
527.874	4731.85
528.241	4676.26
528.607	4755.81
528.973	4805.07
529.339	4803.72
529.705	4856.6
530.071	4871.06
530.437	4919.87
530.803	4954.22
531.169	4950.83
531.535	4940.66
531.901	5012.07
532.267	5028.57
532.632	5113.76
532.998	5101.11
533.364	5142.69
533.73	5099.75
534.095	5219.98
534.461	5259.07
534.826	5298.17
535.192	5269.69
535.557	5381.33
535.923	5369.58
536.288	5367.77
536.653	5453.42
537.019	5433.76
537.384	5465.84
537.749	5493.41
538.114	5525.05
538.479	5573.41
538.845	5617.71
539.21	5630.59
539.575	5638.5
539.94	5666.52
540.305	5718.95
540.67	5711.26
541.034	5750.13
541.399	5777.02
541.764	5814.31
542.129	5884.82
542.494	5941.09
542.858	5887.98
543.223	5913.29
543.587	5986.74
543.952	6031.71
544.316	6005.04
544.681	6015.66
545.045	6104.92
545.41	6125.71
545.774	6123.68
546.138	6212.04
546.503	6215.2
546.867	6191.25
547.231	6262.89
547.595	6351.7
547.959	6341.75
548.324	6380.4
548.688	6442.09
549.052	6450.23
549.416	6548.53
549.779	6538.36
550.143	6604.8
550.507	6646.38
550.871	6716.43
551.235	6700.16
551.599	6788.3
551.962	6788.3
552.326	6841.18
552.689	6880.95
553.053	6889.54
553.417	6890.89
553.78	7100.6
554.143	7043.2
554.507	7049.08
554.87	7175.4
555.234	7259.92
555.597	7209.08
555.96	7323.88
556.323	7386.7
556.686	7437.32
557.05	7519.58
557.413	7574.26
557.776	7558.9
558.139	7669.63
558.502	7701.94
558.865	7715.73
559.228	7832.34
559.59	7942.62
559.953	7941.26
560.316	8134.25
560.679	8111.2
561.041	8214.25
561.404	8297.41
561.767	8363.85
562.129	8362.94
562.492	8513.45
562.854	8551.64
563.217	8571.07
563.579	8691.07
563.941	8787.11
564.304	8821.01
564.666	8914.79
565.028	8955.47
565.39	9031.4
565.753	9113.66
566.115	9175.13
566.477	9272.52
566.839	9414.22
567.201	9519.07
567.563	9418.06
567.925	9588.67
568.287	9663.25
568.648	9665.51
569.01	9844.03
569.372	9941.66
569.734	9943.47
570.095	9965.16
570.457	10130.58
570.819	10152.5
571.18	10234.76
571.542	10316.79
571.903	10390.91
572.265	10423.91
572.626	10581.19
572.987	10576.45
573.349	10759.94
573.71	10830.22
574.071	10882.65
574.432	11003.55
574.794	11026.38
575.155	11094.62
575.516	11092.82
575.877	11192.25
576.238	11278.57
576.599	11458.68
576.96	11420.94
577.32	11561.05
577.681	11588.62
578.042	11621.16
578.403	11701.61
578.763	11878.11
579.124	11883.98
579.485	12003.98
579.845	12025.45
580.206	12034.03
580.566	12174.82
580.927	12186.35
581.287	12308.38
581.648	12240.81
582.008	12372.1
582.368	12358.32
582.728	12452.33
583.089	12540.91
583.449	12520.35
583.809	12623.62
584.169	12689.16
584.529	12665.43
584.889	12799.44
585.249	12808.93
585.609	12772.09
585.969	12929.6
586.329	12885.31
586.688	13031.52
587.048	13004.4
587.408	13074.68
587.768	13093.67
588.127	13157.85
588.487	13124.85
588.846	13280.78
589.206	13240.56
589.565	13315.58
589.925	13332.3
590.284	13384.96
590.643	13415.47
591.003	13539.53
591.362	13635.35
591.721	13518.51
592.08	13626.99
592.44	13737.72
592.799	13655.01
593.158	13704.72
593.517	13762.58
593.876	13742.69
594.235	13807.32
594.593	13803.25
594.952	13881.67
595.311	13912.63
595.67	13945.4
596.029	14096.8
596.387	14114.66
596.746	14170.25
597.104	14134.09
597.463	14166.18
597.822	14268.78
598.18	14228.33
598.538	14216.8
598.897	14294.77
599.255	14302.67
599.613	14468.55
599.972	14358.94
600.33	14528.43
600.688	14418.83
601.046	14526.85
601.404	14592.84
601.762	14541.31
602.12	14747.86
602.478	14720.29
602.836	14705.15
603.194	14703.12
603.552	14786.05
603.91	14727.07
604.268	14781.31
604.625	14828.54
604.983	14847.52
605.341	14869.89
605.698	14866.73
606.056	15017.91
606.413	15003.67
606.771	15021.07
607.128	15152.6
607.485	14988.76
607.843	15045.25
608.2	15127.74
608.557	15294.74
608.914	15161.18
609.272	15202.31
609.629	15277.11
609.986	15336.77
610.343	15239.6
610.7	15405.7
611.057	15404.57
611.414	15326.6
611.771	15429.65
612.127	15444.34
612.484	15442.98
612.841	15550.78
613.198	15532.02
613.554	15496.99
613.911	15722.75
614.267	15636.43
614.624	15641.62
614.98	15685.24
615.337	15676.65
615.693	15732.47
616.05	15750.77
616.406	15753.48
616.762	15812.47
617.118	15767.5
617.475	15745.8
617.831	15826.93
618.187	15804.78
618.543	15877.55
618.899	15981.27
619.255	15892.92
619.611	15937.43
619.967	16092.01
620.323	16154.15
620.678	16040.48
621.034	15987.15
621.39	16099.46
621.746	15967.04
622.101	16219.91
622.457	16065.34
622.812	16166.13
623.168	16124.1
623.523	16188.73
623.879	16197.77
624.234	16130.42
624.589	16131.33
624.945	16152.57
625.3	16274.6
625.655	16219.91
626.01	16167.26
626.365	16277.99
626.72	16286.58
627.075	16308.95
627.43	16198.9
627.785	16094.27
628.14	16143.08
628.495	16247.93
628.85	16244.77
629.205	16113.25
629.559	16280.7
629.914	16183.76
630.269	16259.91
630.623	16169.97
630.978	16156.64
631.332	16280.02
631.687	16185.56
632.041	16134.94
632.396	16190.08
632.75	16123.19
633.104	16193.25
633.459	16094.27
633.813	16189.86
634.167	16059.24
634.521	16102.18
634.875	16052.46
635.229	16094.72
635.583	16027.6
635.937	15978.11
636.291	16128.39
636.645	15977.21
636.999	15922.52
637.352	16114.38
637.706	15930.65
638.06	15986.92
638.413	15941.05
638.767	15858.79
639.121	15929.52
639.474	15821.96
639.828	15921.16
640.181	15920.71
640.534	15936.08
640.888	15939.24
641.241	15808.17
641.594	15842.75
641.947	15891.56
642.301	15895.63
642.654	15958.68
643.007	15843.2
643.36	15909.41
643.713	15781.73
644.066	15830.54
644.419	15845.46
644.771	15644.56
645.124	15544.68
645.477	15548.74
645.83	15497.45
646.182	15310.33
646.535	15352.14
646.888	15288.86
647.24	15235.31
647.593	15386.04
647.945	15350.1
648.298	15321.63
648.65	15258.13
649.002	15146.95
649.355	15280.05
649.707	15288.19
650.059	15338.81
650.411	15547.61
650.763	15522.98
651.115	15773.14
651.467	15715.74
651.819	15676.65
652.171	15699.02
652.523	15561.62
652.875	15602.75
653.227	15543.09
653.578	15657.89
653.93	15611.79
654.282	15512.59
654.633	15514.62
654.985	15569.99
655.337	15510.33
655.688	15496.09
656.039	15621.96
656.391	15541.96
656.742	15557.56
657.094	15580.38
657.445	15578.35
657.796	15646.59
658.147	15569.99
658.498	15577.44
658.849	15600.72
659.2	15554.17
659.551	15483.66
659.902	15564.56
660.253	15619.7
660.604	15591.91
660.955	15502.19
661.306	15578.57
661.656	15539.25
662.007	15537.22
662.358	15557.33
662.708	15610.89
663.059	15549.65
663.409	15503.1
663.76	15587.61
664.11	15595.3
664.461	15616.54
664.811	15671.68
665.161	15620.38
665.511	15643.66
665.862	15638.23
666.212	15569.08
666.562	15628.52
666.912	15594.39
667.262	15580.61
667.612	15623.32
667.962	15625.13
668.312	15581.06
668.662	15721.85
669.011	15649.08
669.361	15631.68
669.711	15607.73
670.06	15638.23
670.41	15691.79
670.76	15624.45
671.109	15658.57
671.459	15649.31
671.808	15631.45
672.157	15690.21
672.507	15616.99
672.856	15601.4
673.205	15681.62
673.554	15724.56
673.904	15638.91
674.253	15718.91
674.602	15752.58
674.951	15407.05
675.3	15398.01
675.649	15669.87
675.998	15603.88
676.346	15719.59
676.695	15758.91
677.044	15691.11
677.393	15655.18
677.741	15687.95
678.09	15702.41
678.438	15657.22
678.787	15629.19
679.135	15690.21
679.484	15553.04
679.832	15618.8
680.181	15611.34
680.529	15673.26
680.877	15602.98
681.225	15679.81
681.573	15723.65
681.922	15614.05
682.27	15616.99
682.618	15630.55
682.966	15554.17
683.314	15609.76
683.661	15557.56
684.009	15504.68
684.357	15480.04
684.705	15426.71
685.053	15467.16
685.4	15488.18
685.748	15417.67
686.095	15501.06
686.443	15451.57
686.79	15375.64
687.138	15517.33
687.485	15420.84
687.832	15325.25
688.18	15401.4
688.527	15285.25
688.874	15394.85
689.221	15351.46
689.568	15247.51
689.915	15249.54
690.262	15321.41
690.609	15254.74
690.956	15203.44
691.303	15200.05
691.65	15043.22
691.997	15210.22
692.344	15054.07
692.69	15013.62
693.037	15043.9
693.383	14891.13
693.73	14996.89
694.077	14948.53
694.423	14872.6
694.769	14845.49
695.116	14826.95
695.462	14866.5
695.808	14819.95
696.155	14859.95
696.501	14782.66
696.847	14774.3
697.193	14725.04
697.539	14744.47
697.885	14645.94
698.231	14624.93
698.577	14648.88
698.923	14543.35
699.269	14620.86
699.614	14470.81
699.96	14460.86
700.306	14445.27
700.651	14445.04
700.997	14367.98
701.342	14431.03
701.688	14375.44
702.033	14337.48
702.379	14323.92
702.724	14316.23
703.069	14381.54
703.415	14217.03
703.76	14322.11
704.105	14235.11
704.45	14245.73
704.795	14129.35
705.14	14112.17
705.485	14105.62
705.83	14049.35
706.175	14145.62
706.52	13995.79
706.865	14035.11
707.209	14027.43
707.554	14015.9
707.899	14009.12
708.243	13955.11
708.588	13937.71
708.932	13796.25
709.277	13921.22
709.621	13883.02
709.966	13681.67
710.31	13774.33
710.654	13718.96
710.998	13777.26
711.342	13782.91
711.687	13761.67
712.031	13728.9
712.375	13727.1
712.719	13627.44
713.063	13727.32
713.407	13757.15
713.75	13667.66
714.094	13619.75
714.438	13624.95
714.782	13616.37
715.125	13557.16
715.469	13675.12
715.812	13490.94
716.156	13415.01
716.499	13470.15
716.843	13593.54
717.186	13448.01
717.53	13503.83
717.873	13552.86
718.216	13483.26
718.559	13487.55
718.902	13378.41
719.246	13438.74
719.589	13350.84
719.932	13361.46
720.275	13405.52
720.617	13354.68
720.96	13342.47
721.303	13304.28
721.646	13373.89
721.989	13216.38
722.331	13332.08
722.674	13291.4
723.016	13283.49
723.359	13266.09
723.701	13298.18
724.044	13158.98
724.386	13229.26
724.729	13224.29
725.071	13204.62
725.413	13152.42
725.755	13184.51
726.097	13185.87
726.439	13121.69
726.782	13064.97
727.124	13230.39
727.465	13130.05
727.807	13047.34
728.149	13042.82
728.491	13098.19
728.833	13112.65
729.175	13010.73
729.516	13028.58
729.858	13011.18
730.199	13032.43
730.541	12952.88
730.882	12967.57
731.224	12997.85
731.565	12860.23
731.906	12881.92
732.248	12993.56
732.589	12866.78
732.93	12847.35
733.271	12835.59
733.612	12924.86
733.953	12874.46
734.294	12830.85
734.635	12824.07
734.976	12810.51
735.317	12826.56
735.658	12845.99
735.999	12842.6
736.339	12756.73
736.68	12824.3
737.021	12718.08
737.361	12672.66
737.702	12830.17
738.042	12735.94
738.383	12726.45
738.723	12826.33
739.063	12638.99
739.404	12645.54
739.744	12631.98
740.084	12627.46
740.424	12606.22
740.764	12622.04
741.104	12657.29
741.444	12555.83
741.784	12534.36
742.124	12536.85
742.464	12541.14
742.804	12494.59
743.143	12486.45
743.483	12471.76
743.823	12462.95
744.162	12477.19
744.502	12495.04
744.841	12385.89
745.181	12439.22
745.52	12341.37
745.86	12383.18
746.199	12374.36
746.538	12370.75
746.877	12356.51
747.216	12222.73
747.556	12304.31
747.895	12363.74
748.234	12258.89
748.573	12218.21
748.911	12175.05
749.25	12231.32
749.589	12085.56
749.928	12147.03
750.267	12165.33
750.605	12148.38
750.944	12156.52
751.283	12130.53
751.621	12094.15
751.96	12032.68
752.298	11996.07
752.636	12027.93
752.975	11957.43
753.313	11897.77
753.651	11962.62
753.989	11917.2
754.327	11842.17
754.666	11791.78
755.004	11869.74
755.342	11826.81
755.679	11837.2
756.017	11771.44
756.355	11735.28
756.693	11650.54
757.031	11653.93
757.368	11543.43
757.706	11588.17
758.044	11596.76
758.381	11498.23
758.719	11495.97
759.056	11525.35
759.394	11470.21
759.731	11389.53
760.068	11324.45
