Data from brown_tile_FLMS001491_092.txt Node
Date: Tue Feb 07 10:38:15 GMT 2017
User: dcchb
Spectrometer: FLMS00149
Trigger mode: 0
Integration Time (sec): 2.000000E-2
Scans to average: 10
Electric dark correction enabled: true
Nonlinearity correction enabled: false
Boxcar width: 0
XAxis mode: Wavelengths
Number of Pixels in Spectrum: 2048
>>>>>Begin Spectral Data<<<<<
341.393	-14.77
341.776	-14.77
342.16	-14.77
342.543	-69.69
342.927	-60.65
343.31	-66.3
343.693	-65.85
344.077	-75.56
344.46	-58.39
344.843	-66.75
345.226	-51.16
345.61	-29.69
345.993	-7.77
346.376	-6.64
346.759	-1.89
347.142	17.09
347.525	43.53
347.908	59.57
348.291	93.02
348.674	103.87
349.057	112.91
349.44	126.47
349.823	140.93
350.206	154.49
350.588	185
350.971	209.4
351.354	240.13
351.737	226.12
352.119	229.74
352.502	249.4
352.884	253.69
353.267	275.16
353.65	298.66
354.032	276.29
354.414	284.88
354.797	297.08
355.179	328.27
355.562	339.34
355.944	309.51
356.326	324.88
356.709	322.17
357.091	322.84
357.473	324.88
357.855	316.29
358.238	335.73
358.62	316.74
359.002	315.61
359.384	325.56
359.766	336.4
360.148	315.39
360.53	330.75
360.912	330.98
361.294	343.41
361.676	328.72
362.057	323.07
362.439	316.74
362.821	311.55
363.203	313.35
363.584	305.9
363.966	307.03
364.348	300.7
364.729	295.73
365.111	273.35
365.493	297.08
365.874	306.8
366.256	304.99
366.637	305.67
367.019	288.27
367.4	299.79
367.781	321.94
368.163	310.19
368.544	282.62
368.925	295.73
369.306	305.44
369.688	300.02
370.069	301.15
370.45	285.78
370.831	287.82
371.212	309.51
371.593	283.98
371.974	296.86
372.355	284.2
372.736	305.44
373.117	301.15
373.498	310.64
373.879	306.35
374.26	290.3
374.641	313.13
375.021	306.35
375.402	303.64
375.783	311.09
376.163	326.69
376.544	321.49
376.925	323.97
377.305	328.95
377.686	313.35
378.066	323.3
378.447	326.23
378.827	305.22
379.208	316.74
379.588	330.98
379.968	326.69
380.349	305.9
380.729	320.36
381.109	318.32
381.489	327.82
381.87	301.15
382.25	306.8
382.63	337.08
383.01	320.58
383.39	339.34
383.77	334.6
384.15	311.55
384.53	322.17
384.91	340.92
385.29	332.79
385.67	338.89
386.049	321.71
386.429	327.82
386.809	327.14
387.189	336.18
387.568	330.53
387.948	362.17
388.328	330.53
388.707	345.22
389.087	337.31
389.466	357.19
389.846	337.31
390.225	303.41
390.605	353.13
390.984	344.54
391.363	352.45
391.743	348.38
392.122	363.52
392.501	352
392.881	355.61
393.26	368.27
393.639	375.95
394.018	369.62
394.397	355.84
394.776	372.33
395.155	342.05
395.534	371.43
395.913	373.24
396.292	368.49
396.671	354.93
397.05	356.29
397.429	365.56
397.808	380.92
398.186	380.24
398.565	380.47
398.944	364.2
399.323	380.47
399.701	359.91
400.08	381.6
400.458	378.66
400.837	392.67
401.215	358.78
401.594	373.46
401.972	383.63
402.351	376.4
402.729	375.27
403.107	392.67
403.486	375.95
403.864	410.07
404.242	398.1
404.62	402.84
404.999	375.72
405.377	409.17
405.755	399.23
406.133	394.71
406.511	399.9
406.889	407.59
407.267	415.72
407.645	421.83
408.023	399.68
408.401	409.62
408.779	412.56
409.156	434.48
409.534	407.81
409.912	414.59
410.29	439.23
410.667	430.64
411.045	449.62
411.422	431.09
411.8	435.61
412.178	444.65
412.555	439.68
412.933	443.52
413.31	444.2
413.687	434.03
414.065	432.9
414.442	445.55
414.819	451.65
415.197	464.76
415.574	456.63
415.951	457.53
416.328	464.76
416.705	466.57
417.082	458.89
417.46	470.86
417.837	457.76
418.214	475.16
418.591	495.5
418.967	464.76
419.344	488.26
419.721	478.09
420.098	479.9
420.475	455.5
420.852	482.61
421.228	499.56
421.605	489.39
421.982	492.33
422.358	509.05
422.735	502.95
423.111	485.78
423.488	517.19
423.864	503.18
424.241	504.31
424.617	492.11
424.994	542.73
425.37	509.28
425.746	523.07
426.123	513.57
426.499	504.31
426.875	533.91
427.251	530.75
427.627	508.83
428.003	561.48
428.379	526.68
428.756	556.51
429.132	552.67
429.507	556.51
429.883	544.99
430.259	571.88
430.635	574.36
431.011	555.83
431.387	588.6
431.763	570.75
432.138	583.63
432.514	597.87
432.89	591.76
433.265	577.3
433.641	591.99
434.016	587.24
434.392	595.38
434.767	618.66
435.143	615.04
435.518	639.45
435.894	626.79
436.269	623.63
436.644	627.24
437.02	636.96
437.395	647.36
437.77	656.17
438.145	682.16
438.52	650.07
438.895	665.89
439.271	654.36
439.646	666.11
440.021	677.41
440.395	668.6
440.77	665.89
441.145	661.82
441.52	671.99
441.895	675.15
442.27	708.6
442.645	711.76
443.019	705.43
443.394	688.48
443.769	707.92
444.143	711.31
444.518	718.09
444.892	688.71
445.267	708.82
445.641	705.21
446.016	710.41
446.39	727.58
446.764	719.44
447.139	744.53
447.513	738.2
447.887	762.16
448.262	746.79
448.636	746.79
449.01	735.94
449.384	746.79
449.758	741.82
450.132	773
450.506	771.65
450.88	774.13
451.254	780.46
451.628	782.49
452.002	793.79
452.376	784.53
452.75	796.5
453.123	801.48
453.497	794.24
453.871	823.17
454.244	808.48
454.618	831.76
454.992	828.14
455.365	842.15
455.739	837.63
456.112	869.72
456.486	866.33
456.859	879.44
457.232	897.97
457.606	872.21
457.979	894.36
458.352	882.6
458.725	901.13
459.099	920.34
459.472	937.97
459.845	920.57
460.218	933
460.591	950.85
460.964	941.81
461.337	959.89
461.71	951.98
462.083	985.65
462.456	1000.79
462.829	1003.73
463.201	998.76
463.574	1007.57
463.947	1021.36
464.32	1049.83
464.692	1038.31
465.065	1029.27
465.438	1076.27
465.81	1084.63
466.183	1067.01
466.555	1093.67
466.928	1129.38
467.3	1092.99
467.672	1116.5
468.045	1116.27
468.417	1168.7
468.789	1157.62
469.161	1192.65
469.534	1161.24
469.906	1210.05
470.278	1210.73
470.65	1205.99
471.022	1240.33
471.394	1235.14
471.766	1239.2
472.138	1290.73
472.51	1305.64
472.882	1298.41
473.253	1318.98
473.625	1341.57
473.997	1365.08
474.369	1345.19
474.74	1380.44
475.112	1385.19
475.484	1412.08
475.855	1416.15
476.227	1429.03
476.598	1469.48
476.97	1462.48
477.341	1495.47
477.713	1524.62
478.084	1547.9
478.455	1543.83
478.827	1589.03
479.198	1613.88
479.569	1617.5
479.94	1628.12
480.311	1659.31
480.682	1682.13
481.053	1731.85
481.424	1781.79
481.795	1763.71
482.166	1801.22
482.537	1792.41
482.908	1871.05
483.279	1890.26
483.65	1866.98
484.021	1890.04
484.391	1913.54
484.762	1957.38
485.133	1981.56
485.503	2001.22
485.874	2006.19
486.244	2079.41
486.615	2084.38
486.985	2126.19
487.356	2131.38
487.726	2140.88
488.097	2199.86
488.467	2208.9
488.837	2229.01
489.207	2246.86
489.578	2307.2
489.948	2261.78
490.318	2341.32
490.688	2361.66
491.058	2371.15
491.428	2392.62
491.798	2407.99
492.168	2488.44
492.538	2453.41
492.908	2484.82
493.278	2565.05
493.648	2552.62
494.017	2554.42
494.387	2577.25
494.757	2623.12
495.126	2632.84
495.496	2631.26
495.866	2619.51
496.235	2705.83
496.605	2731.37
496.974	2749.22
497.344	2755.55
497.713	2720.52
498.082	2786.96
498.452	2823.34
498.821	2850.69
499.19	2830.58
499.559	2869.22
499.928	2876
500.298	2909.9
500.667	2915.77
501.036	2924.13
501.405	2939.27
501.774	2969.1
502.143	3016.33
502.512	3042.55
502.88	3010.91
503.249	3058.14
503.618	3088.42
503.987	3094.52
504.356	3089.78
504.724	3139.04
505.093	3153.73
505.462	3171.36
505.83	3186.27
506.199	3236.67
506.567	3227.4
506.936	3242.77
507.304	3339.71
507.672	3299.04
508.041	3281.64
508.409	3358.7
508.777	3371.13
509.145	3440.5
509.514	3408.64
509.882	3460.62
510.25	3428.07
510.618	3487.96
510.986	3486.15
511.354	3497
511.722	3576.09
512.09	3553.27
512.458	3573.61
512.826	3623.77
513.193	3586.26
513.561	3624.45
513.929	3659.25
514.297	3725.24
514.664	3711.91
515.032	3756.2
515.4	3753.94
515.767	3787.61
516.135	3842.07
516.502	3819.93
516.869	3899.7
517.237	3905.58
517.604	3921.39
517.972	3964.1
518.339	3951.68
518.706	4014.5
519.073	4012.24
519.44	4068.28
519.808	4048.62
520.175	4116.19
520.542	4187.6
520.909	4205.23
521.276	4149.41
521.643	4234.61
522.009	4244.55
522.376	4286.58
522.743	4325
523.11	4396.41
523.477	4450.19
523.843	4458.33
524.21	4488.84
524.577	4510.53
524.943	4515.5
525.31	4556.86
525.676	4624.2
526.043	4606.57
526.409	4701.71
526.776	4733.8
527.142	4739.45
527.508	4831.88
527.874	4829.39
528.241	4841.37
528.607	4873.91
528.973	4916.62
529.339	4957.75
529.705	4988.71
530.071	5010.4
530.437	5058.09
530.803	5097.63
531.169	5104.87
531.535	5119.33
531.901	5131.98
532.267	5143.96
532.632	5223.96
532.998	5228.48
533.364	5295.37
533.73	5343.28
534.095	5342.83
534.461	5389.83
534.826	5421.02
535.192	5488.58
535.557	5518.41
535.923	5512.31
536.288	5529.04
536.653	5643.61
537.019	5587.11
537.384	5628.02
537.749	5674.34
538.114	5642.03
538.479	5667.11
538.845	5735.81
539.21	5718.18
539.575	5767.22
539.94	5797.73
540.305	5848.12
540.67	5875.69
541.034	5873.89
541.399	6012.86
541.764	6002.92
542.129	6034.56
542.494	6047.21
542.858	6089.7
543.223	6096.7
543.587	6076.37
543.952	6110.04
544.316	6234.1
544.681	6196.81
545.045	6249.02
545.41	6300.31
545.774	6323.36
546.138	6376.02
546.503	6352.06
546.867	6367.21
547.231	6457.37
547.595	6497.6
547.959	6552.96
548.324	6603.36
548.688	6648.33
549.052	6696.46
549.416	6682
549.779	6704.6
550.143	6780.98
550.507	6804.71
550.871	6908.21
551.235	6888.1
551.599	6976.68
551.962	6990.01
552.326	7114.76
552.689	7128.09
553.053	7113.17
553.417	7167.86
553.78	7293.73
554.143	7286.5
554.507	7368.54
554.87	7417.12
555.234	7475.88
555.597	7436.56
555.96	7521.98
556.323	7674.74
556.686	7668.19
557.05	7733.72
557.413	7771.01
557.776	7892.36
558.139	7972.14
558.502	7999.03
558.865	8033.38
559.228	8194.05
559.59	8199.25
559.953	8270.88
560.316	8333.93
560.679	8425.46
561.041	8473.59
561.404	8533.25
561.767	8594.72
562.129	8643.53
562.492	8777.99
562.854	8835.39
563.217	8904.99
563.579	8987.02
563.941	8992.22
564.304	9133.23
564.666	9230.63
565.028	9338.2
565.39	9329.39
565.753	9462.27
566.115	9505.88
566.477	9589.04
566.839	9718.98
567.201	9784.06
567.563	9824.29
567.925	9908.58
568.287	10008.47
568.648	10043.27
569.01	10179.31
569.372	10295.24
569.734	10279.19
570.095	10383.37
570.457	10490.71
570.819	10540.43
571.18	10622.69
571.542	10813.87
571.903	10828.11
572.265	10862.91
572.626	10952.85
572.987	11019.06
573.349	11137.25
573.71	11192.16
574.071	11247.98
574.432	11405.49
574.794	11522.32
575.155	11541.53
575.516	11506.28
575.877	11733.17
576.238	11691.13
576.599	11934.74
576.96	11887.96
577.32	11964.12
577.681	12079.6
578.042	12117.34
578.403	12210.44
578.763	12177.22
579.124	12402.98
579.485	12442.98
579.845	12570.21
580.206	12482.98
580.566	12585.12
580.927	12740.6
581.287	12726.36
581.648	12652.92
582.008	12853.14
582.368	12811.1
582.728	12954.83
583.089	12968.84
583.449	12979.46
583.809	13094.94
584.169	13199.57
584.529	13213.58
584.889	13293.8
585.249	13269.62
585.609	13386
585.969	13482.27
586.329	13479.79
586.688	13481.59
587.048	13587.35
587.408	13630.97
587.768	13698.31
588.127	13706.67
588.487	13724.53
588.846	13828.25
589.206	13781.93
589.565	13918.65
589.925	13949.38
590.284	13927.91
590.643	14009.49
591.003	14116.61
591.362	14132.2
591.721	14159.99
592.08	14212.2
592.44	14202.48
592.799	14334.45
593.158	14324.51
593.517	14341.91
593.876	14491.29
594.235	14452.87
594.593	14435.02
594.952	14508.69
595.311	14507.33
595.67	14557.5
596.029	14707.78
596.387	14701
596.746	14689.47
597.104	14755.91
597.463	14717.49
597.822	14877.72
598.18	14809.92
598.538	14847.89
598.897	14844.27
599.255	14882.69
599.613	15123.13
599.972	14983.7
600.33	15019.86
600.688	15037.71
601.046	15140.08
601.404	15217.82
601.762	15243.36
602.12	15315.22
602.478	15285.39
602.836	15352.96
603.194	15248.1
603.552	15331.49
603.91	15344.37
604.268	15442.9
604.625	15383.47
604.983	15594.31
605.341	15496.23
605.698	15614.65
606.056	15581.65
606.413	15584.82
606.771	15713.85
607.128	15700.29
607.485	15708.88
607.843	15827.07
608.2	15855.09
608.557	15919.95
608.914	15836.34
609.272	15956.11
609.629	16044.69
609.986	16094.18
610.343	16038.59
610.7	16131.24
611.057	16166.5
611.414	16041.98
611.771	16139.6
612.127	16206.95
612.484	16205.59
612.841	16265.25
613.198	16262.09
613.554	16231.13
613.911	16321.29
614.267	16373.72
614.624	16354.97
614.98	16411.91
615.337	16485.58
615.693	16422.31
616.05	16477.9
616.406	16590.21
616.762	16515.41
617.118	16612.13
617.475	16574.85
617.831	16569.65
618.187	16604.45
618.543	16678.57
618.899	16769.19
619.255	16841.73
619.611	16678.12
619.967	16773.03
620.323	16854.61
620.678	16728.97
621.034	16752.02
621.39	16771.68
621.746	16771.9
622.101	16950.43
622.457	16813.48
622.812	16838.12
623.168	16867.95
623.523	16955.85
623.879	16935.97
624.234	16881.96
624.589	16921.05
624.945	16932.35
625.3	16967.15
625.655	16975.29
626.01	17075.17
626.365	17040.15
626.72	16990.88
627.075	17042.63
627.43	16996.53
627.785	16930.32
628.14	17022.07
628.495	16951.11
628.85	16998.11
629.205	16982.75
629.559	17059.81
629.914	17076.53
630.269	17095.74
630.623	16958.34
630.978	16915.4
631.332	17009.19
631.687	17060.03
632.041	16963.54
632.396	17057.09
632.75	16943.65
633.104	17009.41
633.459	16900.71
633.813	16932.8
634.167	16886.48
634.521	16905.46
634.875	16946.36
635.229	16902.75
635.583	16867.27
635.937	16843.09
636.291	16816.87
636.645	16880.83
636.999	16731.23
637.352	16839.92
637.706	16815.97
638.06	16879.47
638.413	16713.83
638.767	16770.77
639.121	16825.91
639.474	16799.47
639.828	16682.64
640.181	16779.14
640.534	16779.81
640.888	16727.84
641.241	16698.23
641.594	16655.3
641.947	16693.71
642.301	16600.38
642.654	16664.34
643.007	16614.17
643.36	16631.57
643.713	16676.76
644.066	16658.01
644.419	16580.72
644.771	16442.65
645.124	16281.07
645.477	16309.77
645.83	16257.11
646.182	16090.34
646.535	16055.99
646.888	16130.79
647.24	15991.13
647.593	16190.22
647.945	16112.71
648.298	15998.36
648.65	16014.86
649.002	15941.19
649.355	16080.62
649.707	16015.09
650.059	16121.3
650.411	16309.09
650.763	16277
651.115	16491.69
651.467	16509.99
651.819	16485.81
652.171	16475.64
652.523	16432.93
652.875	16378.69
653.227	16358.58
653.578	16500.95
653.93	16352.48
654.282	16336.43
654.633	16336.43
654.985	16289.88
655.337	16357.45
655.688	16400.39
656.039	16419.82
656.391	16370.56
656.742	16383.89
657.094	16363.33
657.445	16394.74
657.796	16349.09
658.147	16244.69
658.498	16268.19
658.849	16351.35
659.2	16223.9
659.551	16264.35
659.902	16393.38
660.253	16336.43
660.604	16244.01
660.955	16294.63
661.306	16324.68
661.656	16265.7
662.007	16284.68
662.358	16401.29
662.708	16340.95
663.059	16338.69
663.409	16192.26
663.76	16303.89
664.11	16385.02
664.461	16375.76
664.811	16446.49
665.161	16395.64
665.511	16312.25
665.862	16398.81
666.212	16430.22
666.562	16443.78
666.912	16400.84
667.262	16444
667.612	16389.54
667.962	16508.41
668.312	16373.27
668.662	16478.35
669.011	16391.35
669.361	16460.05
669.711	16421.63
670.06	16430.44
670.41	16427.28
670.76	16378.02
671.109	16471.12
671.459	16444.23
671.808	16392.03
672.157	16431.12
672.507	16360.39
672.856	16325.59
673.205	16451.69
673.554	16492.36
673.904	16471.12
674.253	16559.93
674.602	16443.1
674.951	16234.74
675.3	16132.82
675.649	16404.91
675.998	16418.69
676.346	16469.31
676.695	16521.51
677.044	16380.95
677.393	16446.26
677.741	16504.57
678.09	16346.83
678.438	16296.21
678.787	16423.44
679.135	16403.33
679.484	16317.23
679.832	16390.22
680.181	16266.83
680.529	16289.2
680.877	16330.56
681.225	16277
681.573	16403.55
681.922	16269.54
682.27	16419.82
682.618	16330.79
682.966	16258.92
683.314	16273.16
683.661	16264.35
684.009	16196.33
684.357	16153.61
684.705	16088.76
685.053	16244.91
685.4	16156.55
685.748	16214.4
686.095	16188.42
686.443	16029.55
686.79	16064.58
687.138	16104.12
687.485	16124.01
687.832	16089.89
688.18	16014.41
688.527	15902.32
688.874	16035.43
689.221	15954.3
689.568	15948.42
689.915	15973.73
690.262	15889.67
690.609	15967.63
690.956	15843.79
691.303	15817.35
691.65	15773.29
691.997	15797.24
692.344	15766.05
692.69	15718.15
693.037	15738.03
693.383	15668.2
693.73	15696.23
694.077	15628.43
694.423	15655.32
694.769	15632.72
695.116	15540.75
695.462	15561.54
695.808	15476.8
696.155	15542.33
696.501	15451.03
696.847	15409.68
697.193	15450.81
697.539	15527.87
697.885	15383.01
698.231	15340.75
698.577	15339.85
698.923	15311.15
699.269	15262.79
699.614	15229.35
699.96	15283.36
700.306	15256.46
700.651	15215.33
700.997	15180.31
701.342	15185.73
701.688	15018.5
702.033	15052.4
702.379	15086.75
702.724	15062.12
703.069	15165.84
703.415	14845.63
703.76	14941.67
704.105	15009.01
704.45	14923.14
704.795	14823.25
705.14	14778.74
705.485	14808.57
705.83	14793.42
706.175	14809.02
706.52	14809.92
706.865	14751.39
707.209	14725.18
707.554	14698.06
707.899	14739.41
708.243	14645.86
708.588	14678.4
708.932	14644.73
709.277	14605.41
709.621	14665.29
709.966	14580.32
710.31	14538.52
710.654	14410.38
710.998	14502.36
711.342	14569.7
711.687	14488.12
712.031	14462.59
712.375	14321.35
712.719	14273.66
713.063	14419.2
713.407	14411.74
713.75	14398.63
714.094	14338.07
714.438	14307.34
714.782	14359.99
715.125	14256.49
715.469	14328.8
715.812	14266.88
716.156	14255.59
716.499	14195.02
716.843	14127.23
717.186	14151.86
717.53	14187.34
717.873	14234.12
718.216	14126.55
718.559	14091.52
718.902	14009.94
719.246	14110.73
719.589	14011.75
719.932	13990.28
720.275	13981.24
720.617	13990.96
720.96	14027.57
721.303	14016.04
721.646	13924.75
721.989	13939.44
722.331	13997.06
722.674	13882.26
723.016	13967.23
723.359	13913.22
723.701	13942.6
724.044	13870.74
724.386	13817.41
724.729	13869.16
725.071	13844.07
725.413	13910.28
725.755	13891.53
726.097	13815.15
726.439	13727.92
726.782	13773.11
727.124	13757.52
727.465	13688.37
727.807	13701.02
728.149	13691.76
728.491	13654.47
728.833	13708.93
729.175	13628.71
729.516	13666.45
729.858	13627.58
730.199	13612.21
730.541	13578.09
730.882	13588.03
731.224	13653.57
731.565	13462.84
731.906	13590.52
732.248	13585.77
732.589	13508.26
732.93	13494.48
733.271	13491.31
733.612	13492.44
733.953	13582.61
734.294	13502.39
734.635	13517.07
734.976	13553.68
735.317	13436.17
735.658	13505.32
735.999	13418.32
736.339	13465.1
736.68	13416.29
737.021	13352.56
737.361	13378.09
737.702	13408.15
738.042	13414.48
738.383	13390.07
738.723	13346.23
739.063	13250.19
739.404	13309.17
739.744	13381.71
740.084	13254.93
740.424	13271.2
740.764	13177.42
741.104	13280.47
741.444	13219.45
741.784	13210.64
742.124	13172.22
742.464	13263.3
742.804	13105.79
743.143	13182.85
743.483	13124.77
743.823	12969.97
744.162	13154.37
744.502	13111.21
744.841	12999.12
745.181	13025.56
745.52	13052.68
745.86	12974.26
746.199	13007.48
746.538	12950.31
746.877	12963.64
747.216	12972.91
747.556	12880.71
747.895	12918.45
748.234	12838.9
748.573	12849.52
748.911	12900.59
749.25	12862.63
749.589	12734.27
749.928	12862.4
750.267	12880.48
750.605	12785.79
750.944	12766.81
751.283	12737.89
751.621	12720.03
751.96	12641.84
752.298	12666.47
752.636	12649.53
752.975	12600.94
753.313	12560.49
753.651	12597.55
753.989	12493.82
754.327	12550.77
754.666	12470.77
755.004	12473.26
755.342	12489.98
755.679	12451.34
756.017	12340.83
756.355	12327.95
756.693	12296.32
757.031	12233.72
757.368	12142.19
757.706	12140.84
758.044	12170.44
758.381	12181.97
758.719	12177
759.056	12131.35
759.394	12081.63
759.731	12014.51
760.068	12003.22
760.405	11918.47
