Data from brown_tile_FLMS001491_065.txt Node
Date: Tue Feb 07 10:37:50 GMT 2017
User: dcchb
Spectrometer: FLMS00149
Trigger mode: 0
Integration Time (sec): 2.000000E-2
Scans to average: 10
Electric dark correction enabled: true
Nonlinearity correction enabled: false
Boxcar width: 0
XAxis mode: Wavelengths
Number of Pixels in Spectrum: 2048
>>>>>Begin Spectral Data<<<<<
341.393	-13.49
341.776	-13.49
342.16	-13.49
342.543	-61.4
342.927	-75.41
343.31	-41.28
343.693	-71.34
344.077	-70.89
344.46	-53.49
344.843	-56.65
345.226	-38.12
345.61	-52.36
345.993	-28.86
346.376	12.05
346.759	-14.39
347.142	31.26
347.525	43.91
347.908	76.9
348.291	86.17
348.674	84.14
349.057	92.95
349.44	114.87
349.823	147.41
350.206	173.85
350.588	175.89
350.971	170.91
351.354	202.1
351.737	224.25
352.119	235.09
352.502	270.8
352.884	276.67
353.267	278.26
353.65	303.57
354.032	290.91
354.414	301.76
354.797	311.47
355.179	295.66
355.562	306.5
355.944	327.52
356.326	303.79
356.709	339.72
357.091	327.29
357.473	327.97
357.855	332.04
358.238	330.46
358.62	327.75
359.002	320.06
359.384	321.87
359.766	323.9
360.148	326.39
360.53	330.46
360.912	312.83
361.294	322.32
361.676	336.11
362.057	305.83
362.439	324.81
362.821	312.38
363.203	326.62
363.584	322.1
363.966	324.36
364.348	309.44
364.729	297.46
365.111	331.59
365.493	308.54
365.874	313.06
366.256	303.34
366.637	310.12
367.019	293.17
367.4	288.65
367.781	306.5
368.163	311.25
368.544	319.16
368.925	305.15
369.306	322.1
369.688	303.79
370.069	316.67
370.45	308.54
370.831	299.95
371.212	305.37
371.593	288.88
371.974	287.97
372.355	313.06
372.736	292.04
373.117	298.14
373.498	295.66
373.879	297.46
374.26	307.63
374.641	288.65
375.021	272.38
375.402	297.92
375.783	308.09
376.163	331.81
376.544	316.45
376.925	300.85
377.305	305.15
377.686	322.77
378.066	306.96
378.447	304.92
378.827	328.2
379.208	312.15
379.588	302.44
379.968	319.38
380.349	301.76
380.729	301.53
381.109	314.64
381.489	341.08
381.87	327.52
382.25	325.03
382.63	320.97
383.01	333.4
383.39	318.93
383.77	325.26
384.15	340.4
384.53	313.06
384.91	320.51
385.29	347.18
385.67	309.22
386.049	334.07
386.429	329.33
386.809	337.46
387.189	342.66
387.568	340.63
387.948	352.38
388.328	330.68
388.707	350.8
389.087	332.72
389.466	329.78
389.846	337.69
390.225	341.08
390.605	338.59
390.984	340.63
391.363	344.47
391.743	350.12
392.122	355.54
392.501	350.57
392.881	341.3
393.26	362.32
393.639	339.95
394.018	371.36
394.397	362.55
394.776	374.98
395.155	368.2
395.534	350.8
395.913	355.77
396.292	369.78
396.671	365.48
397.05	356.9
397.429	377.69
397.808	372.94
398.186	372.94
398.565	365.03
398.944	375.43
399.323	366.84
399.701	382.21
400.08	379.04
400.458	372.49
400.837	360.97
401.215	371.81
401.594	369.78
401.972	384.47
402.351	373.62
402.729	370.91
403.107	378.14
403.486	405.94
403.864	391.02
404.242	419.72
404.62	370
404.999	400.29
405.377	382.66
405.755	403.45
406.133	393.05
406.511	388.08
406.889	403.68
407.267	405.26
407.645	415.65
408.023	410.91
408.401	426.73
408.779	416.1
409.156	421.3
409.534	418.14
409.912	420.85
410.29	434.41
410.667	414.52
411.045	415.2
411.422	408.65
411.8	414.3
412.178	432.83
412.555	424.01
412.933	425.6
413.31	439.61
413.687	443
414.065	455.2
414.442	443
414.819	443.9
415.197	483.9
415.574	454.75
415.951	466.05
416.328	463.79
416.705	468.53
417.082	475.54
417.46	435.77
417.837	459.72
418.214	470.34
418.591	473.73
418.967	485.48
419.344	475.31
419.721	467.85
420.098	459.04
420.475	494.07
420.852	484.58
421.228	503.11
421.605	492.71
421.982	501.75
422.358	489.32
422.735	489.78
423.111	496.78
423.488	486.16
423.864	505.82
424.241	529.77
424.617	489.32
424.994	519.15
425.37	498.59
425.746	493.62
426.123	521.41
426.499	506.95
426.875	538.36
427.251	529.32
427.627	536.55
428.003	543.33
428.379	520.51
428.756	550.79
429.132	535.65
429.507	563.45
429.883	558.25
430.259	564.58
430.635	555.31
431.011	579.26
431.387	561.86
431.763	589.89
432.138	570.23
432.514	584.01
432.89	583.11
433.265	590.56
433.641	586.27
434.016	597.34
434.392	612.03
434.767	582.88
435.143	600.28
435.518	606.83
435.894	614.52
436.269	630.11
436.644	606.83
437.02	630.34
437.395	640.51
437.77	642.31
438.145	633.5
438.52	639.6
438.895	654.52
439.271	627.62
439.646	659.49
440.021	653.39
440.395	640.96
440.77	665.82
441.145	659.49
441.52	650.45
441.895	664.46
442.27	692.26
442.645	689.54
443.019	698.58
443.394	687.28
443.769	690.45
444.143	699.71
444.518	710.56
444.892	699.26
445.267	718.24
445.641	722.31
446.016	711.24
446.39	722.31
446.764	714.63
447.139	697.91
447.513	725.93
447.887	722.31
448.262	721.63
448.636	732.48
449.01	721.86
449.384	716.66
449.758	743.55
450.132	742.65
450.506	760.95
450.88	780.84
451.254	763.67
451.628	766.15
452.002	802.76
452.376	767.28
452.75	770.45
453.123	788.07
453.497	775.19
453.871	814.96
454.244	802.54
454.618	815.42
454.992	827.62
455.365	804.34
455.739	858.35
456.112	841.63
456.486	860.39
456.859	868.97
457.232	845.7
457.606	861.52
457.979	878.01
458.352	895.41
458.725	888.63
459.099	886.15
459.472	898.8
459.845	918.24
460.218	916.43
460.591	917.11
460.964	925.92
461.337	935.87
461.71	965.69
462.083	974.28
462.456	960.05
462.829	982.19
463.201	1002.98
463.574	956.43
463.947	995.3
464.32	1001.17
464.692	1028.29
465.065	1041.63
465.438	1036.43
465.81	1058.35
466.183	1046.37
466.555	1068.07
466.928	1085.69
467.3	1064
467.672	1062.42
468.045	1127.5
468.417	1143.54
468.789	1163.66
469.161	1148.51
469.534	1158.01
469.906	1164.11
470.278	1176.99
470.65	1199.36
471.022	1214.73
471.394	1230.55
471.766	1205.01
472.138	1232.58
472.51	1270.09
472.882	1276.87
473.253	1298.79
473.625	1292.24
473.997	1328.17
474.369	1299.25
474.74	1341.05
475.112	1343.99
475.484	1410.2
475.855	1413.14
476.227	1392.35
476.598	1429.19
476.97	1460.82
477.341	1499.47
477.713	1490.65
478.084	1512.8
478.455	1537.66
478.827	1543.76
479.198	1541.72
479.569	1594.83
479.94	1613.81
480.311	1609.29
480.682	1691.1
481.053	1675.51
481.424	1710.08
481.795	1744.21
482.166	1742.62
482.537	1746.01
482.908	1806.12
483.279	1794.83
483.65	1852.9
484.021	1868.27
484.391	1896.07
484.762	1890.64
485.133	1923.41
485.503	1928.16
485.874	1977.42
486.244	2009.06
486.615	2038.66
486.985	2042.28
487.356	2097.19
487.726	2140.35
488.097	2105.33
488.467	2167.02
488.837	2190.3
489.207	2213.57
489.578	2222.39
489.948	2239.33
490.318	2287.24
490.688	2329.27
491.058	2329.05
491.428	2362.27
491.798	2385.77
492.168	2403.4
492.538	2468.25
492.908	2442.27
493.278	2497.63
493.648	2479.1
494.017	2486.78
494.387	2497.41
494.757	2557.52
495.126	2548.48
495.496	2619.21
495.866	2610.17
496.235	2615.82
496.605	2630.28
496.974	2662.83
497.344	2682.26
497.713	2689.04
498.082	2714.8
498.452	2740.34
498.821	2747.79
499.19	2786.21
499.559	2790.51
499.928	2812.65
500.298	2821.47
500.667	2835.93
501.036	2841.13
501.405	2877.96
501.774	2891.29
502.143	2910.05
502.512	2928.58
502.88	2958.86
503.249	2967.45
503.618	2983.27
503.987	2987.79
504.356	3045.41
504.724	3067.79
505.093	3081.8
505.462	3091.06
505.83	3082.02
506.199	3119.54
506.567	3151.4
506.936	3129.48
507.304	3190.95
507.672	3205.86
508.041	3235.92
508.409	3230.72
508.777	3270.27
509.145	3331.06
509.514	3306.65
509.882	3342.58
510.25	3331.28
510.618	3355.01
510.986	3381.9
511.354	3391.62
511.722	3439.98
512.09	3476.59
512.458	3493.99
512.826	3519.98
513.193	3547.1
513.561	3546.64
513.929	3584.84
514.297	3640.88
514.664	3659.86
515.032	3646.53
515.4	3692.18
515.767	3710.48
516.135	3754.77
516.502	3731.5
516.869	3793.19
517.237	3802.68
517.604	3764.94
517.972	3882
518.339	3877.71
518.706	3869.35
519.073	3940.31
519.44	3950.93
519.808	3974.66
520.175	3973.98
520.542	4057.59
520.909	4100.3
521.276	4047.87
521.643	4149.79
522.009	4174.2
522.376	4202.22
522.743	4232.5
523.11	4219.39
523.477	4298.49
523.843	4319.05
524.21	4382.1
524.577	4404.47
524.943	4436.56
525.31	4436.11
525.676	4505.26
526.043	4519.05
526.409	4593.4
526.776	4594.3
527.142	4617.35
527.508	4621.42
527.874	4715.43
528.241	4703.9
528.607	4753.39
528.973	4799.04
529.339	4863.45
529.705	4872.26
530.071	4874.29
530.437	4935.76
530.803	4928.3
531.169	5005.14
531.535	4959.49
531.901	5049.66
532.267	5064.34
532.632	5059.15
532.998	5118.13
533.364	5169.43
533.73	5138.01
534.095	5183.44
534.461	5244.68
534.826	5301.17
535.192	5302.76
535.557	5386.6
535.923	5363.09
536.288	5383.66
536.653	5391.57
537.019	5414.17
537.384	5446.71
537.749	5472.47
538.114	5597.44
538.479	5515.86
538.845	5602.18
539.21	5617.32
539.575	5610.09
539.94	5664.33
540.305	5757.66
540.67	5748.85
541.034	5764.21
541.399	5797.21
541.764	5799.92
542.129	5822.52
542.494	5886.7
542.858	5934.38
543.223	5899.12
543.587	6038.33
543.952	6000.82
544.316	6028.84
544.681	6034.71
545.045	6088.95
545.41	6123.98
545.774	6154.94
546.138	6185.44
546.503	6221.38
546.867	6199.23
547.231	6301.37
547.595	6358.55
547.959	6305.67
548.324	6402.84
548.688	6424.76
549.052	6466.34
549.416	6517.64
549.779	6469.51
550.143	6498.88
550.507	6561.71
550.871	6688.93
551.235	6678.54
551.599	6783.4
551.962	6804.41
552.326	6815.26
552.689	6906.1
553.053	6877.63
553.417	6973.22
553.78	7065.2
554.143	7049.6
554.507	7090.73
554.87	7191.29
555.234	7201.46
555.597	7251.63
555.96	7342.93
556.323	7328.47
556.686	7468.57
557.05	7491.63
557.413	7594.45
557.776	7619.76
558.139	7699.76
558.502	7720.77
558.865	7723.03
559.228	7883.93
559.59	7970.26
559.953	7973.87
560.316	8038.96
560.679	8080.54
561.041	8227.2
561.404	8259.97
561.767	8348.78
562.129	8385.16
562.492	8505.61
562.854	8534.08
563.217	8611.82
563.579	8726.62
563.941	8697.02
564.304	8804.36
564.666	8937.69
565.028	8937.69
565.39	9062.66
565.753	9084.35
566.115	9172.94
566.477	9262.88
566.839	9320.73
567.201	9460.39
567.563	9493.61
567.925	9602.53
568.287	9611.57
568.648	9700.15
569.01	9835.07
569.372	9925.69
569.734	9897.89
570.095	9949.87
570.457	10138.79
570.819	10215.4
571.18	10306.92
571.542	10407.48
571.903	10390.53
572.265	10457.2
572.626	10525.9
572.987	10632.79
573.349	10678.89
573.71	10826.23
574.071	10860.58
574.432	10887.92
574.794	11106.67
575.155	11149.61
575.516	11141.25
575.877	11239.32
576.238	11326.1
576.599	11359.77
576.96	11528.58
577.32	11487.23
577.681	11626.21
578.042	11680.67
578.403	11712.08
578.763	11751.85
579.124	11812.64
579.485	11998.17
579.845	12035.69
580.206	12084.5
580.566	12155.68
580.927	12134.89
581.287	12345.73
581.648	12236.81
582.008	12328.33
582.368	12262.12
582.728	12399.52
583.089	12566.29
583.449	12538.27
583.809	12587.08
584.169	12603.81
584.529	12726.29
584.889	12810.13
585.249	12778.72
585.609	12784.14
585.969	12874.08
586.329	12973.51
586.688	13030.24
587.048	12999.95
587.408	13074.98
587.768	13122.44
588.127	13166.5
588.487	13139.39
588.846	13334.64
589.206	13236.33
589.565	13260.51
589.925	13368.31
590.284	13327.63
590.643	13432.03
591.003	13409.21
591.362	13561.75
591.721	13593.39
592.08	13613.72
592.44	13694.17
592.799	13609.43
593.158	13731.69
593.517	13763.32
593.876	13866.15
594.235	13780.5
594.593	13875.19
594.952	13917.67
595.311	13905.47
595.67	13982.53
596.029	14055.52
596.387	14044.67
596.746	14155.86
597.104	14062.75
597.463	14106.82
597.822	14239.02
598.18	14151.56
598.538	14224.56
598.897	14332.58
599.255	14310.65
599.613	14432.69
599.972	14287.38
600.33	14487.83
600.688	14480.37
601.046	14444.89
601.404	14667.26
601.762	14612.12
602.12	14709.74
602.478	14674.26
602.836	14771.21
603.194	14677.42
603.552	14742.51
603.91	14735.95
604.268	14855.73
604.625	14795.84
604.983	14963.74
605.341	14916.51
605.698	14949.28
606.056	15002.84
606.413	14983.86
606.771	14949.28
607.128	15122.84
607.485	14907.48
607.843	15036.51
608.2	15193.34
608.557	15197.64
608.914	15200.35
609.272	15283.74
609.629	15227.01
609.986	15309.95
610.343	15253.68
610.7	15391.3
611.057	15419.55
611.414	15359.67
611.771	15337.52
612.127	15484.64
612.484	15502.04
612.841	15592.88
613.198	15505.88
613.554	15564.63
613.911	15550.17
614.267	15619.55
614.624	15582.49
614.98	15617.06
615.337	15752.42
615.693	15701.35
616.05	15713.56
616.406	15781.35
616.762	15759.88
617.118	15753.78
617.475	15728.47
617.831	15918.52
618.187	15932.08
618.543	15894.12
618.899	15972.31
619.255	15952.87
619.611	15964.85
619.967	16096.37
620.323	16137.5
620.678	15954.91
621.034	15956.71
621.39	16042.81
621.746	16013.89
622.101	16207.78
622.457	16082.13
622.812	16190.83
623.168	16194.45
623.523	16156.48
623.879	16192.87
624.234	16089.14
624.589	16138.63
624.945	16165.97
625.3	16249.59
625.655	16251.39
626.01	16233.54
626.365	16276.93
626.72	16273.54
627.075	16214.33
627.43	16240.32
627.785	16196.03
628.14	16184.28
628.495	16252.3
628.85	16238.74
629.205	16198.29
629.559	16287.78
629.914	16206.42
630.269	16185.41
630.623	16208.68
630.978	16156.26
631.332	16178.4
631.687	16239.42
632.041	16264.5
632.396	16205.07
632.75	16148.57
633.104	16047.56
633.459	16033.77
633.813	16111.06
634.167	16065.41
634.521	16118.06
634.875	16130.49
635.229	16103.15
635.583	15991.29
635.937	16044.17
636.291	16005.75
636.645	16033.77
636.999	16040.33
637.352	16016.6
637.706	15886.43
638.06	16031.51
638.413	15983.83
638.767	15954.45
639.121	15965.07
639.474	15845.08
639.828	15880.56
640.181	15888.47
640.534	15962.14
640.888	16002.36
641.241	15788.13
641.594	15795.81
641.947	16001.23
642.301	15826.77
642.654	15890.73
643.007	15882.82
643.36	15838.07
643.713	15789.49
644.066	15911.74
644.419	15842.37
644.771	15702.93
645.124	15524.18
645.477	15489.38
645.83	15413.22
646.182	15446.67
646.535	15351.31
646.888	15358.31
647.24	15328.48
647.593	15414.13
647.945	15339.55
648.298	15224.53
648.65	15300.23
649.002	15333.45
649.355	15292.78
649.707	15295.71
650.059	15464.75
650.411	15544.97
650.763	15642.6
651.115	15790.39
651.467	15689.15
651.819	15618.64
652.171	15649.15
652.523	15662.26
652.875	15621.58
653.227	15624.52
653.578	15681.01
653.93	15623.39
654.282	15570.51
654.633	15519.44
654.985	15584.52
655.337	15491.19
655.688	15555.59
656.039	15599.66
656.391	15514.24
656.742	15597.63
657.094	15622.71
657.445	15562.15
657.796	15577.29
658.147	15544.52
658.498	15526.22
658.849	15597.17
659.2	15495.26
659.551	15560.79
659.902	15489.61
660.253	15603.5
660.604	15554.24
660.955	15533.45
661.306	15608.02
661.656	15563.5
662.007	15566.89
662.358	15613.45
662.708	15557.18
663.059	15527.12
663.409	15530.96
663.76	15647.34
664.11	15516.05
664.461	15563.96
664.811	15578.42
665.161	15581.13
665.511	15587.46
665.862	15626.33
666.212	15646.44
666.562	15633.56
666.912	15745.65
667.262	15612.09
667.612	15611.86
667.962	15710.17
668.312	15501.36
668.662	15632.2
669.011	15676.95
669.361	15664.07
669.711	15690.96
670.06	15630.85
670.41	15661.13
670.76	15610.06
671.109	15698.41
671.459	15626.1
671.808	15611.19
672.157	15643.05
672.507	15505.88
672.856	15636.72
673.205	15636.27
673.554	15715.82
673.904	15626.55
674.253	15718.98
674.602	15719.43
674.951	15472.21
675.3	15391.76
675.649	15711.97
675.998	15746.55
676.346	15696.38
676.695	15685.76
677.044	15652.54
677.393	15703.61
677.741	15720.79
678.09	15696.61
678.438	15610.06
678.787	15641.02
679.135	15653.67
679.484	15536.16
679.832	15664.07
680.181	15584.29
680.529	15660.9
680.877	15604.18
681.225	15604.41
681.573	15740
681.922	15664.74
682.27	15640.34
682.618	15533
682.966	15535.93
683.314	15582.26
683.661	15466.78
684.009	15496.61
684.357	15453.68
684.705	15537.74
685.053	15485.31
685.4	15504.07
685.748	15462.04
686.095	15441.47
686.443	15396.95
686.79	15375.03
687.138	15389.72
687.485	15457.29
687.832	15421.81
688.18	15432.89
688.527	15249.16
688.874	15342.72
689.221	15334.81
689.568	15344.3
689.915	15140.69
690.262	15310.4
690.609	15197.41
690.956	15198.99
691.303	15198.99
691.65	15071.31
691.997	15009.17
692.344	14996.74
692.69	15016.17
693.037	15080.58
693.383	14930.53
693.73	14999.45
694.077	14866.57
694.423	14903.41
694.769	14962.16
695.116	14820.7
695.462	14877.19
695.808	14813.92
696.155	14850.08
696.501	14730.08
696.847	14845.78
697.193	14639.91
697.539	14690.31
697.885	14624.32
698.231	14636.07
698.577	14613.02
698.923	14548.16
699.269	14604.43
699.614	14502.74
699.96	14486.7
700.306	14487.83
700.651	14473.36
700.997	14360.15
701.342	14419.58
701.688	14447.83
702.033	14381.16
702.379	14315.4
702.724	14293.71
703.069	14423.19
703.415	14177.32
703.76	14312.46
704.105	14267.49
704.45	14290.54
704.795	14139.81
705.14	14068.85
705.485	14129.87
705.83	14067.27
706.175	14122.64
706.52	14078.57
706.865	14020.04
707.209	13976.2
707.554	13969.42
707.899	13954.51
708.243	13927.39
708.588	13963.09
708.932	13883.1
709.277	13867.05
709.621	13914.96
709.966	13859.37
710.31	13932.81
710.654	13806.71
710.998	13773.04
711.342	13783.89
711.687	13792.02
712.031	13757.22
712.375	13675.64
712.719	13702.08
713.063	13725.59
713.407	13710.67
713.75	13673.38
714.094	13628.86
714.438	13648.75
714.782	13627.28
715.125	13547.06
715.469	13647.62
715.812	13544.12
716.156	13481.3
716.499	13479.94
716.843	13568.75
717.186	13383.45
717.53	13598.13
717.873	13504.12
718.216	13515.87
718.559	13500.73
718.902	13437.68
719.246	13462.09
719.589	13381.41
719.932	13387.06
720.275	13361.98
720.617	13317.23
720.96	13356.33
721.303	13353.17
721.646	13288.76
721.989	13249.44
722.331	13332.15
722.674	13290.57
723.016	13253.73
723.359	13275.65
723.701	13193.62
724.044	13234.52
724.386	13160.63
724.729	13193.62
725.071	13239.27
725.413	13219.61
725.755	13184.81
726.097	13121.76
726.439	13169.89
726.782	13097.13
727.124	13182.1
727.465	13158.59
727.807	13091.03
728.149	13063.23
728.491	13025.72
728.833	13081.53
729.175	13024.36
729.516	13074.76
729.858	13024.13
730.199	12980.52
730.541	13008.32
730.882	13050.12
731.224	13017.81
731.565	12964.48
731.906	12959.96
732.248	12938.49
732.589	12887.64
732.93	12847.42
733.271	12842.44
733.612	12888.77
733.953	12862.56
734.294	12827.76
734.635	12781.43
734.976	12877.47
735.317	12800.86
735.658	12770.36
735.999	12841.31
736.339	12786.63
736.68	12830.92
737.021	12741.2
737.361	12792.05
737.702	12783.46
738.042	12682.67
738.383	12729
738.723	12810.81
739.063	12628.89
739.404	12696.91
739.744	12674.77
740.084	12604.03
740.424	12704.37
740.764	12595.67
741.104	12735.78
741.444	12536.46
741.784	12611.49
742.124	12571.27
742.464	12566.52
742.804	12483.58
743.143	12507.54
743.483	12570.59
743.823	12484.04
744.162	12423.7
744.502	12414.89
744.841	12375.79
745.181	12449.01
745.52	12333.53
745.86	12409.01
746.199	12388.22
746.538	12305.28
746.877	12356.81
747.216	12427.77
747.556	12301.67
747.895	12339.86
748.234	12314.78
748.573	12232.29
748.911	12296.92
749.25	12217.15
749.589	12119.53
749.928	12127.89
750.267	12245.17
750.605	12223.03
750.944	12082.46
751.283	12049.47
751.621	12117.04
751.96	12092.18
752.298	12045.18
752.636	11986.65
752.975	11874.11
753.313	11833.66
753.651	11980.09
753.989	11952.98
754.327	11783.04
754.666	11747.33
755.004	11796.82
755.342	11799.76
755.679	11799.08
756.017	11671.85
756.355	11745.3
756.693	11669.82
757.031	11657.39
757.368	11604.29
757.706	11575.81
758.044	11527
758.381	11451.29
758.719	11484.97
759.056	11548.47
759.394	11465.76
759.731	11441.8
760.068	11353.22
