Data from brown_tile_FLMS001491_085.txt Node
Date: Tue Feb 07 10:38:07 GMT 2017
User: dcchb
Spectrometer: FLMS00149
Trigger mode: 0
Integration Time (sec): 2.000000E-2
Scans to average: 10
Electric dark correction enabled: true
Nonlinearity correction enabled: false
Boxcar width: 0
XAxis mode: Wavelengths
Number of Pixels in Spectrum: 2048
>>>>>Begin Spectral Data<<<<<
341.393	7.3
341.776	7.3
342.16	7.3
342.543	-54.84
342.927	-65.24
343.31	-76.99
343.693	-79.93
344.077	-41.28
344.46	-50.32
344.843	-67.95
345.226	-62.75
345.61	-35.41
345.993	2.33
346.376	-16.2
346.759	8.43
347.142	21.99
347.525	48.43
347.908	60.41
348.291	65.15
348.674	106.06
349.057	118.03
349.44	117.58
349.823	143.8
350.206	144.7
350.588	187.41
350.971	200.97
351.354	207.97
351.737	209.1
352.119	243
352.502	250.46
352.884	257.24
353.267	243.45
353.65	281.42
354.032	284.81
354.414	294.98
354.797	297.01
355.179	283.9
355.562	311.7
355.944	301.08
356.326	315.99
356.709	318.93
357.091	316.22
357.473	323.9
357.855	317.8
358.238	335.2
358.62	329.1
359.002	311.7
359.384	324.36
359.766	304.7
360.148	320.51
360.53	328.65
360.912	330.01
361.294	317.58
361.676	322.77
362.057	325.71
362.439	303.34
362.821	341.3
363.203	334.75
363.584	318.25
363.966	311.93
364.348	298.37
364.729	324.13
365.111	307.86
365.493	291.36
365.874	309.89
366.256	301.31
366.637	302.89
367.019	300.85
367.4	293.62
367.781	293.4
368.163	312.38
368.544	291.36
368.925	285.49
369.306	300.63
369.688	311.25
370.069	284.36
370.45	304.92
370.831	277.8
371.212	302.44
371.593	301.08
371.974	279.84
372.355	282.55
372.736	281.87
373.117	299.27
373.498	297.46
373.879	284.13
374.26	299.95
374.641	311.25
375.021	290.01
375.402	304.7
375.783	309.22
376.163	306.5
376.544	307.18
376.925	319.61
377.305	330.23
377.686	328.65
378.066	302.89
378.447	317.12
378.827	289.1
379.208	321.42
379.588	316.45
379.968	300.4
380.349	299.95
380.729	300.18
381.109	345.6
381.489	332.72
381.87	321.87
382.25	317.35
382.63	320.74
383.01	327.07
383.39	311.02
383.77	346.05
384.15	336.11
384.53	318.48
384.91	313.51
385.29	335.43
385.67	333.4
386.049	329.33
386.429	314.64
386.809	321.87
387.189	332.49
387.568	340.4
387.948	325.71
388.328	345.37
388.707	333.85
389.087	339.04
389.466	334.07
389.846	338.37
390.225	339.04
390.605	340.17
390.984	328.42
391.363	350.57
391.743	359.84
392.122	344.02
392.501	344.92
392.881	341.53
393.26	347.18
393.639	359.61
394.018	366.61
394.397	377.46
394.776	356.67
395.155	362.32
395.534	354.41
395.913	335.88
396.292	372.72
396.671	370.91
397.05	362.77
397.429	366.39
397.808	341.3
398.186	361.19
398.565	353.06
398.944	358.25
399.323	378.37
399.701	362.32
400.08	387.63
400.458	368.2
400.837	348.31
401.215	369.1
401.594	389.66
401.972	359.61
402.351	378.59
402.729	395.54
403.107	396.22
403.486	379.95
403.864	369.33
404.242	380.17
404.62	387.41
404.999	415.2
405.377	394.86
405.755	386.5
406.133	404.35
406.511	416.56
406.889	417.46
407.267	396.67
407.645	380.63
408.023	379.04
408.401	406.39
408.779	405.26
409.156	383.79
409.534	404.58
409.912	412.49
410.29	421.3
410.667	431.25
411.045	419.95
411.422	420.4
411.8	409.55
412.178	430.34
412.555	431.02
412.933	414.75
413.31	427.4
413.687	432.83
414.065	433.51
414.442	435.77
414.819	420.4
415.197	469.44
415.574	425.82
415.951	431.92
416.328	431.25
416.705	454.07
417.082	461.3
417.46	463.11
417.837	446.16
418.214	425.82
418.591	450.23
418.967	460.17
419.344	471.7
419.721	466.05
420.098	461.98
420.475	461.53
420.852	480.28
421.228	453.62
421.605	466.73
421.982	467.4
422.358	491.13
422.735	479.83
423.111	482.54
423.488	476.22
423.864	473.73
424.241	475.76
424.617	508.76
424.994	496.1
425.37	494.07
425.746	497.46
426.123	493.84
426.499	484.8
426.875	500.17
427.251	501.3
427.627	511.92
428.003	513.05
428.379	505.82
428.756	531.36
429.132	550.34
429.507	534.52
429.883	527.74
430.259	544.46
430.635	549.66
431.011	528.87
431.387	568.42
431.763	560.96
432.138	561.19
432.514	564.58
432.89	580.39
433.265	561.19
433.641	596.89
434.016	574.97
434.392	562.77
434.767	570.68
435.143	571.81
435.518	576.1
435.894	605.7
436.269	590.56
436.644	626.04
437.02	604.8
437.395	611.35
437.77	606.83
438.145	602.09
438.52	616.1
438.895	635.76
439.271	636.66
439.646	638.7
440.021	638.7
440.395	635.31
440.77	641.64
441.145	636.89
441.52	659.94
441.895	648.87
442.27	655.87
442.645	671.01
443.019	650.9
443.394	655.87
443.769	662.88
444.143	647.06
444.518	654.29
444.892	673.73
445.267	685.7
445.641	689.77
446.016	680.5
446.39	679.83
446.764	688.64
447.139	671.24
447.513	685.02
447.887	681.63
448.262	670.11
448.636	693.39
449.01	722.99
449.384	715.53
449.758	723.89
450.132	722.76
450.506	727.74
450.88	727.06
451.254	702.65
451.628	714.63
452.002	729.99
452.376	741.52
452.75	769.09
453.123	737.23
453.497	769.09
453.871	791.24
454.244	764.8
454.618	768.86
454.992	765.47
455.365	799.82
455.739	812.03
456.112	811.12
456.486	811.57
456.859	804.34
457.232	807.06
457.606	826.04
457.979	841.86
458.352	844.57
458.725	844.79
459.099	832.14
459.472	851.8
459.845	873.72
460.218	847.28
460.591	889.54
460.964	873.49
461.337	881.4
461.71	908.52
462.083	923.89
462.456	935.19
462.829	915.53
463.201	946.03
463.574	928.18
463.947	962.53
464.32	971.34
464.692	971.8
465.065	973.6
465.438	972.25
465.81	1003.43
466.183	1003.43
466.555	1017.44
466.928	1008.18
467.3	1027.61
467.672	1030.55
468.045	1037.33
468.417	1039.82
468.789	1064.68
469.161	1050.66
469.534	1091.79
469.906	1087.05
470.278	1112.58
470.65	1082.08
471.022	1132.47
471.394	1131.79
471.766	1165.46
472.138	1185.12
472.51	1185.58
472.882	1166.37
473.253	1176.76
473.625	1228.96
473.997	1244.33
474.369	1260.6
474.74	1263.31
475.112	1290.66
475.484	1297.89
475.855	1310.77
476.227	1341.73
476.598	1346.48
476.97	1354.84
477.341	1377.89
477.713	1389.86
478.084	1415.4
478.455	1451.33
478.827	1438.45
479.198	1495.4
479.569	1472.35
479.94	1529.3
480.311	1538.34
480.682	1547.6
481.053	1578.33
481.424	1597.99
481.795	1617.2
482.166	1632.34
482.537	1636.86
482.908	1690.87
483.279	1705.56
483.65	1717.77
484.021	1757.76
484.391	1765.45
484.762	1809.51
485.133	1789.63
485.503	1819.68
485.874	1857.65
486.244	1871.66
486.615	1911.21
486.985	1882.73
487.356	1948.49
487.726	1992.56
488.097	1982.39
488.467	1995.95
488.837	2041.82
489.207	2067.13
489.578	2102.61
489.948	2111.65
490.318	2132.67
490.688	2166.79
491.058	2163.18
491.428	2213.35
491.798	2190.3
492.168	2244.98
492.538	2245.66
492.908	2275.72
493.278	2312.55
493.648	2312.33
494.017	2370.86
494.387	2342.38
494.757	2348.26
495.126	2394.81
495.496	2387.35
495.866	2433.45
496.235	2460.34
496.605	2451.08
496.974	2463.28
497.344	2499.67
497.713	2508.48
498.082	2510.97
498.452	2550.06
498.821	2562.26
499.19	2612.43
499.559	2624.41
499.928	2660.34
500.298	2620.11
500.667	2666.89
501.036	2702.37
501.405	2714.35
501.774	2677.74
502.143	2719.32
502.512	2754.8
502.88	2760.45
503.249	2750.73
503.618	2782.14
503.987	2809.71
504.356	2816.27
504.724	2855.59
505.093	2870.5
505.462	2874.12
505.83	2873.67
506.199	2895.14
506.567	2949.82
506.936	2940.56
507.304	2987.34
507.672	2992.31
508.041	2984.85
508.409	3008.81
508.777	3049.48
509.145	3093.77
509.514	3050.61
509.882	3142.13
510.25	3080.89
510.618	3140.55
510.986	3128.12
511.354	3159.99
511.722	3168.57
512.09	3216.71
512.458	3217.16
512.826	3282.92
513.193	3282.92
513.561	3272.3
513.929	3292.19
514.297	3350.72
514.664	3366.54
515.032	3404.27
515.4	3422.81
515.767	3438.17
516.135	3496.93
516.502	3441.56
516.869	3554.55
517.237	3521.33
517.604	3543.25
517.972	3560.65
518.339	3671.16
518.706	3609.02
519.073	3634.33
519.44	3682.23
519.808	3692.18
520.175	3703.48
520.542	3761.1
520.909	3782.12
521.276	3801.33
521.643	3841.78
522.009	3853.3
522.376	3884.26
522.743	3941.89
523.11	3956.12
523.477	4002.45
523.843	4025.5
524.21	4063.24
524.577	4137.14
524.943	4133.97
525.31	4130.58
525.676	4169
526.043	4199.96
526.409	4243.8
526.776	4313.86
527.142	4291.48
527.508	4364.02
527.874	4376.9
528.241	4403.57
528.607	4390.24
528.973	4441.54
529.339	4439.05
529.705	4529.44
530.071	4575.54
530.437	4571.93
530.803	4630.68
531.169	4637.46
531.535	4625.26
531.901	4674.75
532.267	4719.04
532.632	4744.35
532.998	4759.72
533.364	4798.59
533.73	4794.29
534.095	4855.99
534.461	4881.52
534.826	4891.47
535.192	4939.83
535.557	4961.75
535.923	4950.22
536.288	4980.73
536.653	5056.66
537.019	5043.55
537.384	5074.06
537.749	5121.29
538.114	5156.32
538.479	5122.2
538.845	5200.39
539.21	5171.46
539.575	5203.1
539.94	5323.55
540.305	5379.59
540.67	5281.51
541.034	5339.59
541.399	5417.78
541.764	5418.01
542.129	5481.96
542.494	5455.52
542.858	5537.1
543.223	5525.12
543.587	5541.39
543.952	5605.35
544.316	5664.78
544.681	5646.48
545.045	5658
545.41	5720.82
545.774	5746.81
546.138	5766.47
546.503	5782.74
546.867	5839.47
547.231	5916.53
547.595	5923.98
547.959	5959.01
548.324	5949.52
548.688	6036.75
549.052	6059.35
549.416	6061.15
549.779	6095.73
550.143	6121.49
550.507	6213.01
550.871	6293.92
551.235	6293.46
551.599	6326.68
551.962	6374.14
552.326	6440.13
552.689	6396.96
553.053	6470.63
553.417	6468.15
553.78	6648.03
554.143	6576.17
554.507	6647.13
554.87	6779.55
555.234	6839.66
555.597	6829.5
555.96	6854.35
556.323	6921.47
556.686	6992.2
557.05	7102.26
557.413	7110.84
557.776	7139.09
558.139	7229.03
558.502	7250.5
558.865	7326.66
559.228	7400.33
559.59	7479.87
559.953	7519.19
560.316	7635.35
560.679	7601.45
561.041	7725.74
561.404	7827.66
561.767	7897.04
562.129	7897.04
562.492	8006.19
562.854	8040.99
563.217	8109.69
563.579	8171.38
563.941	8297.93
564.304	8298.16
564.666	8382.22
565.028	8446.18
565.39	8533.63
565.753	8611.82
566.115	8685.72
566.477	8837.35
566.839	8869.89
567.201	8963.45
567.563	8999.38
567.925	9062.43
568.287	9128.87
568.648	9187.17
569.01	9249.09
569.372	9321.18
569.734	9384.68
570.095	9468.3
570.457	9581.74
570.819	9653.38
571.18	9736.09
571.542	9898.79
571.903	9845.91
572.265	9936.53
572.626	10003.65
572.987	10078.45
573.349	10108.73
573.71	10200.93
574.071	10352.34
574.432	10390.76
574.794	10593.69
575.155	10593.01
575.516	10586.23
575.877	10656.97
576.238	10755.04
576.599	10843.4
576.96	10916.39
577.32	11040.01
577.681	11106.22
578.042	11114.35
578.403	11206.33
578.763	11237.52
579.124	11341.92
579.485	11383.05
579.845	11465.98
580.206	11515.93
580.566	11519.32
580.927	11625.75
581.287	11749.37
581.648	11711.18
582.008	11805.86
582.368	11851.06
582.728	11893.54
583.089	11913.66
583.449	11996.37
583.809	12039.98
584.169	12141.9
584.529	12143.48
584.889	12291.27
585.249	12224.61
585.609	12309.58
585.969	12353.19
586.329	12347.77
586.688	12465.51
587.048	12491.27
587.408	12466.18
587.768	12555.9
588.127	12598.61
588.487	12655.78
588.846	12764.71
589.206	12635.9
589.565	12724.03
589.925	12806.29
590.284	12886.51
590.643	12900.3
591.003	12974.87
591.362	12954.98
591.721	12933.97
592.08	13058.26
592.44	13053.96
592.799	13104.81
593.158	13173.06
593.517	13231.59
593.876	13220.51
594.235	13252.38
594.593	13264.35
594.952	13359.95
595.311	13330.34
595.67	13368.31
596.029	13498.25
596.387	13562.88
596.746	13540.51
597.104	13532.14
597.463	13561.75
597.822	13651.24
598.18	13648.75
598.538	13626.83
598.897	13748.86
599.255	13592.71
599.613	13917.22
599.972	13803.32
600.33	13879.93
600.688	13896.2
601.046	13943.21
601.404	14062.07
601.762	14021.4
602.12	14091.68
602.478	14033.83
602.836	14111.11
603.194	13995.86
603.552	14113.15
603.91	14085.58
604.268	14159.92
604.625	14236.98
604.983	14218.45
605.341	14241.73
605.698	14350.43
606.056	14380.26
606.413	14383.42
606.771	14349.07
607.128	14437.21
607.485	14474.04
607.843	14478.11
608.2	14564.89
608.557	14579.35
608.914	14577.99
609.272	14656.41
609.629	14674.94
609.986	14752
610.343	14668.84
610.7	14818.89
611.057	14851.66
611.414	14798.55
611.771	14837.87
612.127	14914.93
612.484	15031.09
612.841	15111.54
613.198	15021.6
613.554	15037.42
613.911	15164.42
614.267	15126.23
614.624	15064.53
614.98	15141.82
615.337	15216.62
615.693	15153.8
616.05	15190.41
616.406	15314.47
616.762	15241.25
617.118	15272.21
617.475	15268.6
617.831	15365.99
618.187	15396.5
618.543	15381.59
618.899	15443.51
619.255	15410.29
619.611	15439.21
619.967	15509.72
620.323	15484.18
620.678	15490.06
621.034	15443.28
621.39	15466.33
621.746	15512.88
622.101	15612.99
622.457	15534.58
622.812	15612.32
623.168	15591.07
623.523	15680.34
623.879	15679.88
624.234	15597.63
624.589	15677.17
624.945	15655.7
625.3	15705.65
625.655	15692.31
626.01	15583.39
626.365	15725.31
626.72	15624.29
627.075	15691.64
627.43	15636.5
627.785	15632.88
628.14	15645.08
628.495	15634.69
628.85	15599.21
629.205	15608.02
629.559	15643.73
629.914	15584.97
630.269	15717.17
630.623	15564.41
630.978	15570.51
631.332	15612.99
631.687	15624.29
632.041	15641.47
632.396	15575.25
632.75	15574.58
633.104	15547.23
633.459	15544.29
633.813	15489.83
634.167	15578.64
634.521	15598.08
634.875	15542.49
635.229	15517.63
635.583	15441.92
635.937	15502.94
636.291	15370.06
636.645	15519.89
636.999	15433.79
637.352	15568.02
637.706	15432.21
638.06	15537.52
638.413	15379.78
638.767	15390.85
639.121	15447.57
639.474	15326
639.828	15460.46
640.181	15400.12
640.534	15342.04
640.888	15401.47
641.241	15299.78
641.594	15390.63
641.947	15410.51
642.301	15340.23
642.654	15241.03
643.007	15368.71
643.36	15385.65
643.713	15328.26
644.066	15297.97
644.419	15277.18
644.771	15126.45
645.124	14994.03
645.477	15030.64
645.83	14899.79
646.182	14747.48
646.535	14846.91
646.888	14834.03
647.24	14822.28
647.593	14805.56
647.945	14808.27
648.298	14766.01
648.65	14794.94
649.002	14651.89
649.355	14742.06
649.707	14736.41
650.059	14828.38
650.411	15041.48
650.763	14961.71
651.115	15197.64
651.467	15098.88
651.819	15096.85
652.171	15083.97
652.523	15020.92
652.875	15169.62
653.227	15012.78
653.578	15054.36
653.93	15100.92
654.282	15123.51
654.633	15145.21
654.985	15086.45
655.337	15013.24
655.688	14931.2
656.039	15063.86
656.391	14865.44
656.742	15071.76
657.094	14984.08
657.445	15071.99
657.796	15068.37
658.147	15098.66
658.498	15022.73
658.849	15098.88
659.2	15072.22
659.551	14954.71
659.902	15077.87
660.253	15061.6
660.604	15082.16
660.955	14997.87
661.306	15037.87
661.656	15074.02
662.007	15052.33
662.358	14961.49
662.708	15090.3
663.059	15058.66
663.409	14945.44
663.76	15096.62
664.11	15060.92
664.461	15079.9
664.811	15128.03
665.161	15046
665.511	14990.18
665.862	15076.06
666.212	15133.68
666.562	15104.08
666.912	15130.75
667.262	15134.81
667.612	15122.16
667.962	15133.46
668.312	15150.86
668.662	15263.85
669.011	15123.97
669.361	15152.67
669.711	15079.22
670.06	15028.38
670.41	15106.11
670.76	15142.27
671.109	15174.13
671.459	15058.66
671.808	15085.78
672.157	15132.1
672.507	15014.59
672.856	15107.47
673.205	15161.93
673.554	15111.54
673.904	15074.48
674.253	15222.72
674.602	15207.81
674.951	14904.76
675.3	14856.18
675.649	15096.17
675.998	15198.09
676.346	15194.47
676.695	15206.9
677.044	15026.57
677.393	15159.22
677.741	15105.89
678.09	15086.23
678.438	15091.88
678.787	15180.46
679.135	15158.09
679.484	14958.32
679.832	15106.57
680.181	15072.44
680.529	15072.22
680.877	15117.41
681.225	15075.61
681.573	15141.37
681.922	15102.27
682.27	15086.68
682.618	15052.56
682.966	15020.24
683.314	15099.33
683.661	15008.94
684.009	15016.85
684.357	14980.47
684.705	14989.28
685.053	14905.89
685.4	14923.29
685.748	14920.36
686.095	14947.47
686.443	14867.48
686.79	14841.26
687.138	14913.35
687.485	14835.61
687.832	14797.2
688.18	14875.16
688.527	14778.89
688.874	14792.9
689.221	14792.45
689.568	14726.24
689.915	14693.7
690.262	14708.61
690.609	14789.96
690.956	14663.19
691.303	14736.18
691.65	14619.12
691.997	14590.87
692.344	14577.54
692.69	14529.63
693.037	14542.29
693.383	14418.45
693.73	14603.98
694.077	14370.54
694.423	14444.44
694.769	14446.92
695.116	14411.22
695.462	14384.55
695.808	14281.95
696.155	14375.51
696.501	14280.15
696.847	14278.57
697.193	14197.89
697.539	14288.28
697.885	14194.73
698.231	14114.5
698.577	14165.8
698.923	14200.83
699.269	14175.07
699.614	14088.29
699.96	14044
700.306	14045.8
700.651	14021.17
700.997	13998.35
701.342	13959.7
701.688	13922.87
702.033	13986.37
702.379	13862.53
702.724	13865.47
703.069	13963.77
703.415	13796.77
703.76	13839.71
704.105	13767.39
704.45	13770.78
704.795	13708.64
705.14	13641.29
705.485	13762.19
705.83	13669.54
706.175	13654.85
706.52	13709.31
706.865	13539.15
707.209	13551.13
707.554	13582.09
707.899	13539.6
708.243	13599.49
708.588	13560.84
708.932	13374.86
709.277	13379.38
709.621	13447.17
709.966	13338.93
710.31	13441.53
710.654	13361.08
710.998	13334.64
711.342	13392.26
711.687	13367.18
712.031	13231.59
712.375	13301.87
712.719	13262.09
713.063	13283.34
713.407	13269.55
713.75	13237.69
714.094	13248.08
714.438	13209.44
714.782	13240.63
715.125	13174.64
715.469	13190.23
715.812	13168.54
716.156	13048.77
716.499	13104.58
716.843	13070.91
717.186	13136.67
717.53	13180.06
717.873	13049.45
718.216	13133.51
718.559	13119.95
718.902	12982.78
719.246	12959.05
719.589	12989.11
719.932	12941.65
720.275	13020.52
720.617	12896.23
720.96	12943.23
721.303	12918.15
721.646	12978.71
721.989	12877.47
722.331	12914.31
722.674	12873.18
723.016	12921.54
723.359	12830.24
723.701	12917.92
724.044	12807.64
724.386	12768.55
724.729	12756.12
725.071	12759.51
725.413	12813.07
725.755	12765.38
726.097	12708.89
726.439	12718.15
726.782	12707.08
727.124	12793.18
727.465	12683.58
727.807	12674.54
728.149	12679.29
728.491	12659.85
728.833	12724.03
729.175	12663.01
729.516	12562.23
729.858	12582.56
730.199	12592.06
730.541	12559.97
730.882	12483.81
731.224	12613.07
731.565	12501.89
731.906	12551.83
732.248	12547.09
732.589	12518.39
732.93	12480.42
733.271	12550.93
733.612	12571.04
733.953	12524.94
734.294	12447.65
734.635	12457.82
734.976	12555.45
735.317	12475.22
735.658	12368.11
735.999	12335.79
736.339	12382.8
736.68	12390.25
737.021	12317.94
737.361	12305.28
737.702	12316.13
738.042	12336.92
738.383	12274.78
738.723	12273.87
739.063	12343.47
739.404	12347.09
739.744	12288.56
740.084	12273.87
740.424	12311.61
740.764	12180.77
741.104	12292.4
741.444	12140.99
741.784	12164.95
742.124	12220.54
742.464	12203.37
742.804	12116.36
743.143	12110.71
743.483	12131.73
743.823	12078.17
744.162	12072.52
744.502	12095.35
744.841	11987.33
745.181	12015.12
745.52	11998.85
745.86	12093.54
746.199	12043.82
746.538	11953.43
746.877	11995.24
747.216	11986.87
747.556	11884.96
747.895	11984.61
748.234	11905.07
748.573	11891.74
748.911	11806.99
749.25	11832.53
749.589	11767.44
749.928	11792.75
750.267	11790.27
750.605	11754.34
750.944	11720.67
751.283	11700.78
751.621	11762.25
751.96	11659.2
752.298	11689.25
752.636	11658.97
752.975	11608.58
753.313	11583.49
753.651	11617.62
753.989	11525.42
754.327	11490.62
754.666	11445.19
755.004	11422.37
755.342	11499.2
755.679	11418.08
756.017	11292.43
756.355	11285.2
756.693	11291.75
757.031	11276.16
757.368	11256.5
757.706	11303.05
758.044	11227.8
758.381	11236.61
758.719	11169.95
759.056	11145.31
759.394	11098.08
759.731	11042.72
760.068	11016.05
760.405	10934.02
760.743	10869.84
