Data from brown_tile_FLMS001491_050.txt Node
Date: Tue Feb 07 10:37:35 GMT 2017
User: dcchb
Spectrometer: FLMS00149
Trigger mode: 0
Integration Time (sec): 2.000000E-2
Scans to average: 10
Electric dark correction enabled: true
Nonlinearity correction enabled: false
Boxcar width: 0
XAxis mode: Wavelengths
Number of Pixels in Spectrum: 2048
>>>>>Begin Spectral Data<<<<<
341.393	-20.37
341.776	-20.37
342.16	-20.37
342.543	-58.56
342.927	-68.5
343.31	-50.65
343.693	-62.85
344.077	-66.47
344.46	-57.2
344.843	-64.43
345.226	-39.12
345.61	-31.21
345.993	-26.47
346.376	-12.68
346.759	-2.74
347.142	20.54
347.525	41.1
347.908	38.16
348.291	78.61
348.674	122.91
349.057	112.51
349.44	121.78
349.823	120.65
350.206	182.57
350.588	178.95
350.971	212.85
351.354	210.59
351.737	212.4
352.119	247.2
352.502	231.38
352.884	273.41
353.267	281.55
353.65	281.55
354.032	287.87
354.414	299.4
354.797	312.28
355.179	306.63
355.562	304.37
355.944	327.87
356.326	323.13
356.709	311.38
357.091	331.04
357.473	344.37
357.855	325.84
358.238	335.56
358.62	321.09
359.002	337.59
359.384	342.79
359.766	316.12
360.148	331.04
360.53	313.41
360.912	330.58
361.294	333.3
361.676	320.64
362.057	308.44
362.439	327.42
362.821	331.26
363.203	323.35
363.584	321.77
363.966	305.73
364.348	300.08
364.729	299.62
365.111	296.46
365.493	314.31
365.874	296.69
366.256	317.03
366.637	302.56
367.019	293.3
367.4	298.49
367.781	302.56
368.163	302.56
368.544	299.62
368.925	314.31
369.306	307.99
369.688	306.63
370.069	289.91
370.45	284.48
370.831	294.43
371.212	287.42
371.593	304.37
371.974	294.2
372.355	300.08
372.736	331.26
373.117	299.4
373.498	300.98
373.879	296.91
374.26	302.79
374.641	280.19
375.021	322.9
375.402	302.79
375.783	326.97
376.163	315.67
376.544	318.61
376.925	296.91
377.305	304.82
377.686	328.78
378.066	302.79
378.447	316.57
378.827	314.31
379.208	323.35
379.588	330.81
379.968	343.24
380.349	320.42
380.729	317.93
381.109	340.3
381.489	333.07
381.87	319.29
382.25	329.68
382.63	316.35
383.01	309.79
383.39	314.54
383.77	307.53
384.15	327.19
384.53	325.16
384.91	333.3
385.29	320.87
385.67	329.23
386.049	340.3
386.429	350.92
386.809	336.46
387.189	340.98
387.568	338.95
387.948	351.6
388.328	318.83
388.707	320.87
389.087	323.13
389.466	357.93
389.846	348.66
390.225	362.67
390.605	340.3
390.984	356.8
391.363	360.41
391.743	344.82
392.122	324.93
392.501	362.45
392.881	352.5
393.26	344.14
393.639	369
394.018	354.09
394.397	353.41
394.776	341.21
395.155	343.69
395.534	363.8
395.913	378.72
396.292	365.61
396.671	364.03
397.05	379.4
397.429	362.22
397.808	354.31
398.186	371.49
398.565	385.05
398.944	364.93
399.323	375.33
399.701	375.33
400.08	363.58
400.458	377.36
400.837	383.69
401.215	377.59
401.594	366.06
401.972	383.24
402.351	396.35
402.729	382.33
403.107	411.26
403.486	402.9
403.864	364.48
404.242	391.15
404.62	394.54
404.999	404.48
405.377	387.31
405.755	394.99
406.133	415.78
406.511	399.51
406.889	390.47
407.267	399.96
407.645	415.78
408.023	402.67
408.401	404.25
408.779	438.38
409.156	416.68
409.534	422.79
409.912	413.29
410.29	419.62
410.667	429.34
411.045	417.36
411.422	425.5
411.8	429.79
412.178	439.73
412.555	421.66
412.933	438.83
413.31	436.57
413.687	450.13
414.065	425.95
414.442	447.19
414.819	449.9
415.197	439.51
415.574	463.46
415.951	434.54
416.328	449.9
416.705	460.07
417.082	455.78
417.46	435.44
417.837	445.38
418.214	467.3
418.591	457.36
418.967	478.15
419.344	467.98
419.721	469.34
420.098	476.12
420.475	479.51
420.852	475.89
421.228	481.09
421.605	472.95
421.982	485.61
422.358	506.17
422.735	485.38
423.111	507.08
423.488	481.54
423.864	517.7
424.241	515.44
424.617	495.55
424.994	503.91
425.37	523.12
425.746	512.27
426.123	530.58
426.499	525.16
426.875	528.77
427.251	549.56
427.627	539.17
428.003	536.45
428.379	543.23
428.756	559.05
429.132	550.92
429.507	566.96
429.883	544.14
430.259	549.56
430.635	536.45
431.011	564.48
431.387	583.91
431.763	563.57
432.138	577.13
432.514	591.14
432.89	574.19
433.265	581.65
433.641	578.26
434.016	596.79
434.392	599.96
434.767	620.97
435.143	616.9
435.518	630.69
435.894	599.96
436.269	613.06
436.644	614.87
437.02	644.25
437.395	657.81
437.77	625.49
438.145	640.63
438.52	648.32
438.895	629.56
439.271	653.29
439.646	661.42
440.021	649.67
440.395	648.77
440.77	657.36
441.145	663.01
441.52	683.57
441.895	662.55
442.27	688.09
442.645	677.02
443.019	692.83
443.394	719.5
443.769	707.52
444.143	695.55
444.518	695.55
444.892	703
445.267	711.59
445.641	703.46
446.016	719.05
446.39	722.89
446.764	705.26
447.139	712.95
447.513	724.7
447.887	734.19
448.262	749.78
448.636	731.48
449.01	748.65
449.384	746.62
449.758	772.15
450.132	772.83
450.506	732.61
450.88	746.62
451.254	750.91
451.628	765.6
452.002	790.01
452.376	771.7
452.75	786.17
453.123	765.83
453.497	802.21
453.871	809.89
454.244	788.65
454.618	813.28
454.992	812.83
455.365	828.42
455.739	834.98
456.112	859.84
456.486	874.07
456.859	859.38
457.232	873.85
457.606	844.92
457.979	881.98
458.352	865.03
458.725	905.03
459.099	910.68
459.472	907.97
459.845	922.66
460.218	927.18
460.591	930.34
460.964	924.69
461.337	947.74
461.71	974.41
462.083	964.47
462.456	977.57
462.829	988.42
463.201	978.03
463.574	1013.96
463.947	1010.34
464.32	1037.91
464.692	1032.49
465.065	1044.69
465.438	1047.4
465.81	1042.2
466.183	1046.5
466.555	1071.13
466.928	1111.13
467.3	1091.92
467.672	1096.67
468.045	1125.14
468.417	1135.76
468.789	1136.21
469.161	1155.2
469.534	1176.44
469.906	1172.82
470.278	1183.9
470.65	1201.07
471.022	1209.21
471.394	1220.05
471.766	1227.51
472.138	1273.61
472.51	1241.97
472.882	1271.58
473.253	1277.45
473.625	1309.99
473.997	1321.52
474.369	1336.21
474.74	1335.53
475.112	1365.36
475.484	1381.18
475.855	1411.46
476.227	1396.32
476.598	1455.07
476.97	1454.4
477.341	1461.63
477.713	1518.8
478.084	1523.32
478.455	1546.15
478.827	1535.3
479.198	1589.08
479.569	1601.51
479.94	1622.98
480.311	1643.32
480.682	1659.14
481.053	1708.4
481.424	1733.71
481.795	1726.93
482.166	1727.84
482.537	1746.59
482.908	1802.41
483.279	1841.05
483.65	1862.07
484.021	1893.03
484.391	1913.14
484.762	1943.42
485.133	1945.91
485.503	1948.4
485.874	1992.91
486.244	2014.83
486.615	2069.75
486.985	2064.55
487.356	2098.9
487.726	2128.28
488.097	2151.55
488.467	2186.35
488.837	2184.32
489.207	2186.35
489.578	2249.18
489.948	2247.37
490.318	2301.15
490.688	2275.62
491.058	2358.55
491.428	2374.15
491.798	2386.8
492.168	2429.29
492.538	2434.26
492.908	2437.65
493.278	2484.2
493.648	2483.75
494.017	2516.97
494.387	2555.38
494.757	2556.74
495.126	2628.15
495.496	2603.97
495.866	2590.19
496.235	2647.13
496.605	2673.8
496.974	2683.07
497.344	2725.1
497.713	2703.4
498.082	2753.35
498.452	2758.54
498.821	2777.75
499.19	2790.18
499.559	2868.6
499.928	2832.21
500.298	2883.51
500.667	2891.87
501.036	2903.85
501.405	2905.66
501.774	2905.66
502.143	2940.01
502.512	2977.97
502.88	2996.5
503.249	2984.53
503.618	3014.58
503.987	3087.57
504.356	3063.62
504.724	3087.8
505.093	3104.97
505.462	3084.64
505.83	3168.7
506.199	3195.82
506.567	3203.28
506.936	3199.89
507.304	3227.91
507.672	3250.51
508.041	3250.06
508.409	3274.46
508.777	3354.01
509.145	3371.18
509.514	3351.97
509.882	3368.92
510.25	3398.07
510.618	3436.94
510.986	3395.81
511.354	3451.63
511.722	3485.3
512.09	3512.65
512.458	3491.63
512.826	3541.8
513.193	3594.45
513.561	3592.65
513.929	3604.17
514.297	3641.68
514.664	3677.62
515.032	3681.91
515.4	3720.33
515.767	3740.44
516.135	3761.45
516.502	3761.45
516.869	3821.57
517.237	3861.79
517.604	3875.12
517.972	3930.49
518.339	3858.4
518.706	3903.37
519.073	3960.09
519.44	3983.14
519.808	4050.71
520.175	4037.38
520.542	4059.53
520.909	4137.94
521.276	4128.9
521.643	4191.5
522.009	4182.23
522.376	4238.96
522.743	4295.23
523.11	4322.34
523.477	4363.02
523.843	4336.35
524.21	4435.34
524.577	4461.55
524.943	4460.42
525.31	4489.57
525.676	4520.53
526.043	4585.39
526.409	4605.95
526.776	4663.8
527.142	4640.75
527.508	4709.23
527.874	4731.82
528.241	4780.64
528.607	4824.93
528.973	4847.53
529.339	4898.83
529.705	4892.72
530.071	4967.3
530.437	4994.64
530.803	5028.54
531.169	5009.78
531.535	5040.29
531.901	5093.85
532.267	5072.15
532.632	5144.02
532.998	5184.47
533.364	5225.37
533.73	5231.47
534.095	5287.52
534.461	5317.35
534.826	5332.49
535.192	5366.16
535.557	5382.88
535.923	5367.06
536.288	5445.25
536.653	5491.13
537.019	5438.7
537.384	5533.84
537.749	5608.64
538.114	5624.46
538.479	5571.58
538.845	5595.3
539.21	5666.49
539.575	5685.02
539.94	5718.24
540.305	5768.63
540.67	5780.16
541.034	5775.64
541.399	5816.09
541.764	5833.04
542.129	5915.07
542.494	5941.51
542.858	5955.07
543.223	5973.83
543.587	6081.85
543.952	6075.29
544.316	6103.54
544.681	6094.27
545.045	6193.26
545.41	6193.48
545.774	6209.3
546.138	6223.76
546.503	6278.68
546.867	6288.62
547.231	6387.83
547.595	6381.95
547.959	6448.84
548.324	6442.06
548.688	6520.93
549.052	6513.92
549.416	6542.85
549.779	6607.48
550.143	6661.04
550.507	6751.88
550.871	6744.43
551.235	6799.57
551.599	6862.16
551.962	6878.21
552.326	6965.44
552.689	7028.04
553.053	6983.06
553.417	7028.71
553.78	7137.86
554.143	7114.36
554.507	7222.83
554.87	7279.33
555.234	7397.52
555.597	7345.77
555.96	7472.32
556.323	7470.74
556.686	7517.97
557.05	7564.74
557.413	7580.11
557.776	7705.08
558.139	7733.55
558.502	7778.3
558.865	7859.88
559.228	7959.54
559.59	7976.49
559.953	8066.43
560.316	8153.2
560.679	8225.97
561.041	8320.43
561.404	8354.78
561.767	8438.39
562.129	8414.67
562.492	8604.94
562.854	8578.05
563.217	8717.93
563.579	8774.66
563.941	8849.68
564.304	8955.44
564.666	8999.28
565.028	9047.42
565.39	9077.47
565.753	9228.88
566.115	9319.5
566.477	9309.56
566.839	9409.44
567.201	9544.81
567.563	9540.96
567.925	9712.48
568.287	9763.33
568.648	9808.75
569.01	9888.3
569.372	10032.48
569.734	10024.34
570.095	10102.76
570.457	10186.82
570.819	10257.1
571.18	10375.97
571.542	10472.01
571.903	10464.56
572.265	10591.33
572.626	10712.23
572.987	10755.85
573.349	10855.05
573.71	10921.94
574.071	10972.56
574.432	11021.15
574.794	11225.44
575.155	11263.4
575.516	11237.87
575.877	11370.07
576.238	11380.01
576.599	11528.71
576.96	11549.72
577.32	11669.72
577.681	11718.76
578.042	11750.17
578.403	11787.23
578.763	11875.59
579.124	11930.51
579.485	12050.5
579.845	12078.07
580.206	12139.31
580.566	12250.05
580.927	12337.73
581.287	12334.11
581.648	12377.73
582.008	12377.05
582.368	12513.99
582.728	12480.55
583.089	12571.39
583.449	12628.34
583.809	12660.2
584.169	12722.58
584.529	12780.65
584.889	12992.17
585.249	12859.97
585.609	12859.75
585.969	13009.35
586.329	13010.93
586.688	13088.22
587.048	13094.99
587.408	13137.71
587.768	13218.38
588.127	13261.32
588.487	13229.45
588.846	13441.88
589.206	13169.57
589.565	13355.55
589.925	13430.81
590.284	13440.3
590.643	13459.5
591.003	13549.67
591.362	13658.6
591.721	13624.47
592.08	13708.54
592.44	13733.17
592.799	13727.07
593.158	13764.36
593.517	13826.73
593.876	13857.91
594.235	13824.02
594.593	13904.69
594.952	14010
595.311	14043.9
595.67	13973.16
596.029	14094.74
596.387	14162.99
596.746	14170.9
597.104	14158.47
597.463	14138.13
597.822	14258.13
598.18	14243.89
598.538	14245.25
598.897	14352.36
599.255	14321.18
599.613	14457.22
599.972	14458.35
600.33	14516.43
600.688	14402.53
601.046	14565.92
601.404	14688.63
601.762	14645.91
602.12	14741.96
602.478	14744.44
602.836	14735.4
603.194	14716.42
603.552	14780.15
603.91	14786.02
604.268	14814.5
604.625	14841.62
604.983	14957.09
605.341	14855.85
605.698	14895.63
606.056	15044.32
606.413	15056.07
606.771	15177.88
607.128	15108.95
607.485	15082.29
607.843	15098.78
608.2	15143.75
608.557	15249.06
608.914	15282.96
609.272	15297.87
609.629	15306.24
609.986	15435.95
610.343	15347.82
610.7	15500.36
611.057	15485.21
611.414	15409.06
611.771	15494.93
612.127	15582.61
612.484	15532.44
612.841	15661.48
613.198	15660.58
613.554	15633.01
613.911	15747.58
614.267	15729.05
614.624	15638.43
614.98	15815.38
615.337	15757.98
615.693	15848.37
616.05	15889.95
616.406	15902.6
616.762	15897.41
617.118	15849.72
617.475	15911.42
617.831	15894.7
618.187	15941.7
618.543	15945.77
618.899	16105.54
619.255	16070.51
619.611	16061.24
619.967	16068.25
620.323	16156.16
620.678	16066.44
621.034	16045.65
621.39	15994.58
621.746	16160
622.101	16208.81
622.457	16170.62
622.812	16135.37
623.168	16279.54
623.523	16269.83
623.879	16287.23
624.234	16204.97
624.589	16243.61
624.945	16272.76
625.3	16267.57
625.655	16290.84
626.01	16303.72
626.365	16350.95
626.72	16357.51
627.075	16316.15
627.43	16209.26
627.785	16237.74
628.14	16268.02
628.495	16277.06
628.85	16201.81
629.205	16240
629.559	16334.68
629.914	16298.98
630.269	16237.74
630.623	16259.43
630.978	16206.1
631.332	16278.41
631.687	16328.81
632.041	16239.32
632.396	16333.78
632.75	16160.68
633.104	16312.76
633.459	16168.59
633.813	16238.19
634.167	16194.35
634.521	16178.98
634.875	16198.42
635.229	16124.75
635.583	16147.12
635.937	16165.42
636.291	16103.73
636.645	16077.29
636.999	15971.3
637.352	16167.68
637.706	16077.52
638.06	16029.61
638.413	16059.21
638.767	15962.04
639.121	16023.28
639.474	15975.14
639.828	15971.98
640.181	16005.43
640.534	16013.34
640.888	16035.26
641.241	15923.17
641.594	15995.48
641.947	15919.78
642.301	15883.62
642.654	15949.16
643.007	15861.48
643.36	15952.55
643.713	15897.63
644.066	16034.8
644.419	15900.12
644.771	15814.25
645.124	15599.56
645.477	15658.77
645.83	15517.98
646.182	15581.26
646.535	15425.55
646.888	15515.72
647.24	15459.23
647.593	15483.63
647.945	15476.17
648.298	15357.31
648.65	15327.7
649.002	15277.08
649.355	15418.32
649.707	15335.16
650.059	15502.84
650.411	15604.08
650.763	15644.53
651.115	15721.59
651.467	15755.72
651.819	15744.64
652.171	15601.14
652.523	15701.71
652.875	15602.05
653.227	15594.82
653.578	15626.68
653.93	15642.95
654.282	15554.59
654.633	15558.66
654.985	15606.12
655.337	15580.58
655.688	15642.5
656.039	15697.19
656.391	15570.41
656.742	15567.02
657.094	15634.14
657.445	15587.81
657.796	15605.89
658.147	15587.13
658.498	15553.91
658.849	15631.43
659.2	15554.37
659.551	15587.36
659.902	15610.86
660.253	15640.24
660.604	15682.27
660.955	15560.47
661.306	15640.01
661.656	15618.09
662.007	15588.94
662.358	15611.76
662.708	15652.89
663.059	15604.08
663.409	15485.21
663.76	15623.06
664.11	15593.23
664.461	15704.19
664.811	15754.13
665.161	15668.71
665.511	15564.08
665.862	15762.95
666.212	15725.89
666.562	15692.21
666.912	15695.38
667.262	15579.9
667.612	15751.42
667.962	15684.76
668.312	15638.66
668.662	15687.69
669.011	15717.07
669.361	15684.31
669.711	15650.86
670.06	15619.45
670.41	15672.55
670.76	15680.46
671.109	15673.46
671.459	15659
671.808	15654.02
672.157	15756.85
672.507	15529.28
672.856	15615.15
673.205	15704.64
673.554	15718.88
673.904	15661.93
674.253	15695.38
674.602	15638.88
674.951	15403.63
675.3	15354.37
675.649	15630.75
675.998	15671.2
676.346	15697.41
676.695	15718.43
677.044	15664.87
677.393	15708.94
677.741	15679.79
678.09	15692.89
678.438	15637.98
678.787	15609.5
679.135	15596.62
679.484	15581.03
679.832	15731.54
680.181	15628.71
680.529	15632.33
680.877	15501.03
681.225	15534.93
681.573	15710.75
681.922	15567.92
682.27	15534.7
682.618	15535.83
682.966	15484.31
683.314	15569.96
683.661	15402.28
684.009	15517.53
684.357	15430.75
684.705	15422.62
685.053	15481.15
685.4	15519.11
685.748	15366.57
686.095	15450.19
686.443	15288.61
686.79	15322.73
687.138	15421.71
687.485	15412.67
687.832	15371.09
688.18	15432.79
688.527	15320.92
688.874	15303.07
689.221	15240.7
689.568	15212.45
689.915	15224.43
690.262	15282.96
690.609	15176.75
690.956	15161.38
691.303	15168.39
691.65	15123.19
691.997	15033.93
692.344	14930.88
692.69	14982.63
693.037	15042.74
693.383	14969.3
693.73	14936.08
694.077	14895.63
694.423	14961.61
694.769	14861.28
695.116	14881.39
695.462	14884.33
695.808	14857.89
696.155	14788.96
696.501	14698.34
696.847	14689.08
697.193	14633.49
697.539	14822.86
697.885	14624.22
698.231	14620.83
698.577	14615.63
698.923	14572.7
699.269	14633.71
699.614	14591.45
699.96	14542.41
700.306	14445.47
700.651	14576.31
700.997	14417.45
701.342	14472.13
701.688	14353.04
702.033	14304
702.379	14356.66
702.724	14393.72
703.069	14391.68
703.415	14295.64
703.76	14233.27
704.105	14300.61
704.45	14202.99
704.795	14199.6
705.14	14134.74
705.485	14127.96
705.83	14070.79
706.175	14145.14
706.52	14078.92
706.865	13997.34
707.209	13975.2
707.554	13975.88
707.899	14008.19
708.243	13905.14
708.588	13955.31
708.932	13880.51
709.277	13839.38
709.621	13866.95
709.966	13804.35
710.31	13914.86
710.654	13787.41
710.998	13799.61
711.342	13780.63
711.687	13763.23
712.031	13725.03
712.375	13692.72
712.719	13694.75
713.063	13631.48
713.407	13767.52
713.75	13685.26
714.094	13636.68
714.438	13615.88
714.782	13621.53
715.125	13617.01
715.469	13572.27
715.812	13532.95
716.156	13520.52
716.499	13510.12
716.843	13485.27
717.186	13398.04
717.53	13466.28
717.873	13531.14
718.216	13421.77
718.559	13377.25
718.902	13316.01
719.246	13361.88
719.589	13395.55
719.932	13234.88
720.275	13317.59
720.617	13346.29
720.96	13318.49
721.303	13381.09
721.646	13351.49
721.989	13301.77
722.331	13363.01
722.674	13287.76
723.016	13272.84
723.359	13268.55
723.701	13219.96
724.044	13162.56
724.386	13151.72
724.729	13276.23
725.071	13135.22
725.413	13172.96
725.755	13122.34
726.097	13148.78
726.439	13112.62
726.782	13089.8
727.124	13112.85
727.465	13032.4
727.807	13009.57
728.149	13044.37
728.491	13007.31
728.833	13098.38
729.175	12996.69
729.516	12951.27
729.858	12965.73
730.199	13009.57
730.541	12975.68
730.882	12919.18
731.224	12976.13
731.565	12949.46
731.906	12862.46
732.248	12915.34
732.589	12880.54
732.93	12768.22
733.271	12890.03
733.612	12825.62
733.953	12859.29
734.294	12827.88
734.635	12773.42
734.976	12811.39
735.317	12706.08
735.658	12804.61
735.999	12696.14
736.339	12719.64
736.68	12756.7
737.021	12694.55
737.361	12651.39
737.702	12697.94
738.042	12690.94
738.383	12601.9
738.723	12699.52
739.063	12635.35
739.404	12626.53
739.744	12576.82
740.084	12566.87
740.424	12569.13
740.764	12637.61
741.104	12609.81
741.444	12575.46
741.784	12441.68
742.124	12607.1
742.464	12541.34
742.804	12455.24
743.143	12492.98
743.483	12560.77
743.823	12375.01
744.162	12410.27
744.502	12406.88
744.841	12363.71
745.181	12374.56
745.52	12332.98
745.86	12302.93
746.199	12305.18
746.538	12260.67
746.877	12298.86
747.216	12265.86
747.556	12289.37
747.895	12277.39
748.234	12290.72
748.573	12201.91
748.911	12234.45
749.25	12173.66
749.589	12218.63
749.928	12066.55
750.267	12109.26
750.605	12125.75
750.944	12108.35
751.283	11979.77
751.621	12029.26
751.96	11974.35
752.298	12005.76
752.636	11982.71
752.975	11883.5
753.313	11834.24
753.651	11914.69
753.989	11827.68
754.327	11799.21
754.666	11657.74
755.004	11798.53
755.342	11810.73
755.679	11695.71
756.017	11634.92
756.355	11646.45
756.693	11567.35
757.031	11681.25
757.368	11592.44
757.706	11478.99
758.044	11526
758.381	11515.6
758.719	11480.35
759.056	11430.63
759.394	11361.03
759.731	11374.14
760.068	11368.49
