Data from brown_tile_FLMS001491_042.txt Node
Date: Tue Feb 07 10:37:33 GMT 2017
User: dcchb
Spectrometer: FLMS00149
Trigger mode: 0
Integration Time (sec): 2.000000E-2
Scans to average: 10
Electric dark correction enabled: true
Nonlinearity correction enabled: false
Boxcar width: 0
XAxis mode: Wavelengths
Number of Pixels in Spectrum: 2048
>>>>>Begin Spectral Data<<<<<
341.393	-8.52
341.776	-8.52
342.16	-8.52
342.543	-73.6
342.927	-75.18
343.31	-86.48
343.693	-57.33
344.077	-53.04
344.46	-62.98
344.843	-44
345.226	-25.47
345.61	-36.54
345.993	-20.49
346.376	-14.39
346.759	2.1
347.142	41.65
347.525	40.3
347.908	48.66
348.291	82.1
348.674	73.97
349.057	111.93
349.44	126.85
349.823	146.96
350.206	148.99
350.588	195.09
350.971	187.86
351.354	206.39
351.737	220.86
352.119	229.44
352.502	256.56
352.884	257.46
353.267	247.3
353.65	305.37
354.032	290.68
354.414	286.39
354.797	291.59
355.179	301.08
355.562	312.83
355.944	305.37
356.326	292.27
356.709	304.24
357.091	318.71
357.473	327.07
357.855	321.19
358.238	326.84
358.62	321.64
359.002	313.96
359.384	319.16
359.766	328.88
360.148	321.19
360.53	314.41
360.912	304.02
361.294	333.4
361.676	338.14
362.057	312.15
362.439	316.45
362.821	318.25
363.203	312.83
363.584	300.4
363.966	305.15
364.348	299.27
364.729	329.1
365.111	304.92
365.493	315.09
365.874	290.01
366.256	289.33
366.637	304.92
367.019	284.13
367.4	307.18
367.781	305.37
368.163	303.11
368.544	299.95
368.925	305.15
369.306	308.09
369.688	289.55
370.069	308.31
370.45	291.36
370.831	285.26
371.212	307.63
371.593	304.7
371.974	288.42
372.355	313.51
372.736	293.62
373.117	292.94
373.498	264.02
373.879	315.77
374.26	287.97
374.641	291.59
375.021	306.05
375.402	303.11
375.783	301.08
376.163	293.17
376.544	310.34
376.925	332.49
377.305	316.9
377.686	304.02
378.066	309.44
378.447	311.25
378.827	333.4
379.208	337.24
379.588	306.96
379.968	312.83
380.349	316.22
380.729	322.55
381.109	315.09
381.489	317.58
381.87	292.94
382.25	309.44
382.63	293.62
383.01	315.32
383.39	334.98
383.77	331.81
384.15	325.26
384.53	325.49
384.91	343.79
385.29	338.14
385.67	306.05
386.049	328.88
386.429	319.38
386.809	345.37
387.189	322.1
387.568	331.81
387.948	338.59
388.328	342.21
388.707	352.15
389.087	315.54
389.466	340.63
389.846	355.99
390.225	352.6
390.605	355.77
390.984	343.79
391.363	342.21
391.743	351.7
392.122	342.21
392.501	341.08
392.881	340.63
393.26	343.11
393.639	359.38
394.018	339.27
394.397	346.05
394.776	361.19
395.155	355.54
395.534	352.83
395.913	343.11
396.292	341.98
396.671	355.32
397.05	365.94
397.429	361.42
397.808	348.08
398.186	353.96
398.565	351.47
398.944	374.3
399.323	379.5
399.701	360.06
400.08	385.82
400.458	379.27
400.837	357.12
401.215	373.85
401.594	364.13
401.972	379.72
402.351	381.76
402.729	397.8
403.107	385.82
403.486	383.56
403.864	405.26
404.242	382.21
404.62	375.43
404.999	382.43
405.377	409.55
405.755	373.17
406.133	400.74
406.511	405.48
406.889	398.48
407.267	402.09
407.645	405.48
408.023	404.81
408.401	378.82
408.779	410.91
409.156	414.07
409.534	432.15
409.912	407.29
410.29	413.85
410.667	430.79
411.045	403.22
411.422	422.21
411.8	429.21
412.178	399.16
412.555	428.31
412.933	432.83
413.31	429.44
413.687	451.13
414.065	431.02
414.442	430.34
414.819	446.84
415.197	428.76
415.574	462.21
415.951	448.65
416.328	455.43
416.705	464.24
417.082	466.27
417.46	437.12
417.837	471.7
418.214	463.11
418.591	476.89
418.967	472.15
419.344	465.37
419.721	485.48
420.098	477.35
420.475	499.27
420.852	490.91
421.228	478.93
421.605	475.76
421.982	492.71
422.358	499.72
422.735	479.38
423.111	476.44
423.488	489.78
423.864	483.67
424.241	488.87
424.617	507.4
424.994	503.56
425.37	515.54
425.746	504.92
426.123	508.08
426.499	524.58
426.875	521.86
427.251	525.93
427.627	522.32
428.003	528.64
428.379	535.2
428.756	515.09
429.132	541.3
429.507	553.28
429.883	563.45
430.259	558.93
430.635	562.09
431.011	542.66
431.387	544.92
431.763	561.64
432.138	560.06
432.514	563.67
432.89	595.54
433.265	581.52
433.641	593.28
434.016	583.11
434.392	603.22
434.767	637.57
435.143	626.04
435.518	608.87
435.894	623.56
436.269	617.68
436.644	625.59
437.02	618.13
437.395	627.17
437.77	630.34
438.145	631.69
438.52	664.69
438.895	658.58
439.271	660.17
439.646	651.13
440.021	654.29
440.395	647.29
440.77	650
441.145	656.1
441.52	669.88
441.895	666.72
442.27	677.11
442.645	687.74
443.019	690
443.394	681.86
443.769	682.54
444.143	696.78
444.518	693.39
444.892	702.65
445.267	708.98
445.641	713.95
446.016	701.07
446.39	702.2
446.764	724.35
447.139	709.2
447.513	717.57
447.887	731.58
448.262	720.96
448.636	729.54
449.01	744.46
449.384	707.62
449.758	772.25
450.132	738.36
450.506	769.32
450.88	767.06
451.254	773.84
451.628	758.02
452.002	770.22
452.376	744.68
452.75	769.32
453.123	782.42
453.497	772.25
453.871	809.99
454.244	778.36
454.618	817.45
454.992	822.87
455.365	827.39
455.739	831.46
456.112	840.05
456.486	836.88
456.859	860.16
457.232	853.83
457.606	861.06
457.979	870.56
458.352	886.37
458.725	887.73
459.099	882.76
459.472	910.78
459.845	932.25
460.218	933.61
460.591	911.69
460.964	960.72
461.337	951.23
461.71	958.01
462.083	969.76
462.456	986.94
462.829	972.47
463.201	993.04
463.574	980.84
463.947	999.14
464.32	1026.71
464.692	1002.3
465.065	1008.41
465.438	1022.42
465.81	1041.4
466.183	1071
466.555	1071.45
466.928	1051.57
467.3	1076.88
467.672	1100.38
468.045	1128.18
468.417	1124.56
468.789	1135.18
469.161	1138.35
469.534	1154.16
469.906	1190.55
470.278	1166.82
470.65	1194.84
471.022	1213.82
471.394	1192.36
471.766	1225.8
472.138	1247.27
472.51	1272.81
472.882	1263.77
473.253	1310.32
473.625	1313.03
473.997	1345.57
474.369	1327.95
474.74	1342.41
475.112	1364.55
475.484	1376.08
475.855	1426.25
476.227	1423.31
476.598	1451.33
476.97	1425.34
477.341	1461.73
477.713	1489.75
478.084	1479.35
478.455	1520.26
478.827	1532.91
479.198	1577.88
479.569	1586.92
479.94	1633.47
480.311	1645.9
480.682	1647.26
481.053	1676.18
481.424	1725.22
481.795	1734.04
482.166	1743.98
482.537	1777.88
482.908	1790.98
483.279	1802.74
483.65	1875.73
484.021	1868.04
484.391	1886.8
484.762	1907.37
485.133	1940.13
485.503	1942.84
485.874	1987.59
486.244	2015.84
486.615	2053.8
486.985	2070.52
487.356	2088.83
487.726	2097.19
488.097	2127.47
488.467	2133.8
488.837	2187.58
489.207	2205.21
489.578	2244.53
489.948	2267.36
490.318	2273.68
490.688	2332.66
491.058	2338.31
491.428	2366.34
491.798	2373.79
492.168	2417.63
492.538	2453.57
492.908	2468.48
493.278	2517.07
493.648	2459.44
494.017	2500.34
494.387	2522.49
494.757	2560.46
495.126	2573.56
495.496	2591.64
495.866	2607.23
496.235	2648.81
496.605	2661.7
496.974	2716.16
497.344	2687.23
497.713	2725.2
498.082	2756.16
498.452	2744.41
498.821	2773.56
499.19	2821.01
499.559	2781.69
499.928	2837.28
500.298	2861.92
500.667	2873.44
501.036	2891.75
501.405	2913.21
501.774	2939.88
502.143	2954.12
502.512	2952.54
502.88	2985.75
503.249	3040.67
503.618	3081.35
503.987	3032.76
504.356	3063.94
504.724	3061.91
505.093	3113.44
505.462	3118.86
505.83	3161.57
506.199	3184.17
506.567	3218.52
506.936	3197.05
507.304	3229.36
507.672	3268.23
508.041	3263.04
508.409	3322.02
508.777	3288.8
509.145	3330.6
509.514	3314.79
509.882	3357.5
510.25	3390.94
510.618	3424.39
510.986	3435.46
511.354	3468
511.722	3521.11
512.09	3500.77
512.458	3514.55
512.826	3543.25
513.193	3598.17
513.561	3583.25
513.929	3641.1
514.297	3660.09
514.664	3680.88
515.032	3712.52
515.4	3748.9
515.767	3768.33
516.135	3771.95
516.502	3772.4
516.869	3798.84
517.237	3860.31
517.604	3811.27
517.972	3902.11
518.339	3945.73
518.706	3934.43
519.073	3933.98
519.44	3980.98
519.808	4038.16
520.175	4052.85
520.542	4104.14
520.909	4134.88
521.276	4088.55
521.643	4171.49
522.009	4171.71
522.376	4234.76
522.743	4231.15
523.11	4296.23
523.477	4344.36
523.843	4382.78
524.21	4361.99
524.577	4468.43
524.943	4486.73
525.31	4505.26
525.676	4532.61
526.043	4575.77
526.409	4592.27
526.776	4677.46
527.142	4667.97
527.508	4696.22
527.874	4744.35
528.241	4766.27
528.607	4804.46
528.973	4831.81
529.339	4841.3
529.705	4871.13
530.071	4931.92
530.437	4983.89
530.803	5020.28
531.169	5017.34
531.535	5018.7
531.901	5077
532.267	5072.93
532.632	5186.83
532.998	5189.31
533.364	5249.88
533.73	5249.88
534.095	5260.27
534.461	5321.06
534.826	5316.54
535.192	5354.28
535.557	5401.74
535.923	5388.63
536.288	5462.98
536.653	5495.97
537.019	5485.12
537.384	5523.32
537.749	5529.87
538.114	5572.81
538.479	5621.17
538.845	5642.63
539.21	5660.26
539.575	5700.94
539.94	5673.59
540.305	5759.69
540.67	5790.43
541.034	5714.72
541.399	5833.14
541.764	5843.98
542.129	5929.18
542.494	5924.43
542.858	5962.4
543.223	5978.44
543.587	6037.88
543.952	6057.76
544.316	6053.7
544.681	6101.61
545.045	6130.08
545.41	6226.8
545.774	6250.98
546.138	6234.71
546.503	6263.86
546.867	6304.99
547.231	6388.15
547.595	6417.98
547.959	6466.79
548.324	6488.71
548.688	6531.65
549.052	6562.38
549.416	6606.9
549.779	6613.23
550.143	6677.86
550.507	6786.11
550.871	6771.19
551.235	6768.03
551.599	6834.02
551.962	6870.17
552.326	6895.71
552.689	6980.9
553.053	7000.34
553.417	7135.48
553.78	7156.04
554.143	7171.86
554.507	7244.85
554.87	7277.17
555.234	7365.75
555.597	7367.79
555.96	7396.71
556.323	7504.05
556.686	7506.31
557.05	7626.08
557.413	7573.66
557.776	7711.51
558.139	7816.81
558.502	7840.77
558.865	7848.9
559.228	7976.81
559.59	7982.46
559.953	8078.73
560.316	8176.58
560.679	8204.83
561.041	8299.29
561.404	8429.68
561.767	8398.04
562.129	8462.67
562.492	8565.04
562.854	8577.7
563.217	8643.23
563.579	8759.84
563.941	8784.02
564.304	8860.63
564.666	9035.77
565.028	9048.42
565.39	9060.85
565.753	9237.12
566.115	9259.71
566.477	9388.52
566.839	9510.56
567.201	9507.84
567.563	9596.65
567.925	9635.52
568.287	9779.93
568.648	9783.54
569.01	9937.21
569.372	10016.76
569.734	9952.8
570.095	10092.91
570.457	10198.22
570.819	10275.05
571.18	10371.32
571.542	10460.13
571.903	10527.25
572.265	10604.31
572.626	10646.12
572.987	10755.27
573.349	10808.15
573.71	10918.2
574.071	10965.21
574.432	11014.24
574.794	11194.13
575.155	11189.61
575.516	11248.59
575.877	11311.41
576.238	11361.35
576.599	11478.64
576.96	11523.38
577.32	11592.76
577.681	11704.62
578.042	11712.76
578.403	11859.19
578.763	11861.23
579.124	11971.96
579.485	11987.1
579.845	12136.02
580.206	12140.32
580.566	12215.34
580.927	12181.45
581.287	12419.86
581.648	12361.1
582.008	12505.05
582.368	12470.93
582.728	12533.07
583.089	12625.28
583.449	12588.21
583.809	12693.07
584.169	12694.2
584.529	12737.59
584.889	12947.75
585.249	12788.21
585.609	12814.87
585.969	12961.31
586.329	13023.91
586.688	13115.21
587.048	13045.15
587.408	13117.24
587.768	13106.39
588.127	13126.05
588.487	13211.7
588.846	13347.06
589.206	13278.37
589.565	13326.27
589.925	13439.04
590.284	13372.15
590.643	13494.41
591.003	13565.59
591.362	13562.65
591.721	13612.14
592.08	13593.84
592.44	13761.52
592.799	13707.73
593.158	13726.04
593.517	13853.94
593.876	13840.38
594.235	13817.11
594.593	13869.99
594.952	13972.58
595.311	13912.02
595.67	14033.15
596.029	14108.85
596.387	14203.31
596.746	14213.03
597.104	14093.94
597.463	14174.16
597.822	14269.07
598.18	14222.52
598.538	14423.87
598.897	14406.7
599.255	14353.14
599.613	14511.78
599.972	14476.53
600.33	14528.73
600.688	14500.03
601.046	14523.08
601.404	14672.68
601.762	14672.23
602.12	14844.88
602.478	14694.37
602.836	14782.96
603.194	14756.52
603.552	14681.94
603.91	14757.2
604.268	14885.55
604.625	14788.61
604.983	14926.46
605.341	14905.89
605.698	15031.77
606.056	15041.03
606.413	15103.4
606.771	15086.23
607.128	15115.38
607.485	15040.58
607.843	15085.78
608.2	15273.34
608.557	15292.1
608.914	15182.72
609.272	15316.73
609.629	15343.17
609.986	15412.77
610.343	15311.53
610.7	15405.99
611.057	15492.09
611.414	15441.47
611.771	15440.34
612.127	15505.2
612.484	15511.75
612.841	15666.1
613.198	15560.11
613.554	15588.59
613.911	15715.36
614.267	15648.25
614.624	15742.03
614.98	15709.49
615.337	15760.33
615.693	15744.52
616.05	15854.57
616.406	15913.32
616.762	15831.97
617.118	15854.79
617.475	15887.79
617.831	15954.68
618.187	15983.83
618.543	15967.79
618.899	16075.58
619.255	16009.59
619.611	16025.64
619.967	16125.97
620.323	16100.44
620.678	16130.72
621.034	16054.34
621.39	16091.62
621.746	16117.39
622.101	16282.35
622.457	16139.31
622.812	16159.42
623.168	16234.45
623.523	16276.25
623.879	16333.88
624.234	16085.07
624.589	16282.58
624.945	16193.09
625.3	16318.29
625.655	16265.86
626.01	16288.46
626.365	16243.94
626.72	16249.59
627.075	16196.03
627.43	16271.51
627.785	16227.44
628.14	16268.34
628.495	16330.94
628.85	16289.36
629.205	16248.23
629.559	16370.71
629.914	16246.42
630.269	16302.01
630.623	16236.71
630.978	16295.46
631.332	16260.21
631.687	16233.09
632.041	16139.31
632.396	16300.88
632.75	16230.15
633.104	16196.93
633.459	16157.61
633.813	16177.5
634.167	16133.88
634.521	16044.17
634.875	16225.18
635.229	16155.8
635.583	16142.7
635.937	16026.54
636.291	16099.08
636.645	16024.28
636.999	16110.38
637.352	16178.85
637.706	16041.46
638.06	16130.04
638.413	16131.17
638.767	16034.9
639.121	16112.19
639.474	15897.28
639.828	16016.37
640.181	15955.13
640.534	16007.33
640.888	16110.83
641.241	15924.4
641.594	15900.22
641.947	16032.19
642.301	15978.18
642.654	15875.81
643.007	15950.84
643.36	15927.56
643.713	15930.95
644.066	15972.98
644.419	15820.45
644.771	15743.84
645.124	15632.65
645.477	15641.02
645.83	15520.57
646.182	15525.09
646.535	15476.73
646.888	15486.67
647.24	15424.3
647.593	15395.15
647.945	15427.46
648.298	15370.51
648.65	15347.69
649.002	15339.1
649.355	15335.49
649.707	15346.79
650.059	15461.13
650.411	15690.28
650.763	15649.6
651.115	15725.08
651.467	15645.08
651.819	15592.2
652.171	15609.83
652.523	15675.36
652.875	15636.95
653.227	15632.43
653.578	15627
653.93	15601.69
654.282	15595.14
654.633	15551.98
654.985	15587.23
655.337	15642.6
655.688	15622.48
656.039	15611.19
656.391	15586.78
656.742	15624.52
657.094	15595.14
657.445	15632.43
657.796	15658.19
658.147	15533
658.498	15585.42
658.849	15665.87
659.2	15580.45
659.551	15581.36
659.902	15681.69
660.253	15601.24
660.604	15655.48
660.955	15549.72
661.306	15638.3
661.656	15661.35
662.007	15516.5
662.358	15614.35
662.708	15664.07
663.059	15596.27
663.409	15503.17
663.76	15618.87
664.11	15610.06
664.461	15734.35
664.811	15671.52
665.161	15631.52
665.511	15540.9
665.862	15693.22
666.212	15704.29
666.562	15757.62
666.912	15683.05
667.262	15667.68
667.612	15667.23
667.962	15735.48
668.312	15599.89
668.662	15746.78
669.011	15615.25
669.361	15549.72
669.711	15647.57
670.06	15612.99
670.41	15616.16
670.76	15547.23
671.109	15701.58
671.459	15681.69
671.808	15582.03
672.157	15675.14
672.507	15597.4
672.856	15618.64
673.205	15665.87
673.554	15607.12
673.904	15707
674.253	15758.3
674.602	15673.33
674.951	15416.39
675.3	15397.86
675.649	15623.39
675.998	15599.89
676.346	15679.88
676.695	15751.29
677.044	15622.48
677.393	15670.62
677.741	15648.25
678.09	15641.47
678.438	15603.05
678.787	15664.52
679.135	15685.31
679.484	15597.17
679.832	15626.78
680.181	15615.48
680.529	15704.74
680.877	15521.47
681.225	15577.06
681.573	15701.35
681.922	15581.13
682.27	15498.42
682.618	15537.97
682.966	15461.36
683.314	15561.7
683.661	15523.5
684.009	15374.81
684.357	15443.51
684.705	15340.01
685.053	15395.82
685.4	15432.21
685.748	15392.89
686.095	15337.97
686.443	15329.16
686.79	15324.19
687.138	15403.73
687.485	15456.39
687.832	15341.14
688.18	15339.1
688.527	15340.91
688.874	15277.64
689.221	15253.45
689.568	15236.96
689.915	15290.29
690.262	15217.75
690.609	15133.46
690.956	15169.62
691.303	15100.01
691.65	15045.55
691.997	15103.4
692.344	15028.6
692.69	15025.21
693.037	15034.03
693.383	14913.8
693.73	14959.45
694.077	14909.28
694.423	14866.8
694.769	14918.1
695.116	14790.64
695.462	14889.62
695.808	14792.22
696.155	14884.2
696.501	14707.93
696.847	14775.73
697.193	14625
697.539	14743.41
697.885	14660.25
698.231	14579.35
698.577	14658.44
698.923	14577.77
699.269	14498.22
699.614	14509.52
699.96	14503.87
700.306	14462.29
700.651	14467.03
700.997	14397.21
701.342	14446.24
701.688	14358.79
702.033	14353.82
702.379	14379.81
702.724	14298.45
703.069	14403.31
703.415	14187.27
703.76	14212.35
704.105	14219.58
704.45	14365.34
704.795	14157.89
705.14	14108.63
705.485	14150.66
705.83	14033.37
706.175	14057.78
706.52	14031.34
706.865	14047.61
707.209	13984.79
707.554	13998.35
707.899	13941.4
708.243	13874.73
708.588	13983.66
708.932	13903.89
709.277	13900.27
709.621	13852.59
709.966	13839.03
710.31	13840.16
710.654	13725.81
710.998	13799.26
711.342	13864.11
711.687	13747.51
712.031	13668.64
712.375	13707.28
712.719	13746.6
713.063	13625.25
713.407	13761.06
713.75	13747.51
714.094	13562.88
714.438	13537.34
714.782	13622.76
715.125	13658.69
715.469	13614.4
715.812	13512.94
716.156	13457.34
716.499	13455.76
716.843	13437.01
717.186	13469.32
717.53	13483.11
717.873	13540.28
718.216	13506.16
718.559	13468.87
718.902	13348.65
719.246	13410.57
719.589	13394.75
719.932	13247.86
720.275	13366.27
720.617	13360.85
720.96	13365.37
721.303	13383.45
721.646	13317.01
721.989	13227.52
722.331	13262.77
722.674	13273.17
723.016	13298.25
723.359	13224.81
723.701	13284.69
724.044	13185.03
724.386	13072.04
724.729	13210.57
725.071	13092.16
725.413	13145.49
725.755	13136.9
726.097	13066.39
726.439	13042.21
726.782	13010.35
727.124	13093.29
727.465	13069.33
727.807	12986.17
728.149	13053.06
728.491	13047.19
728.833	13100.97
729.175	13033.17
729.516	12939.17
729.858	13043.12
730.199	13032.27
730.541	12943.46
730.882	12962.22
731.224	12953.85
731.565	12851.26
731.906	12918.38
732.248	12923.8
732.589	12817.81
732.93	12842.67
733.271	12830.24
733.612	12870.47
733.953	12806.97
734.294	12749.34
734.635	12753.18
734.976	12849.22
735.317	12783.01
735.658	12791.82
735.999	12736.68
736.339	12733.07
736.68	12766.51
737.021	12702.34
737.361	12669.34
737.702	12749.34
738.042	12711.15
738.383	12681.09
738.723	12678.61
739.063	12603.81
739.404	12575.33
739.744	12683.13
740.084	12623.69
740.424	12660.53
740.764	12553.19
741.104	12596.8
741.444	12564.49
741.784	12539.63
742.124	12487.43
742.464	12455.34
742.804	12437.26
743.143	12469.35
743.483	12482.68
743.823	12425.51
744.162	12462.79
744.502	12406.3
744.841	12295.11
745.181	12424.38
745.52	12363.14
745.86	12298.28
746.199	12332.85
746.538	12292.63
746.877	12342.12
747.216	12288.34
747.556	12328.11
747.895	12310.71
748.234	12177.38
748.573	12245.17
748.911	12144.84
749.25	12223.7
749.589	12068.23
749.928	12130.37
750.267	12180.54
750.605	12095.35
750.944	12057.15
751.283	11995.01
751.621	12070.26
751.96	11981
752.298	11956.82
752.636	11916.82
752.975	11900.32
753.313	11792.08
753.651	11880.89
753.989	11799.76
754.327	11815.13
754.666	11755.24
755.004	11770.61
755.342	11741.23
755.679	11702.36
756.017	11562.7
756.355	11687.22
756.693	11581.69
757.031	11611.97
757.368	11459.88
757.706	11494.91
758.044	11454.46
758.381	11493.78
758.719	11466.44
759.056	11423.5
759.394	11439.32
759.731	11335.82
760.068	11308.25
760.405	11236.39
