Data from brown_tile_FLMS001491_048.txt Node
Date: Tue Feb 07 10:37:34 GMT 2017
User: dcchb
Spectrometer: FLMS00149
Trigger mode: 0
Integration Time (sec): 2.000000E-2
Scans to average: 10
Electric dark correction enabled: true
Nonlinearity correction enabled: false
Boxcar width: 0
XAxis mode: Wavelengths
Number of Pixels in Spectrum: 2048
>>>>>Begin Spectral Data<<<<<
341.393	-6.47
341.776	-6.47
342.16	-6.47
342.543	-64.32
342.927	-64.55
343.31	-63.42
343.693	-65.68
344.077	-69.07
344.46	-58.22
344.843	-34.04
345.226	-50.08
345.61	-43.08
345.993	-24.1
346.376	0.08
346.759	8.45
347.142	48.45
347.525	51.16
347.908	58.39
348.291	52.74
348.674	86.64
349.057	101.78
349.44	111.27
349.823	159.18
350.206	163.02
350.588	185.62
350.971	190.59
351.354	199.4
351.737	223.13
352.119	230.36
352.502	243.02
352.884	244.15
353.267	257.03
353.65	260.19
354.032	272.62
354.414	284.6
354.797	287.76
355.179	279.17
355.562	323.24
355.944	307.2
356.326	301.55
356.709	338.61
357.091	346.29
357.473	335.22
357.855	327.31
358.238	331.83
358.62	316.01
359.002	317.36
359.384	332.73
359.766	341.77
360.148	306.74
360.53	331.6
360.912	331.38
361.294	312.84
361.676	326.63
362.057	306.29
362.439	313.07
362.821	301.32
363.203	297.25
363.584	303.81
363.966	315.56
364.348	326.63
364.729	315.1
365.111	321.66
365.493	298.38
365.874	307.87
366.256	312.17
366.637	305.84
367.019	298.38
367.4	294.99
367.781	304.94
368.163	301.77
368.544	292.96
368.925	297.93
369.306	301.32
369.688	303.35
370.069	300.42
370.45	298.38
370.831	285.27
371.212	287.31
371.593	282.34
371.974	304.71
372.355	313.3
372.736	308.1
373.117	280.53
373.498	307.87
373.879	275.33
374.26	296.8
374.641	311.26
375.021	282.11
375.402	310.81
375.783	302.22
376.163	316.69
376.544	292.05
376.925	325.95
377.305	305.61
377.686	304.03
378.066	326.18
378.447	313.75
378.827	329.12
379.208	308.1
379.588	323.01
379.968	309.23
380.349	321.66
380.729	339.51
381.109	319.85
381.489	341.32
381.87	320.75
382.25	314.2
382.63	327.53
383.01	342.22
383.39	348.78
383.77	333.86
384.15	314.88
384.53	330.47
384.91	328.66
385.29	310.59
385.67	332.28
386.049	339.51
386.429	336.8
386.809	322.11
387.189	332.28
387.568	330.25
387.948	339.96
388.328	337.48
388.707	348.32
389.087	352.17
389.466	346.29
389.846	350.36
390.225	341.32
390.605	349.45
390.984	348.1
391.363	338.61
391.743	356.69
392.122	370.92
392.501	353.07
392.881	358.04
393.26	345.39
393.639	348.1
394.018	365.05
394.397	359.62
394.776	343.8
395.155	338.61
395.534	371.83
395.913	354.88
396.292	370.7
396.671	367.53
397.05	352.39
397.429	372.28
397.808	354.88
398.186	356.23
398.565	353.75
398.944	365.5
399.323	371.83
399.701	371.83
400.08	365.5
400.458	378.38
400.837	372.28
401.215	364.14
401.594	364.82
401.972	387.65
402.351	398.27
402.729	395.1
403.107	406.85
403.486	379.28
403.864	385.39
404.242	379.28
404.62	363.69
404.999	379.28
405.377	373.86
405.755	403.24
406.133	392.16
406.511	403.24
406.889	395.78
407.267	396.46
407.645	389.23
408.023	414.76
408.401	407.08
408.779	405.95
409.156	433.75
409.534	413.41
409.912	421.54
410.29	439.17
410.667	435.78
411.045	430.58
411.422	436.23
411.8	448.21
412.178	424.48
412.555	437.36
412.933	447.08
413.31	438.49
413.687	444.14
414.065	466.51
414.442	449.79
414.819	471.26
415.197	451.15
415.574	468.32
415.951	450.47
416.328	443.24
416.705	453.86
417.082	479.85
417.46	449.56
417.837	466.74
418.214	466.51
418.591	478.49
418.967	476.91
419.344	479.85
419.721	477.36
420.098	468.77
420.475	480.52
420.852	491.82
421.228	486.4
421.605	492.05
421.982	472.61
422.358	478.49
422.735	497.47
423.111	483.91
423.488	494.76
423.864	496.57
424.241	505.61
424.617	508.55
424.994	515.1
425.37	502.44
425.746	504.7
426.123	511.26
426.499	509
426.875	518.26
427.251	527.98
427.627	531.14
428.003	540.64
428.379	533.18
428.756	543.8
429.132	571.14
429.507	537.7
429.883	541.09
430.259	565.04
430.635	573.63
431.011	579.28
431.387	568.43
431.763	579.28
432.138	575.21
432.514	579.28
432.89	578.6
433.265	605.04
433.641	580.18
434.016	597.13
434.392	612.95
434.767	602.1
435.143	604.59
435.518	634.42
435.894	621.31
436.269	619.28
436.644	640.07
437.02	626.73
437.395	622.44
437.77	654.76
438.145	657.92
438.52	645.94
438.895	663.57
439.271	651.82
439.646	656.34
440.021	681.65
440.395	700.86
440.77	661.99
441.145	650.01
441.52	679.61
441.895	690.91
442.27	686.39
442.645	682.1
443.019	686.17
443.394	671.71
443.769	696.56
444.143	678.94
444.518	701.99
444.892	683.46
445.267	686.39
445.641	724.36
446.016	694.76
446.39	709.9
446.764	732.95
447.139	703.8
447.513	730.46
447.887	722.1
448.262	744.25
448.636	720.97
449.01	719.61
449.384	742.89
449.758	747.41
450.132	735.66
450.506	760.74
450.88	770.23
451.254	741.76
451.628	759.84
452.002	784.47
452.376	770.46
452.75	760.06
453.123	771.36
453.497	784.7
453.871	812.27
454.244	810.68
454.618	817.01
454.992	819.72
455.365	801.19
455.739	845.26
456.112	835.09
456.486	868.31
456.859	869.89
457.232	880.06
457.606	860.85
457.979	871.47
458.352	885.94
458.725	923.9
459.099	929.78
459.472	899.95
459.845	919.61
460.218	926.61
460.591	925.71
460.964	955.54
461.337	960.74
461.71	958.7
462.083	980.4
462.456	985.6
462.829	1012.04
463.201	985.82
463.574	992.83
463.947	1017.46
464.32	1001.41
464.692	1041.87
465.065	1006.61
465.438	1023.33
465.81	1075.76
466.183	1046.38
466.555	1064.24
466.928	1090.68
467.3	1079.6
467.672	1104.01
468.045	1127.29
468.417	1112.6
468.789	1130.68
469.161	1134.07
469.534	1172.94
469.906	1178.58
470.278	1168.19
470.65	1196.21
471.022	1188.53
471.394	1236.44
471.766	1209.77
472.138	1243.22
472.51	1255.64
472.882	1281.41
473.253	1300.16
473.625	1308.98
473.997	1339.48
474.369	1359.37
474.74	1364.57
475.112	1360.73
475.484	1397.11
475.855	1424.45
476.227	1432.59
476.598	1440.72
476.97	1447.05
477.341	1485.47
477.713	1516.88
478.084	1500.84
478.455	1538.58
478.827	1551.68
479.198	1603.43
479.569	1602.53
479.94	1612.92
480.311	1652.7
480.682	1665.13
481.053	1718.91
481.424	1747.61
481.795	1734.05
482.166	1746.93
482.537	1789.64
482.908	1824.9
483.279	1802.3
483.65	1830.09
484.021	1909.64
484.391	1884.55
484.762	1945.34
485.133	1956.42
485.503	1921.16
485.874	2009.07
486.244	1995.29
486.615	2046.13
486.985	2090.65
487.356	2094.72
487.726	2136.53
488.097	2132.91
488.467	2129.52
488.837	2232.79
489.207	2203.42
489.578	2251.1
489.948	2268.95
490.318	2298.56
490.688	2301.27
491.058	2313.02
491.428	2376.52
491.798	2383.75
492.168	2437.99
492.538	2448.16
492.908	2483.41
493.278	2472.79
493.648	2521.83
494.017	2539.45
494.387	2534.48
494.757	2522.96
495.126	2590.3
495.496	2578.32
495.866	2596.4
496.235	2661.71
496.605	2690.41
496.974	2678.66
497.344	2704.42
497.713	2724.76
498.082	2730.18
498.452	2777.41
498.821	2783.06
499.19	2778.77
499.559	2836.17
499.928	2827.58
500.298	2840.24
500.667	2888.14
501.036	2879.56
501.405	2908.26
501.774	2929.05
502.143	2935.37
502.512	2983.06
502.88	2995.26
503.249	3013.79
503.618	3007.69
503.987	3035.49
504.356	3056.5
504.724	3094.92
505.093	3113.9
505.462	3097.86
505.83	3122.49
506.199	3185.31
506.567	3186.44
506.936	3209.27
507.304	3258.3
507.672	3258.53
508.041	3268.25
508.409	3348.47
508.777	3338.53
509.145	3353.44
509.514	3360
509.882	3389.37
510.25	3410.62
510.618	3377.17
510.986	3441.8
511.354	3438.19
511.722	3471.18
512.09	3488.13
512.458	3523.61
512.826	3574
513.193	3578.75
513.561	3606.77
513.929	3599.31
514.297	3643.6
514.664	3682.93
515.032	3715.47
515.4	3696.71
515.767	3714.34
516.135	3813.77
516.502	3779.87
516.869	3823.49
517.237	3841.34
517.604	3834.11
517.972	3923.6
518.339	3935.35
518.706	3942.35
519.073	3929.25
519.44	3962.69
519.808	4023.26
520.175	4080.43
520.542	4084.72
520.909	4108.45
521.276	4106.64
521.643	4193.65
522.009	4211.27
522.376	4266.64
522.743	4250.37
523.11	4274.55
523.477	4345.28
523.843	4374.66
524.21	4419.86
524.577	4437.71
524.943	4480.87
525.31	4496.01
525.676	4572.39
526.043	4561.77
526.409	4569.23
526.776	4628.66
527.142	4689.68
527.508	4704.59
527.874	4758.6
528.241	4747.53
528.607	4809.22
528.973	4841.09
529.339	4837.7
529.705	4890.13
530.071	4929.67
530.437	4962.89
530.803	5027.3
531.169	5028.43
531.535	5052.83
531.901	5091.25
532.267	5094.64
532.632	5147.97
532.998	5144.58
533.364	5237.01
533.73	5206.5
534.095	5241.3
534.461	5314.52
534.826	5328.31
535.192	5354.75
535.557	5434.97
535.923	5451.24
536.288	5471.35
536.653	5474.74
537.019	5512.71
537.384	5498.25
537.749	5562.2
538.114	5586.15
538.479	5617.34
538.845	5661.4
539.21	5672.7
539.575	5689.65
539.94	5738.69
540.305	5765.81
540.67	5728.3
541.034	5817.11
541.399	5845.58
541.764	5883.77
542.129	5900.27
542.494	5926.26
542.858	5990.89
543.223	5953.15
543.587	6074.95
543.952	6050.32
544.316	6081.96
544.681	6141.17
545.045	6174.16
545.41	6241.73
545.774	6246.25
546.138	6285.57
546.503	6266.13
546.867	6286.93
547.231	6409.86
547.595	6412.8
547.959	6449.86
548.324	6458.45
548.688	6492.12
549.052	6512
549.416	6634.49
549.779	6630.19
550.143	6641.04
550.507	6751.55
550.871	6779.34
551.235	6815.05
551.599	6886.46
551.962	6878.1
552.326	6927.59
552.689	6976.62
553.053	7042.39
553.417	7068.37
553.78	7083.74
554.143	7169.61
554.507	7201.48
554.87	7303.62
555.234	7402.15
555.597	7323.28
555.96	7454.35
556.323	7431.3
556.686	7485.54
557.05	7600.79
557.413	7648.7
557.776	7676.72
558.139	7799.2
558.502	7781.8
558.865	7948.12
559.228	7984.28
559.59	7979.54
559.953	8117.39
560.316	8166.42
560.679	8222.69
561.041	8273.31
561.404	8345.63
561.767	8439.41
562.129	8497.49
562.492	8580.65
562.854	8650.25
563.217	8674.21
563.579	8768.67
563.941	8850.02
564.304	8944.03
564.666	9047.76
565.028	9033.75
565.39	9108.32
565.753	9263.34
566.115	9327.98
566.477	9426.73
566.839	9401.42
567.201	9478.71
567.563	9546.05
567.925	9727.29
568.287	9686.84
568.648	9854.97
569.01	9886.15
569.372	9972.25
569.734	10016.09
570.095	10133.38
570.457	10231.91
570.819	10264.22
571.18	10419.02
571.542	10402.75
571.903	10498.57
572.265	10575.4
572.626	10727.03
572.987	10709.41
573.349	10832.79
573.71	10968.61
574.071	11002.51
574.432	11019.91
574.794	11130.64
575.155	11209.28
575.516	11165.67
575.877	11317.08
576.238	11400.91
576.599	11489.95
576.96	11540.12
577.32	11588.03
577.681	11680.23
578.042	11845.87
578.403	11751.19
578.763	11915.03
579.124	11912.31
579.485	12085.87
579.845	12134.91
580.206	12169.48
580.566	12213.55
580.927	12176.94
581.287	12376.26
581.648	12403.37
582.008	12442.7
582.368	12419.42
582.728	12568.34
583.089	12533.99
583.449	12621.22
583.809	12703.48
584.169	12680.66
584.529	12798.84
584.889	12879.75
585.249	12832.06
585.609	12893.98
585.969	12980.53
586.329	13065.28
586.688	13113.86
587.048	13135.78
587.408	13108.89
587.768	13185.73
588.127	13186.86
588.487	13168.1
588.846	13364.93
589.206	13357.47
589.565	13281.77
589.925	13429.11
590.284	13376
590.643	13459.84
591.003	13469.34
591.362	13569.45
591.721	13609.44
592.08	13603.79
592.44	13735.99
592.799	13760.85
593.158	13763.11
593.517	13795.43
593.876	13865.71
594.235	13825.03
594.593	13907.06
594.952	13912.04
595.311	14010.56
595.67	13949.32
596.029	14061.41
596.387	14119.71
596.746	14222.08
597.104	14155.19
597.463	14189.09
597.822	14288.75
598.18	14306.83
598.538	14289.2
598.897	14452.81
599.255	14272.93
599.613	14613.71
599.972	14475.18
600.33	14486.94
600.688	14503.43
601.046	14540.27
601.404	14631.11
601.762	14589.76
602.12	14654.84
602.478	14639.93
602.836	14756.76
603.194	14804.22
603.552	14789.3
603.91	14764.44
604.268	14837.66
604.625	14831.33
604.983	14890.99
605.341	14872.46
605.698	14980.93
606.056	15027.49
606.413	15009.86
606.771	15103.64
607.128	15108.61
607.485	15058.45
607.843	15013.48
608.2	15123.3
608.557	15286.69
608.914	15197.2
609.272	15298.89
609.629	15365.78
609.986	15404.43
610.343	15408.95
610.7	15474.03
611.057	15466.34
611.414	15524.65
611.771	15490.98
612.127	15521.26
612.484	15556.51
612.841	15584.53
613.198	15562.39
613.554	15622.5
613.911	15629.73
614.267	15675.38
614.624	15723.06
614.98	15713.57
615.337	15801.25
615.693	15747.92
616.05	15827.47
616.406	15877.86
616.762	15856.84
617.118	15884.41
617.475	15871.53
617.831	15920.12
618.187	15894.36
618.543	15916.95
618.899	16111.07
619.255	16064.97
619.611	16001.47
619.967	16164.63
620.323	16165.08
620.678	16106.1
621.034	16069.94
621.39	16027.91
621.746	16120.56
622.101	16246.21
622.457	16091.87
622.812	16124.86
623.168	16216.16
623.523	16208.25
623.879	16309.94
624.234	16145.2
624.589	16269.26
624.945	16270.17
625.3	16215.48
625.655	16377.73
626.01	16368.69
626.365	16274.01
626.72	16292.09
627.075	16228.81
627.43	16290.96
627.785	16243.27
628.14	16254.57
628.495	16271.75
628.85	16275.36
629.205	16311.07
629.559	16326.66
629.914	16202.82
630.269	16236.95
630.623	16258.19
630.978	16271.3
631.332	16230.62
631.687	16313.33
632.041	16220.45
632.396	16258.41
632.75	16220.9
633.104	16175.03
633.459	16140
633.813	16173.44
634.167	16189.94
634.521	16162.82
634.875	16213.9
635.229	16225.65
635.583	16162.15
635.937	16121.47
636.291	16100.9
636.645	16088.93
636.999	16068.59
637.352	16136.16
637.706	16017.29
638.06	16116.05
638.413	16052.09
638.767	16081.02
639.121	16149.94
639.474	16045.09
639.828	16013.22
640.181	16021.36
640.534	16071.98
640.888	16019.55
641.241	15884.64
641.594	15933
641.947	15989.04
642.301	15892.1
642.654	16013.22
643.007	15990.85
643.36	15951.76
643.713	15884.86
644.066	15994.47
644.419	15870.18
644.771	15799.67
645.124	15613.01
645.477	15650.75
645.83	15553.35
646.182	15492.33
646.535	15462.5
646.888	15519.45
647.24	15412.11
647.593	15523.97
647.945	15449.17
648.298	15443.75
648.65	15381.6
649.002	15281.04
649.355	15427.02
649.707	15320.36
650.059	15370.08
650.411	15524.65
650.763	15574.59
651.115	15775.72
651.467	15745.89
651.819	15775.72
652.171	15772.33
652.523	15585.21
652.875	15641.93
653.227	15565.33
653.578	15721.93
653.93	15636.06
654.282	15587.02
654.633	15497.76
654.985	15629.96
655.337	15566
655.688	15648.49
656.039	15701.59
656.391	15485.1
656.742	15609.84
657.094	15622.5
657.445	15709.05
657.796	15653.68
658.147	15541.6
658.498	15504.31
658.849	15621.37
659.2	15612.33
659.551	15603.52
659.902	15571.2
660.253	15583.86
660.604	15651.88
660.955	15548.38
661.306	15614.14
661.656	15608.94
662.007	15599.45
662.358	15688.49
662.708	15551.31
663.059	15591.99
663.409	15525.1
663.76	15636.74
664.11	15693.91
664.461	15647.58
664.811	15715.15
665.161	15676.51
665.511	15599.45
665.862	15671.76
666.212	15726
666.562	15770.97
666.912	15632.22
667.262	15713.12
667.612	15660.01
667.962	15661.82
668.312	15657.3
668.662	15801.25
669.011	15616.17
669.361	15730.07
669.711	15617.08
670.06	15670.18
670.41	15654.81
670.76	15648.03
671.109	15721.71
671.459	15728.71
671.808	15665.21
672.157	15679.45
672.507	15591.09
672.856	15664.76
673.205	15678.32
673.554	15625.66
673.904	15707.69
674.253	15742.5
674.602	15754.7
674.951	15522.39
675.3	15390.87
675.649	15656.62
675.998	15654.36
676.346	15666.11
676.695	15743.63
677.044	15646.45
677.393	15609.62
677.741	15690.07
678.09	15644.87
678.438	15637.64
678.787	15742.72
679.135	15682.84
679.484	15583.18
679.832	15659.79
680.181	15535.5
680.529	15639.22
680.877	15619.11
681.225	15591.09
681.573	15706.11
681.922	15551.54
682.27	15450.07
682.618	15514.48
682.966	15496.4
683.314	15557.42
683.661	15485.1
684.009	15490.98
684.357	15388.61
684.705	15423.41
685.053	15419.57
685.4	15382.73
685.748	15464.99
686.095	15361.71
686.443	15397.19
686.79	15388.83
687.138	15406.69
687.485	15290.98
687.832	15333.24
688.18	15442.16
688.527	15376.18
688.874	15333.69
689.221	15339.57
689.568	15264.32
689.915	15246.46
690.262	15208.05
690.609	15199.91
690.956	15108.39
691.303	15190.42
691.65	15048.5
691.997	15081.27
692.344	14999.01
692.69	14995.62
693.037	15049.41
693.383	14882.63
693.73	14996.98
694.077	14914.72
694.423	14944.78
694.769	14820.03
695.116	14850.54
695.462	14797.21
695.808	14756.31
696.155	14865.23
696.501	14790.43
696.847	14764.67
697.193	14694.84
697.539	14738
697.885	14715.4
698.231	14578.68
698.577	14607.61
698.923	14641.28
699.269	14566.26
699.614	14499.36
699.96	14503.66
700.306	14477.67
700.651	14452.13
700.997	14488.74
701.342	14403.1
701.688	14433.83
702.033	14391.12
702.379	14349.99
702.724	14379.59
703.069	14446.71
703.415	14211.46
703.76	14237.45
704.105	14267.05
704.45	14271.8
704.795	14122.88
705.14	14159.94
705.485	14046.5
705.83	14056.89
706.175	14111.35
706.52	14111.13
706.865	13984.8
707.209	14035.42
707.554	13947.74
707.899	13987.29
708.243	13959.49
708.588	13928.08
708.932	13842.21
709.277	13911.13
709.621	13914.07
709.966	13854.18
710.31	13869.78
710.654	13716.56
710.998	13738.48
711.342	13737.12
711.687	13850.57
712.031	13729.44
712.375	13700.52
712.719	13717.01
713.063	13685.15
713.407	13761.3
713.75	13697.35
714.094	13620.74
714.438	13582.1
714.782	13664.13
715.125	13573.51
715.469	13599.28
715.812	13575.55
716.156	13460.07
716.499	13466.62
716.843	13528.99
717.186	13480.63
717.53	13503.91
717.873	13550.91
718.216	13470.24
718.559	13468.88
718.902	13259.85
719.246	13429.34
719.589	13395.66
719.932	13380.3
720.275	13430.69
720.617	13382.11
720.96	13319.96
721.303	13327.64
721.646	13396.34
721.989	13263.01
722.331	13282.45
722.674	13277.48
723.016	13257.82
723.359	13248.78
723.701	13225.73
724.044	13189.34
724.386	13178.72
724.729	13207.42
725.071	13195.67
725.413	13207.87
725.755	13131.72
726.097	13134.2
726.439	13030.48
726.782	13037.48
727.124	13101.44
727.465	13101.21
727.807	13059.85
728.149	13044.94
728.491	13010.36
728.833	13062.11
729.175	12890.59
729.516	12956.81
729.858	13004.71
730.199	12980.31
730.541	12978.27
730.882	12928.56
731.224	12974.66
731.565	12893.31
731.906	12918.84
732.248	12856.7
732.589	12836.58
732.93	12794.78
733.271	12778.51
733.612	12809.92
733.953	12898.73
734.294	12777.6
734.635	12824.61
734.976	12816.02
735.317	12834.55
735.658	12760.65
735.999	12743.03
736.339	12813.08
736.68	12749.13
737.021	12630.26
737.361	12682.92
737.702	12787.55
738.042	12674.55
738.383	12647.89
738.723	12741.44
739.063	12625.06
739.404	12697.15
739.744	12621.9
740.084	12649.24
740.424	12591.84
740.764	12602.47
741.104	12631.84
741.444	12550.49
741.784	12561.34
742.124	12580.54
742.464	12464.62
742.804	12456.48
743.143	12428.68
743.483	12515.91
743.823	12427.33
744.162	12413.32
744.502	12392.53
744.841	12394.56
745.181	12415.35
745.52	12341.68
745.86	12340.1
746.199	12304.17
746.538	12344.17
746.877	12324.96
747.216	12378.97
747.556	12219.42
747.895	12260.33
748.234	12233.66
748.573	12174.68
748.911	12198.18
749.25	12193.89
749.589	12111.4
749.928	12147.34
750.267	12120.22
750.605	12070.05
750.944	12071.18
751.283	12039.09
751.621	12009.94
751.96	11947.57
752.298	11971.3
752.636	11951.41
752.975	11888.13
753.313	11872.31
753.651	11836.84
753.989	11876.38
754.327	11819.43
754.666	11762.04
755.004	11745.99
755.342	11778.98
755.679	11633.23
756.017	11629.38
756.355	11625.09
756.693	11710.29
757.031	11701.25
757.368	11564.98
757.706	11519.1
758.044	11503.51
758.381	11457.86
758.719	11451.54
759.056	11486.11
759.394	11440.24
759.731	11425.55
760.068	11313.69
760.405	11257.64
