Data from brown_tile_FLMS001491_062.txt Node
Date: Tue Feb 07 10:37:49 GMT 2017
User: dcchb
Spectrometer: FLMS00149
Trigger mode: 0
Integration Time (sec): 2.000000E-2
Scans to average: 10
Electric dark correction enabled: true
Nonlinearity correction enabled: false
Boxcar width: 0
XAxis mode: Wavelengths
Number of Pixels in Spectrum: 2048
>>>>>Begin Spectral Data<<<<<
341.393	-15.42
341.776	-15.42
342.16	-15.42
342.543	-64.46
342.927	-58.13
343.31	-65.59
343.693	-77.34
344.077	-65.59
344.46	-72.6
344.843	-39.15
345.226	-43.9
345.61	-39.6
345.993	-45.03
346.376	-22.88
346.759	2.88
347.142	42.88
347.525	50.79
347.908	85.36
348.291	70.68
348.674	102.99
349.057	116.1
349.44	114.06
349.823	128.08
350.206	142.99
350.588	170.79
350.971	197.9
351.354	208.3
351.737	228.19
352.119	236.32
352.502	259.37
352.884	252.14
353.267	251.69
353.65	279.48
354.032	294.85
354.414	288.52
354.797	290.56
355.179	302.53
355.562	321.74
355.944	286.72
356.326	312.7
356.709	319.48
357.091	297.79
357.473	319.26
357.855	325.58
358.238	308.64
358.62	319.94
359.002	324.91
359.384	326.71
359.766	348.41
360.148	327.39
360.53	320.61
360.912	298.47
361.294	339.6
361.676	323.78
362.057	323.1
362.439	302.76
362.821	306.38
363.203	328.07
363.584	310.67
363.966	295.53
364.348	304.12
364.729	311.35
365.111	309.31
365.493	287.85
365.874	316.32
366.256	309.54
366.637	292.14
367.019	288.75
367.4	302.31
367.781	270.44
368.163	277.68
368.544	280.61
368.925	308.18
369.306	294.17
369.688	303.89
370.069	293.04
370.45	305.47
370.831	304.57
371.212	300.5
371.593	280.39
371.974	280.16
372.355	293.04
372.736	296.66
373.117	311.35
373.498	305.47
373.879	289.43
374.26	299.82
374.641	304.12
375.021	308.64
375.402	308.41
375.783	313.83
376.163	288.07
376.544	301.4
376.925	303.89
377.305	307.73
377.686	284.68
378.066	310.9
378.447	286.04
378.827	307.51
379.208	311.35
379.588	326.71
379.968	303.21
380.349	320.61
380.729	317.68
381.109	316.55
381.489	342.31
381.87	333.04
382.25	316.55
382.63	310.9
383.01	317.9
383.39	317.22
383.77	340.95
384.15	317.68
384.53	320.84
384.91	333.04
385.29	336.43
385.67	312.25
386.049	330.1
386.429	337.56
386.809	331.46
387.189	325.36
387.568	316.55
387.948	334.17
388.328	328.07
388.707	318.58
389.087	320.61
389.466	333.04
389.846	333.27
390.225	333.27
390.605	327.84
390.984	349.31
391.363	365.58
391.743	337.11
392.122	360.16
392.501	363.78
392.881	351.35
393.26	354.28
393.639	353.38
394.018	342.31
394.397	348.41
394.776	361.06
395.155	357.9
395.534	339.82
395.913	348.41
396.292	357.67
396.671	357.67
397.05	363.78
397.429	356.77
397.808	367.62
398.186	334.85
398.565	366.26
398.944	349.76
399.323	370.56
399.701	368.3
400.08	373.72
400.458	389.76
400.837	365.81
401.215	389.54
401.594	374.85
401.972	372.14
402.351	384.79
402.729	373.04
403.107	376.66
403.486	375.07
403.864	374.4
404.242	357.67
404.62	383.66
404.999	387.73
405.377	399.71
405.755	410.55
406.133	402.42
406.511	400.16
406.889	390.22
407.267	392.25
407.645	410.1
408.023	422.98
408.401	413.72
408.779	402.64
409.156	391.8
409.534	425.02
409.912	408.29
410.29	405.13
410.667	408.97
411.045	414.17
411.422	395.64
411.8	412.59
412.178	426.37
412.555	400.61
412.933	438.58
413.31	424.79
413.687	446.26
414.065	419.37
414.442	441.51
414.819	427.28
415.197	443.55
415.574	441.51
415.951	420.95
416.328	447.84
416.705	455.98
417.082	483.55
417.46	453.04
417.837	464.34
418.214	469.54
418.591	436.09
418.967	447.39
419.344	467.5
419.721	463.43
420.098	467.05
420.475	470.67
420.852	488.29
421.228	498.46
421.605	458.24
421.982	487.84
422.358	493.04
422.735	489.65
423.111	485.13
423.488	481.29
423.864	490.1
424.241	501.4
424.617	493.04
424.994	499.14
425.37	495.75
425.746	478.12
426.123	521.51
426.499	509.99
426.875	514.28
427.251	532.81
427.627	526.94
428.003	513.38
428.379	521.06
428.756	517.67
429.132	535.3
429.507	557.22
429.883	545.92
430.259	558.35
430.635	551.12
431.011	546.82
431.387	569.65
431.763	561.96
432.138	548.86
432.514	595.86
432.89	562.41
433.265	582.75
433.641	589.31
434.016	581.4
434.392	601.06
434.767	625.01
435.143	605.8
435.518	588.18
435.894	581.62
436.269	621.62
436.644	604.9
437.02	646.71
437.395	615.52
437.77	625.24
438.145	615.52
438.52	633.37
438.895	636.31
439.271	646.93
439.646	662.75
440.021	641.96
440.395	655.29
440.77	652.81
441.145	664.56
441.52	670.89
441.895	686.03
442.27	658.68
442.645	680.6
443.019	693.94
443.394	682.64
443.769	684.67
444.143	697.1
444.518	694.39
444.892	713.82
445.267	717.89
445.641	703.65
446.016	690.32
446.39	703.43
446.764	715.4
447.139	715.4
447.513	714.05
447.887	726.48
448.262	719.47
448.636	717.21
449.01	738.68
449.384	735.07
449.758	739.81
450.132	758.34
450.506	731.45
450.88	735.74
451.254	768.28
451.628	774.39
452.002	767.61
452.376	755.4
452.75	749.98
453.123	790.43
453.497	773.93
453.871	781.39
454.244	789.75
454.618	803.76
454.992	829.07
455.365	814.39
455.739	828.4
456.112	832.01
456.486	841.28
456.859	858
457.232	870.66
457.606	856.87
457.979	853.48
458.352	866.36
458.725	902.29
459.099	880.6
459.472	899.58
459.845	886.47
460.218	928.28
460.591	928.28
460.964	941.16
461.337	924.66
461.71	946.59
462.083	972.12
462.456	949.07
462.829	980.93
463.201	985.23
463.574	975.29
463.947	1005.57
464.32	1012.8
464.692	1009.18
465.065	1034.94
465.438	1029.07
465.81	1033.59
466.183	1041.05
466.555	1088.28
466.928	1053.93
467.3	1061.38
467.672	1086.02
468.045	1094.38
468.417	1111.33
468.789	1098.67
469.161	1123.3
469.534	1158.11
469.906	1194.94
470.278	1183.19
470.65	1151.78
471.022	1181.16
471.394	1180.7
471.766	1217.76
472.138	1220.25
472.51	1200.59
472.882	1267.48
473.253	1264.77
473.625	1293.69
473.997	1295.05
474.369	1310.64
474.74	1345.22
475.112	1336.18
475.484	1357.42
475.855	1381.83
476.227	1412.34
476.598	1456.63
476.97	1453.69
477.341	1424.76
477.713	1498.21
478.084	1524.2
478.455	1535.72
478.827	1533.69
479.198	1584.53
479.569	1592.67
479.94	1597.42
480.311	1622.05
480.682	1653.01
481.053	1677.41
481.424	1709.28
481.795	1748.82
482.166	1754.7
482.537	1759.9
482.908	1763.74
483.279	1798.09
483.65	1821.82
484.021	1841.93
484.391	1857.52
484.762	1912.21
485.133	1904.75
485.503	1945.66
485.874	1984.75
486.244	1989.27
486.615	2022.04
486.985	2043.28
487.356	2093.45
487.726	2094.13
488.097	2141.13
488.467	2144.75
488.837	2161.24
489.207	2212.54
489.578	2214.8
489.948	2265.87
490.318	2245.08
490.688	2264.97
491.058	2318.3
491.428	2339.54
491.798	2336.83
492.168	2402.37
492.538	2406.66
492.908	2429.48
493.278	2450.27
493.648	2495.02
494.017	2495.7
494.387	2544.74
494.757	2541.57
495.126	2513.78
495.496	2583.83
495.866	2597.84
496.235	2608.24
496.605	2639.87
496.974	2671.51
497.344	2702.47
497.713	2658.18
498.082	2685.52
498.452	2733.66
498.821	2747.67
499.19	2797.38
499.559	2801.45
499.928	2796.93
500.298	2794.67
500.667	2835.58
501.036	2836.71
501.405	2866.08
501.774	2886.65
502.143	2921
502.512	2925.74
502.88	2960.09
503.249	2988.57
503.618	2961.67
503.987	3015.46
504.356	3025.63
504.724	3025.63
505.093	3024.27
505.462	3069.69
505.83	3078.28
506.199	3113.31
506.567	3106.98
506.936	3175.23
507.304	3196.7
507.672	3189.69
508.041	3236.69
508.409	3238.95
508.777	3274.43
509.145	3264.72
509.514	3291.83
509.882	3301.33
510.25	3328.67
510.618	3368.22
510.986	3359.4
511.354	3378.84
511.722	3445.73
512.09	3483.69
512.458	3465.84
512.826	3532.51
513.193	3542.9
513.561	3510.81
513.929	3580.87
514.297	3576.57
514.664	3623.35
515.032	3661.77
515.4	3674.42
515.767	3702.67
516.135	3721.65
516.502	3732.73
516.869	3783.35
517.237	3812.95
517.604	3793.97
517.972	3888.65
518.339	3928.43
518.706	3863.57
519.073	3903.12
519.44	3941.76
519.808	3979.95
520.175	3981.08
520.542	4054.98
520.909	4028.54
521.276	4110.8
521.643	4104.24
522.009	4163.22
522.376	4210
522.743	4250
523.11	4262.2
523.477	4290.45
523.843	4314.86
524.21	4337.91
524.577	4381.98
524.943	4448.64
525.31	4436.21
525.676	4481.18
526.043	4505.36
526.409	4512.37
526.776	4555.98
527.142	4581.74
527.508	4678.69
527.874	4678.69
528.241	4741.06
528.607	4715.3
528.973	4836.88
529.339	4818.57
529.705	4874.17
530.071	4872.81
530.437	4881.17
530.803	4946.71
531.169	4996.2
531.535	4975.41
531.901	5028.06
532.267	5103.09
532.632	5115.29
532.998	5119.13
533.364	5117.55
533.73	5154.61
534.095	5221.5
534.461	5240.03
534.826	5266.7
535.192	5319.35
535.557	5332.46
535.923	5327.71
536.288	5363.42
536.653	5371.78
537.019	5426.02
537.384	5457.88
537.749	5519.8
538.114	5522.96
538.479	5495.84
538.845	5588.5
539.21	5572
539.575	5618.78
539.94	5671.88
540.305	5714.14
540.67	5716.4
541.034	5790.07
541.399	5778.1
541.764	5801.15
542.129	5784.65
542.494	5847.7
542.858	5886.12
543.223	5902.61
543.587	5953.69
543.952	5907.36
544.316	5992.55
544.681	6023.06
545.045	6077.98
545.41	6088.15
545.774	6149.39
546.138	6220.8
546.503	6204.75
546.867	6189.39
547.231	6310.29
547.595	6336.73
547.959	6338.31
548.324	6373.56
548.688	6465.08
549.052	6436.84
549.416	6538.08
549.779	6537.17
550.143	6576.27
550.507	6612.43
550.871	6615.59
551.235	6680.22
551.599	6785.3
551.962	6832.53
552.326	6821.69
552.689	6887.9
553.053	6897.84
553.417	6922.7
553.78	6990.49
554.143	7024.62
554.507	7110.04
554.87	7165.4
555.234	7288.57
555.597	7262.35
555.96	7350.26
556.323	7405.62
556.686	7405.62
557.05	7431.39
557.413	7592.29
557.776	7626.86
558.139	7702.79
558.502	7708.67
558.865	7724.03
559.228	7845.39
559.59	7920.19
559.953	7987.76
560.316	8058.71
560.679	8070.01
561.041	8138.03
561.404	8276.34
561.767	8343.45
562.129	8345.03
562.492	8520.4
562.854	8522.88
563.217	8518.36
563.579	8630.45
563.941	8739.37
564.304	8833.38
564.666	8863.21
565.028	8936.66
565.39	9034.06
565.753	9150.89
566.115	9166.26
566.477	9295.07
566.839	9399.7
567.201	9420.71
567.563	9487.83
567.925	9563.53
568.287	9674.49
568.648	9683.76
569.01	9888.5
569.372	9881.72
569.734	9902.73
570.095	10013.01
570.457	10106.57
570.819	10146.34
571.18	10180.92
571.542	10269.96
571.903	10413.46
572.265	10409.39
572.626	10585.2
572.987	10693
573.349	10653.9
573.71	10787.91
574.071	10873.1
574.432	10936.61
574.794	11020.67
575.155	11077.39
575.516	11119.65
575.877	11226.77
576.238	11269.7
576.599	11424.73
576.96	11416.82
577.32	11495.23
577.681	11602.35
578.042	11665.17
578.403	11744.72
578.763	11841.21
579.124	11911.04
579.485	11928.22
579.845	11952.85
580.206	11975.67
580.566	12097.25
580.927	12134.77
581.287	12210.47
581.648	12227.42
582.008	12397.36
582.368	12334.08
582.728	12474.87
583.089	12480.75
583.449	12544.92
583.809	12607.3
584.169	12665.37
584.529	12684.13
584.889	12777.91
585.249	12753.73
585.609	12763.68
585.969	12913.95
586.329	12874.41
586.688	13002.09
587.048	13037.57
587.408	13081.86
587.768	13072.37
588.127	13113.05
588.487	13147.39
588.846	13330.67
589.206	13138.58
589.565	13240.95
589.925	13374.28
590.284	13338.35
590.643	13413.83
591.003	13546.71
591.362	13599.13
591.721	13568.63
592.08	13595.07
592.44	13735.85
592.799	13642.07
593.158	13679.58
593.517	13736.76
593.876	13826.7
594.235	13819.47
594.593	13848.17
594.952	13947.6
595.311	13871.44
595.67	13954.83
596.029	14040.93
596.387	14114.15
596.746	14123.87
597.104	14159.57
597.463	14085.67
597.822	14178.55
598.18	14157.54
598.538	14234.15
598.897	14323.63
599.255	14211.77
599.613	14485.89
599.972	14406.57
600.33	14432.11
600.688	14395.95
601.046	14440.47
601.404	14531.76
601.762	14571.76
602.12	14681.14
602.478	14620.12
602.836	14785.09
603.194	14608.6
603.552	14750.97
603.91	14719.1
604.268	14764.08
604.625	14783.51
604.983	14846.11
605.341	14811.53
605.698	14950.28
606.056	15039.1
606.413	14960.45
606.771	15044.29
607.128	15094.46
607.485	14993.22
607.843	14997.52
608.2	15117.29
608.557	15259.88
608.914	15149.6
609.272	15247.9
609.629	15261.69
609.986	15303.95
610.343	15200.45
610.7	15448.8
611.057	15352.76
611.414	15371.29
611.771	15451.97
612.127	15424.4
612.484	15459.65
612.841	15502.13
613.198	15485.86
613.554	15578.97
613.911	15569.93
614.267	15589.14
614.624	15566.31
614.98	15701.23
615.337	15694.45
615.693	15705.75
616.05	15750.04
616.406	15747.1
616.762	15715.69
617.118	15786.87
617.475	15783.26
617.831	15821.45
618.187	15906.64
618.543	15903.48
618.899	15992.97
619.255	15960.43
619.611	15942.8
619.967	16047.88
620.323	16102.57
620.678	16087.88
621.034	15939.64
621.39	16044.95
621.746	16024.15
622.101	16137.82
622.457	16120.88
622.812	16131.04
623.168	16215.34
623.523	16216.92
623.879	16255.56
624.234	16167.2
624.589	16138.95
624.945	16204.26
625.3	16207.2
625.655	16180.08
626.01	16177.82
626.365	16217.14
626.72	16155.9
627.075	16253.3
627.43	16231.16
627.785	16122.01
628.14	16203.36
628.495	16290.36
628.85	16249.01
629.205	16207.88
629.559	16237.48
629.914	16151.84
630.269	16210.82
630.623	16240.42
630.978	16199.29
631.332	16158.61
631.687	16109.8
632.041	16189.8
632.396	16264.83
632.75	16160.87
633.104	16120.2
633.459	16036.36
633.813	16060.09
634.167	16063.93
634.521	16027.09
634.875	16128.11
635.229	16119.97
635.583	15983.93
635.937	16062.8
636.291	15958.17
636.645	16132.17
636.999	15977.15
637.352	16090.14
637.706	15889.92
638.06	16009.47
638.413	15937.15
638.767	15856.93
639.121	15912.29
639.474	15836.59
639.828	15938.28
640.181	15978.51
640.534	15917.04
640.888	15864.16
641.241	15783.94
641.594	15807.66
641.947	15835.46
642.301	15810.15
642.654	15853.54
643.007	15873.65
643.36	15818.74
643.713	15839.98
644.066	15899.86
644.419	15739.87
644.771	15610.83
645.124	15608.8
645.477	15566.77
645.83	15420.55
646.182	15378.97
646.535	15401.35
646.888	15290.16
647.24	15317.96
647.593	15423.94
647.945	15343.27
648.298	15306.43
648.65	15175.36
649.002	15212.2
649.355	15255.36
649.707	15240.22
650.059	15293.78
650.411	15584.17
650.763	15608.12
651.115	15755.69
651.467	15681.57
651.819	15668.01
652.171	15653.32
652.523	15602.02
652.875	15552.75
653.227	15436.15
653.578	15659.87
653.93	15641.57
654.282	15562.25
654.633	15562.47
654.985	15521.12
655.337	15547.33
655.688	15577.39
656.039	15585.52
656.391	15473.66
656.742	15493.55
657.094	15556.37
657.445	15571.96
657.796	15567.44
658.147	15566.99
658.498	15543.26
658.849	15648.12
659.2	15505.07
659.551	15550.72
659.902	15558.4
660.253	15481.8
660.604	15582.13
660.955	15485.64
661.306	15544.17
661.656	15519.54
662.007	15570.38
662.358	15620.32
662.708	15488.35
663.059	15576.26
663.409	15497.16
663.76	15608.57
664.11	15528.35
664.461	15622.13
664.811	15575.13
665.161	15524.06
665.511	15625.3
665.862	15603.15
666.212	15680.44
666.562	15624.84
666.912	15660.32
667.262	15578.29
667.612	15588.69
667.962	15621.68
668.312	15623.94
668.662	15673.43
669.011	15592.98
669.361	15671.4
669.711	15614
670.06	15670.04
670.41	15613.32
670.76	15621.91
671.109	15628.91
671.459	15592.53
671.808	15582.13
672.157	15726.54
672.507	15547.78
672.856	15720.66
673.205	15574.9
673.554	15675.69
673.904	15704.62
674.253	15749.36
674.602	15623.94
674.951	15469.59
675.3	15390.05
675.649	15573.77
675.998	15657.16
676.346	15658.29
676.695	15628.91
677.044	15522.93
677.393	15717.95
677.741	15670.49
678.09	15604.05
678.438	15640.21
678.787	15632.3
679.135	15701
679.484	15516.6
679.832	15601.12
680.181	15521.57
680.529	15604.05
680.877	15591.4
681.225	15562.7
681.573	15630.72
681.922	15614.67
682.27	15556.6
682.618	15528.35
682.966	15602.47
683.314	15606.09
683.661	15597.05
684.009	15510.5
684.357	15524.73
684.705	15480.89
685.053	15469.14
685.4	15475.92
685.748	15331.52
686.095	15470.5
686.443	15330.61
686.79	15387.56
687.138	15425.53
687.485	15427.11
687.832	15352.99
688.18	15305.76
688.527	15277.73
688.874	15319.99
689.221	15265.76
689.568	15300.33
689.915	15242.48
690.262	15165.65
690.609	15195.7
690.956	15174.23
691.303	15146.89
691.65	15067.12
691.997	15154.57
692.344	15037.97
692.69	14992.54
693.037	15062.82
693.383	14912.55
693.73	14998.65
694.077	14865.54
694.423	14949.38
694.769	14903.51
695.116	14865.09
695.462	14808.59
695.808	14760.01
696.155	14932.43
696.501	14742.38
696.847	14765.66
697.193	14676.85
697.539	14724.98
697.885	14536.06
698.231	14585.32
698.577	14621.25
698.923	14598.43
699.269	14551.88
699.614	14544.19
699.96	14505.55
700.306	14446.34
700.651	14382.16
700.997	14413.12
701.342	14330.41
701.688	14476.85
702.033	14342.62
702.379	14355.27
702.724	14279.12
703.069	14371.99
703.415	14261.72
703.76	14229.4
704.105	14252.68
704.45	14219.68
704.795	14090.87
705.14	14108.5
705.485	14083.87
705.83	14109.4
706.175	14109.4
706.52	14021.5
706.865	14043.64
707.209	14053.81
707.554	14020.37
707.899	14010.42
708.243	13903.76
708.588	13956.19
708.932	13860.82
709.277	13909.18
709.621	13937.88
709.966	13781.95
710.31	13784.44
710.654	13621.51
710.998	13763.88
711.342	13830.77
711.687	13729.07
712.031	13732.24
712.375	13608.63
712.719	13790.54
713.063	13698.11
713.407	13737.66
713.75	13646.36
714.094	13678.91
714.438	13539.02
714.782	13665.35
715.125	13561.17
715.469	13603.2
715.812	13572.69
716.156	13518.01
716.499	13512.13
716.843	13503.09
717.186	13484.79
717.53	13468.52
717.873	13519.36
718.216	13475.97
718.559	13410.89
718.902	13377.22
719.246	13364.34
719.589	13381.51
719.932	13365.47
720.275	13364.34
720.617	13344.68
720.96	13335.19
721.303	13374.73
721.646	13287.73
721.989	13304.9
722.331	13305.13
722.674	13370.89
723.016	13338.58
723.359	13269.43
723.701	13275.07
724.044	13278.69
724.386	13156.89
724.729	13194.62
725.071	13237.11
725.413	13211.57
725.755	13289.09
726.097	13129.54
726.439	13178.81
726.782	13180.39
727.124	13216.09
727.465	13110.79
727.807	13133.38
728.149	13073.05
728.491	13007.29
728.833	13094.97
729.175	13067.85
729.516	12948.08
729.858	12974.29
730.199	12996.89
730.541	12935.2
730.882	12946.72
731.224	13007.29
731.565	12795.09
731.906	12897.91
732.248	12958.02
732.589	12948.98
732.93	12850
733.271	12913.73
733.612	12859.04
733.953	12913.05
734.294	12917.12
734.635	12771.59
734.976	12874.63
735.317	12856.78
735.658	12758.93
735.999	12799.83
736.339	12806.61
736.68	12794.18
737.021	12771.36
737.361	12661.98
737.702	12841.41
738.042	12749.89
738.383	12757.8
738.723	12790.34
739.063	12697.69
739.404	12693.62
739.744	12707.18
740.084	12620.18
740.424	12647.07
740.764	12610.91
741.104	12701.76
741.444	12510.8
741.784	12500.86
742.124	12583.12
742.464	12546.28
742.804	12617.01
743.143	12525.04
743.483	12438.49
743.823	12449.11
744.162	12403.91
744.502	12454.98
744.841	12370.47
745.181	12430.8
745.52	12309.68
745.86	12348.77
746.199	12314.42
746.538	12306.96
746.877	12335.21
747.216	12323.46
747.556	12265.38
747.895	12235.78
748.234	12230.81
748.573	12243.69
748.911	12197.59
749.25	12260.86
749.589	12201.66
749.928	12158.72
750.267	12167.53
750.605	12137.93
750.944	12050.25
751.283	12027.2
751.621	12119.17
751.96	11987.42
752.298	12044.6
752.636	11981.55
752.975	11906.98
753.313	11921.66
753.651	11967.99
753.989	11890.48
754.327	11872.4
754.666	11841.67
755.004	11802.8
755.342	11831.72
755.679	11687.09
756.017	11706.53
756.355	11689.13
756.693	11701.78
757.031	11695.23
757.368	11576.36
757.706	11519.64
758.044	11548.79
758.381	11580.88
758.719	11460.89
759.056	11465.4
759.394	11431.28
759.731	11362.36
760.068	11346.99
760.405	11309.7
760.743	11298.86
