Data from brown_tile_FLMS001491_021.txt Node
Date: Tue Feb 07 10:37:16 GMT 2017
User: dcchb
Spectrometer: FLMS00149
Trigger mode: 0
Integration Time (sec): 2.000000E-2
Scans to average: 10
Electric dark correction enabled: true
Nonlinearity correction enabled: false
Boxcar width: 0
XAxis mode: Wavelengths
Number of Pixels in Spectrum: 2048
>>>>>Begin Spectral Data<<<<<
341.393	-13.88
341.776	-13.88
342.16	-13.88
342.543	-50.72
342.927	-55.24
343.31	-52.53
343.693	-67.67
344.077	-55.69
344.46	-56.82
344.843	-60.21
345.226	-36.03
345.61	-18.63
345.993	-14.34
346.376	-6.43
346.759	-3.71
347.142	29.28
347.525	40.13
347.908	51.2
348.291	80.13
348.674	63.4
349.057	107.92
349.44	127.81
349.823	154.7
350.206	153.34
350.588	174.81
350.971	191.31
351.354	205.77
351.737	228.6
352.119	231.99
352.502	244.87
352.884	262.27
353.267	247.8
353.65	275.83
354.032	288.93
354.414	271.76
354.797	307.92
355.179	297.29
355.562	301.59
355.944	300.46
356.326	305.66
356.709	326.45
357.091	318.76
357.473	297.52
357.855	312.89
358.238	322.15
358.62	330.06
359.002	337.97
359.384	316.28
359.766	339.33
360.148	299.1
360.53	326.22
360.912	318.31
361.294	305.66
361.676	327.58
362.057	317.86
362.439	324.41
362.821	302.27
363.203	286
363.584	312.44
363.966	307.69
364.348	307.92
364.729	304.3
365.111	293.23
365.493	317.41
365.874	301.81
366.256	307.24
366.637	293.9
367.019	293.23
367.4	293.9
367.781	303.62
368.163	306.11
368.544	288.71
368.925	275.6
369.306	297.52
369.688	299.78
370.069	290.06
370.45	300.01
370.831	310.18
371.212	296.39
371.593	293.9
371.974	311.98
372.355	295.03
372.736	283.06
373.117	300.01
373.498	288.71
373.879	287.8
374.26	300.68
374.641	288.26
375.021	299.1
375.402	289.16
375.783	302.94
376.163	298.42
376.544	293
376.925	287.13
377.305	311.31
377.686	308.59
378.066	299.78
378.447	306.33
378.827	325.99
379.208	315.83
379.588	294.58
379.968	312.89
380.349	335.71
380.729	319.89
381.109	300.46
381.489	322.38
381.87	314.02
382.25	318.76
382.63	345.43
383.01	325.77
383.39	322.6
383.77	324.64
384.15	318.31
384.53	310.18
384.91	320.12
385.29	315.83
385.67	322.38
386.049	332.32
386.429	332.1
386.809	323.96
387.189	339.1
387.568	325.99
387.948	338.88
388.328	339.33
388.707	327.58
389.087	342.49
389.466	345.43
389.846	325.99
390.225	328.93
390.605	330.97
390.984	339.33
391.363	347.01
391.743	345.43
392.122	339.78
392.501	335.03
392.881	356.28
393.26	351.98
393.639	352.21
394.018	337.97
394.397	347.91
394.776	361.47
395.155	355.37
395.534	352.43
395.913	368.03
396.292	359.67
396.671	350.85
397.05	376.16
397.429	375.03
397.808	382.04
398.186	378.42
398.565	359.21
398.944	352.89
399.323	357.63
399.701	358.31
400.08	360.12
400.458	378.2
400.837	380.23
401.215	380.46
401.594	368.7
401.972	356.05
402.351	382.49
402.729	372.77
403.107	365.77
403.486	392.43
403.864	380
404.242	388.37
404.62	391.08
404.999	389.72
405.377	390.4
405.755	373.68
406.133	384.98
406.511	401.25
406.889	372.32
407.267	392.43
407.645	412.55
408.023	393.11
408.401	418.87
408.779	410.96
409.156	406.44
409.534	394.92
409.912	401.25
410.29	403.28
410.667	418.2
411.045	427.01
411.422	433.11
411.8	413.45
412.178	413.45
412.555	427.01
412.933	429.72
413.31	427.23
413.687	438.99
414.065	414.13
414.442	410.96
414.819	448.25
415.197	437.4
415.574	439.44
415.951	460.45
416.328	462.26
416.705	445.77
417.082	467.46
417.46	447.57
417.837	456.39
418.214	455.71
418.591	457.74
418.967	446.22
419.344	462.71
419.721	458.65
420.098	471.98
420.475	464.07
420.852	480.57
421.228	474.01
421.605	478.31
421.982	497.74
422.358	478.31
422.735	487.12
423.111	469.72
423.488	493.22
423.864	492.54
424.241	495.26
424.617	499.32
424.994	502.49
425.37	498.65
425.746	504.07
426.123	497.74
426.499	505.65
426.875	502.71
427.251	514.01
427.627	502.71
428.003	516.05
428.379	533.22
428.756	514.24
429.132	543.84
429.507	545.65
429.883	542.94
430.259	536.84
430.635	574.12
431.011	549.27
431.387	567.12
431.763	549.04
432.138	561.69
432.514	566.44
432.89	570.96
433.265	573.45
433.641	588.59
434.016	597.17
434.392	581.35
434.767	601.24
435.143	605.08
435.518	587
435.894	598.53
436.269	607.57
436.644	599.43
437.02	607.12
437.395	626.1
437.77	623.84
438.145	634.23
438.52	627
438.895	624.97
439.271	622.26
439.646	667.91
440.021	645.08
440.395	644.18
440.77	654.57
441.145	659.09
441.52	682.37
441.895	669.71
442.27	651.18
442.645	691.18
443.019	703.61
443.394	670.84
443.769	671.75
444.143	701.8
444.518	707.45
444.892	679.88
445.267	684.63
445.641	706.78
446.016	710.84
446.39	708.58
446.764	710.39
447.139	699.32
447.513	702.93
447.887	689.37
448.262	706.55
448.636	716.04
449.01	708.81
449.384	705.87
449.758	707.45
450.132	707
450.506	737.28
450.88	740.9
451.254	703.16
451.628	728.24
452.002	761.91
452.376	756.04
452.75	757.85
453.123	768.24
453.497	765.08
453.871	765.76
454.244	792.42
454.618	792.2
454.992	798.07
455.365	799.65
455.739	792.87
456.112	822.25
456.486	821.57
456.859	826.55
457.232	846.88
457.606	824.06
457.979	836.94
458.352	872.19
458.725	859.77
459.099	890.27
459.472	899.99
459.845	866.77
460.218	909.93
460.591	878.07
460.964	911.29
461.337	925.98
461.71	922.36
462.083	937.96
462.456	951.97
462.829	932.31
463.201	953.77
463.574	949.48
463.947	949.25
464.32	970.5
464.692	1000.78
465.065	996.26
465.438	1029.7
465.81	1031.06
466.183	1009.14
466.555	1055.69
466.928	1048.91
467.3	1045.75
467.672	1029.25
468.045	1097.5
468.417	1086.65
468.789	1078.06
469.161	1084.84
469.534	1108.35
469.906	1134.33
470.278	1142.47
470.65	1122.36
471.022	1147.44
471.394	1169.59
471.766	1201.45
472.138	1210.04
472.51	1224.73
472.882	1249.36
473.253	1244.16
473.625	1251.85
473.997	1285.74
474.369	1274.22
474.74	1309.47
475.112	1312.18
475.484	1324.16
475.855	1373.65
476.227	1348.79
476.598	1373.2
476.97	1403.25
477.341	1396.93
477.713	1425.85
478.084	1441.9
478.455	1466.3
478.827	1464.72
479.198	1507.21
479.569	1511.27
479.94	1565.96
480.311	1571.16
480.682	1614.32
481.053	1616.58
481.424	1630.37
481.795	1639.63
482.166	1693.19
482.537	1693.19
482.908	1744.71
483.279	1735.22
483.65	1770.93
484.021	1803.24
484.391	1842.11
484.762	1866.74
485.133	1851.38
485.503	1882.56
485.874	1913.3
486.244	1951.26
486.615	1953.52
486.985	1970.92
487.356	2009.11
487.726	2044.82
488.097	2040.53
488.467	2057.02
488.837	2106.51
489.207	2162.56
489.578	2135.44
489.948	2183.8
490.318	2210.24
490.688	2223.57
491.058	2225.61
491.428	2257.02
491.798	2280.07
492.168	2294.76
492.538	2330.91
492.908	2353.29
493.278	2360.74
493.648	2420.4
494.017	2421.08
494.387	2460.85
494.757	2447.75
495.126	2449.33
495.496	2469.44
495.866	2503.79
496.235	2510.57
496.605	2538.14
496.974	2588.08
497.344	2582.88
497.713	2574.52
498.082	2573.39
498.452	2686.16
498.821	2663.79
499.19	2692.94
499.559	2683.45
499.928	2708.53
500.298	2779.49
500.667	2727.29
501.036	2766.38
501.405	2773.61
501.774	2782.2
502.143	2821.52
502.512	2841.63
502.88	2856.1
503.249	2896.77
503.618	2903.33
503.987	2904.23
504.356	2925.7
504.724	2969.31
505.093	2960.95
505.462	2994.62
505.83	2964.12
506.199	2963.21
506.567	3017.9
506.936	3035.98
507.304	3099.71
507.672	3086.83
508.041	3141.97
508.409	3095.64
508.777	3155.52
509.145	3156.43
509.514	3146.94
509.882	3216.31
510.25	3236.43
510.618	3230.78
510.986	3253.37
511.354	3293.6
511.722	3320.27
512.09	3317.55
512.458	3359.81
512.826	3373.37
513.193	3384.44
513.561	3431.9
513.929	3433.26
514.297	3489.98
514.664	3493.37
515.032	3504.89
515.4	3532.46
515.767	3561.16
516.135	3601.84
516.502	3534.72
516.869	3652.69
517.237	3702.85
517.604	3629.86
517.972	3715.74
518.339	3728.16
518.706	3761.38
519.073	3767.03
519.44	3762.29
519.808	3795.06
520.175	3829.4
520.542	3858.56
520.909	3896.97
521.276	3907.59
521.643	3913.7
522.009	3997.31
522.376	4032.11
522.743	4063.98
523.11	4071.88
523.477	4160.24
523.843	4128.15
524.21	4169.96
524.577	4209.51
524.943	4216.97
525.31	4260.35
525.676	4336.74
526.043	4400.46
526.409	4369.96
526.776	4421.93
527.142	4437.98
527.508	4519.33
527.874	4528.37
528.241	4572.44
528.607	4595.03
528.973	4625.54
529.339	4669.61
529.705	4702.15
530.071	4703.05
530.437	4764.3
530.803	4766.56
531.169	4784.86
531.535	4818.08
531.901	4802.94
532.267	4910.51
532.632	4955.7
532.998	4890.85
533.364	4968.81
533.73	4957.28
534.095	5041.12
534.461	5066.66
534.826	5055.36
535.192	5066.89
535.557	5102.37
535.923	5153.89
536.288	5157.05
536.653	5250.61
537.019	5239.09
537.384	5270.27
537.749	5306.88
538.114	5302.13
538.479	5330.61
538.845	5371.74
539.21	5386.43
539.575	5466.42
539.94	5415.58
540.305	5487.21
540.67	5509.59
541.034	5585.52
541.399	5594.33
541.764	5613.99
542.129	5627.55
542.494	5665.06
542.858	5759.75
543.223	5710.49
543.587	5799.52
543.952	5773.76
544.316	5830.03
544.681	5851.95
545.045	5876.58
545.41	5882.46
545.774	5955.68
546.138	5952.96
546.503	6007.65
546.867	6124.71
547.231	6078.16
547.595	6093.53
547.959	6184.6
548.324	6128.55
548.688	6235.9
549.052	6196.35
549.416	6257.36
549.779	6328.32
550.143	6410.58
550.507	6479.96
550.871	6470.01
551.235	6419.39
551.599	6562.67
551.962	6556.56
552.326	6618.26
552.689	6644.7
553.053	6691.93
553.417	6756.79
553.78	6811.7
554.143	6845.82
554.507	6897.35
554.87	6907.74
555.234	7009.43
555.597	6998.14
555.96	7075.65
556.323	7142.99
556.686	7201.97
557.05	7297.34
557.413	7303.66
557.776	7392.93
558.139	7508.4
558.502	7516.31
558.865	7529.42
559.228	7663.2
559.59	7753.82
559.953	7795.63
560.316	7893.03
560.679	7906.36
561.041	7997.2
561.404	7987.26
561.767	8136.41
562.129	8129.18
562.492	8238.78
562.854	8283.3
563.217	8342.73
563.579	8456.18
563.941	8509.73
564.304	8535.04
564.666	8713.34
565.028	8745.66
565.39	8767.35
565.753	8862.72
566.115	8985.88
566.477	9045.31
566.839	9099.77
567.201	9174.58
567.563	9311.07
567.925	9354.68
568.287	9446.21
568.648	9511.74
569.01	9596.48
569.372	9728.23
569.734	9647.11
570.095	9832.41
570.457	9883.26
570.819	9920.09
571.18	10023.82
571.542	10146.53
571.903	10227.88
572.265	10259.29
572.626	10331.38
572.987	10422.68
573.349	10554.2
573.71	10577.48
574.071	10643.01
574.432	10713.29
574.794	10858.15
575.155	10953.51
575.516	10893.17
575.877	11116.44
576.238	11108.31
576.599	11250.23
576.96	11216.33
577.32	11379.94
577.681	11466.04
578.042	11445.48
578.403	11507.4
578.763	11580.16
579.124	11627.39
579.485	11696.09
579.845	11802.98
580.206	11764.56
580.566	11946.25
580.927	11926.82
581.287	12018.79
581.648	12054.05
582.008	12064.89
582.368	12077.32
582.728	12277.54
583.089	12245
583.449	12294.72
583.809	12337.43
584.169	12522.74
584.529	12454.26
584.889	12654.94
585.249	12618.78
585.609	12581.49
585.969	12724.09
586.329	12657.2
586.688	12837.3
587.048	12825.55
587.408	12857.19
587.768	12870.07
588.127	12949.39
588.487	12998.2
588.846	13097.41
589.206	12981.03
589.565	13080.46
589.925	13228.71
590.284	13139.22
590.643	13255.37
591.003	13258.54
591.362	13386.67
591.721	13415.37
592.08	13372.88
592.44	13427.8
592.799	13481.81
593.158	13471.86
593.517	13556.38
593.876	13625.76
594.235	13547.57
594.593	13629.83
594.952	13728.58
595.311	13634.57
595.67	13743.95
596.029	13868.01
596.387	13922.7
596.746	13990.95
597.104	13946.2
597.463	13924.05
597.822	14035.46
598.18	13946.65
598.538	13972.87
598.897	14113.88
599.255	14063.49
599.613	14228.23
599.972	14201.56
600.33	14252.63
600.688	14160.88
601.046	14340.32
601.404	14365.85
601.762	14339.19
602.12	14458.05
602.478	14454.44
602.836	14465.74
603.194	14476.58
603.552	14532.17
603.91	14517.26
604.268	14561.55
604.625	14577.37
604.983	14612.85
605.341	14639.97
605.698	14663.7
606.056	14674.32
606.413	14776.46
606.771	14779.4
607.128	14808.33
607.485	14842
607.843	14845.61
608.2	15003.12
608.557	14908.44
608.914	14979.39
609.272	15079.05
609.629	14957.47
609.986	15150.46
610.343	15092.39
610.7	15129.45
611.057	15121.76
611.414	15124.93
611.771	15239.27
612.127	15242.89
612.484	15234.3
612.841	15303.23
613.198	15292.38
613.554	15383.9
613.911	15456.22
614.267	15408.31
614.624	15436.33
614.98	15470.91
615.337	15517.69
615.693	15493.51
616.05	15539.83
616.406	15595.88
616.762	15514.52
617.118	15565.14
617.475	15599.26
617.831	15761.07
618.187	15713.16
618.543	15652.6
618.899	15774.18
619.255	15735.98
619.611	15779.37
619.967	15847.62
620.323	15937.56
620.678	15833.38
621.034	15725.82
621.39	15836.32
621.746	15775.53
622.101	16023.66
622.457	15859.37
622.812	15874.96
623.168	15983.66
623.523	15888.07
623.879	16012.81
624.234	15895.08
624.589	16042.19
624.945	15997.22
625.3	15995.64
625.655	16057.56
626.01	16001.51
626.365	16077.67
626.72	16012.14
627.075	15921.06
627.43	15990.67
627.785	16061.17
628.14	16074.96
628.495	16036.77
628.85	16064.79
629.205	15954.74
629.559	16074.96
629.914	16041.06
630.269	16008.52
630.623	15933.49
630.978	15878.58
631.332	16032.25
631.687	16066.82
632.041	16019.82
632.396	15972.81
632.75	15978.92
633.104	15933.27
633.459	15971.91
633.813	15912.93
634.167	15894.85
634.521	15934.17
634.875	15976.43
635.229	15809.88
635.583	15913.83
635.937	15843.78
636.291	15755.87
636.645	15850.33
636.999	15808.75
637.352	15833.38
637.706	15778.24
638.06	15935.3
638.413	15752.26
638.767	15780.96
639.121	15792.25
639.474	15689.43
639.828	15746.61
640.181	15673.84
640.534	15731.24
640.888	15667.51
641.241	15746.38
641.594	15717.91
641.947	15699.83
642.301	15674.74
642.654	15558.59
643.007	15775.31
643.36	15716.1
643.713	15606.5
644.066	15768.3
644.419	15635.87
644.771	15499.38
645.124	15447.4
645.477	15307.3
645.83	15241.08
646.182	15178.49
646.535	15186.39
646.888	15202.89
647.24	15099.62
647.593	15200.86
647.945	15200.41
648.298	15036.57
648.65	15129.45
649.002	15073.63
649.355	15104.36
649.707	15113.85
650.059	15139.62
650.411	15314.53
650.763	15468.42
651.115	15482.21
651.467	15462.55
651.819	15431.59
652.171	15457.35
652.523	15411.02
652.875	15423.68
653.227	15349.1
653.578	15465.94
653.93	15446.73
654.282	15426.16
654.633	15365.6
654.985	15342.1
655.337	15402.89
655.688	15437.46
656.039	15531.02
656.391	15307.97
656.742	15308.65
657.094	15286.28
657.445	15308.2
657.796	15294.87
658.147	15343.68
658.498	15364.24
658.849	15309.33
659.2	15329.89
659.551	15258.93
659.902	15472.04
660.253	15309.78
660.604	15453.28
660.955	15467.29
661.306	15347.07
661.656	15394.75
662.007	15321.76
662.358	15389.33
662.708	15305.94
663.059	15435.2
663.409	15211.25
663.76	15354.98
664.11	15349.55
664.461	15375.77
664.811	15451.02
665.161	15404.02
665.511	15448.76
665.862	15455.31
666.212	15455.77
666.562	15388.88
666.912	15488.99
667.262	15380.29
667.612	15391.59
667.962	15432.94
668.312	15398.37
668.662	15512.94
669.011	15417.12
669.361	15460.96
669.711	15377.12
670.06	15502.54
670.41	15407.18
670.76	15401.53
671.109	15381.64
671.459	15376.45
671.808	15376.9
672.157	15396.11
672.507	15358.82
672.856	15444.69
673.205	15409.89
673.554	15481.75
673.904	15425.26
674.253	15538.25
674.602	15457.8
674.951	15193.63
675.3	15156.11
675.649	15364.02
675.998	15416.44
676.346	15400.4
676.695	15544.35
677.044	15360.63
677.393	15428.87
677.741	15439.95
678.09	15482.43
678.438	15381.64
678.787	15421.19
679.135	15438.14
679.484	15293.74
679.832	15439.95
680.181	15323.34
680.529	15327.41
680.877	15347.52
681.225	15356.33
681.573	15447.63
681.922	15343.68
682.27	15374.41
682.618	15261.19
682.966	15254.42
683.314	15330.35
683.661	15237.01
684.009	15230.46
684.357	15179.61
684.705	15267.97
685.053	15200.86
685.4	15217.13
685.748	15177.13
686.095	15178.03
686.443	15092.16
686.79	15159.73
687.138	15060.97
687.485	15085.83
687.832	15096.91
688.18	15063.69
688.527	15033.86
688.874	15064.82
689.221	15053.06
689.568	15008.55
689.915	14907.53
690.262	15025.72
690.609	15014.87
690.956	14934.42
691.303	14929.45
691.65	14838.83
691.997	14842.67
692.344	14750.02
692.69	14818.27
693.037	14832.05
693.383	14720.87
693.73	14715.22
694.077	14731.94
694.423	14641.1
694.769	14654.43
695.116	14663.02
695.462	14682.9
695.808	14669.8
696.155	14585.28
696.501	14551.83
696.847	14576.02
697.193	14480.88
697.539	14567.2
697.885	14455.34
698.231	14361.56
698.577	14364.5
698.923	14363.82
699.269	14297.6
699.614	14314.55
699.96	14239.98
700.306	14310.26
700.651	14232.07
700.997	14280.88
701.342	14210.15
701.688	14206.31
702.033	14201.79
702.379	14164.27
702.724	14138.51
703.069	14207.21
703.415	14037.05
703.76	14075.46
704.105	14085.41
704.45	13963.15
704.795	13924.05
705.14	13993.21
705.485	13958.86
705.83	13895.13
706.175	13926.09
706.52	13944.17
706.865	13859.65
707.209	13935.58
707.554	13904.62
707.899	13893.32
708.243	13776.49
708.588	13822.59
708.932	13787.79
709.277	13815.13
709.621	13832.31
709.966	13715.02
710.31	13790.72
710.654	13704.85
710.998	13640.45
711.342	13598.41
711.687	13633.21
712.031	13542.82
712.375	13511.41
712.719	13602.71
713.063	13550.05
713.407	13531.75
713.75	13517.06
714.094	13495.82
714.438	13473.67
714.782	13452.2
715.125	13503.5
715.469	13477.29
715.812	13411.98
716.156	13320.45
716.499	13395.93
716.843	13411.75
717.186	13348.02
717.53	13390.74
717.873	13385.31
718.216	13305.77
718.559	13336.5
718.902	13205.66
719.246	13286.11
719.589	13200.01
719.932	13202.94
720.275	13148.71
720.617	13255.15
720.96	13206.79
721.303	13261.25
721.646	13154.36
721.989	13136.96
722.331	13246.78
722.674	13074.36
723.016	13063.51
723.359	13121.82
723.701	13075.72
724.044	13040.01
724.386	13056.06
724.729	13068.48
725.071	13089.05
725.413	13080.46
725.755	13114.36
726.097	12964.08
726.439	12979.67
726.782	12991.42
727.124	13036.39
727.465	12971.76
727.807	12923.4
728.149	12934.25
728.491	12906.91
728.833	12971.76
729.175	12951.42
729.516	12839.56
729.858	12831.65
730.199	12814.03
730.541	12874.36
730.882	12863.97
731.224	12819.45
731.565	12797.76
731.906	12815.61
732.248	12900.8
732.589	12754.14
732.93	12708.27
733.271	12765.89
733.612	12805.67
733.953	12775.16
734.294	12732.67
734.635	12714.14
734.976	12718.89
735.317	12670.08
735.658	12622.39
735.999	12672.79
736.339	12588.5
736.68	12650.42
737.021	12669.4
737.361	12579.01
737.702	12624.2
738.042	12578.55
738.383	12535.84
738.723	12524.32
739.063	12562.96
739.404	12524.77
739.744	12544.2
740.084	12539.01
740.424	12471.21
740.764	12482.06
741.104	12458.33
741.444	12348.05
741.784	12400.71
742.124	12490.65
742.464	12334.72
742.804	12417.88
743.143	12341.27
743.483	12343.08
743.823	12324.77
744.162	12301.05
744.502	12316.19
744.841	12263.53
745.181	12253.59
745.52	12299.24
745.86	12245.68
746.199	12271.67
746.538	12166.13
746.877	12220.37
747.216	12145.57
747.556	12190.77
747.895	12205.91
748.234	12236.19
748.573	12034.61
748.911	12037.78
749.25	12093.59
749.589	12002.52
749.928	12113.25
750.267	12013.6
750.605	12054.05
750.944	11920.27
751.283	11948.97
751.621	11861.28
751.96	11858.8
752.298	11884.56
752.636	11848.18
752.975	11812.25
753.313	11733.15
753.651	11861.28
753.989	11738.12
754.327	11775.86
754.666	11672.36
755.004	11667.16
755.342	11656.09
755.679	11579.48
756.017	11497.23
756.355	11593.72
756.693	11581.74
757.031	11562.53
757.368	11409.32
757.706	11447.74
758.044	11453.61
758.381	11454.97
758.719	11415.65
759.056	11410.9
759.394	11346.04
759.731	11223.33
760.068	11258.36
