Data from cardboard_FLMS001491_007.txt Node
Date: Tue Feb 07 11:38:51 GMT 2017
User: dcchb
Spectrometer: FLMS00149
Trigger mode: 0
Integration Time (sec): 2.000000E-2
Scans to average: 10
Electric dark correction enabled: true
Nonlinearity correction enabled: false
Boxcar width: 0
XAxis mode: Wavelengths
Number of Pixels in Spectrum: 2048
>>>>>Begin Spectral Data<<<<<
341.393	-12.01
341.776	-12.01
342.16	-12.01
342.543	-58.33
342.927	-77.77
343.31	-80.93
343.693	-82.96
344.077	-57.65
344.46	-56.52
344.843	-58.56
345.226	-40.93
345.61	-12.91
345.993	-29.63
346.376	3.59
346.759	2.01
347.142	27.32
347.525	41.33
347.908	68.44
348.291	75.45
348.674	89.46
349.057	112.51
349.44	140.53
349.823	141.66
350.206	162.91
350.588	187.76
350.971	187.99
351.354	227.54
351.737	219.18
352.119	240.42
352.502	258.5
352.884	260.53
353.267	262.79
353.65	279.96
354.032	282
354.414	285.84
354.797	294.65
355.179	329.68
355.562	293.98
355.944	333.52
356.326	311.15
356.709	319.06
357.091	319.51
357.473	334.88
357.855	339.17
358.238	334.88
358.62	327.19
359.002	331.71
359.384	333.97
359.766	317.03
360.148	334.43
360.53	335.56
360.912	314.99
361.294	334.88
361.676	322.68
362.057	316.8
362.439	316.8
362.821	313.41
363.203	310.47
363.584	300.98
363.966	281.77
364.348	307.08
364.729	303.01
365.111	310.02
365.493	309.79
365.874	290.13
366.256	284.26
366.637	304.37
367.019	307.99
367.4	309.12
367.781	312.96
368.163	287.87
368.544	282.22
368.925	278.38
369.306	301.88
369.688	286.74
370.069	296.46
370.45	292.17
370.831	298.04
371.212	316.8
371.593	285.39
371.974	280.87
372.355	302.11
372.736	297.37
373.117	294.2
373.498	291.94
373.879	290.36
374.26	300.53
374.641	291.26
375.021	288.55
375.402	302.34
375.783	298.95
376.163	295.78
376.544	321.77
376.925	300.53
377.305	299.17
377.686	320.19
378.066	320.64
378.447	318.83
378.827	307.31
379.208	319.29
379.588	332.39
379.968	308.89
380.349	326.06
380.729	306.4
381.109	318.61
381.489	311.83
381.87	322.22
382.25	332.17
382.63	341.43
383.01	331.71
383.39	322.9
383.77	316.57
384.15	323.35
384.53	319.74
384.91	306.18
385.29	328.1
385.67	335.78
386.049	337.59
386.429	316.35
386.809	333.07
387.189	320.87
387.568	337.36
387.948	327.87
388.328	332.62
388.707	349.12
389.087	342.11
389.466	336.69
389.846	338.04
390.225	347.76
390.605	323.81
390.984	322.68
391.363	341.43
391.743	338.95
392.122	342.79
392.501	336.23
392.881	342.34
393.26	342.34
393.639	345.73
394.018	347.08
394.397	347.53
394.776	355.44
395.155	349.12
395.534	362.67
395.913	372.39
396.292	369.68
396.671	365.39
397.05	357.25
397.429	373.3
397.808	348.66
398.186	355.22
398.565	346.18
398.944	369.68
399.323	382.56
399.701	355.89
400.08	360.64
400.458	367.42
400.837	362
401.215	392.73
401.594	366.74
401.972	365.39
402.351	382.79
402.729	386.4
403.107	367.42
403.486	373.75
403.864	364.71
404.242	390.92
404.62	390.92
404.999	361.77
405.377	375.1
405.755	380.3
406.133	394.31
406.511	398.15
406.889	404.71
407.267	409.45
407.645	397.7
408.023	402.22
408.401	377.14
408.779	412.62
409.156	406.29
409.534	395.22
409.912	433.86
410.29	418.94
410.667	426.4
411.045	420.75
411.422	437.02
411.8	417.81
412.178	413.29
412.555	425.95
412.933	421.43
413.31	429.34
413.687	424.14
414.065	421.2
414.442	439.96
414.819	408.77
415.197	451.71
415.574	463.69
415.951	445.84
416.328	437.93
416.705	448.77
417.082	466.17
417.46	460.75
417.837	478.38
418.214	440.86
418.591	455.33
418.967	452.16
419.344	487.42
419.721	462.11
420.098	472.5
420.475	465.04
420.852	471.37
421.228	497.36
421.605	491.71
421.982	468.89
422.358	479.06
422.735	495.78
423.111	507.76
423.488	470.92
423.864	479.96
424.241	504.14
424.617	486.74
424.994	498.26
425.37	517.7
425.746	511.6
426.123	508.43
426.499	510.01
426.875	510.92
427.251	500.98
427.627	506.85
428.003	501.88
428.379	533.97
428.756	508.43
429.132	528.32
429.507	535.32
429.883	531.71
430.259	561.76
430.635	546.4
431.011	552.05
431.387	570.13
431.763	575.55
432.138	565.15
432.514	568.77
432.89	559.73
433.265	560.86
433.641	592.27
434.016	588.66
434.392	590.69
434.767	598.6
435.143	587.53
435.518	600.18
435.894	609.45
436.269	613.51
436.644	604.02
437.02	610.13
437.395	619.62
437.77	650.12
438.145	655.32
438.52	637.47
438.895	649.45
439.271	618.49
439.646	666.17
440.021	658.49
440.395	678.6
440.77	657.36
441.145	657.81
441.52	665.72
441.895	672.72
442.27	693.51
442.645	684.02
443.019	690.35
443.394	674.3
443.769	689.9
444.143	668.65
444.518	714.98
444.892	688.32
445.267	681.99
445.641	711.37
446.016	706.62
446.39	737.81
446.764	696.9
447.139	717.69
447.513	728.54
447.887	710.01
448.262	728.77
448.636	709.78
449.01	720.4
449.384	745.26
449.758	737.13
450.132	764.02
450.506	742.33
450.88	771.93
451.254	776.67
451.628	763.79
452.002	770.35
452.376	795.66
452.75	767.64
453.123	796.79
453.497	781.42
453.871	798.82
454.244	801.31
454.618	813.96
454.992	825.03
455.365	838.37
455.739	846.05
456.112	852.6
456.486	840.63
456.859	855.99
457.232	856.67
457.606	856.45
457.979	874.53
458.352	892.15
458.725	882.21
459.099	884.24
459.472	914.98
459.845	924.69
460.218	914.3
460.591	943.45
460.964	924.69
461.337	978.48
461.71	950.91
462.083	963.34
462.456	969.66
462.829	975.09
463.201	1001.75
463.574	957.91
463.947	1013.05
464.32	1017.12
464.692	1034.29
465.065	1025.26
465.438	1052.37
465.81	1052.83
466.183	1052.83
466.555	1094.18
466.928	1097.57
467.3	1105.03
467.672	1106.84
468.045	1118.81
468.417	1136.21
468.789	1121.98
469.161	1159.04
469.534	1158.13
469.906	1200.84
470.278	1180.51
470.65	1208.08
471.022	1249.2
471.394	1270.22
471.766	1258.47
472.138	1269.77
472.51	1280.62
472.882	1295.53
473.253	1310.45
473.625	1306.38
473.997	1364.23
474.369	1348.86
474.74	1363.1
475.112	1395.42
475.484	1402.87
475.855	1412.14
476.227	1462.31
476.598	1474.51
476.97	1496.88
477.341	1493.04
477.713	1527.62
478.084	1556.99
478.455	1592.25
478.827	1604.9
479.198	1623.21
479.569	1648.74
479.94	1678.12
480.311	1685.8
480.682	1739.81
481.053	1742.07
481.424	1800.38
481.795	1813.94
482.166	1828.85
482.537	1869.08
482.908	1861.62
483.279	1924.21
483.65	1941.16
484.021	1953.82
484.391	1974.38
484.762	2040.14
485.133	1996.76
485.503	2052.12
485.874	2097.54
486.244	2135.73
486.615	2160.82
486.985	2190.42
487.356	2191.55
487.726	2254.6
488.097	2285.34
488.467	2302.28
488.837	2325.79
489.207	2350.19
489.578	2384.54
489.948	2390.64
490.318	2464.77
490.688	2495.5
491.058	2506.12
491.428	2556.97
491.798	2603.75
492.168	2636.96
492.538	2653.69
492.908	2622.95
493.278	2690.3
493.648	2724.65
494.017	2759
494.387	2768.26
494.757	2763.29
495.126	2795.83
495.496	2880.35
495.866	2896.17
496.235	2862.95
496.605	2939.78
496.974	2978.42
497.344	2995.6
497.713	3041.47
498.082	3013.23
498.452	3062.49
498.821	3042.15
499.19	3113.56
499.559	3113.34
499.928	3172.32
500.298	3212.09
500.667	3224.97
501.036	3226.1
501.405	3226.33
501.774	3295.93
502.143	3288.25
502.512	3335.03
502.88	3379.77
503.249	3410.5
503.618	3452.76
503.987	3455.02
504.356	3494.12
504.724	3503.16
505.093	3542.7
505.462	3555.13
505.83	3589.26
506.199	3637.62
506.567	3643.94
506.936	3680.33
507.304	3735.69
507.672	3737.73
508.041	3774.56
508.409	3811.62
508.777	3857.27
509.145	3863.6
509.514	3905.86
509.882	3962.13
510.25	3941.11
510.618	3959.64
510.986	3995.8
511.354	4018.85
511.722	4096.59
512.09	4149.92
512.458	4113.08
512.826	4245.28
513.193	4210.71
513.561	4222.91
513.929	4286.41
514.297	4312.85
514.664	4389.91
515.032	4360.08
515.4	4499.06
515.767	4494.32
516.135	4555.78
516.502	4543.36
516.869	4590.59
517.237	4582.22
517.604	4665.16
517.972	4718.27
518.339	4732.5
518.706	4773.41
519.073	4809.34
519.44	4873.29
519.808	4889.11
520.175	4919.39
520.542	4971.14
520.909	5036
521.276	5050.69
521.643	5120.52
522.009	5150.34
522.376	5227.63
522.743	5244.58
523.11	5325.26
523.477	5382.2
523.843	5441.41
524.21	5450.45
524.577	5558.47
524.943	5576.55
525.31	5615.19
525.676	5661.74
526.043	5687.51
526.409	5733.15
526.776	5809.54
527.142	5829.42
527.508	5873.26
527.874	5956.2
528.241	5997.55
528.607	6030.1
528.973	6090.43
529.339	6151.22
529.705	6230.32
530.071	6265.34
530.437	6270.54
530.803	6338.79
531.169	6382.4
531.535	6337.66
531.901	6428.28
532.267	6527.94
532.632	6536.52
532.998	6585.79
533.364	6605.9
533.73	6671.43
534.095	6746.91
534.461	6766.12
534.826	6820.36
535.192	6858.77
535.557	6944.65
535.923	6949.39
536.288	7021.93
536.653	7041.37
537.019	7023.74
537.384	7104.64
537.749	7118.65
538.114	7188.71
538.479	7170.18
538.845	7269.16
539.21	7210.86
539.575	7270.29
539.94	7360
540.305	7394.81
540.67	7491.53
541.034	7472.77
541.399	7539.66
541.764	7573.11
542.129	7649.94
542.494	7625.08
542.858	7679.77
543.223	7768.81
543.587	7811.97
543.952	7812.2
544.316	7886.54
544.681	7871.63
545.045	7939.65
545.41	7992.76
545.774	8027.56
546.138	8029.37
546.503	8102.58
546.867	8167.67
547.231	8177.16
547.595	8233.43
547.959	8248.12
548.324	8367.44
548.688	8322.92
549.052	8331.05
549.416	8446.76
549.779	8468
550.143	8496.7
550.507	8638.16
550.871	8600.2
551.235	8601.1
551.599	8775.79
551.962	8761.1
552.326	8760.42
552.689	8897.14
553.053	8789.57
553.417	8904.82
553.78	8987.08
554.143	8968.32
554.507	9034.54
554.87	9151.6
555.234	9213.51
555.597	9226.4
555.96	9263.23
556.323	9291.7
556.686	9324.7
557.05	9464.13
557.413	9447.86
557.776	9486.95
558.139	9544.13
558.502	9642.66
558.865	9639.49
559.228	9773.05
559.59	9837
559.953	9816.89
560.316	9948.64
560.679	9960.84
561.041	10051.91
561.404	10065.24
561.767	10085.81
562.129	10156.99
562.492	10305.92
562.854	10332.13
563.217	10322.86
563.579	10374.84
563.941	10461.84
564.304	10507.04
564.666	10592.24
565.028	10646.02
565.39	10667.26
565.753	10756.53
566.115	10816.64
566.477	10815.28
566.839	10928.95
567.201	11025.22
567.563	11054.82
567.925	11128.27
568.287	11147.7
568.648	11213.91
569.01	11325.55
569.372	11314.7
569.734	11322.16
570.095	11481.25
570.457	11546.79
570.819	11552.89
571.18	11534.81
571.542	11671.53
571.903	11697.52
572.265	11718.99
572.626	11750.85
572.987	11857.74
573.349	11943.61
573.71	11952.2
574.071	11903.84
574.432	12043.95
574.794	12196.26
575.155	12099.54
575.516	12077.62
575.877	12220.89
576.238	12231.29
576.599	12364.17
576.96	12316.48
577.32	12332.75
577.681	12485.97
578.042	12504.5
578.403	12405.52
578.763	12497.27
579.124	12572.75
579.485	12624.05
579.845	12640.77
580.206	12681.67
580.566	12700.65
580.927	12724.61
581.287	12836.47
581.648	12773.42
582.008	12906.53
582.368	12966.64
582.728	12931.84
583.089	12869.46
583.449	12891.38
583.809	13005.73
584.169	13036.47
584.529	13028.56
584.889	13193.3
585.249	13062.23
585.609	13092.96
585.969	13096.8
586.329	13217.03
586.688	13253.18
587.048	13235.56
587.408	13185.16
587.768	13247.53
588.127	13239.62
588.487	13293.18
588.846	13362.33
589.206	13292.28
589.565	13375.21
589.925	13462.67
590.284	13448.43
590.643	13431.93
591.003	13461.54
591.362	13597.81
591.721	13554.87
592.08	13530.01
592.44	13644.81
592.799	13568.65
593.158	13617.01
593.517	13637.58
593.876	13756.9
594.235	13655.66
594.593	13681.42
594.952	13722.32
595.311	13721.64
595.67	13743.34
596.029	13855.2
596.387	13908.53
596.746	13867.4
597.104	13843.22
597.463	13885.26
597.822	13936.1
598.18	13885.71
598.538	13993.73
598.897	13949.89
599.255	13958.47
599.613	14093.84
599.972	14004.58
600.33	14091.58
600.688	14047.06
601.046	14142.88
601.404	14118.24
601.762	14176.77
602.12	14343.1
602.478	14294.51
602.836	14257.68
603.194	14263.78
603.552	14262.42
603.91	14297.22
604.268	14382.42
604.625	14350.78
604.983	14306.49
605.341	14358.46
605.698	14441.85
606.056	14462.64
606.413	14472.59
606.771	14519.36
607.128	14532.25
607.485	14484.11
607.843	14506.48
608.2	14594.39
608.557	14617.44
608.914	14688.63
609.272	14693.6
609.629	14746.02
609.986	14824.67
610.343	14682.75
610.7	14862.63
611.057	14813.59
611.414	14835.51
611.771	14856.08
612.127	14890.43
612.484	14922.97
612.841	14998
613.198	14976.53
613.554	14942.4
613.911	15082.06
614.267	15137.65
614.624	15168.39
614.98	15132
615.337	15161.16
615.693	15049.52
616.05	15205.9
616.406	15324.99
616.762	15231.44
617.118	15190.08
617.475	15327.93
617.831	15258.1
618.187	15366.12
618.543	15458.32
618.899	15506
619.255	15509.85
619.611	15508.26
619.967	15571.31
620.323	15509.17
620.678	15540.13
621.034	15468.04
621.39	15578.09
621.746	15504.42
622.101	15661.03
622.457	15614.7
622.812	15600.01
623.168	15664.42
623.523	15630.52
623.879	15785.32
624.234	15651.54
624.589	15727.02
624.945	15792.32
625.3	15682.27
625.655	15765.21
626.01	15823.74
626.365	15764.53
626.72	15758.65
627.075	15794.13
627.43	15829.16
627.785	15762.72
628.14	15811.53
628.495	15850.85
628.85	15805.21
629.205	15763.63
629.559	15898.99
629.914	15816.28
630.269	15883.62
630.623	15768.14
630.978	15801.14
631.332	15871.87
631.687	15936.05
632.041	15842.27
632.396	15881.59
632.75	15700.8
633.104	15782.83
633.459	15826
633.813	15849.05
634.167	15748.48
634.521	15724.3
634.875	15911.42
635.229	15856.96
635.583	15850.63
635.937	15793.45
636.291	15809.95
636.645	15745.77
636.999	15820.8
637.352	15805.66
637.706	15757.3
638.06	15730.18
638.413	15631.65
638.767	15722.04
639.121	15748.03
639.474	15588.26
639.828	15634.59
640.181	15638.88
640.534	15765.43
640.888	15693.12
641.241	15608.83
641.594	15678.88
641.947	15745.32
642.301	15689.73
642.654	15810.86
643.007	15665.77
643.36	15678.2
643.713	15610.63
644.066	15674.81
644.419	15651.31
644.771	15553.01
645.124	15383.52
645.477	15371.77
645.83	15311.21
646.182	15225.11
646.535	15184.88
646.888	15330.19
647.24	15160.48
647.593	15320.7
647.945	15236.63
648.298	15187.6
648.65	15118.67
649.002	15152.12
649.355	15165.22
649.707	15190.08
650.059	15238.67
650.411	15405.44
650.763	15496.74
651.115	15626.68
651.467	15594.82
651.819	15576.74
652.171	15596.85
652.523	15550.75
652.875	15598.66
653.227	15412.9
653.578	15652.22
653.93	15593.23
654.282	15616.74
654.633	15525.67
654.985	15517.08
655.337	15494.71
655.688	15560.01
656.039	15611.09
656.391	15509.85
656.742	15544.65
657.094	15550.75
657.445	15694.7
657.796	15534.03
658.147	15586.91
658.498	15562.5
658.849	15559.79
659.2	15531.99
659.551	15556.85
659.902	15558.66
660.253	15597.3
660.604	15650.63
660.955	15565.44
661.306	15542.16
661.656	15572.22
662.007	15602.5
662.358	15617.41
662.708	15586.45
663.059	15622.84
663.409	15511.2
663.76	15734.47
664.11	15644.76
664.461	15674.81
664.811	15658.77
665.161	15660.8
665.511	15595.04
665.862	15677.07
666.212	15655.15
666.562	15783.74
666.912	15707.58
667.262	15653.35
667.612	15593.69
667.962	15641.14
668.312	15655.61
668.662	15781.93
669.011	15701.93
669.361	15640.69
669.711	15639.11
670.06	15663.29
670.41	15550.3
670.76	15542.39
671.109	15673.01
671.459	15647.02
671.808	15581.93
672.157	15614.25
672.507	15562.5
672.856	15587.81
673.205	15597.75
673.554	15677.3
673.904	15533.57
674.253	15625.78
674.602	15566.57
674.951	15383.75
675.3	15336.07
675.649	15537.87
675.998	15601.14
676.346	15555.27
676.695	15627.58
677.044	15486.34
677.393	15586.68
677.741	15596.4
678.09	15578.55
678.438	15513.91
678.787	15573.35
679.135	15582.16
679.484	15577.87
679.832	15593.91
680.181	15461.94
680.529	15579
680.877	15410.64
681.225	15464.65
681.573	15477.3
681.922	15488.15
682.27	15434.82
682.618	15437.76
682.966	15335.39
683.314	15408.83
683.661	15386.01
684.009	15292.9
684.357	15252.45
684.705	15283.41
685.053	15280.02
685.4	15263.98
685.748	15226.01
686.095	15230.98
686.443	15184.43
686.79	15160.93
687.138	15188.27
687.485	15226.69
687.832	15074.15
688.18	15210.42
688.527	15064.89
688.874	15097.2
689.221	15077.32
689.568	15047.71
689.915	14971.56
690.262	14971.78
690.609	14906.02
690.956	14828.06
691.303	14890.43
691.65	14844.1
691.997	14809.3
692.344	14794.84
692.69	14752.13
693.037	14767.95
693.383	14703.99
693.73	14721.84
694.077	14644.78
694.423	14609.08
694.769	14604.33
695.116	14573.15
695.462	14544.9
695.808	14444.11
696.155	14544
696.501	14385.81
696.847	14459.7
697.193	14389.88
697.539	14398.46
697.885	14293.83
698.231	14292.93
698.577	14202.99
698.923	14257.9
699.269	14178.36
699.614	14187.17
699.96	14169.09
700.306	14122.54
700.651	14119.37
700.997	14062.65
701.342	14046.38
701.688	13997.34
702.033	14019.72
702.379	14005.25
702.724	14005.48
703.069	13852.49
703.415	13805.71
703.76	13890.23
704.105	13934.29
704.45	13852.26
704.795	13797.35
705.14	13671.7
705.485	13685.26
705.83	13601.42
706.175	13664.25
706.52	13641.65
706.865	13566.62
707.209	13619.73
707.554	13550.35
707.899	13539.05
708.243	13479.62
708.588	13450.47
708.932	13379.96
709.277	13424.03
709.621	13405.49
709.966	13348.55
710.31	13352.16
710.654	13264.93
710.998	13325.72
711.342	13301.54
711.687	13259.51
712.031	13268.1
712.375	13185.61
712.719	13156.01
713.063	13100.64
713.407	13292.28
713.75	13125.95
714.094	13125.5
714.438	13074.66
714.782	13174.77
715.125	12980.65
715.469	13109.46
715.812	12987.88
716.156	12929.58
716.499	12948.11
716.843	12979.74
717.186	12946.07
717.53	12989.01
717.873	12915.11
718.216	12960.76
718.559	12852.06
718.902	12792.63
719.246	12845.06
719.589	12869.69
719.932	12798.28
720.275	12764.16
720.617	12777.94
720.96	12742.91
721.303	12749.47
721.646	12781.78
721.989	12700.65
722.331	12723.03
722.674	12723.7
723.016	12681.45
723.359	12658.17
723.701	12667.44
724.044	12596.93
724.386	12558.51
724.729	12636.93
725.071	12613.43
725.413	12595.57
725.755	12618.4
726.097	12493.43
726.439	12467.67
726.782	12417.95
727.124	12521.45
727.465	12490.94
727.807	12476.25
728.149	12446.88
728.491	12488.23
728.833	12511.28
729.175	12461.56
729.516	12411.85
729.858	12399.65
730.199	12438.51
730.541	12374.79
730.882	12435.8
731.224	12456.14
731.565	12301.34
731.906	12352.64
732.248	12394.67
732.589	12279.42
732.93	12254.79
733.271	12300.89
733.612	12307.44
733.953	12351.51
734.294	12301.12
734.635	12246.2
734.976	12366.65
735.317	12293.21
735.658	12248.01
735.999	12276.94
736.339	12252.76
736.68	12208.92
737.021	12265.64
737.361	12149.03
737.702	12252.98
738.042	12187.45
738.383	12201.01
738.723	12217.73
739.063	12143.83
739.404	12188.35
739.744	12109.71
740.084	12104.06
740.424	12217.96
740.764	12118.07
741.104	12202.81
741.444	12068.58
741.784	12030.39
742.124	12161.91
742.464	12107.22
742.804	12057.96
743.143	12122.36
743.483	12016.83
743.823	12100.9
744.162	12072.87
744.502	12079.88
744.841	12038.53
745.181	12079.2
745.52	12066.77
745.86	12029.26
746.199	11983.61
746.538	12011.41
746.877	12039.66
747.216	12099.31
747.556	11969.6
747.895	12080.56
748.234	11988.36
748.573	11910.17
748.911	11930.96
749.25	11936.61
749.589	11902.48
749.928	11941.8
750.267	11822.71
750.605	11856.38
750.944	11924.86
751.283	11843.95
751.621	11889.83
751.96	11826.1
752.298	11801.02
752.636	11842.6
752.975	11840.34
753.313	11758.76
753.651	11836.5
753.989	11839.21
754.327	11774.35
754.666	11762.15
755.004	11757.4
755.342	11741.13
755.679	11805.31
756.017	11708.59
756.355	11702.94
756.693	11681.47
757.031	11703.84
757.368	11644.19
757.706	11601.7
758.044	11589.05
758.381	11563.96
758.719	11513.12
759.056	11598.99
759.394	11535.94
759.731	11445.77
760.068	11512.89
760.405	11406.23
