Data from cardboard_FLMS001491_079.txt Node
Date: Tue Feb 07 11:40:07 GMT 2017
User: dcchb
Spectrometer: FLMS00149
Trigger mode: 0
Integration Time (sec): 2.000000E-2
Scans to average: 10
Electric dark correction enabled: true
Nonlinearity correction enabled: false
Boxcar width: 0
XAxis mode: Wavelengths
Number of Pixels in Spectrum: 2048
>>>>>Begin Spectral Data<<<<<
341.393	-19.76
341.776	-19.76
342.16	-19.76
342.543	-49.14
342.927	-85.75
343.31	-68.12
343.693	-74.9
344.077	-71.28
344.46	-46.65
344.843	-75.8
345.226	-17.73
345.61	-44.17
345.993	-4.39
346.376	-10.27
346.759	17.08
347.142	24.76
347.525	45.32
347.908	54.59
348.291	66.11
348.674	101.59
349.057	103.85
349.44	135.72
349.823	147.02
350.206	153.12
350.588	169.16
350.971	184.53
351.354	236.05
351.737	231.31
352.119	241.02
352.502	258.65
352.884	261.59
353.267	276.73
353.65	281.48
354.032	285.54
354.414	297.52
354.797	281.48
355.179	288.71
355.562	336.62
355.944	342.27
356.326	329.61
356.709	328.03
357.091	332.1
357.473	328.25
357.855	347.24
358.238	355.15
358.62	342.27
359.002	327.35
359.384	324.64
359.766	335.26
360.148	322.15
360.53	337.75
360.912	333.23
361.294	319.21
361.676	319.21
362.057	342.04
362.439	342.72
362.821	342.72
363.203	307.01
363.584	328.71
363.966	341.59
364.348	326.67
364.729	321.25
365.111	326.9
365.493	328.03
365.874	316.95
366.256	320.34
366.637	313.34
367.019	312.89
367.4	307.01
367.781	322.6
368.163	306.79
368.544	313.57
368.925	313.79
369.306	309.95
369.688	309.95
370.069	314.24
370.45	304.07
370.831	309.27
371.212	325.99
371.593	292.32
371.974	290.74
372.355	303.17
372.736	311.76
373.117	326.22
373.498	295.94
373.879	312.44
374.26	291.87
374.641	308.59
375.021	311.31
375.402	315.15
375.783	299.55
376.163	314.92
376.544	311.76
376.925	345.2
377.305	331.19
377.686	307.01
378.066	311.98
378.447	325.54
378.827	317.86
379.208	311.76
379.588	322.83
379.968	322.83
380.349	324.19
380.729	338.42
381.109	321.47
381.489	330.29
381.87	330.51
382.25	329.38
382.63	338.65
383.01	335.94
383.39	342.04
383.77	347.91
384.15	341.36
384.53	347.69
384.91	332.55
385.29	346.78
385.67	353.11
386.049	360.57
386.429	343.39
386.809	351.53
387.189	349.5
387.568	348.37
387.948	348.14
388.328	349.04
388.707	343.39
389.087	374.13
389.466	360.8
389.846	360.12
390.225	358.31
390.605	365.99
390.984	372.77
391.363	349.5
391.743	349.95
392.122	365.09
392.501	363.96
392.881	361.93
393.26	376.61
393.639	396.95
394.018	379.33
394.397	371.19
394.776	379.55
395.155	355.6
395.534	373.22
395.913	393.79
396.292	380
396.671	374.35
397.05	382.94
397.429	391.76
397.808	379.33
398.186	397.4
398.565	377.97
398.944	385.43
399.323	394.24
399.701	398.99
400.08	391.76
400.458	392.43
400.837	406.9
401.215	387.24
401.594	377.74
401.972	394.24
402.351	409.83
402.729	411.42
403.107	418.42
403.486	404.41
403.864	423.39
404.242	424.75
404.62	429.49
404.999	430.62
405.377	409.61
405.755	423.62
406.133	424.07
406.511	441.7
406.889	447.35
407.267	440.12
407.645	437.18
408.023	449.61
408.401	422.71
408.779	436.73
409.156	448.25
409.534	453
409.912	446.44
410.29	455.71
410.667	461.13
411.045	455.48
411.422	480.79
411.8	467.46
412.178	470.85
412.555	467.01
412.933	483.96
413.31	495.03
413.687	506.55
414.065	490.51
414.442	502.49
414.819	500
415.197	488.48
415.574	520.57
415.951	513.11
416.328	509.49
416.705	506.55
417.082	501.36
417.46	520.79
417.837	527.57
418.214	513.79
418.591	540.9
418.967	538.42
419.344	524.86
419.721	554.91
420.098	532.09
420.475	524.86
420.852	546.78
421.228	570.73
421.605	533.22
421.982	549.49
422.358	548.59
422.735	580.22
423.111	568.02
423.488	591.07
423.864	591.3
424.241	572.77
424.617	591.07
424.994	596.72
425.37	574.58
425.746	580.9
426.123	583.84
426.499	602.82
426.875	618.64
427.251	595.37
427.627	638.53
428.003	629.26
428.379	629.26
428.756	637.4
429.132	636.49
429.507	643.95
429.883	645.31
430.259	653.67
430.635	670.39
431.011	643.73
431.387	673.1
431.763	674.91
432.138	684.63
432.514	704.06
432.89	702.93
433.265	697.96
433.641	689.37
434.016	705.42
434.392	705.87
434.767	723.05
435.143	735.7
435.518	721.69
435.894	743.61
436.269	742.03
436.644	769.82
437.02	742.93
437.395	751.29
437.77	757.85
438.145	764.17
438.52	798.3
438.895	800.33
439.271	798.07
439.646	790.61
440.021	807.79
440.395	819.77
440.77	785.87
441.145	825.87
441.52	823.83
441.895	811.18
442.27	840.56
442.645	823.83
443.019	822.03
443.394	823.16
443.769	854.34
444.143	869.93
444.518	863.38
444.892	862.25
445.267	841.91
445.641	846.43
446.016	883.49
446.39	885.08
446.764	882.82
447.139	889.6
447.513	861.12
447.887	883.27
448.262	898.86
448.636	914
449.01	898.41
449.384	930.27
449.758	922.59
450.132	938.86
450.506	947.22
450.88	931.18
451.254	933.89
451.628	963.94
452.002	951.29
452.376	958.29
452.75	973.21
453.123	999.2
453.497	1002.13
453.871	990.16
454.244	1022.47
454.618	1020.89
454.992	1056.14
455.365	1055.69
455.739	1043.72
456.112	1065.41
456.486	1060.21
456.859	1104.28
457.232	1083.26
457.606	1093.21
457.979	1092.08
458.352	1114
458.725	1103.6
459.099	1162.58
459.472	1148.12
459.845	1168.91
460.218	1169.14
460.591	1201.45
460.964	1192.64
461.337	1210.49
461.71	1222.24
462.083	1230.6
462.456	1245.97
462.829	1252.75
463.201	1275.12
463.574	1259.98
463.947	1313.76
464.32	1303.37
464.692	1327.55
465.065	1316.7
465.438	1363.48
465.81	1368.68
466.183	1400.32
466.555	1389.02
466.928	1438.73
467.3	1398.96
467.672	1454.33
468.045	1463.37
468.417	1469.69
468.789	1461.78
469.161	1496.81
469.534	1543.82
469.906	1552.63
470.278	1575.68
470.65	1574.55
471.022	1584.94
471.394	1607.09
471.766	1652.51
472.138	1657.03
472.51	1694.77
472.882	1702.91
473.253	1718.27
473.625	1755.56
473.997	1777.71
474.369	1793.07
474.74	1849.8
475.112	1875.78
475.484	1876.69
475.855	1873.75
476.227	1913.52
476.598	1963.24
476.97	1974.99
477.341	2013.63
477.713	2041.66
478.084	2070.13
478.455	2119.62
478.827	2122.56
479.198	2174.76
479.569	2212.72
479.94	2223.57
480.311	2270.12
480.682	2316.45
481.053	2327.52
481.424	2429.22
481.795	2447.75
482.166	2458.59
482.537	2495.65
482.908	2565.26
483.279	2577.69
483.65	2616.1
484.021	2668.98
484.391	2679.6
484.762	2722.54
485.133	2756.21
485.503	2781.75
485.874	2883.44
486.244	2881.18
486.615	2960.73
486.985	2951.91
487.356	3017.22
487.726	3062.19
488.097	3100.84
488.467	3106.03
488.837	3203.88
489.207	3204.56
489.578	3250.66
489.948	3305.58
490.318	3336.08
490.688	3389.42
491.058	3454.95
491.428	3497.21
491.798	3481.84
492.168	3624.21
492.538	3611.11
492.908	3696.53
493.278	3721.16
493.648	3757.77
494.017	3793.02
494.387	3818.11
494.757	3833.25
495.126	3887.71
495.496	3901.95
495.866	3939.23
496.235	4000.25
496.605	4006.12
496.974	4107.36
497.344	4141.71
497.713	4188.04
498.082	4202.5
498.452	4221.94
498.821	4292.44
499.19	4313.01
499.559	4360.92
499.928	4359.11
500.298	4397.98
500.667	4476.39
501.036	4456.96
501.405	4561.59
501.774	4556.62
502.143	4620.8
502.512	4694.47
502.88	4705.54
503.249	4718.87
503.618	4757.74
503.987	4776.72
504.356	4823.96
504.724	4856.27
505.093	4931.97
505.462	4932.43
505.83	4985.98
506.199	5046.1
506.567	5158.64
506.936	5114.12
507.304	5247.67
507.672	5247.67
508.041	5231.4
508.409	5293.55
508.777	5366.54
509.145	5448.8
509.514	5461.23
509.882	5521.56
510.25	5487.21
510.618	5590.49
510.986	5608.79
511.354	5680.88
511.722	5766.76
512.09	5801.33
512.458	5820.31
512.826	5905.51
513.193	5944.15
513.561	5990.48
513.929	6056.47
514.297	6134.43
514.664	6129.91
515.032	6169.68
515.4	6247.65
515.767	6305.5
516.135	6322.45
516.502	6351.82
516.869	6498.04
517.237	6498.49
517.604	6536
517.972	6677.92
518.339	6691.02
518.706	6711.36
519.073	6768.31
519.44	6883.79
519.808	6923.33
520.175	6922.43
520.542	7033.39
520.909	7113.16
521.276	7134.4
521.643	7216.43
522.009	7273.16
522.376	7361.74
522.743	7399.03
523.11	7547.27
523.477	7602.87
523.843	7749.3
524.21	7745.01
524.577	7837.89
524.943	7890.09
525.31	7951.78
525.676	8042.18
526.043	8077.65
526.409	8167.14
526.776	8283.75
527.142	8334.37
527.508	8468.38
527.874	8516.06
528.241	8544.08
528.607	8578.88
528.973	8719.45
529.339	8751.99
529.705	8872.66
530.071	8918.76
530.437	9004.64
530.803	9089.61
531.169	9116.5
531.535	9190.17
531.901	9214.35
532.267	9266.55
532.632	9329.15
532.998	9433.78
533.364	9511.52
533.73	9539.31
534.095	9656.82
534.461	9746.09
534.826	9722.58
535.192	9816.37
535.557	9909.25
535.923	9950.15
536.288	10022.01
536.653	10075.12
537.019	10058.62
537.384	10132.74
537.749	10264.26
538.114	10276.02
538.479	10325.73
538.845	10435.56
539.21	10455.67
539.575	10528.44
539.94	10577.93
540.305	10713.07
540.67	10683.46
541.034	10779.73
541.399	10804.81
541.764	10810.69
542.129	10963.23
542.494	11011.81
542.858	11029.22
543.223	11059.72
543.587	11153.73
543.952	11207.74
544.316	11284.35
544.681	11283.9
545.045	11363.9
545.41	11489.09
545.774	11595.53
546.138	11565.92
546.503	11672.59
546.867	11682.08
547.231	11821.96
547.595	11791.68
547.959	11814.96
548.324	11893.83
548.688	11997.55
549.052	12028.51
549.416	12047.72
549.779	12141.95
550.143	12239.35
550.507	12319.35
550.871	12428.95
551.235	12415.85
551.599	12553.02
551.962	12636.18
552.326	12609.06
552.689	12729.74
553.053	12713.69
553.417	12769.96
553.78	12977.19
554.143	12981.48
554.507	13096.28
554.87	13103.74
555.234	13270.51
555.597	13252.43
555.96	13320.45
556.323	13405.88
556.686	13466.21
557.05	13550.28
557.413	13578.75
557.776	13689.48
558.139	13825.53
558.502	13870.5
558.865	13871.85
559.228	14036.14
559.59	14104.62
559.953	14187.1
560.316	14405.85
560.679	14393.42
561.041	14536.47
561.404	14570.59
561.767	14580.76
562.129	14713.19
562.492	14849
562.854	14852.17
563.217	14884.03
563.579	15024.59
563.941	15110.92
564.304	15235.21
564.666	15397.24
565.028	15317.92
565.39	15401.53
565.753	15555.42
566.115	15585.71
566.477	15672.71
566.839	15755.87
567.201	15875.87
567.563	15911.12
567.925	16077.22
568.287	16111.79
568.648	16118.12
569.01	16326.48
569.372	16455.06
569.734	16350.66
570.095	16528.05
570.457	16598.11
570.819	16567.6
571.18	16663.19
571.542	16816.63
571.903	16781.83
572.265	16924.43
572.626	16969.4
572.987	17089.85
573.349	17200.13
573.71	17211.43
574.071	17245.1
574.432	17415.71
574.794	17528.48
575.155	17593.34
575.516	17518.99
575.877	17615.03
576.238	17723.05
576.599	17836.95
576.96	17771.64
577.32	17928.47
577.681	17978.19
578.042	17995.59
578.403	18038.75
578.763	18062.48
579.124	18166.88
579.485	18129.14
579.845	18312.41
580.206	18245.52
580.566	18330.49
580.927	18408.46
581.287	18462.47
581.648	18490.71
582.008	18484.84
582.368	18486.87
582.728	18579.75
583.089	18616.36
583.449	18625.85
583.809	18608.68
584.169	18727.32
584.529	18749.24
584.889	18935.45
585.249	18643.03
585.609	18783.59
585.969	18949.46
586.329	18932.96
586.688	18980.64
587.048	18990.81
587.408	18931.61
587.768	18994.43
588.127	19125.5
588.487	19054.32
588.846	19238.72
589.206	19125.5
589.565	19251.82
589.925	19378.6
590.284	19390.35
590.643	19369.56
591.003	19362.78
591.362	19459.28
591.721	19511.48
592.08	19454.3
592.44	19519.16
592.799	19563.45
593.158	19465.6
593.517	19572.04
593.876	19573.4
594.235	19585.37
594.593	19606.39
594.952	19620.63
595.311	19624.47
595.67	19754.41
596.029	19845.93
596.387	19872.82
596.746	19899.49
597.104	19820.17
597.463	19873.95
597.822	19842.54
598.18	19899.26
598.538	19894.52
598.897	20086.83
599.255	19978.58
599.613	20209.31
599.972	20002.54
600.33	20152.14
600.688	20032.59
601.046	20230.56
601.404	20288.41
601.762	20254.96
602.12	20419.93
602.478	20378.8
602.836	20379.93
603.194	20390.33
603.552	20421.51
603.91	20412.47
604.268	20568.4
604.625	20539.25
604.983	20649.98
605.341	20541.28
605.698	20575.86
606.056	20739.47
606.413	20703.99
606.771	20700.83
607.128	20760.03
607.485	20829.18
607.843	20823.31
608.2	20973.59
608.557	20972.23
608.914	20996.41
609.272	21047.48
609.629	21021.5
609.986	21231.21
610.343	21036.86
610.7	21287.03
611.057	21308.72
611.414	21191.66
611.771	21254.71
612.127	21394.37
612.484	21389.62
612.841	21474.14
613.198	21334.71
613.554	21394.82
613.911	21510.97
614.267	21608.6
614.624	21572.67
614.98	21575.83
615.337	21672.78
615.693	21758.65
616.05	21671.65
616.406	21894.92
616.762	21847.24
617.118	21746.67
617.475	21759.1
617.831	21854.24
618.187	21886.78
618.543	21971.3
618.899	22044.52
619.255	22007.91
619.611	21956.39
619.967	22124.97
620.323	22126.55
620.678	22069.38
621.034	22037.06
621.39	22038.64
621.746	22226.21
622.101	22438.41
622.457	22165.65
622.812	22376.71
623.168	22226.44
623.523	22326.55
623.879	22470.04
624.234	22339.2
624.589	22359.77
624.945	22477.73
625.3	22491.06
625.655	22521.79
626.01	22388.69
626.365	22557.5
626.72	22519.76
627.075	22465.98
627.43	22431.63
627.785	22451.06
628.14	22541.23
628.495	22564.96
628.85	22443.15
629.205	22535.35
629.559	22584.39
629.914	22428.92
630.269	22562.7
630.623	22348.01
630.978	22494.9
631.332	22515.24
631.687	22604.5
632.041	22493.32
632.396	22542.59
632.75	22423.94
633.104	22583.94
633.459	22351.86
633.813	22554.11
634.167	22405.41
634.521	22497.39
634.875	22571.74
635.229	22468.91
635.583	22402.25
635.937	22337.39
636.291	22349.82
636.645	22472.98
636.999	22366.54
637.352	22499.87
637.706	22342.82
638.06	22423.27
638.413	22381.46
638.767	22248.13
639.121	22367.45
639.474	22204.06
639.828	22240.67
640.181	22228.92
640.534	22337.84
640.888	22255.14
641.241	22122.94
641.594	22258.98
641.947	22280.67
642.301	22156.38
642.654	22308.69
643.007	22298.52
643.36	22212.65
643.713	22138.08
644.066	22188.24
644.419	22197.28
644.771	21947.8
645.124	21859.44
645.477	21888.82
645.83	21663.51
646.182	21618.99
646.535	21545.1
646.888	21600.69
647.24	21535.15
647.593	21609.73
647.945	21578.09
648.298	21550.29
648.65	21471.2
649.002	21362.96
649.355	21497.19
649.707	21499.9
650.059	21549.84
650.411	21777.18
650.763	21827.58
651.115	22081.58
651.467	22004.29
651.819	21943.5
652.171	22006.33
652.523	21983.73
652.875	22004.29
653.227	21938.31
653.578	22084.97
653.93	22045.65
654.282	21936.95
654.633	21873
654.985	21907.57
655.337	21859.44
655.688	22080
656.039	22008.36
656.391	21839.78
656.742	21898.76
657.094	21933.79
657.445	21985.76
657.796	21958.19
658.147	21906.67
658.498	21914.13
658.849	21907.12
659.2	22006.1
659.551	21890.4
659.902	22044.07
660.253	21925.65
660.604	21972.66
660.955	21917.97
661.306	21931.3
661.656	21894.92
662.007	21933.56
662.358	21963.39
662.708	21988.93
663.059	21947.8
663.409	21771.31
663.76	22042.03
664.11	21957.29
664.461	21972.88
664.811	22030.28
665.161	21934.47
665.511	22030.51
665.862	21966.56
666.212	22048.13
666.562	22003.16
666.912	22026.21
667.262	22030.51
667.612	21977.4
667.962	22028.93
668.312	22048.81
668.662	22127
669.011	22073.9
669.361	21994.58
669.711	22059.43
670.06	21941.7
670.41	22017.63
670.76	21944.18
671.109	22025.76
671.459	22082.94
671.808	21925.88
672.157	22072.77
672.507	21841.36
672.856	21844.75
673.205	21951.87
673.554	22084.97
673.904	22035.48
674.253	22026.89
674.602	22005.42
674.951	21690.4
675.3	21632.1
675.649	21941.7
675.998	21937.4
676.346	21890.62
676.695	21979.44
677.044	21761.81
677.393	21830.74
677.741	21937.86
678.09	21862.6
678.438	21887.01
678.787	21825.09
679.135	21852.43
679.484	21805.43
679.832	21824.19
680.181	21675.72
680.529	21694.7
680.877	21729.05
681.225	21704.42
681.573	21916.39
681.922	21730.63
682.27	21601.37
682.618	21713.23
682.966	21558.66
683.314	21687.69
683.661	21484.08
684.009	21530.41
684.357	21430.3
684.705	21467.36
685.053	21481.37
685.4	21311.66
685.748	21389.85
686.095	21328.15
686.443	21285.22
686.79	21274.82
687.138	21263.97
687.485	21309.85
687.832	21262.39
688.18	21328.83
688.527	21210.64
688.874	21208.38
689.221	21094.94
689.568	21024.43
689.915	21040.48
690.262	21006.81
690.609	20926.36
690.956	20941.05
691.303	20904.44
691.65	20744.21
691.997	20772.24
692.344	20698.79
692.69	20726.59
693.037	20645.23
693.383	20459.48
693.73	20598.91
694.077	20481.17
694.423	20354.62
694.769	20399.59
695.116	20365.47
695.462	20422.87
695.808	20329.76
696.155	20341.97
696.501	20179.71
696.847	20190.56
697.193	20015.42
697.539	20096.55
697.885	20027.17
698.231	20001.41
698.577	19933.16
698.923	19855.2
699.269	19946.72
699.614	19730.46
699.96	19822.88
700.306	19712.6
700.651	19671.47
700.997	19645.94
701.342	19582.66
701.688	19648.88
702.033	19573.4
702.379	19539.95
702.724	19444.14
703.069	19428.77
703.415	19331.37
703.76	19292.28
704.105	19367.3
704.45	19249.79
704.795	19160.53
705.14	19078.95
705.485	19068.33
705.83	18895.9
706.175	19070.13
706.52	19043.92
706.865	18935.22
707.209	19015.45
707.554	18854.09
707.899	18862
708.243	18782.68
708.588	18798.5
708.932	18665.17
709.277	18690.26
709.621	18699.52
709.966	18554.44
710.31	18607.55
710.654	18395.58
710.998	18469.47
711.342	18567.32
711.687	18407.33
712.031	18373.66
712.375	18337.5
712.719	18332.75
713.063	18257.05
713.407	18434.22
713.75	18389.47
714.094	18257.27
714.438	18253.21
714.782	18279.87
715.125	18096.37
715.469	18205.3
715.812	18058.86
716.156	17989.71
716.499	18050.5
716.843	17943.38
717.186	17959.88
717.53	17959.88
717.873	17978.41
718.216	17951.07
718.559	17906.55
718.902	17813.44
719.246	17864.97
719.589	17852.31
719.932	17768.47
720.275	17717.63
720.617	17718.53
720.96	17694.58
721.303	17672.2
721.646	17699.77
721.989	17634.24
722.331	17618.87
722.674	17598.31
723.016	17607.35
723.359	17551.76
723.701	17654.35
724.044	17544.75
724.386	17445.32
724.729	17537.75
725.071	17495.49
725.413	17458.88
725.755	17483.74
726.097	17414.81
726.439	17330.74
726.782	17334.13
727.124	17477.18
727.465	17343.17
727.807	17325.32
728.149	17273.35
728.491	17284.87
728.833	17405.55
729.175	17278.54
729.516	17321.93
729.858	17157.64
730.199	17259.56
730.541	17293.01
730.882	17222.5
731.224	17171.65
731.565	17092.33
731.906	17163.29
732.248	17122.84
732.589	17034.26
732.93	16947.03
733.271	17091.43
733.612	17083.29
733.953	17149.73
734.294	17089.85
734.635	17008.49
734.976	17086.01
735.317	16907.48
735.658	17027.93
735.999	16917.2
736.339	17006.91
736.68	17026.8
737.021	16935.73
737.361	16803.98
737.702	16983.64
738.042	16925.78
738.383	16859.12
738.723	16804.88
739.063	16791.1
739.404	16855.28
739.744	16843.53
740.084	16770.53
740.424	16837.42
740.764	16761.95
741.104	16827.48
741.444	16669.29
741.784	16714.49
742.124	16800.82
742.464	16778.89
742.804	16746.58
743.143	16656.41
743.483	16674.72
743.823	16718.33
744.162	16627.71
744.502	16654.15
744.841	16629.75
745.181	16760.14
745.52	16562.86
745.86	16678.56
746.199	16622.29
746.538	16571.89
746.877	16668.39
747.216	16657.09
747.556	16594.27
747.895	16653.93
748.234	16571.67
748.573	16502.29
748.911	16502.74
749.25	16549.3
749.589	16498.68
749.928	16554.49
750.267	16525.79
750.605	16474.04
750.944	16418
751.283	16469.98
751.621	16468.62
751.96	16436.98
752.298	16392.46
752.636	16440.37
752.975	16381.17
753.313	16227.95
753.651	16367.15
753.989	16293.03
754.327	16235.86
754.666	16237.89
755.004	16193.83
755.342	16257.78
755.679	16191.34
756.017	16125.13
756.355	16231.34
756.693	16030.67
757.031	16125.8
757.368	16060.5
757.706	16073.38
758.044	16036.54
