Data from cardboard_FLMS001491_076.txt Node
Date: Tue Feb 07 11:40:07 GMT 2017
User: dcchb
Spectrometer: FLMS00149
Trigger mode: 0
Integration Time (sec): 2.000000E-2
Scans to average: 10
Electric dark correction enabled: true
Nonlinearity correction enabled: false
Boxcar width: 0
XAxis mode: Wavelengths
Number of Pixels in Spectrum: 2048
>>>>>Begin Spectral Data<<<<<
341.393	-17.7
341.776	-17.7
342.16	-17.7
342.543	-72.84
342.927	-60.63
343.31	-61.31
343.693	-84.59
344.077	-58.6
344.46	-46.62
344.843	-53.85
345.226	-52.05
345.61	-62.89
345.993	-8.21
346.376	-1.43
346.759	-11.37
347.142	35.41
347.525	46.71
347.908	48.29
348.291	77.44
348.674	116.31
349.057	116.76
349.44	135.52
349.823	145.01
350.206	155.86
350.588	203.31
350.971	217.78
351.354	229.08
351.737	211.45
352.119	268.85
352.502	269.07
352.884	275.4
353.267	272.92
353.65	288.51
354.032	307.72
354.414	305.91
354.797	329.86
355.179	330.77
355.562	311.56
355.944	329.19
356.326	342.97
356.709	326.25
357.091	333.03
357.473	346.36
357.855	339.58
358.238	342.29
358.62	351.78
359.002	341.62
359.384	347.94
359.766	342.97
360.148	344.33
360.53	335.74
360.912	332.8
361.294	339.13
361.676	354.27
362.057	341.62
362.439	317.89
362.821	350.2
363.203	329.19
363.584	339.81
363.966	341.39
364.348	326.93
364.729	303.2
365.111	321.05
365.493	313.82
365.874	322.86
366.256	324.21
366.637	320.15
367.019	320.37
367.4	306.59
367.781	309.75
368.163	337.32
368.544	281.05
368.925	313.59
369.306	313.37
369.688	308.85
370.069	308.17
370.45	316.08
370.831	318.57
371.212	328.96
371.593	319.69
371.974	315.18
372.355	333.71
372.736	305.91
373.117	305.01
373.498	315.85
373.879	326.7
374.26	321.95
374.641	324.89
375.021	332.58
375.402	297.55
375.783	328.06
376.163	326.7
376.544	331.9
376.925	330.99
377.305	307.49
377.686	335.29
378.066	329.19
378.447	315.4
378.827	347.49
379.208	328.28
379.588	339.81
379.968	342.07
380.349	319.69
380.729	335.06
381.109	335.06
381.489	330.09
381.87	331.9
382.25	338.9
382.63	361.28
383.01	331.67
383.39	349.3
383.77	322.63
384.15	340.71
384.53	353.37
384.91	343.88
385.29	359.92
385.67	341.39
386.049	353.14
386.429	352.46
386.809	347.72
387.189	335.74
387.568	355.63
387.948	355.17
388.328	367.38
388.707	367.83
389.087	355.4
389.466	359.02
389.846	370.09
390.225	378.22
390.605	375.74
390.984	384.1
391.363	370.32
391.743	365.12
392.122	372.57
392.501	365.57
392.881	394.04
393.26	370.09
393.639	368.06
394.018	355.4
394.397	391.11
394.776	399.24
395.155	361.95
395.534	378
395.913	368.73
396.292	395.63
396.671	378.68
397.05	399.47
397.429	397.89
397.808	388.39
398.186	391.78
398.565	378
398.944	390.43
399.323	380.03
399.701	390.65
400.08	386.59
400.458	407.38
400.837	410.54
401.215	400.82
401.594	388.39
401.972	412.35
402.351	419.58
402.729	405.12
403.107	439.69
403.486	383.87
403.864	420.71
404.242	416.42
404.62	437.66
404.999	429.07
405.377	422.97
405.755	421.16
406.133	423.2
406.511	440.6
406.889	458.67
407.267	431.78
407.645	438.79
408.023	430.2
408.401	467.04
408.779	443.99
409.156	469.97
409.534	449.41
409.912	476.75
410.29	466.36
410.667	490.99
411.045	471.78
411.422	479.24
411.8	454.61
412.178	476.98
412.555	472.01
412.933	490.76
413.31	488.28
413.687	505
414.065	506.81
414.442	525.11
414.819	505.68
415.197	497.54
415.574	514.72
415.951	526.02
416.328	517.88
416.705	523.31
417.082	518.56
417.46	534.15
417.837	543.64
418.214	522.63
418.591	516.07
418.967	534.6
419.344	559.91
419.721	535.73
420.098	553.36
420.475	570.08
420.852	558.11
421.228	565.34
421.605	583.42
421.982	552.68
422.358	572.8
422.735	581.83
423.111	590.42
423.488	568.28
423.864	582.96
424.241	580.25
424.617	600.59
424.994	601.95
425.37	585
425.746	604.21
426.123	614.6
426.499	617.31
426.875	624.09
427.251	605.11
427.627	635.62
428.003	624.77
428.379	620.7
428.756	636.97
429.132	653.25
429.507	657.31
429.883	665.45
430.259	650.76
430.635	649.18
431.011	671.32
431.387	666.35
431.763	697.76
432.138	699.35
432.514	678.1
432.89	677.2
433.265	719.01
433.641	715.16
434.016	716.75
434.392	721.27
434.767	723.3
435.143	734.83
435.518	744.77
435.894	744.99
436.269	754.94
436.644	782.96
437.02	744.32
437.395	762.4
437.77	756.07
438.145	774.6
438.52	787.03
438.895	783.64
439.271	792.68
439.646	789.29
440.021	790.64
440.395	813.47
440.77	800.81
441.145	806.46
441.52	829.96
441.895	808.95
442.27	836.29
442.645	829.74
443.019	845.1
443.394	839.68
443.769	844.2
444.143	854.14
444.518	872.45
444.892	862.51
445.267	863.41
445.641	878.32
446.016	864.31
446.39	893.47
446.764	878.78
447.139	865.9
447.513	869.96
447.887	900.24
448.262	899.57
448.636	899.34
449.01	912.22
449.384	909.28
449.758	915.84
450.132	944.09
450.506	931.88
450.88	965.55
451.254	942.28
451.628	956.51
452.002	967.14
452.376	990.64
452.75	952.45
453.123	974.59
453.497	1005.33
453.871	1015.04
454.244	1021.82
454.618	1019.34
454.992	1029.05
455.365	1038.32
455.739	1075.61
456.112	1085.32
456.486	1081.26
456.859	1068.83
457.232	1104.31
457.606	1121.03
457.979	1090.75
458.352	1139.56
458.725	1135.72
459.099	1172.78
459.472	1157.41
459.845	1154.02
460.218	1178.88
460.591	1190.41
460.964	1174.59
461.337	1218.2
461.71	1250.29
462.083	1233.57
462.456	1237.18
462.829	1246.9
463.201	1281.7
463.574	1265.21
463.947	1284.64
464.32	1310.4
464.692	1325.09
465.065	1349.5
465.438	1325.54
465.81	1385.2
466.183	1378.2
466.555	1408.25
466.928	1409.84
467.3	1432.89
467.672	1442.38
468.045	1469.95
468.417	1475.82
468.789	1485.99
469.161	1505.2
469.534	1514.47
469.906	1531.41
470.278	1571.19
470.65	1584.97
471.022	1588.36
471.394	1610.96
471.766	1659.55
472.138	1653.45
472.51	1690.96
472.882	1693.22
473.253	1714.46
473.625	1750.17
473.997	1802.82
474.369	1810.73
474.74	1794.23
475.112	1874
475.484	1890.05
475.855	1874.91
476.227	1915.36
476.598	1999.42
476.97	1943.16
477.341	2016.6
477.713	2077.39
478.084	2062.02
478.455	2142.25
478.827	2139.99
479.198	2189.25
479.569	2201
479.94	2242.58
480.311	2271.51
480.682	2320.77
481.053	2357.16
481.424	2395.35
481.795	2418.4
482.166	2428.11
482.537	2448.68
482.908	2535.68
483.279	2578.17
483.65	2617.94
484.021	2662.23
484.391	2717.37
484.762	2748.78
485.133	2780.87
485.503	2771.83
485.874	2840.76
486.244	2862.23
486.615	2921.43
486.985	3006.18
487.356	3029.68
487.726	3007.31
488.097	3092.73
488.467	3132.95
488.837	3194.87
489.207	3205.95
489.578	3262.22
489.948	3269.45
490.318	3308.77
490.688	3371.14
491.058	3455.43
491.428	3501.31
491.798	3537.69
492.168	3580.85
492.538	3627.86
492.908	3677.8
493.278	3705.82
493.648	3775.42
494.017	3792.15
494.387	3823.56
494.757	3866.95
495.126	3904.91
495.496	3943.1
495.866	3936.1
496.235	4042.53
496.605	4099.48
496.974	4065.81
497.344	4133.38
497.713	4156.2
498.082	4204.11
498.452	4273.94
498.821	4271.91
499.19	4259.48
499.559	4371.34
499.928	4426.25
500.298	4430.32
500.667	4451.79
501.036	4479.81
501.405	4536.53
501.774	4547.38
502.143	4585.12
502.512	4645
502.88	4692.46
503.249	4706.02
503.618	4788.73
503.987	4843.19
504.356	4885.45
504.724	4907.37
505.093	4909.18
505.462	4900.14
505.83	5010.65
506.199	5057.42
506.567	5096.29
506.936	5129.74
507.304	5202.73
507.672	5221.26
508.041	5321.6
508.409	5340.81
508.777	5383.29
509.145	5448.6
509.514	5467.36
509.882	5520.01
510.25	5543.29
510.618	5618.31
510.986	5589.39
511.354	5747.8
511.722	5721.36
512.09	5773.11
512.458	5802.71
512.826	5951.64
513.193	5939.66
513.561	5915.93
513.929	6050.17
514.297	6086.55
514.664	6132.2
515.032	6197.51
515.4	6284.28
515.767	6313.21
516.135	6374.68
516.502	6340.33
516.869	6461.45
517.237	6535.8
517.604	6507.78
517.972	6656.25
518.339	6749.36
518.706	6741
519.073	6760.66
519.44	6882.23
519.808	6943.93
520.175	6931.05
520.542	7097.82
520.909	7102.79
521.276	7168.78
521.643	7217.59
522.009	7293.75
522.376	7380.07
522.743	7483.8
523.11	7559.05
523.477	7617.13
523.843	7742.78
524.21	7732.16
524.577	7804.02
524.943	7968.08
525.31	7928.08
525.676	8076.33
526.043	8099.15
526.409	8135.08
526.776	8226.15
527.142	8321.52
527.508	8343.21
527.874	8552.92
528.241	8535.3
528.607	8593.6
528.973	8679.7
529.339	8731.9
529.705	8803.77
530.071	8934.61
530.437	8942.75
530.803	9101.16
531.169	9157.2
531.535	9107.71
531.901	9291.44
532.267	9263.87
532.632	9394.71
532.998	9431.77
533.364	9526.68
533.73	9610.75
534.095	9632.22
534.461	9707.24
534.826	9742.27
535.192	9886.22
535.557	9989.05
535.923	9965.32
536.288	9982.94
536.653	10112.66
537.019	10114.24
537.384	10113.56
537.749	10245.08
538.114	10361.69
538.479	10386.77
538.845	10405.08
539.21	10431.52
539.575	10591.74
539.94	10581.35
540.305	10690.27
540.67	10769.82
541.034	10719.87
541.399	10837.38
541.764	10942.47
542.129	10954.44
542.494	10944.5
542.858	11045.06
543.223	11118.28
543.587	11236.92
543.952	11194.89
544.316	11245.74
544.681	11292.51
545.045	11407.31
545.41	11544.94
545.774	11514.2
546.138	11561.89
546.503	11651.83
546.867	11732.5
547.231	11813.63
547.595	11852.05
547.959	11878.94
548.324	11956.45
548.688	11955.77
549.052	11966.39
549.416	12080.29
549.779	12174.52
550.143	12248.19
550.507	12352.6
550.871	12381.52
551.235	12451.81
551.599	12513.5
551.962	12586.94
552.326	12667.17
552.689	12777.45
553.053	12748.07
553.417	12753.49
553.78	13032.58
554.143	12984.9
554.507	13054.73
554.87	13136.31
555.234	13284.1
555.597	13207.27
555.96	13288.17
556.323	13347.83
556.686	13477.77
557.05	13591.66
557.413	13727.93
557.776	13754.6
558.139	13842.5
558.502	13828.94
558.865	13861.71
559.228	13993.01
559.59	14170.86
559.953	14154.81
560.316	14311.19
560.679	14374.69
561.041	14486.1
561.404	14624.18
561.767	14679.54
562.129	14623.27
562.492	14922.7
562.854	14897.39
563.217	14884.96
563.579	15047.9
563.941	15069.36
564.304	15223.94
564.666	15304.61
565.028	15402.69
565.39	15439.98
565.753	15565.85
566.115	15624.38
566.477	15712.74
566.839	15726.97
567.201	15922.22
567.563	15912.96
567.925	16121.31
568.287	16130.58
568.648	16132.39
569.01	16222.33
569.372	16339.61
569.734	16374.41
570.095	16601.75
570.457	16580.96
570.819	16648.53
571.18	16718.13
571.542	16729.88
571.903	16849.88
572.265	16928.75
572.626	17025.02
572.987	17143.66
573.349	17123.09
573.71	17267.72
574.071	17246.26
574.432	17410.32
574.794	17527.83
575.155	17533.03
575.516	17447.61
575.877	17758.78
576.238	17677.2
576.599	17756.52
576.96	17793.13
577.32	17850.99
577.681	17992.9
578.042	17972.11
578.403	18033.35
578.763	18083.75
579.124	18203.97
579.485	18202.61
579.845	18339.11
580.206	18388.6
580.566	18337.53
580.927	18375.04
581.287	18541.81
581.648	18493.45
582.008	18564.41
582.368	18630.63
582.728	18663.62
583.089	18598.08
583.449	18739.1
583.809	18693.68
584.169	18741.58
584.529	18791.53
584.889	18938.19
585.249	18786.55
585.609	18864.97
585.969	19012.31
586.329	18875.59
586.688	18919.66
587.048	18994.23
587.408	18975.02
587.768	18999.66
588.127	19074
588.487	19075.36
588.846	19333.88
589.206	19117.17
589.565	19165.53
589.925	19237.39
590.284	19232.64
590.643	19246.65
591.003	19455.46
591.362	19427.67
591.721	19378.63
592.08	19423.83
592.44	19617.94
592.799	19519.87
593.158	19479.87
593.517	19604.61
593.876	19533.43
594.235	19579.98
594.593	19573.65
594.952	19688
595.311	19697.94
595.67	19731.84
596.029	19862.23
596.387	19901.78
596.746	19949.01
597.104	19842.8
597.463	19871.27
597.822	19920.08
598.18	19935.45
598.538	19931.38
598.897	20084.6
599.255	19938.61
599.613	20249.79
599.972	20150.36
600.33	20208.66
600.688	20062
601.046	20323.46
601.404	20286.18
601.762	20248.89
602.12	20426.74
602.478	20395.55
602.836	20431.03
603.194	20426.51
603.552	20433.74
603.91	20412.27
604.268	20512.38
604.625	20515.32
604.983	20676.45
605.341	20533.85
605.698	20654.75
606.056	20717.58
606.413	20725.71
606.771	20813.39
607.128	20814.75
607.485	20813.17
607.843	20710.12
608.2	20995.76
608.557	21017.91
608.914	20983.33
609.272	21101.07
609.629	21047.29
609.986	21194.63
610.343	21051.58
610.7	21212.48
611.057	21196.43
611.414	21185.14
611.771	21217.68
612.127	21324.57
612.484	21328.41
612.841	21543.09
613.198	21433.26
613.554	21513.71
613.911	21531.11
614.267	21529.53
614.624	21503.54
614.98	21648.63
615.337	21833.25
615.693	21669.64
616.05	21675.52
616.406	21809.53
616.762	21703.99
617.118	21760.71
617.475	21865.57
617.831	21862.18
618.187	22010.88
618.543	21980.59
618.899	22093.36
619.255	22036.64
619.611	22048.39
619.967	22107.14
620.323	22209.97
620.678	21983.08
621.034	22149.63
621.39	22198.22
621.746	22208.38
622.101	22401.6
622.457	22315.5
622.812	22219.46
623.168	22341.49
623.523	22380.58
623.879	22414.48
624.234	22316.4
624.589	22429.62
624.945	22399.11
625.3	22443.63
625.655	22491.09
626.01	22469.62
626.365	22539.22
626.72	22495.84
627.075	22500.13
627.43	22469.4
627.785	22540.58
628.14	22539.68
628.495	22576.28
628.85	22551.2
629.205	22445.89
629.559	22600.69
629.914	22475.04
630.269	22598.88
630.623	22429.4
630.978	22456.29
631.332	22551.2
631.687	22619.22
632.041	22422.62
632.396	22613.35
632.75	22442.73
633.104	22603.85
633.459	22409.74
633.813	22509.62
634.167	22427.59
634.521	22528.38
634.875	22494.03
635.229	22420.81
635.583	22412.9
635.937	22418.55
636.291	22404.09
636.645	22395.5
636.999	22270.3
637.352	22429.62
637.706	22376.52
638.06	22447.93
638.413	22359.57
638.767	22205.67
639.121	22273.92
639.474	22308.5
639.828	22260.36
640.181	22247.25
640.534	22262.62
640.888	22269.17
641.241	22208.84
641.594	22208.16
641.947	22287.25
642.301	22140.59
642.654	22291.09
643.007	22191.89
643.36	22210.64
643.713	22072.12
644.066	22283.19
644.419	22210.19
644.771	21964.1
645.124	21925.91
645.477	21847.94
645.83	21654.5
646.182	21664.44
646.535	21501.28
646.888	21589.87
647.24	21457.44
647.593	21659.92
647.945	21493.6
648.298	21419.71
648.65	21518.23
649.002	21367.5
649.355	21567.5
649.707	21501.74
650.059	21593.03
650.411	21779.02
650.763	21948.28
651.115	22068.95
651.467	22005.45
651.819	22023.31
652.171	21995.74
652.523	21947.37
652.875	21980.59
653.227	21839.13
653.578	22035.06
653.93	21990.54
654.282	21972.68
654.633	21933.36
654.985	21900.37
655.337	21968.17
655.688	21995.74
656.039	21985.11
656.391	21840.94
656.742	21929.75
657.094	21936.98
657.445	21980.59
657.796	21944.66
658.147	21903.53
658.498	21917.09
658.849	21978.56
659.2	21972.23
659.551	21993.93
659.902	21915.74
660.253	22000.48
660.604	22057.43
660.955	21921.84
661.306	21954.15
661.656	21996.64
662.007	21920.93
662.358	21927.94
662.708	21947.15
663.059	21913.93
663.409	21777.44
663.76	22044.77
664.11	22084.09
664.461	22040.93
664.811	21985.57
665.161	21998.9
665.511	21964.1
665.862	22029.63
666.212	22062.4
666.562	22181.95
666.912	22079.8
667.262	21927.94
667.612	22034.15
667.962	22005
668.312	22031.21
668.662	22169.52
669.011	22040.71
669.361	22141.49
669.711	22035.51
670.06	22036.41
670.41	21932.69
670.76	22062.85
671.109	22014.27
671.459	22098.78
671.808	21950.76
672.157	21978.56
672.507	21873.7
672.856	21848.62
673.205	21989.41
673.554	21986.92
673.904	22025.34
674.253	22102.85
674.602	22000.71
674.951	21655.18
675.3	21516.65
675.649	21945.34
675.998	21906.02
676.346	21926.36
676.695	21999.8
677.044	21718.23
677.393	21816.08
677.741	21957.54
678.09	21907.6
678.438	21864.44
678.787	21783.76
679.135	21798.45
679.484	21685.23
679.832	21830.77
680.181	21736.31
680.529	21760.26
680.877	21761.17
681.225	21660.6
681.573	21817.66
681.922	21719.13
682.27	21555.75
682.618	21690.21
682.966	21661.73
683.314	21549.87
683.661	21614.73
684.009	21425.13
684.357	21431.91
684.705	21401.17
685.053	21526.6
685.4	21502.87
685.748	21411.8
686.095	21364.34
686.443	21274.62
686.79	21264.23
687.138	21288.18
687.485	21301.97
687.832	21218.13
688.18	21213.83
688.527	21079.15
688.874	21123.22
689.221	21192.59
689.568	21053.39
689.915	20934.07
690.262	21076.89
690.609	20959.83
690.956	20920.06
691.303	20774.98
691.65	20852.04
691.997	20826.05
692.344	20695.66
692.69	20701.08
693.037	20687.3
693.383	20527.98
693.73	20552.16
694.077	20490.24
694.423	20437.13
694.769	20330.92
695.116	20335.44
695.462	20350.13
695.808	20228.32
696.155	20318.04
696.501	20236.23
696.847	20236.23
697.193	20012.96
697.539	20197.14
697.885	19966.41
698.231	19889.12
698.577	19945.62
698.923	19938.84
699.269	19753.76
699.614	19768.9
699.96	19789.01
700.306	19786.08
700.651	19686.19
700.997	19680.32
701.342	19595.12
701.688	19648.23
702.033	19531.17
702.379	19601.9
702.724	19452.75
703.069	19441.9
703.415	19286.2
703.76	19334.79
704.105	19298.86
704.45	19269.25
704.795	19056.6
705.14	19076.72
705.485	19082.37
705.83	18977.51
706.175	19113.78
706.52	19096.83
706.865	18951.07
707.209	18940.9
707.554	18807.34
707.899	18976.38
708.243	18809.38
708.588	18804.18
708.932	18705.65
709.277	18686.44
709.621	18666.56
709.966	18610.51
710.31	18602.6
710.654	18475.15
710.998	18470.63
711.342	18529.61
711.687	18462.95
712.031	18384.76
712.375	18382.04
712.719	18374.36
713.063	18305.66
713.407	18374.14
713.75	18305.89
714.094	18184.76
714.438	18179.56
714.782	18203.07
715.125	18113.13
715.469	18127.81
715.812	18084.88
716.156	17950.64
716.499	17989.51
716.843	18114.26
717.186	17945.9
717.53	18028.61
717.873	17951.32
718.216	17984.32
718.559	17955.84
718.902	17759.69
719.246	17914.49
719.589	17815.05
719.932	17634.95
720.275	17656.87
720.617	17654.15
720.96	17774.6
721.303	17618.22
721.646	17731.67
721.989	17593.37
722.331	17748.39
722.674	17581.16
723.016	17655.28
723.359	17629.97
723.701	17640.37
724.044	17610.31
724.386	17430.88
724.729	17554.95
725.071	17505.23
725.413	17460.04
725.755	17436.76
726.097	17487.38
726.439	17321.06
726.782	17400.38
727.124	17412.13
727.465	17392.01
727.807	17359.47
728.149	17369.42
728.491	17274.5
728.833	17352.02
729.175	17253.49
729.516	17202.19
729.858	17205.8
730.199	17316.99
730.541	17260.94
730.882	17125.35
731.224	17290.32
731.565	17029.76
731.906	17141.85
732.248	17140.72
732.589	17200.16
732.93	17078.12
733.271	17058.24
733.612	17054.17
733.953	17090.78
734.294	17081.74
734.635	16967.84
734.976	16987.96
735.317	16995.87
735.658	16952.48
735.999	16890.78
736.339	16961.52
736.68	17084.45
737.021	16968.07
737.361	16962.42
737.702	17029.76
738.042	16842.42
738.383	16822.09
738.723	16867.28
739.063	16826.83
739.404	16803.33
739.744	16813.5
740.084	16773.73
740.424	16899.37
740.764	16799.26
741.104	16838.36
741.444	16799.49
741.784	16757
742.124	16790.9
742.464	16769.88
742.804	16695.54
743.143	16644.01
743.483	16669.77
743.823	16679.72
744.162	16663.9
744.502	16735.31
744.841	16573.5
745.181	16616.89
745.52	16639.04
745.86	16621.64
746.199	16602.2
746.538	16656.44
746.877	16638.36
747.216	16616.44
747.556	16594.07
747.895	16708.87
748.234	16499.61
748.573	16582.54
748.911	16599.72
749.25	16505.94
749.589	16498.48
749.928	16500.96
750.267	16475.88
750.605	16447.86
750.944	16438.59
751.283	16386.39
751.621	16484.92
751.96	16341.65
752.298	16332.16
752.636	16336.22
752.975	16239.95
753.313	16268.65
753.651	16276.79
753.989	16244.25
754.327	16308.65
754.666	16213.06
755.004	16209.22
755.342	16230.46
755.679	16148.43
756.017	16145.72
756.355	16272.72
756.693	15987.31
757.031	16128.32
757.368	15935.56
757.706	16063.46
758.044	16004.48
758.381	16014.42
