Data from cardboard_FLMS001491_093.txt Node
Date: Tue Feb 07 11:40:25 GMT 2017
User: dcchb
Spectrometer: FLMS00149
Trigger mode: 0
Integration Time (sec): 2.000000E-2
Scans to average: 10
Electric dark correction enabled: true
Nonlinearity correction enabled: false
Boxcar width: 0
XAxis mode: Wavelengths
Number of Pixels in Spectrum: 2048
>>>>>Begin Spectral Data<<<<<
341.393	-4.84
341.776	-4.84
342.16	-4.84
342.543	-60.66
342.927	-95.24
343.31	-78.06
343.693	-77.38
344.077	-67.22
344.46	-59.76
344.843	-66.54
345.226	-40.32
345.61	-27.89
345.993	-27.89
346.376	0.35
346.759	25.44
347.142	26.57
347.525	41.03
347.908	76.06
348.291	72.89
348.674	93.23
349.057	109.5
349.44	132.55
349.823	135.26
350.206	153.8
350.588	179.33
350.971	199.22
351.354	227.47
351.737	244.19
352.119	240.12
352.502	253.68
352.884	261.59
353.267	307.01
353.65	280.12
354.032	300.91
354.414	311.31
354.797	328.71
355.179	337.29
355.562	314.02
355.944	323.28
356.326	321.93
356.709	330.74
357.091	332.1
357.473	342.72
357.855	337.75
358.238	326.45
358.62	327.8
359.002	323.06
359.384	326.67
359.766	348.59
360.148	332.1
360.53	332.1
360.912	306.11
361.294	334.36
361.676	335.03
362.057	334.81
362.439	325.99
362.821	333.45
363.203	345.65
363.584	332.55
363.966	338.2
364.348	307.01
364.729	300.68
365.111	329.16
365.493	305.43
365.874	322.83
366.256	299.1
366.637	332.55
367.019	324.64
367.4	323.96
367.781	327.12
368.163	322.83
368.544	310.63
368.925	316.5
369.306	327.8
369.688	311.98
370.069	318.54
370.45	302.27
370.831	316.73
371.212	307.69
371.593	284.87
371.974	325.77
372.355	310.4
372.736	319.89
373.117	310.4
373.498	334.58
373.879	318.99
374.26	297.07
374.641	324.41
375.021	318.31
375.402	313.34
375.783	316.5
376.163	320.12
376.544	335.49
376.925	328.93
377.305	310.85
377.686	336.39
378.066	305.2
378.447	324.41
378.827	336.16
379.208	322.15
379.588	320.12
379.968	342.04
380.349	313.79
380.729	333.23
381.109	321.25
381.489	342.72
381.87	357.86
382.25	336.39
382.63	329.84
383.01	353.34
383.39	350.63
383.77	344.98
384.15	333.45
384.53	343.62
384.91	354.92
385.29	339.78
385.67	346.11
386.049	329.16
386.429	337.52
386.809	342.27
387.189	366.45
387.568	346.56
387.948	348.37
388.328	363.51
388.707	348.82
389.087	359.44
389.466	356.28
389.846	362.6
390.225	373.68
390.605	334.36
390.984	364.64
391.363	354.47
391.743	370.96
392.122	352.89
392.501	377.97
392.881	391.3
393.26	402.38
393.639	389.27
394.018	404.86
394.397	391.53
394.776	401.47
395.155	398.99
395.534	387.24
395.913	370.74
396.292	398.08
396.671	397.18
397.05	376.61
397.429	397.63
397.808	418.65
398.186	419.33
398.565	385.88
398.944	402.6
399.323	417.07
399.701	414.35
400.08	407.8
400.458	415.48
400.837	445.31
401.215	423.17
401.594	396.27
401.972	430.4
402.351	417.74
402.729	416.84
403.107	429.04
403.486	442.6
403.864	423.39
404.242	427.23
404.62	427.69
404.999	451.64
405.377	435.37
405.755	429.04
406.133	434.69
406.511	453.67
406.889	459.78
407.267	463.17
407.645	438.53
408.023	445.31
408.401	455.03
408.779	448.25
409.156	477.18
409.534	470.62
409.912	488.48
410.29	500.45
410.667	495.93
411.045	498.42
411.422	490.06
411.8	487.8
412.178	528.7
412.555	512.2
412.933	499.55
413.31	513.79
413.687	532.99
414.065	533.9
414.442	501.13
414.819	524.18
415.197	531.64
415.574	546.1
415.951	543.16
416.328	556.5
416.705	542.03
417.082	535.48
417.46	556.27
417.837	557.17
418.214	571.41
418.591	577.06
418.967	568.25
419.344	584.07
419.721	577.29
420.098	573.67
420.475	578.19
420.852	599.43
421.228	600.34
421.605	602.15
421.982	611.18
422.358	603.5
422.735	619.32
423.111	619.09
423.488	622.03
423.864	619.55
424.241	614.35
424.617	629.26
424.994	608.92
425.37	624.29
425.746	662.93
426.123	667.45
426.499	646.21
426.875	639.66
427.251	658.87
427.627	664.52
428.003	681.47
428.379	664.06
428.756	683.95
429.132	711.07
429.507	691.18
429.883	710.16
430.259	711.52
430.635	726.89
431.011	702.48
431.387	724.85
431.763	739.09
432.138	741.58
432.514	735.25
432.89	758.98
433.265	759.66
433.641	754.46
434.016	787.23
434.392	789.94
434.767	801.24
435.143	784.97
435.518	798.3
435.894	801.69
436.269	817.96
436.644	810.73
437.02	829.94
437.395	825.64
437.77	841.23
438.145	816.83
438.52	831.29
438.895	856.6
439.271	864.74
439.646	879.88
440.021	870.61
440.395	893.44
440.77	863.38
441.145	902.7
441.52	892.76
441.895	918.75
442.27	928.24
442.645	934.34
443.019	940.89
443.394	923.94
443.769	922.81
444.143	944.74
444.518	945.19
444.892	932.31
445.267	928.69
445.641	950.16
446.016	955.36
446.39	966.88
446.764	972.53
447.139	964.62
447.513	996.26
447.887	969.37
448.262	988.58
448.636	1013.66
449.01	1005.98
449.384	1022.47
449.758	1018.18
450.132	1024.51
450.506	1032.64
450.88	1043.26
451.254	1061.79
451.628	1045.3
452.002	1068.8
452.376	1064.28
452.75	1080.78
453.123	1082.13
453.497	1111.28
453.871	1106.54
454.244	1118.29
454.618	1144.73
454.992	1142.92
455.365	1135.24
455.739	1186.99
456.112	1180.21
456.486	1190.15
456.859	1209.36
457.232	1219.98
457.606	1229.47
457.979	1219.08
458.352	1235.8
458.725	1268.57
459.099	1264.95
459.472	1289.81
459.845	1307.21
460.218	1320.54
460.591	1329.58
460.964	1345.85
461.337	1356.7
461.71	1372.29
462.083	1394.89
462.456	1386.31
462.829	1430.15
463.201	1448
463.574	1424.95
463.947	1443.48
464.32	1482.35
464.692	1482.8
465.065	1525.28
465.438	1526.87
465.81	1527.32
466.183	1572.29
466.555	1597.37
466.928	1578.62
467.3	1571.84
467.672	1641.44
468.045	1655.45
468.417	1679.18
468.789	1678.73
469.161	1683.02
469.534	1714.43
469.906	1772.96
470.278	1777.48
470.65	1803.24
471.022	1808.89
471.394	1854.32
471.766	1855.67
472.138	1872.85
472.51	1908.78
472.882	1941.77
473.253	1975.67
473.625	2013.41
473.997	2055.44
474.369	2028.1
474.74	2063.8
475.112	2083.46
475.484	2127.98
475.855	2159.39
476.227	2173.18
476.598	2240.75
476.97	2268.32
477.341	2311.03
477.713	2342.66
478.084	2362.32
478.455	2419.5
478.827	2439.61
479.198	2496.11
479.569	2486.39
479.94	2573.17
480.311	2637.12
480.682	2627.18
481.053	2724.35
481.424	2773.61
481.795	2741.07
482.166	2835.53
482.537	2858.36
482.908	2909.2
483.279	2927.96
483.65	2994.4
484.021	3041.63
484.391	3089.99
484.762	3116.2
485.133	3186.03
485.503	3225.81
485.874	3301.96
486.244	3291.34
486.615	3374.5
486.985	3421.28
487.356	3496.08
487.726	3514.61
488.097	3571.33
488.467	3636.19
488.837	3626.47
489.207	3646.81
489.578	3749.63
489.948	3778.56
490.318	3873.47
490.688	3898.56
491.058	3941.72
491.428	3980.81
491.798	4036.63
492.168	4111.21
492.538	4123.18
492.908	4195.95
493.278	4269.62
493.648	4273.69
494.017	4357.07
494.387	4419.9
494.757	4426.23
495.126	4498.54
495.496	4500.8
495.866	4564.98
496.235	4595.71
496.605	4629.61
496.974	4723.39
497.344	4737.63
497.713	4797.74
498.082	4872.09
498.452	4947.12
498.821	4981.01
499.19	4966.32
499.559	5010.84
499.928	5088.58
500.298	5111.41
500.667	5194.11
501.036	5171.29
501.405	5255.36
501.774	5260.1
502.143	5361.12
502.512	5370.16
502.88	5423.49
503.249	5462.13
503.618	5503.71
503.987	5543.94
504.356	5590.94
504.724	5613.09
505.093	5650.83
505.462	5705.29
505.83	5764.5
506.199	5827.77
506.567	5904.38
506.936	5937.37
507.304	6010.59
507.672	6069.12
508.041	6079.06
508.409	6133.75
508.777	6230.25
509.145	6266.18
509.514	6315.67
509.882	6328.55
510.25	6388.21
510.618	6474.99
510.986	6567.86
511.354	6506.4
511.722	6602.21
512.09	6725.6
512.458	6650.35
512.826	6774.19
513.193	6828.2
513.561	6889.89
513.929	6965.82
514.297	7064.57
514.664	7063.67
515.032	7190.67
515.4	7262.99
515.767	7316.77
516.135	7303.21
516.502	7399.03
516.869	7531.91
517.237	7525.8
517.604	7606.48
517.972	7672.02
518.339	7668.63
518.706	7733.48
519.073	7812.13
519.44	7921.5
519.808	8032.68
520.175	8042.85
520.542	8199.46
520.909	8225.67
521.276	8240.36
521.643	8357.87
522.009	8425.67
522.376	8575.27
522.743	8620.24
523.11	8707.02
523.477	8813
523.843	8887.58
524.21	9007.35
524.577	9007.35
524.943	9094.13
525.31	9163.95
525.676	9337.73
526.043	9328.7
526.409	9394.23
526.776	9557.39
527.142	9547.9
527.508	9687.33
527.874	9764.39
528.241	9869.47
528.607	9944.27
528.973	9987.66
529.339	9997.6
529.705	10153.31
530.071	10266.3
530.437	10319.86
530.803	10423.13
531.169	10513.52
531.535	10547.19
531.901	10609.79
532.267	10676.23
532.632	10770.92
532.998	10876.23
533.364	10910.35
533.73	10970.69
534.095	11066.5
534.461	11244.8
534.826	11247.29
535.192	11337.68
535.557	11392.6
535.923	11451.58
536.288	11535.87
536.653	11637.56
537.019	11564.12
537.384	11760.95
537.749	11791.23
538.114	11783.09
538.479	11903.99
538.845	11993.48
539.21	11960.49
539.575	12061.28
539.94	12112.35
540.305	12289.07
540.67	12313.93
541.034	12384.21
541.399	12405.22
541.764	12516.86
542.129	12583.3
542.494	12631.21
542.858	12755.5
543.223	12724.76
543.587	12788.04
543.952	12881.14
544.316	12936.06
544.681	13031.2
545.045	13078.65
545.41	13179.44
545.774	13235.94
546.138	13218.99
546.503	13374.92
546.867	13430.96
547.231	13461.69
547.595	13503.5
547.959	13574.01
548.324	13677.51
548.688	13758.86
549.052	13780.33
549.416	13941.91
549.779	13921.12
550.143	14049.7
550.507	14215.8
550.871	14260.54
551.235	14228
551.599	14414.66
551.962	14482.46
552.326	14481.33
552.689	14635.22
553.053	14627.54
553.417	14624.6
553.78	14913.63
554.143	14842.9
554.507	14987.08
554.87	14989.79
555.234	15198.82
555.597	15188.65
555.96	15320.63
556.323	15321.98
556.686	15417.12
557.05	15550.68
557.413	15661.64
557.776	15677.46
558.139	15782.31
558.502	15766.94
558.865	16006.94
559.228	16044.23
559.59	16156.54
559.953	16232.92
560.316	16388.17
560.679	16397.44
561.041	16510.43
561.404	16658.67
561.767	16833.13
562.129	16753.36
562.492	16970.08
562.854	17017.31
563.217	17048.04
563.579	17082.16
563.941	17260.24
564.304	17347.24
564.666	17461.14
565.028	17581.13
565.39	17559.67
565.753	17731.64
566.115	17918.07
566.477	17956.27
566.839	18012.31
567.201	18180.67
567.563	18231.96
567.925	18456.59
568.287	18444.39
568.648	18555.57
569.01	18683.93
569.372	18787.2
569.734	18770.71
570.095	18898.84
570.457	18979.97
570.819	19067.42
571.18	19093.41
571.542	19241.66
571.903	19299.73
572.265	19414.76
572.626	19481.87
572.987	19535.88
573.349	19629.89
573.71	19807.29
574.071	19843.9
574.432	19919.83
574.794	20110.33
575.155	20061.52
575.516	20057.45
575.877	20061.07
576.238	20238.92
576.599	20362.53
576.96	20396.43
577.32	20539.02
577.681	20462.87
578.042	20707.61
578.403	20655.63
578.763	20714.38
579.124	20824.21
579.485	20920.26
579.845	21012
580.206	20978.56
580.566	21012.68
580.927	21103.53
581.287	21183.75
581.648	21134.03
582.008	21312.34
582.368	21152.34
582.728	21471.88
583.089	21466.91
583.449	21448.38
583.809	21473.91
584.169	21562.72
584.529	21561.14
584.889	21684.08
585.249	21645.21
585.609	21664.64
585.969	21828.93
586.329	21720.23
586.688	21808.14
587.048	21821.47
587.408	21868.25
587.768	21940.57
588.127	21964.97
588.487	21922.94
588.846	22266.43
589.206	22063.28
589.565	22098.76
589.925	22190.73
590.284	22136.72
590.643	22264.63
591.003	22313.66
591.362	22419.42
591.721	22459.88
592.08	22377.39
592.44	22437.28
592.799	22523.38
593.158	22591.85
593.517	22649.93
593.876	22576.03
594.235	22635.01
594.593	22628.46
594.952	22721.11
595.311	22746.87
595.67	22774.67
596.029	23002.69
596.387	22986.64
596.746	22948.68
597.104	22939.41
597.463	22936.02
597.822	23036.58
598.18	23079.97
598.538	22936.93
598.897	23102.8
599.255	23070.93
599.613	23335.11
599.972	23187.77
600.33	23201.55
600.688	23215.56
601.046	23317.25
601.404	23440.64
601.762	23419.4
602.12	23586.63
602.478	23515.22
602.836	23560.19
603.194	23476.8
603.552	23642.22
603.91	23560.64
604.268	23724.48
604.625	23547.53
604.983	23782.1
605.341	23781.65
605.698	23802.21
606.056	23919.95
606.413	23992.72
606.771	24022.32
607.128	24117.91
607.485	23957.01
607.843	24073.17
608.2	24288.75
608.557	24223.9
608.914	24161.98
609.272	24323.1
609.629	24398.13
609.986	24589.76
610.343	24479.03
610.7	24655.98
611.057	24580.27
611.414	24591.57
611.771	24692.81
612.127	24789.53
612.484	24706.6
612.841	24707.27
613.198	24683.09
613.554	24740.95
613.911	24980.71
614.267	24966.25
614.624	24935.97
614.98	24949.53
615.337	25118.56
615.693	25053.71
616.05	25053.93
616.406	25294.6
616.762	25130.09
617.118	25246.47
617.475	25281.95
617.831	25347.94
618.187	25393.81
618.543	25455.95
618.899	25629.28
619.255	25662.73
619.611	25534.14
619.967	25674.03
620.323	25757.87
620.678	25650.07
621.034	25645.33
621.39	25721.03
621.746	25755.83
622.101	25938.2
622.457	25757.87
622.812	25866.57
623.168	25915.83
623.523	25841.03
623.879	25974.13
624.234	25868.6
624.589	25948.82
624.945	26044.19
625.3	26111.98
625.655	26040.57
626.01	25974.59
626.365	26077.18
626.72	26117.63
627.075	26046.45
627.43	26095.71
627.785	26068.59
628.14	26138.87
628.495	26178.65
628.85	26109.95
629.205	26021.82
629.559	26250.28
629.914	26146.78
630.269	26155.6
630.623	26034.7
630.978	26036.73
631.332	26209.61
631.687	26285.54
632.041	26129.38
632.396	26276.27
632.75	26044.64
633.104	26208.03
633.459	26111.53
633.813	26030.63
634.167	26125.09
634.521	26131.19
634.875	26130.97
635.229	26137.74
635.583	26015.04
635.937	26052.55
636.291	25939.56
636.645	26052.1
636.999	26047.8
637.352	26047.58
637.706	25864.53
638.06	25966.9
638.413	25962.38
638.767	25936.39
639.121	25913.34
639.474	25844.42
639.828	25919.9
640.181	25852.78
640.534	25944.3
640.888	25918.09
641.241	25856.4
641.594	25828.6
641.947	25901.14
642.301	25829.28
642.654	25725.1
643.007	25887.81
643.36	25923.06
643.713	25752.9
644.066	25939.11
644.419	25717.87
644.771	25615.95
645.124	25312.91
645.477	25411.44
645.83	25209.41
646.182	25247.15
646.535	25063.42
646.888	25187.04
647.24	25027.72
647.593	25155.85
647.945	25092.8
648.298	25030.88
648.65	24959.92
649.002	24951.79
649.355	25024.1
649.707	24968.74
650.059	25217.54
650.411	25497.31
650.763	25523.75
651.115	25729.85
651.467	25676.51
651.819	25715.38
652.171	25560.13
652.523	25629.74
652.875	25560.81
653.227	25459.34
653.578	25667.47
653.93	25620.02
654.282	25575.05
654.633	25508.83
654.985	25488.5
655.337	25616.4
655.688	25490.76
656.039	25641.94
656.391	25537.31
656.742	25519
657.094	25483.3
657.445	25619.11
657.796	25532.11
658.147	25484.2
658.498	25506.35
658.849	25482.62
659.2	25574.37
659.551	25482.39
659.902	25660.7
660.253	25554.03
660.604	25521.72
660.955	25431.32
661.306	25547.25
661.656	25545.22
662.007	25592.67
662.358	25473.36
662.708	25537.99
663.059	25572.11
663.409	25489.17
663.76	25589.74
664.11	25582.73
664.461	25667.93
664.811	25662.73
665.161	25627.48
665.511	25547.93
665.862	25689.4
666.212	25706.34
666.562	25655.72
666.912	25714.93
667.262	25613.46
667.612	25626.12
667.962	25663.18
668.312	25592.67
668.662	25738.89
669.011	25620.7
669.361	25566.91
669.711	25575.95
670.06	25608.27
670.41	25601.71
670.76	25522.85
671.109	25736.4
671.459	25509.29
671.808	25609.17
672.157	25629.96
672.507	25496.63
672.856	25395.17
673.205	25545.44
673.554	25598.55
673.904	25623.18
674.253	25652.56
674.602	25698.21
674.951	25292.8
675.3	25118.34
675.649	25439.23
675.998	25549.29
676.346	25436.07
676.695	25717.42
677.044	25417.31
677.393	25528.27
677.741	25555.39
678.09	25451.66
678.438	25431.55
678.787	25464.54
679.135	25373.7
679.484	25283.08
679.832	25421.15
680.181	25255.06
680.529	25262.06
680.877	25297.99
681.225	25267.03
681.573	25463.64
681.922	25246.47
682.27	25213.7
682.618	25175.06
682.966	25131.22
683.314	25191.33
683.661	25145
684.009	25059.36
684.357	24980.04
684.705	24977.1
685.053	24951.79
685.4	25052.8
685.748	24899.81
686.095	24881.73
686.443	24745.24
686.79	24693.94
687.138	24826.82
687.485	24753.83
687.832	24692.59
688.18	24754.5
688.527	24569.65
688.874	24651.46
689.221	24601.97
689.568	24451.91
689.915	24508.41
690.262	24469.77
690.609	24417.11
690.956	24419.6
691.303	24400.62
691.65	24254.86
691.997	24187.29
692.344	23998.37
692.69	24210.56
693.037	24073.62
693.383	23965.15
693.73	23986.84
694.077	23928.31
694.423	23878.14
694.769	23734.42
695.116	23813.29
695.462	23724.25
695.808	23684.48
696.155	23714.98
696.501	23628.88
696.847	23591.6
697.193	23343.92
697.539	23487.19
697.885	23300.98
698.231	23272.74
698.577	23240.87
698.923	23264.15
699.269	23117.71
699.614	23138.95
699.96	22950.03
700.306	22967.21
700.651	22958.85
700.997	22882.01
701.342	22813.54
701.688	22888.79
702.033	22737.83
702.379	22801.56
702.724	22654.67
703.069	22760.43
703.415	22570.16
703.76	22617.61
704.105	22532.42
704.45	22433.21
704.795	22442.47
705.14	22309.82
705.485	22327.22
705.83	22164.74
706.175	22155.48
706.52	22136.72
706.865	22096.27
707.209	22003.39
707.554	21985.09
707.899	21963.39
708.243	21922.49
708.588	21909.38
708.932	21817.86
709.277	21715.26
709.621	21819.67
709.966	21637.3
710.31	21739.67
710.654	21530.41
710.998	21539
711.342	21594.14
711.687	21545.55
712.031	21467.59
712.375	21449.73
712.719	21432.56
713.063	21405.44
713.407	21413.12
713.75	21399.56
714.094	21295.16
714.438	21228.72
714.782	21353.92
715.125	21239.12
715.469	21196.86
715.812	21139.91
716.156	21077.31
716.499	21130.87
716.843	21125.67
717.186	20912.35
717.53	21029.4
717.873	21017.88
718.216	20954.15
718.559	20993.7
718.902	20726.81
719.246	20910.99
719.589	20733.59
719.932	20755.51
720.275	20713.71
720.617	20827.38
720.96	20667.15
721.303	20695.18
721.646	20735.85
721.989	20555.97
722.331	20664.44
722.674	20537.44
723.016	20615.86
723.359	20639.36
723.701	20616.53
724.044	20395.07
724.386	20393.94
724.729	20472.81
725.071	20398.91
725.413	20394.85
725.755	20477.1
726.097	20344
726.439	20282.08
726.782	20365.92
727.124	20396.2
727.465	20338.35
727.807	20284.11
728.149	20246.6
728.491	20203.21
728.833	20254.06
729.175	20239.82
729.516	20201.63
729.858	20123.44
730.199	20172.25
730.541	20173.83
730.882	20040.5
731.224	20123.44
731.565	19970
731.906	20055.64
732.248	20094.97
732.589	19940.17
732.93	19930.45
733.271	19933.39
733.612	19987.17
733.953	19991.69
734.294	19934.07
734.635	19891.36
734.976	19937.46
735.317	19820.62
735.658	19931.81
735.999	19900.17
736.339	19830.34
736.68	19807.97
737.021	19900.39
737.361	19704.47
737.702	19786.05
738.042	19847.06
738.383	19720.51
738.723	19719.38
739.063	19747.86
739.404	19762.09
739.744	19725.71
740.084	19577.92
740.424	19728.42
740.764	19664.92
741.104	19658.82
741.444	19561.42
741.784	19502.21
742.124	19586.5
742.464	19569.33
742.804	19560.74
743.143	19539.27
743.483	19548.77
743.823	19448.88
744.162	19473.06
744.502	19501.31
744.841	19533.4
745.181	19468.32
745.52	19424.7
745.86	19448.43
746.199	19447.53
746.538	19379.28
746.877	19518.71
747.216	19374.08
747.556	19313.97
747.895	19434.42
748.234	19391.48
748.573	19285.5
748.911	19306.06
749.25	19390.35
749.589	19241.2
749.928	19308.32
750.267	19314.2
750.605	19216.57
750.944	19218.83
751.283	19170.92
751.621	19190.81
751.96	19271.03
752.298	19143.58
752.636	19159.62
752.975	19116.69
753.313	19069
753.651	19039.17
753.989	19043.02
754.327	19083.69
754.666	18974.77
755.004	19146.06
755.342	19062.45
755.679	18993.3
756.017	18805.06
756.355	18955.56
756.693	18853.19
757.031	18970.93
757.368	18871.95
757.706	18787.2
758.044	18742.46
