Data from cardboard_FLMS001491_092.txt Node
Date: Tue Feb 07 11:40:25 GMT 2017
User: dcchb
Spectrometer: FLMS00149
Trigger mode: 0
Integration Time (sec): 2.000000E-2
Scans to average: 10
Electric dark correction enabled: true
Nonlinearity correction enabled: false
Boxcar width: 0
XAxis mode: Wavelengths
Number of Pixels in Spectrum: 2048
>>>>>Begin Spectral Data<<<<<
341.393	-2.02
341.776	-2.02
342.16	-2.02
342.543	-60.32
342.927	-81.34
343.31	-77.05
343.693	-54.45
344.077	-66.88
344.46	-55.8
344.843	-54.22
345.226	-20.55
345.61	-32.75
345.993	-8.57
346.376	0.01
346.759	8.38
347.142	4.31
347.525	45.21
347.908	52.22
348.291	84.31
348.674	74.59
349.057	101.25
349.44	149.61
349.823	140.58
350.206	163.85
350.588	175.15
350.971	203.17
351.354	220.12
351.737	241.36
352.119	258.31
352.502	263.28
352.884	257.86
353.267	283.85
353.65	288.37
354.032	292.21
354.414	294.02
354.797	309.61
355.179	300.35
355.562	334.47
355.944	329.27
356.326	332.89
356.709	333.34
357.091	336.05
357.473	328.14
357.855	354.36
358.238	371.3
358.62	331.3
359.002	324.98
359.384	334.47
359.766	349.84
360.148	338.54
360.53	344.64
360.912	343.51
361.294	329.95
361.676	339.44
362.057	334.92
362.439	341.02
362.821	327.69
363.203	341.02
363.584	317.07
363.966	333.11
364.348	319.1
364.729	327.92
365.111	313.23
365.493	332.43
365.874	310.06
366.256	332.21
366.637	311.64
367.019	313.45
367.4	304.86
367.781	298.76
368.163	321.14
368.544	325.66
368.925	315.03
369.306	331.98
369.688	323.85
370.069	295.6
370.45	323.85
370.831	316.84
371.212	305.32
371.593	318.65
371.974	332.43
372.355	329.27
372.736	320.91
373.117	322.94
373.498	293.57
373.879	318.65
374.26	318.2
374.641	304.86
375.021	315.71
375.402	321.36
375.783	341.7
376.163	327.69
376.544	334.24
376.925	306.67
377.305	318.88
377.686	317.97
378.066	314.81
378.447	332.89
378.827	330.17
379.208	316.39
379.588	340.34
379.968	315.94
380.349	340.34
380.729	340.57
381.109	319.33
381.489	341.02
381.87	339.21
382.25	362.72
382.63	341.7
383.01	364.07
383.39	338.99
383.77	349.61
384.15	327.69
384.53	347.58
384.91	371.08
385.29	370.17
385.67	355.26
386.049	376.73
386.429	358.65
386.809	342.38
387.189	374.92
387.568	370.63
387.948	357.97
388.328	381.92
388.707	378.08
389.087	361.59
389.466	350.74
389.846	376.95
390.225	372.21
390.605	367.69
390.984	377.41
391.363	391.19
391.743	393.68
392.122	381.02
392.501	385.09
392.881	383.96
393.26	400.91
393.639	378.99
394.018	384.41
394.397	381.02
394.776	371.53
395.155	396.84
395.534	399.33
395.913	395.48
396.292	398.65
396.671	402.26
397.05	410.85
397.429	394.81
397.808	395.71
398.186	411.3
398.565	434.8
398.944	410.85
399.323	398.87
399.701	407.01
400.08	425.77
400.458	410.62
400.837	423.05
401.215	443.84
401.594	426.44
401.972	417.63
402.351	421.02
402.729	422.83
403.107	407.69
403.486	414.92
403.864	434.35
404.242	434.13
404.62	449.04
404.999	426.67
405.377	432.77
405.755	454.24
406.133	450.62
406.511	472.09
406.889	458.31
407.267	455.14
407.645	478.65
408.023	459.21
408.401	474.8
408.779	480.68
409.156	475.03
409.534	483.39
409.912	476.16
410.29	475.26
410.667	497.18
411.045	501.47
411.422	493.33
411.8	498.08
412.178	497.18
412.555	509.83
412.933	503.96
413.31	516.84
413.687	526.33
414.065	526.1
414.442	525.42
414.819	537.63
415.197	525.42
415.574	571.98
415.951	554.12
416.328	537.18
416.705	553.67
417.082	529.27
417.46	571.98
417.837	550.73
418.214	553.9
418.591	548.25
418.967	541.92
419.344	568.36
419.721	590.96
420.098	568.81
420.475	586.21
420.852	583.95
421.228	584.63
421.605	597.51
421.982	590.28
422.358	601.81
422.735	602.71
423.111	604.97
423.488	594.8
423.864	620.79
424.241	615.59
424.617	615.37
424.994	627.79
425.37	632.99
425.746	638.42
426.123	622.82
426.499	640.45
426.875	665.76
427.251	660.79
427.627	676.38
428.003	677.96
428.379	686.1
428.756	671.18
429.132	698.75
429.507	677.74
429.883	703.5
430.259	707.57
430.635	718.41
431.011	718.64
431.387	737.17
431.763	736.27
432.138	728.36
432.514	738.53
432.89	750.28
433.265	768.81
433.641	765.19
434.016	788.02
434.392	768.58
434.767	774.23
435.143	779.2
435.518	807
435.894	828.92
436.269	808.81
436.644	829.14
437.02	817.62
437.395	817.85
437.77	831.18
438.145	854.23
438.52	857.39
438.895	872.99
439.271	873.66
439.646	861.01
440.021	879.99
440.395	859.2
440.77	894.23
441.145	906.43
441.52	902.14
441.895	881.12
442.27	897.62
442.645	913.89
443.019	935.81
443.394	922.02
443.769	916.83
444.143	924.51
444.518	953.21
444.892	935.36
445.267	934.9
445.641	935.81
446.016	948.24
446.39	949.82
446.764	988.91
447.139	992.08
447.513	997.28
447.887	988.24
448.262	993.43
448.636	999.54
449.01	1003.83
449.384	1011.51
449.758	1023.94
450.132	1059.2
450.506	1048.12
450.88	1025.3
451.254	1038.4
451.628	1051.96
452.002	1065.75
452.376	1079.53
452.75	1128.35
453.123	1122.02
453.497	1114.34
453.871	1128.12
454.244	1133.09
454.618	1128.8
454.992	1160.21
455.365	1162.24
455.739	1193.88
456.112	1158.4
456.486	1196.59
456.859	1247.66
457.232	1228.91
457.606	1228.23
457.979	1210.15
458.352	1253.77
458.725	1249.47
459.099	1267.55
459.472	1274.78
459.845	1289.92
460.218	1328.79
460.591	1329.02
460.964	1338.96
461.337	1379.86
461.71	1375.12
462.083	1384.38
462.456	1393.42
462.829	1432.07
463.201	1465.96
463.574	1458.05
463.947	1456.47
464.32	1489.47
464.692	1496.25
465.065	1517.04
465.438	1528.79
465.81	1536.02
466.183	1583.02
466.555	1585.28
466.928	1606.07
467.3	1590.25
467.672	1599.52
468.045	1669.57
468.417	1676.81
468.789	1678.84
469.161	1696.24
469.534	1725.39
469.906	1734.43
470.278	1746.41
470.65	1795.9
471.022	1823.02
471.394	1864.82
471.766	1846.07
472.138	1893.07
472.51	1905.27
472.882	1924.48
473.253	1964.03
473.625	2001.54
473.997	2019.62
474.369	2049.9
474.74	2064.37
475.112	2100.98
475.484	2152.95
475.855	2169.45
476.227	2174.42
476.598	2256.68
476.97	2250.8
477.341	2298.03
477.713	2367.41
478.084	2370.8
478.455	2448.09
478.827	2411.93
479.198	2519.95
479.569	2525.37
479.94	2580.96
480.311	2631.13
480.682	2667.06
481.053	2715.87
481.424	2711.58
481.795	2749.55
482.166	2818.92
482.537	2868.41
482.908	2918.13
483.279	2930.78
483.65	3051.46
484.021	3095.53
484.391	3140.27
484.762	3091.01
485.133	3175.75
485.503	3198.12
485.874	3253.04
486.244	3294.84
486.615	3351.11
486.985	3405.12
487.356	3482.18
487.726	3524.22
488.097	3556.3
488.467	3592.91
488.837	3697.09
489.207	3733.25
489.578	3749.29
489.948	3777.09
490.318	3863.19
490.688	3903.87
491.058	3949.97
491.428	4017.99
491.798	4062.96
492.168	4124.2
492.538	4167.59
492.908	4176.63
493.278	4252.56
493.648	4316.06
494.017	4356.51
494.387	4418.43
494.757	4458.65
495.126	4483.96
495.496	4578.88
495.866	4582.72
496.235	4600.57
496.605	4665.88
496.974	4708.14
497.344	4751.53
497.713	4786.1
498.082	4871.52
498.452	4922.82
498.821	4939.32
499.19	4969.37
499.559	5022.25
499.928	5076.26
500.298	5081.46
500.667	5147.68
501.036	5204.85
501.405	5267.45
501.774	5263.15
502.143	5347.44
502.512	5346.54
502.88	5381.57
503.249	5402.13
503.618	5539.98
503.987	5532.52
504.356	5580.66
504.724	5637.83
505.093	5678.06
505.462	5716.25
505.83	5773.65
506.199	5852.97
506.567	5906.98
506.936	5952.17
507.304	6033.3
507.672	6056.13
508.041	6011.83
508.409	6114.88
508.777	6236.23
509.145	6255.22
509.514	6254.76
509.882	6335.21
510.25	6426.51
510.618	6430.35
510.986	6495.44
511.354	6571.82
511.722	6640.07
512.09	6703.34
512.458	6700.63
512.826	6789.44
513.193	6847.07
513.561	6964.12
513.929	6949.89
514.297	6994.41
514.664	7090.68
515.032	7166.15
515.4	7261.52
515.767	7295.42
516.135	7360.95
516.502	7362.53
516.869	7466.48
517.237	7527.05
517.604	7543.77
517.972	7656.54
518.339	7711.68
518.706	7738.12
519.073	7837.1
519.44	7906.7
519.808	7962.52
520.175	8011.33
520.542	8130.65
520.909	8238.89
521.276	8233.24
521.643	8348.5
522.009	8405.89
522.376	8456.06
522.743	8613.35
523.11	8628.49
523.477	8798.2
523.843	8803.62
524.21	8970.4
524.577	9032.54
524.943	9097.63
525.31	9184.86
525.676	9283.61
526.043	9334.01
526.409	9407.22
526.776	9571.06
527.142	9612.42
527.508	9710.95
527.874	9746.65
528.241	9828.46
528.607	9888.57
528.973	9992.97
529.339	10073.65
529.705	10198.84
530.071	10301.21
530.437	10378.27
530.803	10383.7
531.169	10476.57
531.535	10540.98
531.901	10670.69
532.267	10681.32
532.632	10726.51
532.998	10871.14
533.364	10929.9
533.73	11005.83
534.095	11146.61
534.461	11077.91
534.826	11253.28
535.192	11312.94
535.557	11406.95
535.923	11399.04
536.288	11455.76
536.653	11566.49
537.019	11613.49
537.384	11691.91
537.749	11820.27
538.114	11793.83
538.479	11853.49
538.845	11939.36
539.21	11970.09
539.575	12004.44
539.94	12190.2
540.305	12253.48
540.67	12246.47
541.034	12367.6
541.399	12438.33
541.764	12447.82
542.129	12531.21
542.494	12638.33
542.858	12709.74
543.223	12681.94
543.587	12879.45
543.952	12835.83
544.316	12941.82
544.681	12946.79
545.045	13069.95
545.41	13148.59
545.774	13221.36
546.138	13222.04
546.503	13364.18
546.867	13361.02
547.231	13518.53
547.595	13543.84
547.959	13622.93
548.324	13686.66
548.688	13715.36
549.052	13804.85
549.416	13922.59
549.779	13883.49
550.143	14006.65
550.507	14100.89
550.871	14114.45
551.235	14264.05
551.599	14404.16
551.962	14441.44
552.326	14516.47
552.689	14652.06
553.053	14564.83
553.417	14580.42
553.78	14889.11
554.143	14847.99
554.507	14981.99
554.87	15041.65
555.234	15167.75
555.597	15143.57
555.96	15297.69
556.323	15359.84
556.686	15434.64
557.05	15595.54
557.413	15684.35
557.776	15622.43
558.139	15822.87
558.502	15797.56
558.865	15913.49
559.228	15978.35
559.59	16115.97
559.953	16179.48
560.316	16442.97
560.679	16422.63
561.041	16506.92
561.404	16691.55
561.767	16837.54
562.129	16883.64
562.492	16975.39
562.854	16993.47
563.217	17129.96
563.579	17183.74
563.941	17264.19
564.304	17482.72
564.666	17484.98
565.028	17487.24
565.39	17606.56
565.753	17763.61
566.115	17820.34
566.477	17974.23
566.839	18041.8
567.201	18219.87
567.563	18140.1
567.925	18402.24
568.287	18456.7
568.648	18427.55
569.01	18663.48
569.372	18759.97
569.734	18790.71
570.095	18831.16
570.457	19057.82
570.819	19108.89
571.18	19058.72
571.542	19249.45
571.903	19307.76
572.265	19349.11
572.626	19419.16
572.987	19606.28
573.349	19598.82
573.71	19741.42
574.071	19723.11
574.432	19884.69
574.794	20115.19
575.155	20160.61
575.516	20081.52
575.877	20222.76
576.238	20301.63
576.599	20307.05
576.96	20377.56
577.32	20478.35
577.681	20515.18
578.042	20629.75
578.403	20719.7
578.763	20763.08
579.124	20795.85
579.485	20889.63
579.845	21034.72
580.206	20967.6
580.566	21043.53
580.927	21112.68
581.287	21229.29
581.648	21105.67
582.008	21425.89
582.368	21270.42
582.728	21375.95
583.089	21323.97
583.449	21461.14
583.809	21516.06
584.169	21492.1
584.529	21461.37
584.889	21702.49
585.249	21607.81
585.609	21646.9
585.969	21784.53
586.329	21751.98
586.688	21804.64
587.048	21849.84
587.408	21890.74
587.768	21911.08
588.127	21902.04
588.487	21958.76
588.846	22179.32
589.206	22153.78
589.565	22025.2
589.925	22236.49
590.284	22158.3
590.643	22250.5
591.003	22436.03
591.362	22430.38
591.721	22358.07
592.08	22361.69
592.44	22484.39
592.799	22592.87
593.158	22543.83
593.517	22506.99
593.876	22643.94
594.235	22559.65
594.593	22681.23
594.952	22734.78
595.311	22725.07
595.67	22746.99
596.029	22960.77
596.387	22967.55
596.746	22944.95
597.104	22881.9
597.463	22874.67
597.822	23010.93
598.18	22902.69
598.538	23007.77
598.897	23137.48
599.255	22973.65
599.613	23254.77
599.972	23185.39
600.33	23230.59
600.688	23259.97
601.046	23305.39
601.404	23431.04
601.762	23393.52
602.12	23531.37
602.478	23499.06
602.836	23575.21
603.194	23595.55
603.552	23631.03
603.91	23596
604.268	23655.89
604.625	23591.48
604.983	23894.53
605.341	23722.33
605.698	24016.78
606.056	23850.01
606.413	23963.23
606.771	24008.2
607.128	24092.71
607.485	23962.77
607.843	24061.98
608.2	24174.75
608.557	24308.98
608.914	24173.39
609.272	24370.9
609.629	24337.91
609.986	24441.18
610.343	24364.12
610.7	24627.39
611.057	24529.76
611.414	24657.67
611.771	24612.93
612.127	24745.58
612.484	24728.4
612.841	24768.63
613.198	24749.87
613.554	24853.82
613.911	24909.64
614.267	24987.61
614.624	24957.32
614.98	24996.65
615.337	25172.01
615.693	25071.22
616.05	25227.37
616.406	25376.75
616.762	25287.48
617.118	25268.73
617.475	25247.49
617.831	25515.28
618.187	25544.43
618.543	25469.17
618.899	25569.29
619.255	25623.75
619.611	25595.05
619.967	25715.5
620.323	25785.1
620.678	25555.5
621.034	25650.41
621.39	25823.97
621.746	25744.2
622.101	26096.28
622.457	25782.61
622.812	25763.4
623.168	25905.55
623.523	25865.77
623.879	25978.99
624.234	25777.19
624.589	26010.63
624.945	26033.23
625.3	26066
625.655	25971.08
626.01	26092.21
626.365	25989.84
626.72	26088.82
627.075	26028.26
627.43	26133.11
627.785	25990.74
628.14	26067.8
628.495	26208.14
628.85	26114.36
629.205	26076.39
629.559	26219.44
629.914	26082.49
630.269	26153
630.623	26071.64
630.978	26080.91
631.332	26138.31
631.687	26204.75
632.041	26249.95
632.396	26119.1
632.75	26070.06
633.104	26183.51
633.459	26110.97
633.813	26093.34
634.167	26079.78
634.521	26129.5
634.875	26204.97
635.229	26098.54
635.583	26016.73
635.937	25944.19
636.291	26014.02
636.645	25947.35
636.999	26012.21
637.352	26085.43
637.706	25929.73
638.06	25985.77
638.413	25961.14
638.767	25949.16
639.121	25891.31
639.474	25832.56
639.828	25854.02
640.181	25880.46
640.534	25995.94
640.888	25889.73
641.241	25844.98
641.594	25782.39
641.947	25955.94
642.301	25859.9
642.654	25922.72
643.007	25805.44
643.36	25846.11
643.713	25795.72
644.066	25891.99
644.419	25769.28
644.771	25560.92
645.124	25362.29
645.477	25458.1
645.83	25252.68
646.182	25054.5
646.535	25126.81
646.888	25156.19
647.24	25037.55
647.593	25187.6
647.945	25216.3
648.298	25079.13
648.65	24944.67
649.002	24888.4
649.355	25096.3
649.707	25008.62
650.059	25137.66
650.411	25421.27
650.763	25593.69
651.115	25664.42
651.467	25571.55
651.819	25641.83
652.171	25495.16
652.523	25513.92
652.875	25659.23
653.227	25472.34
653.578	25660.13
653.93	25628.49
654.282	25516.86
654.633	25481.38
654.985	25550.53
655.337	25541.04
655.688	25582.84
656.039	25658.32
656.391	25401.83
656.742	25459.23
657.094	25533.13
657.445	25564.99
657.796	25534.71
658.147	25581.49
658.498	25466.92
658.849	25505.33
659.2	25511.21
659.551	25358.9
659.902	25650.87
660.253	25503.98
660.604	25585.33
660.955	25474.6
661.306	25536.07
661.656	25495.61
662.007	25527.03
662.358	25512.56
662.708	25543.3
663.059	25599.34
663.409	25390.53
663.76	25653.12
664.11	25641.15
664.461	25678.89
664.811	25667.81
665.161	25707.13
665.511	25577.87
665.862	25588.27
666.212	25739.22
666.562	25738.77
666.912	25663.07
667.262	25636.63
667.612	25563.41
667.962	25625.78
668.312	25576.06
668.662	25667.81
669.011	25649.74
669.361	25599.34
669.711	25649.28
670.06	25619.91
670.41	25485.9
670.76	25593.24
671.109	25714.82
671.459	25505.11
671.808	25495.39
672.157	25669.62
672.507	25551.88
672.856	25571.55
673.205	25564.54
673.554	25653.35
673.904	25567.03
674.253	25675.05
674.602	25608.83
674.951	25350.08
675.3	25152.12
675.649	25566.8
675.998	25509.17
676.346	25486.12
676.695	25666.91
677.044	25438.89
677.393	25535.84
677.741	25552.11
678.09	25386.24
678.438	25316.18
678.787	25496.52
679.135	25509.85
679.484	25263.53
679.832	25325.68
680.181	25287.48
680.529	25368.39
680.877	25325.9
681.225	25318.22
681.573	25341.95
681.922	25309.63
682.27	25178.56
682.618	25209.07
682.966	25167.49
683.314	25178.34
683.661	25020.6
684.009	25035.06
684.357	24934.5
684.705	24939.47
685.053	25048.62
685.4	24942.41
685.748	24887.95
686.095	24835.75
686.443	24790.1
686.79	24747.39
687.138	24852.69
687.485	24923.88
687.832	24681.17
688.18	24700.61
688.527	24618.12
688.874	24599.82
689.221	24571.12
689.568	24448.41
689.915	24477.79
690.262	24443.44
690.609	24398.02
690.956	24296.78
691.303	24328.64
691.65	24188.53
691.997	24279.15
692.344	24127.74
692.69	24115.76
693.037	24067.18
693.383	23984.69
693.73	24082.32
694.077	23966.62
694.423	23924.13
694.769	23836.68
695.116	23842.78
695.462	23809.56
695.808	23624.7
696.155	23833.96
696.501	23539.51
696.847	23581.31
697.193	23463.35
697.539	23476.68
697.885	23246.86
698.231	23296.12
698.577	23326.86
698.923	23361.43
699.269	23172.74
699.614	22986.3
699.96	22992.4
700.306	23080.76
700.651	23021.56
700.997	22875.8
701.342	22883.71
701.688	22925.51
702.033	22871.05
702.379	22731.62
702.724	22767.1
703.069	22839.19
703.415	22481
703.76	22482.13
704.105	22512.42
704.45	22482.81
704.795	22316.04
705.14	22349.03
705.485	22241.46
705.83	22184.06
706.175	22285.08
706.52	22144.97
706.865	22088.7
707.209	22172.09
707.554	22017.97
707.899	22011.19
708.243	21852.77
708.588	21985.65
708.932	21831.98
709.277	21847.58
709.621	21863.85
709.966	21653.68
710.31	21771.65
710.654	21500.01
710.998	21565.55
711.342	21583.63
711.687	21488.94
712.031	21473.57
712.375	21385.21
712.719	21458.88
713.063	21399
713.407	21446
713.75	21335.5
714.094	21320.13
714.438	21154.49
714.782	21225.9
715.125	21127.82
715.469	21260.47
715.812	21161.94
716.156	21045.34
716.499	21048.95
716.843	21062.96
717.186	20974.83
717.53	21068.39
717.873	21077.2
718.216	20998.56
718.559	20910.88
718.902	20761.28
719.246	20912.46
719.589	20768.28
719.932	20782.07
720.275	20705.01
720.617	20760.82
720.96	20630.43
721.303	20700.26
721.646	20698.68
721.989	20589.98
722.331	20615.07
722.674	20664.78
723.016	20619.13
723.359	20556.76
723.701	20572.58
724.044	20513.6
724.386	20389.76
724.729	20518.57
725.071	20489.64
725.413	20469.08
725.755	20361.51
726.097	20349.76
726.439	20295.75
726.782	20308.63
727.124	20437.89
727.465	20311.12
727.807	20305.69
728.149	20221.4
728.491	20188.41
728.833	20218.24
729.175	20155.42
729.516	20197.45
729.858	20150.44
730.199	20176.88
730.541	20057.34
730.882	20015.53
731.224	20129.88
731.565	19995.87
731.906	20105.25
732.248	20101.18
732.589	19897.12
732.93	20032.93
733.271	19900.51
733.612	19970.56
733.953	20050.11
734.294	19897.57
734.635	19846.5
734.976	19982.54
735.317	19815.09
735.658	19877.68
735.999	19892.37
736.339	19857.57
736.68	19855.09
737.021	19810.34
737.361	19730.79
737.702	19815.99
738.042	19800.85
738.383	19748.2
738.723	19790
739.063	19775.99
739.404	19823.22
739.744	19682.21
740.084	19648.76
740.424	19730.34
740.764	19586.17
741.104	19691.7
741.444	19628.65
741.784	19559.73
742.124	19610.35
742.464	19623.45
742.804	19602.66
743.143	19547.75
743.483	19502.33
743.823	19493.06
744.162	19531.93
744.502	19414.19
744.841	19410.13
745.181	19500.52
745.52	19501.65
745.86	19536.68
746.199	19436.34
746.538	19437.02
746.877	19530.12
747.216	19420.07
747.556	19392.05
747.895	19416.9
748.234	19371.26
748.573	19385.49
748.911	19239.96
749.25	19286.29
749.589	19184.82
749.928	19272.28
750.267	19297.36
750.605	19265.5
750.944	19216.01
751.283	19099.17
751.621	19134.65
751.96	19150.02
752.298	19228.89
752.636	19189.57
752.975	19122.22
753.313	19017.14
753.651	19119.29
753.989	18990.93
754.327	19022.34
754.666	19032.06
755.004	18937.37
755.342	18923.36
755.679	19013.53
756.017	18908.44
756.355	18875.9
756.693	18858.95
757.031	18884.72
757.368	18802.23
