Data from cardboard_FLMS001491_089.txt Node
Date: Tue Feb 07 11:40:17 GMT 2017
User: dcchb
Spectrometer: FLMS00149
Trigger mode: 0
Integration Time (sec): 2.000000E-2
Scans to average: 10
Electric dark correction enabled: true
Nonlinearity correction enabled: false
Boxcar width: 0
XAxis mode: Wavelengths
Number of Pixels in Spectrum: 2048
>>>>>Begin Spectral Data<<<<<
341.393	-7.46
341.776	-7.46
342.16	-7.46
342.543	-63.05
342.927	-68.02
343.31	-53.56
343.693	-63.73
344.077	-71.86
344.46	-47.46
344.843	-40
345.226	-34.12
345.61	-29.6
345.993	-31.19
346.376	-12.88
346.759	16.04
347.142	11.53
347.525	43.84
347.908	64.41
348.291	64.63
348.674	80.45
349.057	103.5
349.44	142.82
349.823	141.69
350.206	156.15
350.588	202.03
350.971	202.93
351.354	237.73
351.737	247.68
352.119	257.39
352.502	249.71
352.884	256.94
353.267	272.31
353.65	303.04
354.032	299.88
354.414	297.62
354.797	300.11
355.179	323.61
355.562	350.05
355.944	302.14
356.326	339.88
356.709	330.61
357.091	323.16
357.473	337.84
357.855	362.02
358.238	350.95
358.62	325.64
359.002	341.69
359.384	350.95
359.766	344.17
360.148	345.3
360.53	349.14
360.912	359.09
361.294	345.08
361.676	338.52
362.057	318.64
362.439	327.68
362.821	329.93
363.203	327.9
363.584	341.46
363.966	330.39
364.348	316.15
364.729	342.59
365.111	311.4
365.493	322.48
365.874	351.4
366.256	328.35
366.637	327.45
367.019	308.69
367.4	345.75
367.781	313.66
368.163	313.21
368.544	317.73
368.925	315.47
369.306	335.36
369.688	308.47
370.069	326.55
370.45	295.81
370.831	293.55
371.212	312.31
371.593	310.73
371.974	309.82
372.355	308.69
372.736	330.84
373.117	337.84
373.498	322.25
373.879	324.51
374.26	327
374.641	312.08
375.021	319.54
375.402	326.55
375.783	322.93
376.163	333.32
376.544	330.84
376.925	314.12
377.305	335.81
377.686	335.81
378.066	325.64
378.447	348.24
378.827	328.8
379.208	322.25
379.588	339.65
379.968	345.3
380.349	329.03
380.729	329.48
381.109	351.86
381.489	344.4
381.87	322.7
382.25	343.95
382.63	348.01
383.01	342.36
383.39	355.7
383.77	359.76
384.15	353.44
384.53	356.37
384.91	354.11
385.29	359.99
385.67	388.46
386.049	344.85
386.429	357.28
386.809	353.21
387.189	362.25
387.568	362.25
387.948	357.5
388.328	359.54
388.707	354.79
389.087	382.59
389.466	386.66
389.846	368.35
390.225	376.49
390.605	358.63
390.984	389.14
391.363	371.74
391.743	406.77
392.122	392.31
392.501	377.17
392.881	416.94
393.26	395.24
393.639	395.7
394.018	390.5
394.397	400.22
394.776	388.69
395.155	419.88
395.534	429.59
395.913	424.4
396.292	399.76
396.671	401.8
397.05	415.13
397.429	415.13
397.808	423.49
398.186	461.46
398.565	435.02
398.944	424.4
399.323	434.34
399.701	439.08
400.08	442.25
400.458	432.53
400.837	447.9
401.215	429.14
401.594	433.21
401.972	455.13
402.351	431.4
402.729	445.19
403.107	437.28
403.486	451.97
403.864	464.62
404.242	452.87
404.62	477.05
404.999	475.69
405.377	470.27
405.755	491.74
406.133	485.41
406.511	483.38
406.889	494
407.267	461.46
407.645	480.89
408.023	506.2
408.401	512.75
408.779	492.64
409.156	487.44
409.534	508.01
409.912	538.52
410.29	538.29
410.667	514.34
411.045	532.64
411.422	548.46
411.8	534
412.178	567.22
412.555	522.7
412.933	542.58
413.31	556.14
413.687	575.58
414.065	572.41
414.442	587.78
414.819	583.94
415.197	600.66
415.574	566.31
415.951	570.61
416.328	574.45
416.705	593.2
417.082	632.3
417.46	604.5
417.837	616.25
418.214	628.01
418.591	595.92
418.967	586.2
419.344	602.47
419.721	624.84
420.098	602.24
420.475	648.34
420.852	670.26
421.228	649.47
421.605	649.7
421.982	639.98
422.358	659.42
422.735	658.97
423.111	692.19
423.488	677.72
423.864	689.02
424.241	695.8
424.617	694.67
424.994	701.22
425.37	692.64
425.746	717.95
426.123	719.08
426.499	698.51
426.875	724.05
427.251	745.52
427.627	755.91
428.003	748.45
428.379	746.42
428.756	749.13
429.132	767.21
429.507	768.12
429.883	790.94
430.259	792.3
430.635	785.97
431.011	792.97
431.387	815.57
431.763	826.42
432.138	805.63
432.514	823.03
432.89	829.58
433.265	837.94
433.641	875.91
434.016	889.69
434.392	888.34
434.767	887.66
435.143	886.53
435.518	901.9
435.894	911.16
436.269	912.52
436.644	932.4
437.02	937.83
437.395	925.85
437.77	930.15
438.145	963.36
438.52	973.76
438.895	982.8
439.271	972.86
439.646	983.25
440.021	988.67
440.395	1006.08
440.77	1008.11
441.145	995.68
441.52	1021.67
441.895	1039.97
442.27	1033.19
442.645	1055.57
443.019	1067.09
443.394	1073.42
443.769	1071.16
444.143	1049.01
444.518	1073.64
444.892	1064.6
445.267	1088.78
445.641	1098.95
446.016	1106.41
446.39	1103.02
446.764	1141.66
447.139	1100.76
447.513	1116.35
447.887	1138.05
448.262	1110.03
448.636	1159.07
449.01	1129.91
449.384	1175.34
449.758	1174.43
450.132	1192.96
450.506	1205.39
450.88	1194.54
451.254	1203.13
451.628	1217.6
452.002	1247.65
452.376	1263.24
452.75	1237.26
453.123	1268.44
453.497	1270.02
453.871	1297.14
454.244	1326.29
454.618	1271.6
454.992	1298.72
455.365	1306.41
455.739	1383.69
456.112	1348.67
456.486	1352.05
456.859	1398.16
457.232	1434.54
457.606	1404.03
457.979	1434.09
458.352	1443.8
458.725	1459.62
459.099	1467.31
459.472	1523.35
459.845	1500.07
460.218	1517.93
460.591	1570.13
460.964	1522.9
461.337	1569.68
461.71	1587.3
462.083	1607.42
462.456	1609.45
462.829	1644.02
463.201	1642.22
463.574	1641.99
463.947	1647.41
464.32	1706.85
464.692	1743.68
465.065	1786.17
465.438	1770.8
465.81	1792.95
466.183	1808.09
466.555	1847.86
466.928	1832.27
467.3	1832.95
467.672	1898.26
468.045	1954.52
468.417	1976.9
468.789	1984.35
469.161	1960.4
469.534	2017.8
469.906	2059.61
470.278	2084.01
470.65	2089.89
471.022	2152.49
471.394	2164.01
471.766	2201.07
472.138	2217.57
472.51	2219.15
472.882	2294.18
473.253	2314.06
473.625	2359.49
473.997	2425.7
474.369	2404.23
474.74	2385.25
475.112	2469.99
475.484	2538.69
475.855	2550.67
476.227	2578.69
476.598	2622.08
476.97	2685.35
477.341	2683.77
477.713	2721.51
478.084	2772.58
478.455	2867.95
478.827	2888.29
479.198	2973.26
479.569	2980.71
479.94	3037.66
480.311	3074.72
480.682	3186.81
481.053	3199.01
481.424	3262.06
481.795	3297.31
482.166	3345.9
482.537	3393.13
482.908	3465.67
483.279	3490.08
483.65	3547.7
484.021	3629.74
484.391	3630.41
484.762	3695.95
485.133	3744.99
485.503	3791.76
485.874	3907.69
486.244	3915.83
486.615	4036.28
486.985	4021.59
487.356	4144.52
487.726	4152.43
488.097	4201.25
488.467	4247.8
488.837	4398.08
489.207	4379.09
489.578	4457.96
489.948	4531.18
490.318	4621.8
490.688	4643.04
491.058	4694.79
491.428	4769.59
491.798	4798.07
492.168	4929.14
492.538	4995.8
492.908	4991.96
493.278	5095.46
493.648	5062.01
494.017	5163.48
494.387	5239.64
494.757	5304.72
495.126	5340.42
495.496	5369.8
495.866	5404.15
496.235	5501.1
496.605	5533.64
496.974	5640.76
497.344	5690.47
497.713	5710.13
498.082	5768.21
498.452	5854.76
498.821	5878.94
499.19	5871.03
499.559	6014.31
499.928	6042.33
500.298	6050.69
500.667	6150.57
501.036	6182.44
501.405	6243
501.774	6271.25
502.143	6334.52
502.512	6368.19
502.88	6448.64
503.249	6443.9
503.618	6518.7
503.987	6589.66
504.356	6658.13
504.724	6729.99
505.093	6736.77
505.462	6757.79
505.83	6892.25
506.199	6972.92
506.567	7023.77
506.936	7011.57
507.304	7147.16
507.672	7126.59
508.041	7248.4
508.409	7280.03
508.777	7340.6
509.145	7490.88
509.514	7471.22
509.882	7525.68
510.25	7576.98
510.618	7678.89
510.986	7725.67
511.354	7798.67
511.722	7917.98
512.09	7987.13
512.458	8043.18
512.826	8108.49
513.193	8128.37
513.561	8201.59
513.929	8324.75
514.297	8350.74
514.664	8447.01
515.032	8462.15
515.4	8627.34
515.767	8700.56
516.135	8727.45
516.502	8678.19
516.869	8895.81
517.237	8914.34
517.604	8931.74
517.972	9072.53
518.339	9157.95
518.706	9246.08
519.073	9312.07
519.44	9440.43
519.808	9559.97
520.175	9486.08
520.542	9670.71
520.909	9734.66
521.276	9799.74
521.643	9844.03
522.009	10020.3
522.376	10050.36
522.743	10244.25
523.11	10242.89
523.477	10447.18
523.843	10486.05
524.21	10577.8
524.577	10693.73
524.943	10724.24
525.31	10826.16
525.676	10964.23
526.043	11060.5
526.409	11162.64
526.776	11227.05
527.142	11308.63
527.508	11421.62
527.874	11554.72
528.241	11698.22
528.607	11790.65
528.973	11848.05
529.339	11883.53
529.705	12015.73
530.071	12270.41
530.437	12235.84
530.803	12320.35
531.169	12493.46
531.535	12461.59
531.901	12567.35
532.267	12653.68
532.632	12758.76
532.998	12841.7
533.364	12943.16
533.73	13077.85
534.095	13154.46
534.461	13222.03
534.826	13320.1
535.192	13427.9
535.557	13482.58
535.923	13609.13
536.288	13620.43
536.653	13763.48
537.019	13672.86
537.384	13863.59
537.749	13956.24
538.114	14083.92
538.479	13983.59
538.845	14193.07
539.21	14165.73
539.575	14285.95
539.94	14352.84
540.305	14438.26
540.67	14546.28
541.034	14609.33
541.399	14700.86
541.764	14751.25
542.129	14834.86
542.494	14926.61
542.858	15046.84
543.223	15070.79
543.587	15075.99
543.952	15232.37
544.316	15274.63
544.681	15268.53
545.045	15450.89
545.41	15626.26
545.774	15596.2
546.138	15621.51
546.503	15743.99
546.867	15799.81
547.231	15967.04
547.595	15948.51
547.959	16148.5
548.324	16124.32
548.688	16210.2
549.052	16255.62
549.416	16381.49
549.779	16434.6
550.143	16467.82
550.507	16685.89
550.871	16771.54
551.235	16791.87
551.599	17033.45
551.962	17040.68
552.326	17090.17
552.689	17125.88
553.053	17127.91
553.417	17249.26
553.78	17564.74
554.143	17497.62
554.507	17527.9
554.87	17709.14
555.234	17917.95
555.597	17825.75
555.96	17985.29
556.323	17973.76
556.686	18093.54
557.05	18200.65
557.413	18399.06
557.776	18367.2
558.139	18542.11
558.502	18601.32
558.865	18666.4
559.228	18820.75
559.59	18945.49
559.953	19020.29
560.316	19308.87
560.679	19316.33
561.041	19533.05
561.404	19585.47
561.767	19686.71
562.129	19688.97
562.492	19916.99
562.854	19980.72
563.217	19983.2
563.579	20154.5
563.941	20291.44
564.304	20420.03
564.666	20598.55
565.028	20709.29
565.39	20658.44
565.753	20852.11
566.115	20961.03
566.477	21139.11
566.839	21246.9
567.201	21384.52
567.563	21333.9
567.925	21570.05
568.287	21624.29
568.648	21682.37
569.01	21853.66
569.372	22045.97
569.734	21994.68
570.095	22238.06
570.457	22232.41
570.819	22426.75
571.18	22389.47
571.542	22546.53
571.903	22534.32
572.265	22685.73
572.626	22851.6
572.987	22846.18
573.349	23064.48
573.71	23051.6
574.071	23129.79
574.432	23228.09
574.794	23419.27
575.155	23486.84
575.516	23477.35
575.877	23649.1
576.238	23684.57
576.599	23831.69
576.96	23785.36
577.32	23917.56
577.681	24017
578.042	24175.41
578.403	24126.15
578.763	24285.01
579.124	24173.38
579.485	24428.28
579.845	24616.75
580.206	24518.9
580.566	24572.46
580.927	24693.59
581.287	24771.78
581.648	24593.93
582.008	24809.97
582.368	24814.26
582.728	24843.41
583.089	24939.46
583.449	24913.02
583.809	24982.62
584.169	24976.74
584.529	25084.09
584.889	25227.13
585.249	25176.51
585.609	25121.15
585.969	25339.9
586.329	25325.21
586.688	25329.5
587.048	25381.25
587.408	25395.26
587.768	25368.37
588.127	25376.73
588.487	25517.07
588.846	25730.4
589.206	25509.61
589.565	25585.54
589.925	25871.64
590.284	25644.52
590.643	25736.72
591.003	25785.76
591.362	25941.24
591.721	25981.24
592.08	25887.91
592.44	26068.69
592.799	26084.29
593.158	26041.35
593.517	25977.17
593.876	26180.33
594.235	26122.25
594.593	25998.86
594.952	26303.26
595.311	26299.87
595.67	26286.31
596.029	26558.85
596.387	26444.28
596.746	26556.59
597.104	26570.15
597.463	26522.01
597.822	26638.17
598.18	26419.42
598.538	26632.75
598.897	26763.59
599.255	26582.13
599.613	26930.37
599.972	26769.92
600.33	26909.12
600.688	26770.37
601.046	26962.68
601.404	27056.24
601.762	27120.42
602.12	27136.01
602.478	27129.68
602.836	27213.3
603.194	27168.55
603.552	27173.07
603.91	27182.34
604.268	27318.83
604.625	27198.38
604.983	27392.73
605.341	27297.81
605.698	27371.71
606.056	27511.37
606.413	27483.57
606.771	27604.92
607.128	27698.25
607.485	27589.56
607.843	27639.05
608.2	27802.43
608.557	27906.61
608.914	27800.17
609.272	27934.86
609.629	28069.54
609.986	28220.95
610.343	28067.28
610.7	28237.68
611.057	28194.06
611.414	28214.85
611.771	28339.82
612.127	28321.29
612.484	28335.53
612.841	28451.91
613.198	28303.66
613.554	28435.64
613.911	28596.54
614.267	28580.04
614.624	28613.48
614.98	28644.44
615.337	28805.34
615.693	28770.54
616.05	28659.81
616.406	28936.41
616.762	28899.81
617.118	28794.72
617.475	28989.29
617.831	28975.06
618.187	29080.82
618.543	29209.18
618.899	29326.91
619.255	29208.95
619.611	29250.3
619.967	29330.98
620.323	29373.24
620.678	29262.51
621.034	29328.95
621.39	29309.74
621.746	29487.59
622.101	29701.59
622.457	29472.45
622.812	29523.29
623.168	29605.32
623.523	29584.98
623.879	29728.48
624.234	29443.75
624.589	29751.99
624.945	29708.82
625.3	29670.63
625.655	29621.59
626.01	29707.69
626.365	29795.15
626.72	29677.64
627.075	29669.05
627.43	29756.05
627.785	29596.51
628.14	29703.4
628.495	29860.91
628.85	29799.67
629.205	29710.63
629.559	29915.6
629.914	29714.25
630.269	29840.12
630.623	29761.48
630.978	29608.26
631.332	29841.48
631.687	29883.51
632.041	29760.8
632.396	29780.69
632.75	29616.62
633.104	29756.05
633.459	29544.76
633.813	29536.62
634.167	29759.9
634.521	29728.03
634.875	29752.66
635.229	29637.41
635.583	29534.36
635.937	29592.44
636.291	29577.98
636.645	29597.64
636.999	29527.81
637.352	29807.58
637.706	29508.38
638.06	29525.78
638.413	29489.39
638.767	29524.87
639.121	29516.06
639.474	29227.25
639.828	29361.26
640.181	29371.21
640.534	29591.31
640.888	29334.14
641.241	29337.99
641.594	29311.32
641.947	29448.94
642.301	29264.09
642.654	29298.21
643.007	29378.66
643.36	29262.73
643.713	29352.67
644.066	29346.35
644.419	29161.72
644.771	28983.19
645.124	28759.92
645.477	28629.98
645.83	28607.84
646.182	28581.85
646.535	28459.59
646.888	28586.59
647.24	28311.57
647.593	28564.22
647.945	28501.17
648.298	28372.81
648.65	28332.81
649.002	28234.06
649.355	28339.37
649.707	28281.29
650.059	28525.58
650.411	28724.67
650.763	28872.24
651.115	29100.7
651.467	29115.84
651.819	29137.99
652.171	28973.02
652.523	29051.67
652.875	29082.85
653.227	28813.03
653.578	29107.71
653.93	29092.57
654.282	28863.42
654.633	28872.91
654.985	29022.06
655.337	28954.49
655.688	28947.94
656.039	29013.7
656.391	28711.11
656.742	28886.47
657.094	28918.56
657.445	29102.06
657.796	28864.33
658.147	28910.2
658.498	28911.1
658.849	28899.81
659.2	28888.51
659.551	28820.03
659.902	29060.7
660.253	28840.37
660.604	28986.36
660.955	28834.5
661.306	29003.08
661.656	28945.91
662.007	28937.77
662.358	28947.26
662.708	29021.61
663.059	29020.48
663.409	28798.34
663.76	29018.22
664.11	28976.64
664.461	28995.85
664.811	29139.8
665.161	29015.28
665.511	28924.89
665.862	28993.36
666.212	29048.5
666.562	29091.44
666.912	28949.75
667.262	29006.02
667.612	29040.59
667.962	29072.46
668.312	28851.67
668.662	29109.97
669.011	29203.3
669.361	28967.6
669.711	28986.13
670.06	28899.81
670.41	28982.51
670.76	28935.74
671.109	28915.62
671.459	28874.5
671.808	28930.76
672.157	28932.57
672.507	28646.48
672.856	28769.64
673.205	28798.79
673.554	28941.61
673.904	28862.29
674.253	29052.12
674.602	28909.3
674.951	28469.76
675.3	28368.29
675.649	28787.72
675.998	28795.4
676.346	28702.3
676.695	28953.14
677.044	28654.39
677.393	28694.84
677.741	28795.4
678.09	28726.48
678.438	28683.77
678.787	28690.77
679.135	28704.33
679.484	28592.69
679.832	28743.88
680.181	28526.03
680.529	28646.7
680.877	28461.62
681.225	28569.64
681.573	28846.25
681.922	28518.35
682.27	28465.47
682.618	28386.37
682.966	28409.65
683.314	28460.27
683.661	28432.02
684.009	28140.28
684.357	28164.23
684.705	28211.69
685.053	28155.87
685.4	28168.75
685.748	28015.31
686.095	28010.79
686.443	27900.96
686.79	27929.66
687.138	27978.7
687.485	27975.99
687.832	27830
688.18	28021.18
688.527	27856.22
688.874	27789.33
689.221	27704.81
689.568	27765.82
689.915	27618.03
690.262	27589.11
690.609	27510.46
690.956	27442.22
691.303	27380.97
691.65	27324.93
691.997	27364.25
692.344	27213.97
692.69	27090.14
693.037	27233.18
693.383	26934.66
693.73	27089.01
694.077	26944.15
694.423	26999.29
694.769	26832.29
695.116	26810.14
695.462	26787.77
695.808	26628.9
696.155	26588.23
696.501	26469.81
696.847	26468.46
697.193	26379.87
697.539	26548.91
697.885	26326.09
698.231	26149.82
698.577	26188.24
698.923	26144.62
699.269	26047
699.614	25923.16
699.96	25986.44
700.306	25947.57
700.651	25798.64
700.997	25728.14
701.342	25704.86
701.688	25633
702.033	25630.96
702.379	25505.77
702.724	25561.59
703.069	25698.31
703.415	25268.04
703.76	25341.71
704.105	25278.21
704.45	25336.73
704.795	25075.5
705.14	24983.75
705.485	24976.97
705.83	24882.96
706.175	24953.92
706.52	24901.72
706.865	24865.56
707.209	24753.47
707.554	24751.89
707.899	24725.23
708.243	24541.95
708.588	24520.71
708.932	24491.56
709.277	24488.17
709.621	24461.28
709.966	24348.51
710.31	24449.07
710.654	24142.19
710.998	24218.57
711.342	24268.06
711.687	24122.53
712.031	24015.19
712.375	23953.72
712.719	24102.64
713.063	24021.97
713.407	24054.51
713.75	23889.54
714.094	24017.22
714.438	23802.99
714.782	23912.82
715.125	23745.14
715.469	23844.12
715.812	23781.97
716.156	23656.55
716.499	23621.53
716.843	23635.99
717.186	23469.89
717.53	23643.9
717.873	23558.93
718.216	23554.63
718.559	23413.85
718.902	23365.49
719.246	23337.92
719.589	23278.03
719.932	23233.51
720.275	23140.63
720.617	23218.82
720.96	23038.04
721.303	23141.31
721.646	23118.26
721.989	23128.66
722.331	23200.52
722.674	23136.57
723.016	23094.53
723.359	23089.79
723.701	23042.56
724.044	22953.29
724.386	22901.09
724.729	22940.87
725.071	22853.41
725.413	22887.76
725.755	22888.21
726.097	22817.48
726.439	22682.34
726.782	22689.35
727.124	22829.46
727.465	22631.27
727.807	22685.28
728.149	22577.49
728.491	22565.06
728.833	22677.6
729.175	22616.13
729.516	22511.72
729.858	22469.92
730.199	22506.3
730.541	22450.26
730.882	22516.02
731.224	22523.7
731.565	22415
731.906	22471.5
732.248	22342.01
732.589	22304.95
732.93	22351.28
733.271	22339.07
733.612	22395.57
733.953	22333.2
734.294	22371.39
734.635	22336.36
734.976	22350.15
735.317	22179.3
735.658	22143.82
735.999	22109.02
736.339	22207.78
736.68	22233.77
737.021	22183.37
737.361	21982.47
737.702	22199.64
738.042	22103.83
738.383	22084.84
738.723	22127.1
739.063	22007.56
739.404	22135.69
739.744	22082.58
740.084	22063.83
740.424	21980.89
740.764	22052.08
741.104	22091.85
741.444	21992.19
741.784	21844.62
742.124	21901.8
742.464	22019.08
742.804	21924.4
743.143	21899.99
743.483	21935.02
743.823	21856.15
744.162	21741.35
744.502	21832.87
744.841	21704.51
745.181	21872.19
745.52	21819.09
745.86	21748.35
746.199	21759.2
746.538	21801.46
746.877	21764.63
747.216	21871.29
747.556	21750.61
747.895	21772.31
748.234	21699.99
748.573	21621.13
748.911	21658.19
749.25	21714.23
749.589	21489.38
749.928	21742.48
750.267	21704.51
750.605	21645.53
750.944	21536.16
751.283	21445.76
751.621	21518.53
751.96	21439.89
752.298	21514.69
752.636	21501.58
752.975	21455.93
753.313	21464.75
753.651	21559.66
753.989	21411.87
754.327	21409.61
754.666	21312.43
755.004	21455.48
755.342	21319.21
755.679	21293.45
756.017	21193.79
756.355	21295.94
756.693	21266.11
757.031	21295.03
