Data from cardboard_FLMS001491_087.txt Node
Date: Tue Feb 07 11:40:16 GMT 2017
User: dcchb
Spectrometer: FLMS00149
Trigger mode: 0
Integration Time (sec): 2.000000E-2
Scans to average: 10
Electric dark correction enabled: true
Nonlinearity correction enabled: false
Boxcar width: 0
XAxis mode: Wavelengths
Number of Pixels in Spectrum: 2048
>>>>>Begin Spectral Data<<<<<
341.393	-26.67
341.776	-26.67
342.16	-26.67
342.543	-53.78
342.927	-83.84
343.31	-68.25
343.693	-65.31
344.077	-88.36
344.46	-59.21
344.843	-55.82
345.226	-33.22
345.61	-51.75
345.993	-9.94
346.376	-15.14
346.759	9.72
347.142	28.93
347.525	60.11
347.908	75.25
348.291	70.51
348.674	94.23
349.057	108.25
349.44	122.71
349.823	149.37
350.206	175.59
350.588	189.15
350.971	217.85
351.354	220.11
351.737	208.36
352.119	223.04
352.502	263.95
352.884	269.37
353.267	277.05
353.65	278.41
354.032	284.51
354.414	284.06
354.797	301.01
355.179	321.35
355.562	332.19
355.944	317.51
356.326	329.48
356.709	346.66
357.091	337.39
357.473	358.41
357.855	335.13
358.238	348.47
358.62	335.81
359.002	339.43
359.384	352.76
359.766	348.24
360.148	340.1
360.53	332.42
360.912	329.93
361.294	352.53
361.676	307.11
362.057	338.97
362.439	346.43
362.821	308.92
363.203	308.24
363.584	324.74
363.966	302.14
364.348	329.26
364.729	321.35
365.111	319.99
365.493	327.22
365.874	317.28
366.256	317.51
366.637	304.85
367.019	300.11
367.4	329.71
367.781	303.49
368.163	310.27
368.544	319.31
368.925	322.25
369.306	307.56
369.688	323.38
370.069	299.65
370.45	299.2
370.831	298.98
371.212	297.39
371.593	324.51
371.974	337.62
372.355	312.76
372.736	319.31
373.117	332.42
373.498	301.24
373.879	312.99
374.26	335.81
374.641	310.27
375.021	309.37
375.402	326.77
375.783	323.16
376.163	305.98
376.544	345.98
376.925	334
377.305	329.26
377.686	330.84
378.066	324.06
378.447	331.29
378.827	334.68
379.208	366.09
379.588	326.77
379.968	340.33
380.349	339.2
380.729	328.58
381.109	338.3
381.489	342.82
381.87	355.02
382.25	338.97
382.63	358.18
383.01	337.17
383.39	346.66
383.77	345.75
384.15	335.58
384.53	345.98
384.91	354.57
385.29	356.15
385.67	365.87
386.049	370.84
386.429	367
386.809	379.88
387.189	355.92
387.568	351.18
387.948	352.08
388.328	363.61
388.707	380.33
389.087	398.63
389.466	378.07
389.846	375.58
390.225	387.11
390.605	385.3
390.984	383.72
391.363	385.3
391.743	376.94
392.122	403.83
392.501	363.61
392.881	403.38
393.26	388.01
393.639	398.86
394.018	362.48
394.397	398.63
394.776	411.74
395.155	411.74
395.534	416.26
395.913	419.88
396.292	420.1
396.671	409.03
397.05	419.65
397.429	423.04
397.808	426.66
398.186	414.68
398.565	416.03
398.944	440.21
399.323	442.02
399.701	451.06
400.08	454.45
400.458	429.14
400.837	431.63
401.215	434.56
401.594	446.09
401.972	453.32
402.351	444.51
402.729	435.02
403.107	448.58
403.486	444.28
403.864	465.07
404.242	450.16
404.62	460.78
404.999	465.52
405.377	470.27
405.755	464.85
406.133	478.18
406.511	482.7
406.889	508.69
407.267	475.02
407.645	488.8
408.023	497.39
408.401	501.91
408.779	506.43
409.156	493.09
409.534	524.73
409.912	506.43
410.29	520.21
410.667	531.51
411.045	527.22
411.422	523.6
411.8	522.7
412.178	544.84
412.555	544.84
412.933	532.19
413.31	550.04
413.687	543.49
414.065	583.49
414.442	568.12
414.819	588.23
415.197	569.93
415.574	578.97
415.951	586.88
416.328	582.13
416.705	562.92
417.082	593.43
417.46	605.86
417.837	611.74
418.214	633.2
418.591	607.44
418.967	639.53
419.344	624.16
419.721	628.46
420.098	642.02
420.475	639.98
420.852	615.13
421.228	663.94
421.605	638.85
421.982	642.69
422.358	621.23
422.735	658.51
423.111	679.76
423.488	660.32
423.864	692.86
424.241	684.73
424.617	672.98
424.994	704.39
425.37	716.59
425.746	700.77
426.123	729.02
426.499	731.73
426.875	742.81
427.251	717.95
427.627	729.02
428.003	749.13
428.379	773.09
428.756	756.14
429.132	787.55
429.507	781.67
429.883	774.89
430.259	781
430.635	778.51
431.011	821.9
431.387	803.14
431.763	806.53
432.138	830.26
432.514	860.99
432.89	850.15
433.265	841.33
433.641	847.66
434.016	835.01
434.392	863.48
434.767	892.86
435.143	897.15
435.518	904.61
435.894	906.19
436.269	903.93
436.644	946.87
437.02	926.98
437.395	950.03
437.77	934.66
438.145	962.46
438.52	938.05
438.895	976.7
439.271	976.7
439.646	990.26
440.021	1003.82
440.395	1003.59
440.77	997.49
441.145	991.84
441.52	1016.7
441.895	1038.39
442.27	1018.96
442.645	1030.03
443.019	1039.07
443.394	1050.14
443.769	1049.46
444.143	1086.3
444.518	1064.38
444.892	1059.63
445.267	1084.27
445.641	1103.7
446.016	1077.94
446.39	1147.77
446.764	1123.81
447.139	1114.1
447.513	1131.04
447.887	1106.19
448.262	1149.8
448.636	1121.55
449.01	1158.84
449.384	1149.12
449.758	1158.84
450.132	1174.43
450.506	1179.18
450.88	1214.66
451.254	1198.84
451.628	1208.56
452.002	1222.11
452.376	1234.09
452.75	1243.58
453.123	1238.16
453.497	1283.81
453.871	1256.46
454.244	1292.85
454.618	1318.61
454.992	1324.94
455.365	1301.66
455.739	1363.13
456.112	1342.34
456.486	1366.29
456.859	1412.84
457.232	1430.24
457.606	1404.48
457.979	1414.43
458.352	1446.97
458.725	1475.89
459.099	1485.84
459.472	1524.48
459.845	1543.91
460.218	1503.46
460.591	1556.57
460.964	1554.99
461.337	1573.07
461.71	1594.53
462.083	1628.66
462.456	1622.56
462.829	1618.49
463.201	1650.8
463.574	1682.44
463.947	1715.44
464.32	1740.29
464.692	1756.34
465.065	1731.93
465.438	1791.37
465.81	1782.78
466.183	1804.47
466.555	1884.24
466.928	1839.5
467.3	1893.28
467.672	1873.17
468.045	1939.16
468.417	1970.12
468.789	1950.23
469.161	1969.89
469.534	2014.86
469.906	2020.74
470.278	2053.28
470.65	2074.75
471.022	2131.47
471.394	2165.82
471.766	2155.65
472.138	2171.47
472.51	2274.29
472.882	2326.49
473.253	2317
473.625	2345.7
473.997	2368.07
474.369	2440.39
474.74	2433.16
475.112	2477.45
475.484	2524
475.855	2548.86
476.227	2592.7
476.598	2614.62
476.97	2627.05
477.341	2743.88
477.713	2765.58
478.084	2754.28
478.455	2849.87
478.827	2878.79
479.198	2927.83
479.569	2987.04
479.94	3067.04
480.311	3094.38
480.682	3158.34
481.053	3199.01
481.424	3235.62
481.795	3293.02
482.166	3352.68
482.537	3367.14
482.908	3436.52
483.279	3499.12
483.65	3569.17
484.021	3624.31
484.391	3657.76
484.762	3679.23
485.133	3758.09
485.503	3797.64
485.874	3892.33
486.244	3921.03
486.615	3990.63
486.985	4048.03
487.356	4143.62
487.726	4194.01
488.097	4251.87
488.467	4257.29
488.837	4408.02
489.207	4402.6
489.578	4482.37
489.948	4502.03
490.318	4657.5
490.688	4650.27
491.058	4698.41
491.428	4762.36
491.798	4784.96
492.168	4952.41
492.538	4951.28
492.908	5022.92
493.278	5074.67
493.648	5133.65
494.017	5192.41
494.387	5244.38
494.757	5287.09
495.126	5342.01
495.496	5367.77
495.866	5402.8
496.235	5550.59
496.605	5547.65
496.974	5614.09
497.344	5657.93
497.713	5721.43
498.082	5790.13
498.452	5824.48
498.821	5887.53
499.19	5878.04
499.559	5998.49
499.928	6025.15
500.298	6088.43
500.667	6135.88
501.036	6173.17
501.405	6217.01
501.774	6281.64
502.143	6346.5
502.512	6368.87
502.88	6449.77
503.249	6457.68
503.618	6548.08
503.987	6572.93
504.356	6591.24
504.724	6716.21
505.093	6706.04
505.462	6733.61
505.83	6786.04
506.199	6884.56
506.567	7016.54
506.936	7077.55
507.304	7143.99
507.672	7137.44
508.041	7278.68
508.409	7288.62
508.777	7363.42
509.145	7439.13
509.514	7383.53
509.882	7522.29
510.25	7586.47
510.618	7668.95
510.986	7775.61
511.354	7792.34
511.722	7897.42
512.09	7955.72
512.458	7980.58
512.826	8070.75
513.193	8166.34
513.561	8238.43
513.929	8301.48
514.297	8360.01
514.664	8454.47
515.032	8489.27
515.4	8602.71
515.767	8668.92
516.135	8777.17
516.502	8683.61
516.869	8885.19
517.237	8912.31
517.604	8923.16
517.972	9074.34
518.339	9188.91
518.706	9215.8
519.073	9256.48
519.44	9401.56
519.808	9457.15
520.175	9507.77
520.542	9674.55
520.909	9681.33
521.276	9820.31
521.643	9949.79
522.009	9964.26
522.376	10093.52
522.743	10181.43
523.11	10235.89
523.477	10378.03
523.843	10499.38
524.21	10666.84
524.577	10683.56
524.943	10818.02
525.31	10897.34
525.676	10984.57
526.043	11074.29
526.409	11169.42
526.776	11315.63
527.142	11399.02
527.508	11555.18
527.874	11634.95
528.241	11641.28
528.607	11752.46
528.973	11908.84
529.339	11913.59
529.705	12043.07
530.071	12135.27
530.437	12248.04
530.803	12314.48
531.169	12472.89
531.535	12474.02
531.901	12603.74
532.267	12692.77
532.632	12781.13
532.998	12904.52
533.364	12951.07
533.73	13107.45
534.095	13126.43
534.461	13202.82
534.826	13320.55
535.192	13431.74
535.557	13523.03
535.923	13469.25
536.288	13618.62
536.653	13791.95
537.019	13743.82
537.384	13840.77
537.749	13826.98
538.114	13936.36
538.479	14013.19
538.845	14144.03
539.21	14127.09
539.575	14280.75
539.94	14353.52
540.305	14440.98
540.67	14535.89
541.034	14628.99
541.399	14654.76
541.764	14764.81
542.129	14835.77
542.494	14936.1
542.858	14948.08
543.223	15081.41
543.587	15214.29
543.952	15191.92
544.316	15283.44
544.681	15254.29
545.045	15407.73
545.41	15530.67
545.774	15609.31
546.138	15702.19
546.503	15711.45
546.867	15720.49
547.231	15966.13
547.595	15999.13
547.959	16098.79
548.324	16134.94
548.688	16176.98
549.052	16320.7
549.416	16380.13
549.779	16488.38
550.143	16478.89
550.507	16748.71
550.871	16723.4
551.235	16678.66
551.599	16964.75
551.962	16943.06
552.326	17088.36
552.689	17196.16
553.053	17150.51
553.417	17256.5
553.78	17545.08
554.143	17456.04
554.507	17538.97
554.87	17779.87
555.234	17802.02
555.597	17802.24
555.96	17885.63
556.323	18063.93
556.686	18061.67
557.05	18285.17
557.413	18347.77
557.776	18437.48
558.139	18517.48
558.502	18633.86
558.865	18725.84
559.228	18855.55
559.59	18947.75
559.953	19046.28
560.316	19233.62
560.679	19348.64
561.041	19458.02
561.404	19523.55
561.767	19705.24
562.129	19696.66
562.492	19954.28
562.854	19896.2
563.217	20061.62
563.579	20124.89
563.941	20333.93
564.304	20332.35
564.666	20525.11
565.028	20598.33
565.39	20692.79
565.753	20883.29
566.115	20942.27
566.477	21042.16
566.839	21161.03
567.201	21275.82
567.563	21494.8
567.925	21565.53
568.287	21645.31
568.648	21667.68
569.01	21854.79
569.372	22082.36
569.734	22022.47
570.095	22256.14
570.457	22228.12
570.819	22328.68
571.18	22429.01
571.542	22545.62
571.903	22637.82
572.265	22681.44
572.626	22849.79
572.987	22778.61
573.349	23038.72
573.71	23126.4
574.071	23285.72
574.432	23304.7
574.794	23529.1
575.155	23514.86
575.516	23494.75
575.877	23710.11
576.238	23690
576.599	23828.75
576.96	23832.14
577.32	23824.91
577.681	23962.31
578.042	24156.65
578.403	24096.77
578.763	24208.85
579.124	24228.29
579.485	24278.46
579.845	24459.47
580.206	24390.09
580.566	24479.81
580.927	24624.66
581.287	24704.66
581.648	24554.83
582.008	24852.23
582.368	24776.98
582.728	24930.87
583.089	24913.7
583.449	24974.94
583.809	24967.25
584.169	25069.4
584.529	25042.96
584.889	25354.36
585.249	25116.4
585.609	25154.37
585.969	25291.09
586.329	25266.45
586.688	25284.08
587.048	25423.74
587.408	25364.76
587.768	25426
588.127	25401.37
588.487	25427.81
588.846	25631.64
589.206	25540.57
589.565	25490.86
589.925	25725.2
590.284	25683.84
590.643	25721.81
591.003	25952.76
591.362	25974.46
591.721	25760.9
592.08	25965.19
592.44	25960.67
592.799	25969.71
593.158	25979.88
593.517	26006.77
593.876	26119.09
594.235	26015.59
594.593	26165.64
594.952	26211.51
595.311	26303.72
595.67	26407.89
596.029	26540.55
596.387	26536.48
596.746	26560.66
597.104	26364.05
597.463	26552.75
597.822	26525.4
598.18	26527.21
598.538	26482.47
598.897	26634.1
599.255	26498.29
599.613	26940.08
599.972	26808.11
600.33	26920.65
600.688	26820.54
601.046	26968.56
601.404	27070.02
601.762	26971.27
602.12	27152.28
602.478	27124.94
602.836	27162.45
603.194	27131.72
603.552	27197.93
603.91	27081.77
604.268	27267.53
604.625	27224.14
604.983	27404.7
605.341	27190.25
605.698	27506.17
606.056	27482.67
606.413	27509.56
606.771	27574.64
607.128	27702.32
607.485	27557.02
607.843	27699.16
608.2	27791.59
608.557	27822.77
608.914	27940.06
609.272	27984.12
609.629	28016.66
609.986	28135.98
610.343	28030.22
610.7	28222.53
611.057	28262.53
611.414	28272.02
611.771	28302.76
612.127	28341.18
612.484	28399.25
612.841	28379.59
613.198	28378.01
613.554	28446.71
613.911	28700.94
614.267	28564.9
614.624	28605.58
614.98	28622.07
615.337	28778.9
615.693	28770.09
616.05	28808.51
616.406	29006.69
616.762	28868.85
617.118	28906.81
617.475	28955.17
617.831	29113.13
618.187	29076.75
618.543	29145.67
618.899	29384.54
619.255	29191.55
619.611	29218.89
619.967	29359.23
620.323	29452.56
620.678	29300.92
621.034	29371.66
621.39	29400.36
621.746	29366.91
622.101	29652.33
622.457	29508.6
622.812	29563.29
623.168	29552.9
623.523	29627.24
623.879	29717.86
624.234	29469.06
624.589	29607.58
624.945	29627.47
625.3	29707.24
625.655	29642.38
626.01	29694.59
626.365	29789.27
626.72	29739.11
627.075	29740.23
627.43	29661.59
627.785	29697.3
628.14	29888.25
628.495	29780.23
628.85	29806.45
629.205	29824.98
629.559	29935.94
629.914	29634.02
630.269	29697.52
630.623	29722.83
630.978	29675.15
631.332	29743.62
631.687	29864.07
632.041	29669.95
632.396	29872.43
632.75	29639.45
633.104	29737.52
633.459	29870.85
633.813	29722.83
634.167	29712.89
634.521	29691.42
634.875	29740.69
635.229	29719.67
635.583	29543.4
635.937	29544.76
636.291	29526.68
636.645	29758.54
636.999	29597.87
637.352	29661.37
637.706	29502.73
638.06	29472.67
638.413	29537.98
638.767	29479.45
639.121	29516.51
639.474	29378.44
639.828	29410.98
640.181	29417.53
640.534	29398.55
640.888	29365.33
641.241	29392.45
641.594	29335.5
641.947	29387.93
642.301	29293.69
642.654	29428.6
643.007	29445.55
643.36	29408.72
643.713	29285.78
644.066	29367.82
644.419	29263.86
644.771	29056.64
645.124	28844.89
645.477	28704.78
645.83	28560.6
646.182	28429.08
646.535	28554.05
646.888	28435.86
647.24	28324.68
647.593	28536.42
647.945	28455.75
648.298	28420.27
648.65	28283.1
649.002	28196.09
649.355	28409.87
649.707	28249.65
650.059	28441.96
650.411	28833.59
650.763	28800.37
651.115	29248.27
651.467	29054.15
651.819	28948.84
652.171	28971.67
652.523	28965.11
652.875	28925.34
653.227	28915.4
653.578	29198.1
653.93	28980.48
654.282	28864.1
654.633	28862.97
654.985	28808.28
655.337	28985.45
655.688	28903.19
656.039	29093.7
656.391	28821.62
656.742	28838.34
657.094	28942.06
657.445	29002.63
657.796	28864.78
658.147	28877.21
658.498	29006.47
658.849	28981.38
659.2	29018.45
659.551	28800.37
659.902	29042.4
660.253	28837.66
660.604	29034.26
660.955	28788.17
661.306	29001.95
661.656	28875.17
662.007	28831.56
662.358	29000.14
662.708	28924.89
663.059	28841.95
663.409	28848.51
663.76	28944.55
664.11	28931.89
664.461	29062.06
664.811	29097.77
665.161	28876.3
665.511	28892.57
665.862	28937.32
666.212	29182.74
666.562	29027.49
666.912	28975.74
667.262	28842.63
667.612	28927.15
667.962	28994.49
668.312	28879.92
668.662	29146.58
669.011	29000.59
669.361	28923.99
669.711	29031.1
670.06	28965.11
670.41	28876.08
670.76	28938
671.109	29126.24
671.459	28902.06
671.808	28855.29
672.157	28986.58
672.507	28858.9
672.856	28774.38
673.205	28923.53
673.554	28964.21
673.904	28754.05
674.253	29081.5
674.602	28952.01
674.951	28454.17
675.3	28330.55
675.649	28734.84
675.998	28730.32
676.346	28821.16
676.695	28883.53
677.044	28635.86
677.393	28860.03
677.741	28695.97
678.09	28765.8
678.438	28692.58
678.787	28656.2
679.135	28611.45
679.484	28581.4
679.832	28797.43
680.181	28621.85
680.529	28655.97
680.877	28435.18
681.225	28517.67
681.573	28729.19
681.922	28517.44
682.27	28441.74
682.618	28438.35
682.966	28445.58
683.314	28340.27
683.661	28271.35
684.009	28200.61
684.357	28228.86
684.705	28243.33
685.053	28168.75
685.4	28093.72
685.748	28020.28
686.095	27982.32
686.443	27951.81
686.79	27899.61
687.138	27955.88
687.485	27857.57
687.832	27944.58
688.18	27930.57
688.527	27867.52
688.874	27715.66
689.221	27626.39
689.568	27669.33
689.915	27621.87
690.262	27655.54
690.609	27492.16
690.956	27418.71
691.303	27425.49
691.65	27413.06
691.997	27362.22
692.344	27126.52
692.69	27235.22
693.037	27091.72
693.383	27145.73
693.73	27110.02
694.077	26998.16
694.423	26849.46
694.769	26787.32
695.116	26689.24
695.462	26828.9
695.808	26719.3
696.155	26674.1
696.501	26416.25
696.847	26561.56
697.193	26399.98
697.539	26484.95
697.885	26266.2
698.231	26161.57
698.577	26211.51
698.923	26100.56
699.269	26058.52
699.614	25890.39
699.96	25923.16
700.306	25932.2
700.651	25897.4
700.997	25784.41
701.342	25754.8
701.688	25720.91
702.033	25559.78
702.379	25640
702.724	25444.53
703.069	25563.4
703.415	25210.86
703.76	25197.3
704.105	25383.29
704.45	25316.4
704.795	25138.55
705.14	25044.77
705.485	25043.64
705.83	24945.11
706.175	24948.5
706.52	24894.03
706.865	24767.71
707.209	24859.69
707.554	24663.98
707.899	24682.97
708.243	24530.65
708.588	24716.64
708.932	24509.41
709.277	24408.62
709.621	24524.55
709.966	24276.88
710.31	24361.17
710.654	24165.69
710.998	24224.22
711.342	24092.02
711.687	24188.06
712.031	24116.65
712.375	24144
712.719	24124.11
713.063	23958.01
713.407	24060.84
713.75	23934.74
714.094	23979.93
714.438	23829.2
714.782	23972.93
715.125	23746.27
715.469	23831.01
715.812	23632.82
716.156	23652.49
716.499	23560.96
716.843	23666.72
717.186	23548.31
717.53	23624.92
717.873	23551.47
718.216	23558.7
718.559	23433.28
718.902	23297.24
719.246	23392.15
719.589	23319.61
719.932	23141.09
720.275	23196
720.617	23183.57
720.96	23186.73
721.303	23132.05
721.646	23134.53
721.989	23065.83
722.331	23212.27
722.674	23203.01
723.016	23093.18
723.359	23083.01
723.701	23017.47
724.044	22996.23
724.386	22935.89
724.729	23038.72
725.071	22946.52
725.413	22895.67
725.755	22922.34
726.097	22852.73
726.439	22728.67
726.782	22776.12
727.124	22865.16
727.465	22776.12
727.807	22653.87
728.149	22611.38
728.491	22632.17
728.833	22598.5
729.175	22553.76
729.516	22443.93
729.858	22535.23
730.199	22543.36
730.541	22510.37
730.882	22481.67
731.224	22539.29
731.565	22348.56
731.906	22310.15
732.248	22422.01
732.589	22289.13
732.93	22253.43
733.271	22464.27
733.612	22406.87
733.953	22455.68
734.294	22285.74
734.635	22314.22
734.976	22478.51
735.317	22114.45
735.658	22224.27
735.999	22206.65
736.339	22111.73
736.68	22298.4
737.021	22040.78
737.361	22050.04
737.702	22156.71
738.042	22076.26
738.383	22062.02
738.723	22106.99
739.063	22101.11
739.404	22152.86
739.744	22008.23
740.084	22042.13
740.424	22107.22
740.764	22016.82
741.104	22106.31
741.444	22034.45
741.784	21882.36
742.124	21965.52
742.464	22012.75
742.804	21876.03
743.143	21829.48
743.483	21934.11
743.823	21719.2
744.162	21678.07
744.502	21831.29
744.841	21747.9
745.181	21894.34
745.52	21790.84
745.86	21794
746.199	21753.55
746.538	21728.69
746.877	21789.71
747.216	21780.9
747.556	21720.33
747.895	21730.05
748.234	21742.25
748.573	21643.72
748.911	21670.39
749.25	21728.47
749.589	21573.44
749.928	21645.98
750.267	21710.62
750.605	21637.85
750.944	21628.81
751.283	21537.51
751.621	21600.79
751.96	21520.11
752.298	21429.27
752.636	21517.4
752.975	21450.06
753.313	21390.62
753.651	21459.55
753.989	21417.52
754.327	21394.47
754.666	21258.42
755.004	21340.23
755.342	21362.15
755.679	21361.92
756.017	21158.09
756.355	21242.38
756.693	21216.84
