Data from cardboard_FLMS001491_097.txt Node
Date: Tue Feb 07 11:40:26 GMT 2017
User: dcchb
Spectrometer: FLMS00149
Trigger mode: 0
Integration Time (sec): 2.000000E-2
Scans to average: 10
Electric dark correction enabled: true
Nonlinearity correction enabled: false
Boxcar width: 0
XAxis mode: Wavelengths
Number of Pixels in Spectrum: 2048
>>>>>Begin Spectral Data<<<<<
341.393	-31.54
341.776	-31.54
342.16	-31.54
342.543	-64.98
342.927	-70.41
343.31	-83.51
343.693	-65.89
344.077	-79.67
344.46	-39.67
344.843	-47.13
345.226	-30.18
345.61	-45.32
345.993	-4.87
346.376	1.23
346.759	5.52
347.142	19.53
347.525	38.74
347.908	66.54
348.291	70.38
348.674	97.5
349.057	96.82
349.44	133.43
349.823	169.13
350.206	176.14
350.588	187.66
350.971	212.07
351.354	226.99
351.737	251.17
352.119	250.49
352.502	280.54
352.884	260.43
353.267	302.69
353.65	304.95
354.032	289.58
354.414	296.36
354.797	320.77
355.179	326.64
355.562	322.8
355.944	344.5
356.326	335.01
356.709	356.93
357.091	334.55
357.473	345.85
357.855	356.02
358.238	347.43
358.62	368.68
359.002	339.98
359.384	348.11
359.766	336.59
360.148	340.65
360.53	321.45
360.912	357.38
361.294	341.11
361.676	333.42
362.057	334.1
362.439	344.27
362.821	344.95
363.203	335.91
363.584	339.07
363.966	336.14
364.348	306.31
364.729	342.46
365.111	330.26
365.493	319.19
365.874	331.39
366.256	324.16
366.637	324.84
367.019	310.83
367.4	341.11
367.781	314.44
368.163	320.54
368.544	337.04
368.925	327.32
369.306	331.39
369.688	309.24
370.069	328.9
370.45	315.34
370.831	325.97
371.212	325.74
371.593	309.24
371.974	309.02
372.355	334.78
372.736	328.45
373.117	327.55
373.498	306.08
373.879	327.55
374.26	297.72
374.641	313.54
375.021	314.44
375.402	330.71
375.783	331.62
376.163	319.19
376.544	349.69
376.925	336.81
377.305	347.43
377.686	336.81
378.066	348.79
378.447	338.4
378.827	335.23
379.208	324.61
379.588	330.94
379.968	347.43
380.349	357.38
380.729	337.72
381.109	351.95
381.489	342.24
381.87	349.24
382.25	319.19
382.63	360.32
383.01	347.43
383.39	350.82
383.77	353.08
384.15	349.92
384.53	358.73
384.91	368
385.29	355.57
385.67	348.34
386.049	361.45
386.429	360.54
386.809	358.51
387.189	386.76
387.568	394.44
387.948	378.62
388.328	366.64
388.707	386.3
389.087	363.03
389.466	353.08
389.846	393.99
390.225	353.31
390.605	389.02
390.984	387.89
391.363	401.44
391.743	377.94
392.122	391.05
392.501	379.98
392.881	401.67
393.26	388.79
393.639	363.25
394.018	374.78
394.397	394.89
394.776	410.03
395.155	402.12
395.534	401.44
395.913	405.51
396.292	408
396.671	406.19
397.05	401.9
397.429	393.53
397.808	410.03
398.186	410.48
398.565	420.65
398.944	407.09
399.323	432.86
399.701	410.26
400.08	423.82
400.458	418.62
400.837	420.65
401.215	408.45
401.594	429.01
401.972	433.53
402.351	430.14
402.729	424.72
403.107	425.17
403.486	456.81
403.864	438.28
404.242	435.34
404.62	458.39
404.999	444.61
405.377	443.93
405.755	461.56
406.133	445.06
406.511	480.09
406.889	449.35
407.267	468.11
407.645	460.43
408.023	477.83
408.401	449.8
408.779	482.12
409.156	488.67
409.534	467.88
409.912	479.63
410.29	483.93
410.667	513.53
411.045	492.52
411.422	516.47
411.8	510.37
412.178	524.38
412.555	512.85
412.933	514.66
413.31	527.99
413.687	512.63
414.065	550.14
414.442	558.28
414.819	526.19
415.197	530.71
415.574	538.84
415.951	562.57
416.328	561.89
416.705	547.66
417.082	561.89
417.46	547.88
417.837	567.32
418.214	554.89
418.591	587.88
418.967	568.67
419.344	598.28
419.721	572.29
420.098	602.57
420.475	584.26
420.852	570.93
421.228	579.29
421.605	587.65
421.982	603.25
422.358	619.52
422.735	603.92
423.111	615.22
423.488	607.99
423.864	629.23
424.241	624.49
424.617	617.48
424.994	623.13
425.37	637.6
425.746	641.89
426.123	623.59
426.499	662
426.875	643.02
427.251	659.52
427.627	678.95
428.003	680.53
428.379	681.66
428.756	696.58
429.132	716.92
429.507	696.35
429.883	683.7
430.259	707.2
430.635	727.76
431.011	721.89
431.387	739.29
431.763	741.55
432.138	734.09
432.514	751.04
432.89	751.72
433.265	782.23
433.641	785.16
434.016	757.14
434.392	771.15
434.767	788.33
435.143	784.49
435.518	812.96
435.894	804.82
436.269	817.25
436.644	839.4
437.02	811.83
437.395	846.4
437.77	873.07
438.145	854.09
438.52	854.54
438.895	850.47
439.271	864.48
439.646	894.54
440.021	896.57
440.395	880.53
440.77	885.5
441.145	906.97
441.52	940.87
441.895	900.64
442.27	930.24
442.645	901.09
443.019	938.38
443.394	940.41
443.769	947.64
444.143	923.69
444.518	954.42
444.892	941.32
445.267	954.88
445.641	951.71
446.016	970.69
446.39	985.16
446.764	989.9
447.139	977.25
447.513	1001.65
447.887	997.36
448.262	1000.3
448.636	1002.78
449.01	1020.19
449.384	1007.53
449.758	1027.19
450.132	1045.27
450.506	1053.86
450.88	1051.82
451.254	1096.34
451.628	1051.6
452.002	1070.35
452.376	1109.45
452.75	1094.31
453.123	1079.84
453.497	1139.5
453.871	1103.8
454.244	1120.07
454.618	1138.6
454.992	1142.89
455.365	1175.89
455.739	1205.26
456.112	1200.29
456.486	1194.64
456.859	1240.97
457.232	1195.77
457.606	1197.36
457.979	1228.99
458.352	1249.56
458.725	1287.52
459.099	1263.57
459.472	1308.09
459.845	1325.26
460.218	1322.55
460.591	1334.3
460.964	1347.18
461.337	1374.53
461.71	1376.56
462.083	1418.82
462.456	1431.02
462.829	1397.12
463.201	1411.36
463.574	1408.2
463.947	1480.06
464.32	1500.62
464.692	1494.07
465.065	1534.52
465.438	1520.96
465.81	1551.24
466.183	1584.46
466.555	1586.5
466.928	1590.34
467.3	1602.09
467.672	1632.37
468.045	1665.82
468.417	1656.78
468.789	1680.51
469.161	1733.61
469.534	1718.02
469.906	1732.71
470.278	1760.73
470.65	1793.5
471.022	1824.91
471.394	1868.75
471.766	1853.84
472.138	1880.05
472.51	1937.45
472.882	1961.18
473.253	1972.7
473.625	1979.26
473.997	2002.53
474.369	2040.5
474.74	2080.5
475.112	2096.09
475.484	2121.63
475.855	2190.1
476.227	2187.16
476.598	2238.23
476.97	2293.6
477.341	2284.33
477.713	2362.3
478.084	2343.31
478.455	2421.28
478.827	2469.19
479.198	2477.77
479.569	2525.23
479.94	2582.4
480.311	2586.7
480.682	2654.49
481.053	2660.59
481.424	2753.92
481.795	2765.45
482.166	2849.52
482.537	2870.53
482.908	2917.99
483.279	2977.2
483.65	3013.13
484.021	3062.84
484.391	3117.08
484.762	3151.2
485.133	3154.82
485.503	3185.1
485.874	3262.61
486.244	3319.33
486.615	3378.54
486.985	3396.39
487.356	3452.44
487.726	3564.3
488.097	3580.34
488.467	3619.89
488.837	3646.1
489.207	3729.27
489.578	3789.38
489.948	3775.59
490.318	3851.75
490.688	3857.17
491.058	3919.77
491.428	4003.38
491.798	4008.36
492.168	4123.61
492.538	4188.69
492.908	4230.27
493.278	4259.2
493.648	4225.75
494.017	4378.97
494.387	4393.66
494.757	4425.29
495.126	4498.96
495.496	4499.64
495.866	4588
496.235	4650.37
496.605	4701.67
496.974	4738.05
497.344	4769.01
497.713	4791.39
498.082	4864.83
498.452	4917.94
498.821	4959.97
499.19	4977.14
499.559	5035.67
499.928	5098.04
500.298	5104.15
500.667	5161.55
501.036	5191.37
501.405	5254.65
501.774	5231.15
502.143	5332.84
502.512	5363.35
502.88	5428.88
503.249	5432.05
503.618	5514.76
503.987	5538.48
504.356	5664.58
504.724	5729.67
505.093	5656.45
505.462	5682.89
505.83	5800.4
506.199	5808.53
506.567	5869.55
506.936	5966.5
507.304	6020.05
507.672	6075.19
508.041	6097.79
508.409	6201.97
508.777	6212.59
509.145	6267.28
509.514	6257.11
509.882	6320.38
510.25	6376.43
510.618	6496.43
510.986	6530.77
511.354	6590.89
511.722	6629.08
512.09	6686.7
512.458	6690.77
512.826	6794.72
513.193	6864.55
513.561	6869.3
513.929	6952.01
514.297	7051.44
514.664	7149.29
515.032	7173.47
515.4	7250.98
515.767	7281.26
516.135	7328.04
516.502	7313.13
516.869	7484.65
517.237	7543.86
517.604	7558.32
517.972	7657.52
518.339	7774.13
518.706	7791.76
519.073	7816.62
519.44	7860.91
519.808	7964.41
520.175	7967.35
520.542	8140.45
520.909	8222.03
521.276	8206.66
521.643	8360.56
522.009	8474
522.376	8518.07
522.743	8602.58
523.11	8643.04
523.477	8805.52
523.843	8844.61
524.21	8965.29
524.577	9045.51
524.943	9153.3
525.31	9099.29
525.676	9239.4
526.043	9339.29
526.409	9366.86
526.776	9567.08
527.142	9551.03
527.508	9653.63
527.874	9739.5
528.241	9868.99
528.607	9923.23
528.973	10011.59
529.339	10030.34
529.705	10201.86
530.071	10288.87
530.437	10358.7
530.803	10438.92
531.169	10478.02
531.535	10553.49
531.901	10566.83
532.267	10668.74
532.632	10809.31
532.998	10915.97
533.364	10995.74
533.73	10962.97
534.095	11099.24
534.461	11159.58
534.826	11180.37
535.192	11356.41
535.557	11434.15
535.923	11427.37
536.288	11549.4
536.653	11600.47
537.019	11642.73
537.384	11691.54
537.749	11811.99
538.114	11817.42
538.479	11890.18
538.845	11933.57
539.21	11926.34
539.575	12107.35
539.94	12187.8
540.305	12238.42
540.67	12271.41
541.034	12427.12
541.399	12398.64
541.764	12556.6
542.129	12581.69
542.494	12607.9
542.858	12726.54
543.223	12745.53
543.587	12929.25
543.952	12833.89
544.316	12945.75
544.681	13026.65
545.045	13031.39
545.41	13216.25
545.774	13239.07
546.138	13260.09
546.503	13367.66
546.867	13388.67
547.231	13557.26
547.595	13596.8
547.959	13581.89
548.324	13627.99
548.688	13777.36
549.052	13900.52
549.416	13937.59
549.779	14017.81
550.143	14033.63
550.507	14197.24
550.871	14217.13
551.235	14271.59
551.599	14368.53
551.962	14441.08
552.326	14538.93
552.689	14700.96
553.053	14523.56
553.417	14735.3
553.78	14843.55
554.143	14899.59
554.507	15002.64
554.87	15014.39
555.234	15233.37
555.597	15180.26
555.96	15261.39
556.323	15363.54
556.686	15400.15
557.05	15571.67
557.413	15627.26
557.776	15686.47
558.139	15777.99
558.502	15908.61
558.865	15976.18
559.228	16119.68
559.59	16200.8
559.953	16227.24
560.316	16397.18
560.679	16479.89
561.041	16552.66
561.404	16731.18
561.767	16833.33
562.129	16735.03
562.492	16994.68
562.854	16956.49
563.217	17076.49
563.579	17149.03
563.941	17299.31
564.304	17430.6
564.666	17523.48
565.028	17593.08
565.39	17711.95
565.753	17788.33
566.115	17849.8
566.477	17986.74
566.839	18011.83
567.201	18205.27
567.563	18319.39
567.925	18405.72
568.287	18396.9
568.648	18492.95
569.01	18615.65
569.372	18775.65
569.734	18749.89
570.095	18863.56
570.457	19059.48
570.819	19127.05
571.18	18997.34
571.542	19263.55
571.903	19283.43
572.265	19328.63
572.626	19417.22
572.987	19592.35
573.349	19663.54
573.71	19758.68
574.071	19905.56
574.432	19927.26
574.794	20027.82
575.155	20053.13
575.516	20079.12
575.877	20171.55
576.238	20276.18
576.599	20441.6
576.96	20443.18
577.32	20493.12
577.681	20610.86
578.042	20684.07
578.403	20740.8
578.763	20735.15
579.124	20922.03
579.485	20879.32
579.845	21097.85
580.206	21046.33
580.566	21125.87
580.927	21116.15
581.287	21192.31
581.648	21113.44
582.008	21197.73
582.368	21354.79
582.728	21304.17
583.089	21365.19
583.449	21420.55
583.809	21551.17
584.169	21508.01
584.529	21469.82
584.889	21769.02
585.249	21755.01
585.609	21544.62
585.969	21789.36
586.329	21860.77
586.688	21894.21
587.048	21903.03
587.408	21823.93
587.768	21856.47
588.127	21925.4
588.487	21887.21
588.846	22140.76
589.206	22038.39
589.565	22055.79
589.925	22216.69
590.284	22224.37
590.643	22172.62
591.003	22333.75
591.362	22434.99
591.721	22349.12
592.08	22465.04
592.44	22602.44
592.799	22427.98
593.158	22380.75
593.517	22592.73
593.876	22632.27
594.235	22566.29
594.593	22663.23
594.952	22721.08
595.311	22603.12
595.67	22736.45
596.029	22870.23
596.387	23008.76
596.746	22986.16
597.104	22891.7
597.463	22891.7
597.822	23015.09
598.18	23007.18
598.538	22968.76
598.897	23137.12
599.255	22955.88
599.613	23371.46
599.972	23196.55
600.33	23278.36
600.688	23295.98
601.046	23337.11
601.404	23388.64
601.762	23430.9
602.12	23516.09
602.478	23477.9
602.836	23707.72
603.194	23499.82
603.552	23597.22
603.91	23571.46
604.268	23815.29
604.625	23686.48
604.983	23846.93
605.341	23748.18
605.698	23858
606.056	23974.84
606.413	24000.6
606.771	23932.58
607.128	24145.68
607.485	23998.56
607.843	23975.29
608.2	24099.13
608.557	24264.77
608.914	24193.36
609.272	24364.2
609.629	24406.01
609.986	24570.75
610.343	24410.08
610.7	24632.9
611.057	24628.15
611.414	24488.04
611.771	24668.6
612.127	24756.51
612.484	24724.19
612.841	24684.42
613.198	24730.07
613.554	24731.88
613.911	24973
614.267	25008.03
614.624	24949.95
614.98	24955.83
615.337	25092.55
615.693	25093.9
616.05	25149.27
616.406	25371.18
616.762	25234.46
617.118	25213.67
617.475	25283.28
617.831	25318.3
618.187	25388.58
618.543	25454.34
618.899	25641.01
619.255	25544.51
619.611	25562.82
619.967	25659.09
620.323	25788.12
620.678	25702.93
621.034	25598.3
621.39	25636.03
621.746	25638.97
622.101	26026.99
622.457	25798.97
622.812	25874.67
623.168	25895.92
623.523	25972.07
623.879	26003.03
624.234	25782.25
624.589	25999.42
624.945	26090.03
625.3	26025.4
625.655	26072.41
626.01	25996.7
626.365	26049.81
626.72	26079.41
627.075	26055.01
627.43	26037.38
627.785	26033.76
628.14	26087.1
628.495	26132.29
628.85	26117.6
629.205	26062.01
629.559	26271.27
629.914	26156.93
630.269	26141.56
630.623	26002.35
630.978	26011.62
631.332	26103.37
631.687	26343.81
632.041	26147.89
632.396	26159.19
632.75	26124.84
633.104	26143.14
633.459	26129.81
633.813	26072.41
634.167	26082.58
634.521	26093.65
634.875	26145.4
635.229	26024.5
635.583	26090.71
635.937	25974.11
636.291	25967.33
636.645	26068.79
636.999	26052.52
637.352	26129.36
637.706	25985.4
638.06	26088.9
638.413	25951.05
638.767	25866.76
639.121	25859.08
639.474	25800.78
639.828	25922.81
640.181	25840.55
640.534	25912.86
640.888	25873.09
641.241	25768.46
641.594	25890.94
641.947	26006.65
642.301	25843.94
642.654	25841.45
643.007	25953.09
643.36	25809.82
643.713	25780.21
644.066	25946.31
644.419	25771.4
644.771	25578.86
645.124	25347.45
645.477	25383.61
645.83	25197.85
646.182	25186.1
646.535	25036.5
646.888	25179.32
647.24	24990.85
647.593	25216.61
647.945	25081.93
648.298	25083.73
648.65	25082.83
649.002	24988.14
649.355	25062.26
649.707	25110.63
650.059	25134.35
650.411	25494.34
650.763	25571.18
651.115	25802.58
651.467	25651.18
651.819	25717.39
652.171	25630.16
652.523	25601.46
652.875	25633.32
653.227	25458.86
653.578	25638.29
653.93	25531.18
654.282	25516.72
654.633	25548.35
654.985	25570.05
655.337	25549.03
655.688	25636.26
656.039	25707.22
656.391	25320.56
656.742	25505.64
657.094	25558.52
657.445	25512.42
657.796	25657.96
658.147	25600.78
658.498	25561.46
658.849	25577.05
659.2	25462.48
659.551	25451.41
659.902	25582.93
660.253	25541.57
660.604	25553.78
660.955	25355.36
661.306	25603.72
661.656	25566.88
662.007	25573.21
662.358	25601.69
662.708	25533.44
663.059	25552.2
663.409	25416.61
663.76	25695.92
664.11	25721.68
664.461	25671.29
664.811	25606.21
665.161	25713.1
665.511	25591.74
665.862	25558.97
666.212	25792.19
666.562	25680.33
666.912	25683.49
667.262	25600.56
667.612	25685.75
667.962	25688.91
668.312	25563.04
668.662	25694.56
669.011	25611.4
669.361	25604.4
669.711	25488.69
670.06	25536.38
670.41	25611.18
670.76	25583.38
671.109	25611.4
671.459	25594.68
671.808	25514
672.157	25701.34
672.507	25528.24
672.856	25477.4
673.205	25608.01
673.554	25560.33
673.904	25548.35
674.253	25595.36
674.602	25503.84
674.951	25215.26
675.3	25169.61
675.649	25493.67
675.998	25514.46
676.346	25465.87
676.695	25621.8
677.044	25340.22
677.393	25513.78
677.741	25457.51
678.09	25462.93
678.438	25417.06
678.787	25464.29
679.135	25492.99
679.484	25309.49
679.832	25393.78
680.181	25333.67
680.529	25356.72
680.877	25275.59
681.225	25266.33
681.573	25360.79
681.922	25207.12
682.27	25204.86
682.618	25281.69
682.966	25115.82
683.314	25221.81
683.661	25092.77
684.009	25071.76
684.357	24964.19
684.705	25015.71
685.053	25039.89
685.4	24941.14
685.748	24871.99
686.095	24872.67
686.443	24757.87
686.79	24798.32
687.138	24747.02
687.485	24819.33
687.832	24669.05
688.18	24712.9
688.527	24624.31
688.874	24535.95
689.221	24508.38
689.568	24474.71
689.915	24492.11
690.262	24578.44
690.609	24419.34
690.956	24334.15
691.303	24325.33
691.65	24170.99
691.997	24240.37
692.344	24155.62
692.69	24099.58
693.037	24163.98
693.383	23942.97
693.73	23972.35
694.077	23800.83
694.423	23878.79
694.769	23804.22
695.116	23853.93
695.462	23749.53
695.808	23672.02
696.155	23696.42
696.501	23424.34
696.847	23610.55
697.193	23366.26
697.539	23421.86
697.885	23303.44
698.231	23312.25
698.577	23223.22
698.923	23312.48
699.269	23175.31
699.614	23125.59
699.96	23084.92
700.306	23193.61
700.651	22967.63
700.997	22974.18
701.342	22929.44
701.688	22826.84
702.033	22851.48
702.379	22845.15
702.724	22664.59
703.069	22719.05
703.415	22489.68
703.76	22441.77
704.105	22528.55
704.45	22545.04
704.795	22399.74
705.14	22331.49
705.485	22262.79
705.83	22212.62
706.175	22140.31
706.52	22141.44
706.865	22076.81
707.209	22041.55
707.554	21989.35
707.899	21909.81
708.243	21883.59
708.588	21904.61
708.932	21748.91
709.277	21842.46
709.621	21865.96
709.966	21647.21
710.31	21785.74
710.654	21550.72
710.998	21629.13
711.342	21647.89
711.687	21553.2
712.031	21447.44
712.375	21364.51
712.719	21469.36
713.063	21443.38
713.407	21523.15
713.75	21433.66
714.094	21395.92
714.438	21245.87
714.782	21303.72
715.125	21236.83
715.469	21221.46
715.812	21212.42
716.156	21128.36
716.499	21173.33
716.843	21146.21
717.186	21027.57
717.53	21146.21
717.873	21076.38
718.216	21074.12
718.559	20919.32
718.902	20843.84
719.246	20869.38
719.589	20795.03
719.932	20619.67
720.275	20766.78
720.617	20759.33
720.96	20692.89
721.303	20688.37
721.646	20742.15
721.989	20581.48
722.331	20748.71
722.674	20587.58
723.016	20603.85
723.359	20563.63
723.701	20596.62
724.044	20453.57
724.386	20421.48
724.729	20562.72
725.071	20424.42
725.413	20473.91
725.755	20407.25
726.097	20447.02
726.439	20257.87
726.782	20320.47
727.124	20413.12
727.465	20202.51
727.807	20233.69
728.149	20264.88
728.491	20211.54
728.833	20233.01
729.175	20198.44
729.516	20215.39
729.858	20095.62
730.199	20205.67
730.541	20230.3
730.882	20084.32
731.224	20164.99
731.565	20045.45
731.906	20078.89
732.248	20075.96
732.589	20031.44
732.93	19907.82
733.271	19934.94
733.612	19972.91
733.953	20037.09
734.294	19827.83
734.635	19849.97
734.976	19946.92
735.317	19890.65
735.658	19875.73
735.999	19862.18
736.339	19750.77
736.68	19951.21
737.021	19833.93
737.361	19766.81
737.702	19753.7
738.042	19788.51
738.383	19831.44
738.723	19726.13
739.063	19680.94
739.404	19764.55
739.744	19701.28
740.084	19699.02
740.424	19597.1
740.764	19619.92
741.104	19720.48
741.444	19590.54
741.784	19462.64
742.124	19558.45
742.464	19646.36
742.804	19533.14
743.143	19552.13
743.483	19520.72
743.823	19589.41
744.162	19537.21
744.502	19552.81
744.841	19447.95
745.181	19540.83
745.52	19471
745.86	19493.82
746.199	19402.53
746.538	19410.21
746.877	19404.33
747.216	19478.46
747.556	19483.88
747.895	19437.55
748.234	19250.21
748.573	19322.3
748.911	19346.26
749.25	19323.88
749.589	19264.9
749.928	19369.31
750.267	19388.52
750.605	19304.45
750.944	19214.06
751.283	19222.87
751.621	19212.7
751.96	19169.31
752.298	19119.14
752.636	19100.16
752.975	19057.68
753.313	19021.29
753.651	19201.85
753.989	19061.52
754.327	19062.65
754.666	18951.01
755.004	18980.39
755.342	19023.1
755.679	19022.88
756.017	18889.77
756.355	18921.64
756.693	18890.9
757.031	18837.12
757.368	18805.93
