Data from cardboard_FLMS001491_016.txt Node
Date: Tue Feb 07 11:39:01 GMT 2017
User: dcchb
Spectrometer: FLMS00149
Trigger mode: 0
Integration Time (sec): 2.000000E-2
Scans to average: 10
Electric dark correction enabled: true
Nonlinearity correction enabled: false
Boxcar width: 0
XAxis mode: Wavelengths
Number of Pixels in Spectrum: 2048
>>>>>Begin Spectral Data<<<<<
341.393	-8.38
341.776	-8.38
342.16	-8.38
342.543	-26.68
342.927	-55.61
343.31	-78.66
343.693	-76.62
344.077	-81.82
344.46	-55.61
344.843	-53.12
345.226	-44.98
345.61	-42.72
345.993	-4.31
346.376	2.02
346.759	20.78
347.142	41.11
347.525	18.97
347.908	57.39
348.291	86.99
348.674	90.83
349.057	119.76
349.44	133.54
349.823	125.86
350.206	163.82
350.588	178.29
350.971	207.66
351.354	209.02
351.737	233.43
352.119	248.79
352.502	246.76
352.884	263.03
353.267	271.17
353.65	294.89
354.032	308.9
354.414	284.72
354.797	315.91
355.179	325.63
355.562	322.01
355.944	319.3
356.326	323.14
356.709	356.36
357.091	336.7
357.473	352.97
357.855	329.92
358.238	349.13
358.62	342.8
359.002	346.64
359.384	333.54
359.766	327.21
360.148	341.67
360.53	348.9
360.912	323.37
361.294	342.35
361.676	336.47
362.057	336.02
362.439	331.5
362.821	338.51
363.203	314.78
363.584	320.43
363.966	312.07
364.348	318.4
364.729	324.27
365.111	329.02
365.493	298.51
365.874	329.92
366.256	333.31
366.637	317.49
367.019	318.4
367.4	316.36
367.781	320.2
368.163	317.04
368.544	332.63
368.925	304.16
369.306	307.1
369.688	304.84
370.069	309.81
370.45	292.86
370.831	317.72
371.212	318.85
371.593	325.4
371.974	309.36
372.355	315.23
372.736	310.03
373.117	308
373.498	313.88
373.879	325.85
374.26	318.4
374.641	325.18
375.021	295.57
375.402	319.3
375.783	339.64
376.163	323.59
376.544	319.07
376.925	296.02
377.305	314.33
377.686	330.37
378.066	322.92
378.447	331.5
378.827	336.02
379.208	346.42
379.588	324.95
379.968	334.44
380.349	336.93
380.729	338.51
381.109	328.56
381.489	359.3
381.87	346.19
382.25	348.45
382.63	351.62
383.01	363.37
383.39	356.13
383.77	346.64
384.15	356.13
384.53	343.93
384.91	336.47
385.29	334.21
385.67	340.99
386.049	370.15
386.429	334.21
386.809	343.93
387.189	360.43
387.568	335.34
387.948	354.55
388.328	366.3
388.707	361.56
389.087	369.24
389.466	357.94
389.846	369.02
390.225	373.31
390.605	386.87
390.984	364.27
391.363	370.6
391.743	377.38
392.122	380.54
392.501	385.96
392.881	380.54
393.26	381.67
393.639	375.8
394.018	393.87
394.397	379.86
394.776	385.51
395.155	393.87
395.534	380.77
395.913	390.26
396.292	386.19
396.671	384.61
397.05	384.61
397.429	396.59
397.808	388
398.186	398.85
398.565	385.96
398.944	421.67
399.323	383.48
399.701	408.11
400.08	390.03
400.458	417.15
400.837	405.85
401.215	430.71
401.594	420.54
401.972	402.46
402.351	422.35
402.729	418.05
403.107	429.13
403.486	423.03
403.864	434.32
404.242	416.47
404.62	438.84
404.999	436.81
405.377	428.22
405.755	439.3
406.133	439.97
406.511	444.04
406.889	455.79
407.267	447.21
407.645	455.12
408.023	436.13
408.401	446.98
408.779	463.93
409.156	446.53
409.534	462.35
409.912	482.01
410.29	464.83
410.667	487.43
411.045	475.68
411.422	500.31
411.8	494.66
412.178	485.85
412.555	480.43
412.933	495.34
413.31	504.15
413.687	500.76
414.065	505.74
414.442	501.67
414.819	527.43
415.197	480.2
415.574	514.77
415.951	547.09
416.328	547.09
416.705	531.72
417.082	530.37
417.46	528.33
417.837	540.99
418.214	539.18
418.591	543.47
418.967	550.25
419.344	567.65
419.721	563.36
420.098	543.7
420.475	555.68
420.852	567.2
421.228	551.16
421.605	588.67
421.982	605.62
422.358	582.57
422.735	573.76
423.111	580.31
423.488	603.59
423.864	607.43
424.241	623.02
424.617	613.76
424.994	621.66
425.37	617.82
425.746	629.35
426.123	635.68
426.499	628.44
426.875	639.74
427.251	630.7
427.627	647.2
428.003	640.42
428.379	673.64
428.756	669.12
429.132	661.44
429.507	682.68
429.883	700.98
430.259	655.34
430.635	682.23
431.011	714.54
431.387	706.41
431.763	707.99
432.138	734.2
432.514	721.55
432.89	751.83
433.265	734.2
433.641	726.52
434.016	725.16
434.392	748.89
434.767	754.54
435.143	751.6
435.518	797.25
435.894	765.84
436.269	773.52
436.644	777.37
437.02	783.47
437.395	784.82
437.77	824.37
438.145	822.79
438.52	815.11
438.895	820.76
439.271	832.05
439.646	837.93
440.021	841.55
440.395	859.85
440.77	822.34
441.145	876.35
441.52	858.27
441.895	874.54
442.27	862.79
442.645	860.75
443.019	859.62
443.394	874.31
443.769	890.81
444.143	912.05
444.518	908.21
444.892	902.11
445.267	917.48
445.641	930.58
446.016	923.35
446.39	942.33
446.764	931.94
447.139	923.8
447.513	949.79
447.887	963.8
448.262	956.8
448.636	969.68
449.01	979.17
449.384	971.26
449.758	987.3
450.132	1000.86
450.506	1018.72
450.88	989.56
451.254	995.21
451.628	999.51
452.002	1032.5
452.376	1019.17
452.75	1024.14
453.123	1074.31
453.497	1086.51
453.871	1092.61
454.244	1052.61
454.618	1080.18
454.992	1095.1
455.365	1075.66
455.739	1147.3
456.112	1142.33
456.486	1143.46
456.859	1123.57
457.232	1160.18
457.606	1190.92
457.979	1162.44
458.352	1197.69
458.725	1224.81
459.099	1231.59
459.472	1234.08
459.845	1231.82
460.218	1269.11
460.591	1261.87
460.964	1252.61
461.337	1304.58
461.71	1328.31
462.083	1323.57
462.456	1350.91
462.829	1343.23
463.201	1378.71
463.574	1369.89
463.947	1414.86
464.32	1423
464.692	1443.11
465.065	1417.12
465.438	1443.79
465.81	1474.3
466.183	1495.54
466.555	1524.01
466.928	1501.87
467.3	1511.36
467.672	1564.01
468.045	1568.53
468.417	1580.96
468.789	1583
469.161	1608.53
469.534	1639.04
469.906	1677.23
470.278	1664.12
470.65	1700.05
471.022	1741.41
471.394	1748.19
471.766	1753.16
472.138	1771.46
472.51	1783.89
472.882	1817.79
473.253	1841.75
473.625	1876.09
473.997	1902.76
474.369	1931.01
474.74	1943.21
475.112	1974.17
475.484	2035.19
475.855	2014.62
476.227	2059.37
476.598	2159.03
476.97	2157.22
477.341	2185.47
477.713	2223.88
478.084	2233.83
478.455	2305.46
478.827	2319.47
479.198	2380.94
479.569	2375.06
479.94	2452.58
480.311	2464.33
480.682	2538.68
481.053	2584.32
481.424	2608.5
481.795	2646.7
482.166	2648.05
482.537	2692.57
482.908	2729.63
483.279	2798.1
483.65	2823.64
484.021	2906.58
484.391	2890.98
484.762	2965.33
485.133	2979.57
485.503	2985.22
485.874	3060.47
486.244	3122.84
486.615	3212.78
486.985	3260.24
487.356	3284.19
487.726	3357.64
488.097	3419.78
488.467	3377.3
488.837	3484.19
489.207	3502.49
489.578	3578.2
489.948	3612.55
490.318	3649.16
490.688	3664.52
491.058	3708.14
491.428	3776.16
491.798	3864.74
492.168	3909.26
492.538	3968.47
492.908	3991.52
493.278	4001.91
493.648	4052.53
494.017	4118.07
494.387	4156.26
494.757	4172.31
495.126	4243.49
495.496	4304.05
495.866	4293.43
496.235	4352.87
496.605	4432.41
496.974	4437.84
497.344	4494.78
497.713	4498.17
498.082	4552.63
498.452	4599.41
498.821	4664.27
499.19	4682.12
499.559	4749.69
499.928	4763.7
500.298	4785.85
500.667	4833.53
501.036	4889.12
501.405	4941.32
501.774	4975.22
502.143	5032.17
502.512	5039.63
502.88	5064.71
503.249	5106.52
503.618	5174.99
503.987	5287.53
504.356	5269.45
504.724	5300.19
505.093	5310.81
505.462	5414.53
505.83	5458.6
506.199	5496.34
506.567	5521.42
506.936	5583.34
507.304	5691.36
507.672	5685.49
508.041	5748.54
508.409	5799.38
508.777	5821.98
509.145	5859.04
509.514	5911.69
509.882	5992.37
510.25	6019.04
510.618	6114.4
510.986	6078.92
511.354	6241.4
511.722	6249.99
512.09	6357.78
512.458	6333.6
512.826	6416.99
513.193	6418.12
513.561	6466.26
513.929	6566.82
514.297	6616.99
514.664	6727.27
515.032	6734.72
515.4	6786.93
515.767	6853.14
516.135	6948.73
516.502	6860.37
516.869	7055.17
517.237	7080.7
517.604	7101.04
517.972	7177.65
518.339	7315.95
518.706	7339.23
519.073	7402.05
519.44	7451.99
519.808	7509.39
520.175	7540.58
520.542	7696.05
520.909	7708.94
521.276	7802.49
521.643	7895.6
522.009	7928.14
522.376	8035.03
522.743	8062.82
523.11	8215.59
523.477	8237.96
523.843	8345.3
524.21	8395.47
524.577	8526.99
524.943	8587.78
525.31	8675.46
525.676	8722.24
526.043	8813.31
526.409	8922.92
526.776	8983.25
527.142	9056.24
527.508	9162.68
527.874	9235.68
528.241	9284.49
528.607	9361.1
528.973	9437.7
529.339	9496.46
529.705	9620.75
530.071	9706.4
530.437	9744.14
530.803	9824.36
531.169	9888.99
531.535	9895.32
531.901	10012.83
532.267	10091.92
532.632	10138.7
532.998	10229.55
533.364	10312.26
533.73	10344.12
534.095	10431.35
534.461	10487.62
534.826	10595.19
535.192	10626.37
535.557	10752.92
535.923	10811.68
536.288	10866.59
536.653	10997.66
537.019	10951.11
537.384	11079.02
537.749	11069.3
538.114	11193.14
538.479	11216.41
538.845	11284.43
539.21	11308.62
539.575	11435.39
539.94	11524.2
540.305	11547.7
540.67	11630.19
541.034	11700.7
541.399	11762.16
541.764	11830.86
542.129	11920.8
542.494	11983.4
542.858	11983.17
543.223	12105.66
543.587	12187.69
543.952	12148.37
544.316	12237.18
544.681	12278.76
545.045	12336.61
545.41	12504.97
545.774	12515.59
546.138	12537.28
546.503	12639.2
546.867	12695.25
547.231	12817.05
547.595	12844.17
547.959	12935.92
548.324	13020.21
548.688	12989.02
549.052	13046.65
549.416	13141.11
549.779	13214.55
550.143	13333.42
550.507	13415.45
550.871	13481.67
551.235	13455.45
551.599	13577.03
551.962	13690.25
552.326	13693.64
552.689	13815.89
553.053	13803.69
553.417	13861.09
553.78	14069.67
554.143	14080.97
554.507	14151.93
554.87	14202.32
555.234	14371.59
555.597	14452.26
555.96	14422.43
556.323	14542.65
556.686	14637.57
557.05	14755.76
557.413	14753.27
557.776	14828.07
558.139	14997.78
558.502	15115.97
558.865	15050.89
559.228	15248.4
559.59	15308.74
559.953	15335.4
560.316	15628.05
560.679	15564.1
561.041	15710.31
561.404	15705.11
561.767	15865.11
562.129	15852
562.492	16054.48
562.854	16111.88
563.217	16139.22
563.579	16193.23
563.941	16369.72
564.304	16453.11
564.666	16627.35
565.028	16641.13
565.39	16680.68
565.753	16851.75
566.115	16977.84
566.477	17023.04
566.839	17156.14
567.201	17292.86
567.563	17271.62
567.925	17447.44
568.287	17409.7
568.648	17523.14
569.01	17592.07
569.372	17738.05
569.734	17764.04
570.095	17883.58
570.457	17906.41
570.819	17993.19
571.18	18053.07
571.542	18187.98
571.903	18281.31
572.265	18455.77
572.626	18420.97
572.987	18576.9
573.349	18601.76
573.71	18685.82
574.071	18757.91
574.432	18840.85
574.794	18918.13
575.155	19066.15
575.516	18947.28
575.877	19140.5
576.238	19207.84
576.599	19257.56
576.96	19326.48
577.32	19345.24
577.681	19453.49
578.042	19609.41
578.403	19560.83
578.763	19697.1
579.124	19789.75
579.485	19717.89
579.845	19848.28
580.206	19736.87
580.566	19985.68
580.927	19972.34
581.287	20117.87
581.648	19978.67
582.008	20134.82
582.368	20180.7
582.728	20086.24
583.089	20178.89
583.449	20302.05
583.809	20254.82
584.169	20447.58
584.529	20408.71
584.889	20539.33
585.249	20488.94
585.609	20511.31
585.969	20581.59
586.329	20574.36
586.688	20684.64
587.048	20670.18
587.408	20600.8
587.768	20658.2
588.127	20672.89
588.487	20692.55
588.846	20887.8
589.206	20800.34
589.565	20770.29
589.925	20949.27
590.284	21023.61
590.643	21074.69
591.003	21072.2
591.362	21127.79
591.721	21187.68
592.08	21232.65
592.44	21258.18
592.799	21238.07
593.158	21141.8
593.517	21209.82
593.876	21251.18
594.235	21468.35
594.593	21413.89
594.952	21527.56
595.311	21340.22
595.67	21404.39
596.029	21610.27
596.387	21562.81
596.746	21739.08
597.104	21661.34
597.463	21669.92
597.822	21691.62
598.18	21615.69
598.538	21730.26
598.897	21811.84
599.255	21764.16
599.613	22043.7
599.972	21972.29
600.33	21935.45
600.688	21892.97
601.046	22012.51
601.404	22178.39
601.762	22124.15
602.12	22189.91
602.478	22202.57
602.836	22193.53
603.194	22310.59
603.552	22318.95
603.91	22214.99
604.268	22281.66
604.625	22379.28
604.983	22389.91
605.341	22337.93
605.698	22415.67
606.056	22498.38
606.413	22483.69
606.771	22628.54
607.128	22748.54
607.485	22528.43
607.843	22632.61
608.2	22826.5
608.557	22961.42
608.914	22711.25
609.272	22887.75
609.629	22944.69
609.986	23152.15
610.343	22993.05
610.7	23083.9
611.057	23051.58
611.414	23122.32
611.771	23192.82
612.127	23297
612.484	23374.96
612.841	23396.88
613.198	23323.44
613.554	23325.7
613.911	23511.23
614.267	23559.37
614.624	23481.85
614.98	23530.44
615.337	23708.29
615.693	23630.55
616.05	23694.5
616.406	23866.48
616.762	23783.77
617.118	23730.66
617.475	23754.39
617.831	23954.38
618.187	23946.02
618.543	23943.31
618.899	24133.81
619.255	24096.98
619.611	24058.11
619.967	24082.97
620.323	24204.1
620.678	24168.62
621.034	24177.2
621.39	24180.14
621.746	24086.13
622.101	24453.58
622.457	24299.23
622.812	24301.04
623.168	24381.94
623.523	24459.91
623.879	24421.49
624.234	24364.09
624.589	24523.63
624.945	24361.83
625.3	24487.03
625.655	24433.02
626.01	24463.3
626.365	24562.05
626.72	24500.58
627.075	24515.5
627.43	24642.95
627.785	24509.85
628.14	24558.44
628.495	24571.32
628.85	24470.08
629.205	24487.48
629.559	24591.66
629.914	24592.11
630.269	24606.57
630.623	24478.66
630.978	24388.27
631.332	24589.85
631.687	24715.49
632.041	24582.16
632.396	24715.27
632.75	24482.96
633.104	24583.29
633.459	24482.73
633.813	24549.17
634.167	24572.45
634.521	24464.65
634.875	24651.32
635.229	24426.01
635.583	24412.68
635.937	24619
636.291	24444.77
636.645	24467.59
636.999	24337.43
637.352	24412.9
637.706	24349.18
638.06	24503.52
638.413	24427.82
638.767	24312.57
639.121	24416.97
639.474	24323.41
639.828	24318.44
640.181	24375.16
640.534	24512.11
640.888	24306.47
641.241	24193.02
641.594	24272.12
641.947	24312.11
642.301	24309.4
642.654	24250.2
643.007	24315.28
643.36	24307.6
643.713	24182.63
644.066	24356.18
644.419	24185.79
644.771	24122.29
645.124	23837.78
645.477	23774.73
645.83	23709.87
646.182	23590.33
646.535	23651.79
646.888	23648.4
647.24	23458.35
647.593	23609.76
647.945	23544
648.298	23474.4
648.65	23503.32
649.002	23411.35
649.355	23568.63
649.707	23454.96
650.059	23638.01
650.411	23872.58
650.763	23833.03
651.115	24175.62
651.467	24088.62
651.819	24140.14
652.171	24072.8
652.523	24012.24
652.875	24081.16
653.227	24016.76
653.578	24092.69
653.93	24031.22
654.282	23929.3
654.633	24046.81
654.985	24107.83
655.337	24106.92
655.688	24053.59
656.039	24080.03
656.391	23933.59
656.742	24031.67
657.094	23945.8
657.445	24071.22
657.796	24083.65
658.147	23947.6
658.498	23943.09
658.849	24097.66
659.2	23969.98
659.551	23953.48
659.902	24144.66
660.253	24087.94
660.604	24056.08
660.955	24000.71
661.306	24010.65
661.656	24019.47
662.007	24039.81
662.358	23997.77
662.708	23999.13
663.059	24026.02
663.409	23896.31
663.76	24089.52
664.11	24131.1
664.461	24114.38
664.811	24086.58
665.161	24028.05
665.511	24025.12
665.862	24092.91
666.212	24195.28
666.562	24185.11
666.912	24177.2
667.262	24122.74
667.612	24098.79
667.962	24162.97
668.312	24127.71
668.662	24158.22
669.011	24247.94
669.361	24062.63
669.711	24120.71
670.06	24119.8
670.41	24105.57
670.76	24092.23
671.109	24075.96
671.459	24152.12
671.808	24041.61
672.157	24237.31
672.507	23914.16
672.856	24010.2
673.205	24164.55
673.554	24106.92
673.904	24008.39
674.253	24214.94
674.602	24020.82
674.951	23845.91
675.3	23690.66
675.649	24109.86
675.998	24098.34
676.346	24087.71
676.695	24102.4
677.044	23833.48
677.393	23977.66
677.741	23976.53
678.09	24052.69
678.438	23894.5
678.787	24080.71
679.135	24031.9
679.484	23794.61
679.832	23965.91
680.181	23820.6
680.529	23954.84
680.877	23804.11
681.225	23831.45
681.573	24017.89
681.922	23762.3
682.27	23753.71
682.618	23780.83
682.966	23563.66
683.314	23857.44
683.661	23718.91
684.009	23605.01
684.357	23585.58
684.705	23578.57
685.053	23535.41
685.4	23546.26
685.748	23454.28
686.095	23454.74
686.443	23359.15
686.79	23348.52
687.138	23301.07
687.485	23345.36
687.832	23230.79
688.18	23380.84
688.527	23256.32
688.874	23271.24
689.221	23092.49
689.568	23192.82
689.915	23079.61
690.262	23018.82
690.609	23041.41
690.956	22912.15
691.303	22964.35
691.65	22763.91
691.997	22879.61
692.344	22799.16
692.69	22762.78
693.037	22737.02
693.383	22584.7
693.73	22640.07
694.077	22471.71
694.423	22514.2
694.769	22429.68
695.116	22407.76
695.462	22439.4
695.808	22302
696.155	22304.48
696.501	22339.06
696.847	22188.33
697.193	22054.77
697.539	22169.8
697.885	21939.75
698.231	21904.49
698.577	21949.01
698.923	21941.33
699.269	21873.76
699.614	21674.9
699.96	21668.34
700.306	21709.02
700.651	21672.86
700.997	21554
701.342	21602.81
701.688	21578.63
702.033	21473.77
702.379	21513.32
702.724	21305.41
703.069	21336.15
703.415	21102.93
703.76	21182.93
704.105	21169.6
704.45	21192.87
704.795	20980.9
705.14	21039.21
705.485	20942.26
705.83	20875.6
706.175	20909.49
706.52	20896.84
706.865	20870.85
707.209	20888.25
707.554	20675.15
707.899	20750.4
708.243	20655.49
708.588	20618.65
708.932	20416.62
709.277	20536.62
709.621	20560.12
709.966	20455.49
710.31	20439.45
710.654	20283.52
710.998	20354.7
711.342	20435.15
711.687	20285.78
712.031	20147.25
712.375	20128.72
712.719	20166.46
713.063	20217.99
713.407	20248.04
713.75	20043.3
714.094	20149.74
714.438	19975.73
714.782	20079.91
715.125	19969.86
715.469	19982.96
715.812	19884.66
716.156	19850.76
716.499	19904.77
716.843	19945.68
717.186	19837.43
717.53	19806.02
717.873	19902.74
718.216	19751.33
718.559	19677.66
718.902	19520.6
719.246	19653.71
719.589	19556.53
719.932	19628.85
720.275	19491.9
720.617	19485.8
720.96	19519.92
721.303	19462.3
721.646	19460.72
721.989	19378.69
722.331	19519.02
722.674	19391.57
723.016	19446.25
723.359	19398.8
723.701	19438.8
724.044	19283.09
724.386	19176.43
724.729	19274.73
725.071	19224.11
725.413	19221.18
725.755	19299.59
726.097	19124
726.439	19062.31
726.782	19094.63
727.124	19277.22
727.465	19031.58
727.807	19041.29
728.149	19074.51
728.491	18964.01
728.833	19130.1
729.175	19040.62
729.516	19051.46
729.858	18985.02
730.199	19067.06
730.541	18994.06
730.882	18920.17
731.224	18963.33
731.565	18898.92
731.906	18793.16
732.248	18865.93
732.589	18714.75
732.93	18775.99
733.271	18835.2
733.612	18870.68
733.953	18901.86
734.294	18780.28
734.635	18736.22
734.976	18817.12
735.317	18706.84
735.658	18646.05
735.999	18617.58
736.339	18660.06
736.68	18692.38
737.021	18622.55
737.361	18631.81
737.702	18620.74
738.042	18627.29
738.383	18608.08
738.723	18648.76
739.063	18587.29
739.404	18582.1
739.744	18535.32
740.084	18495.54
740.424	18559.5
740.764	18479.05
741.104	18627.74
741.444	18463
741.784	18377.58
742.124	18487.41
742.464	18358.15
742.804	18339.16
743.143	18431.82
743.483	18394.3
743.823	18341.42
744.162	18366.73
744.502	18460.97
744.841	18326.51
745.181	18398.37
745.52	18366.28
745.86	18274.08
746.199	18317.24
746.538	18350.46
746.877	18377.58
747.216	18431.14
747.556	18318.15
747.895	18409.45
748.234	18185.04
748.573	18152.5
748.911	18191.82
749.25	18225.72
749.589	18244.7
749.928	18211.03
750.267	18257.13
750.605	18115.22
750.944	18122.45
751.283	18112.5
751.621	18190.24
751.96	18006.52
752.298	18018.95
752.636	18095.78
752.975	18043.58
753.313	17954.32
753.651	18049.45
753.989	17997.25
754.327	17935.79
754.666	17900.08
755.004	17967.2
755.342	17912.96
755.679	17992.51
756.017	17860.08
756.355	17902.11
756.693	17786.64
757.031	17880.65
757.368	17695.57
757.706	17693.76
758.044	17772.85
758.381	17727.88
