Data from cardboard_FLMS001491_077.txt Node
Date: Tue Feb 07 11:40:07 GMT 2017
User: dcchb
Spectrometer: FLMS00149
Trigger mode: 0
Integration Time (sec): 2.000000E-2
Scans to average: 10
Electric dark correction enabled: true
Nonlinearity correction enabled: false
Boxcar width: 0
XAxis mode: Wavelengths
Number of Pixels in Spectrum: 2048
>>>>>Begin Spectral Data<<<<<
341.393	-27.65
341.776	-27.65
342.16	-27.65
342.543	-54.32
342.927	-73.08
343.31	-75.11
343.693	-73.3
344.077	-55
344.46	-62.46
344.843	-47.54
345.226	-45.73
345.61	-27.88
345.993	-7.99
346.376	-5.96
346.759	6.24
347.142	13.7
347.525	40.14
347.908	69.29
348.291	62.96
348.674	94.6
349.057	114.04
349.44	126.24
349.823	157.2
350.206	174.37
350.588	191.77
350.971	196.29
351.354	212.57
351.737	244.88
352.119	237.88
352.502	241.49
352.884	272.22
353.267	282.62
353.65	298.21
354.032	295.5
354.414	314.94
354.797	300.7
355.179	311.32
355.562	324.2
355.944	330.53
356.326	332.11
356.709	337.31
357.091	338.44
357.473	334.14
357.855	339.57
358.238	346.57
358.62	319.91
359.002	317.87
359.384	331.21
359.766	307.7
360.148	305.9
360.53	337.31
360.912	324.65
361.294	333.01
361.676	351.77
362.057	324.88
362.439	324.88
362.821	316.74
363.203	329.4
363.584	310.64
363.966	304.99
364.348	327.36
364.729	334.6
365.111	305.67
365.493	318.1
365.874	308.61
366.256	306.57
366.637	290.3
367.019	309.06
367.4	312.9
367.781	320.58
368.163	312.45
368.544	318.1
368.925	310.87
369.306	319.45
369.688	317.42
370.069	307.48
370.45	295.05
370.831	314.26
371.212	317.65
371.593	316.07
371.974	290.53
372.355	309.74
372.736	299.57
373.117	314.71
373.498	290.98
373.879	316.74
374.26	312.68
374.641	299.34
375.021	319.91
375.402	312.45
375.783	323.3
376.163	324.65
376.544	317.2
376.925	337.08
377.305	312.68
377.686	320.36
378.066	334.37
378.447	309.96
378.827	326.01
379.208	323.3
379.588	309.51
379.968	333.01
380.349	337.08
380.729	328.95
381.109	324.43
381.489	298.66
381.87	323.07
382.25	330.53
382.63	333.92
383.01	346.57
383.39	340.47
383.77	330.75
384.15	335.5
384.53	342.05
384.91	314.03
385.29	339.34
385.67	344.76
386.049	333.24
386.429	358.1
386.809	349.51
387.189	366.46
387.568	344.76
387.948	348.61
388.328	350.64
388.707	363.75
389.087	359.45
389.466	387.48
389.846	343.64
390.225	365.78
390.605	347.93
390.984	357.19
391.363	367.59
391.743	344.54
392.122	371.2
392.501	372.79
392.881	383.63
393.26	372.11
393.639	384.99
394.018	356.74
394.397	369.17
394.776	395.39
395.155	380.92
395.534	376.4
395.913	374.14
396.292	391.09
396.671	373.01
397.05	370.3
397.429	376.63
397.808	399
398.186	403.07
398.565	394.26
398.944	389.96
399.323	380.24
399.701	387.93
400.08	374.59
400.458	389.74
400.837	397.64
401.215	389.96
401.594	406.46
401.972	409.62
402.351	417.08
402.729	389.96
403.107	415.5
403.486	420.24
403.864	395.61
404.242	408.27
404.62	421.6
404.999	422.5
405.377	423.86
405.755	411.88
406.133	427.93
406.511	430.19
406.889	442.62
407.267	421.37
407.645	425.67
408.023	443.52
408.401	443.97
408.779	437.64
409.156	438.32
409.534	447.59
409.912	448.04
410.29	458.21
410.667	463.86
411.045	465.89
411.422	490.98
411.8	502.27
412.178	467.7
412.555	480.58
412.933	482.39
413.31	488.49
413.687	483.07
414.065	499.34
414.442	481.03
414.819	481.94
415.197	509.96
415.574	495.27
415.951	492.33
416.328	499.56
416.705	508.15
417.082	492.56
417.46	508.83
417.837	545.66
418.214	517.64
418.591	527.58
418.967	526.68
419.344	542.27
419.721	539.11
420.098	514.48
420.475	538.88
420.852	533.01
421.228	555.61
421.605	566.91
421.982	562.61
422.358	554.02
422.735	559.9
423.111	567.13
423.488	568.04
423.864	570.3
424.241	576.4
424.617	575.49
424.994	585.21
425.37	590.18
425.746	578.43
426.123	577.3
426.499	605.55
426.875	607.36
427.251	596.74
427.627	603.29
428.003	610.52
428.379	612.1
428.756	637.19
429.132	633.12
429.507	629.73
429.883	631.09
430.259	661.14
430.635	653.46
431.011	651.2
431.387	669.95
431.763	674.02
432.138	690.29
432.514	681.93
432.89	675.15
433.265	685.77
433.641	702.27
434.016	747.92
434.392	699.11
434.767	716.51
435.143	734.13
435.518	741.36
435.894	717.86
436.269	762.16
436.644	741.82
437.02	740.91
437.395	776.17
437.77	780.23
438.145	781.82
438.52	781.59
438.895	770.52
439.271	757.41
439.646	767.8
440.021	817.52
440.395	809.39
440.77	789.5
441.145	808.03
441.52	807.35
441.895	826.79
442.27	825.88
442.645	818.42
443.019	848.25
443.394	841.48
443.769	854.58
444.143	855.26
444.518	853.45
444.892	856.62
445.267	869.27
445.641	871.53
446.016	856.62
446.39	862.72
446.764	891.42
447.139	890.74
447.513	881.02
447.887	877.18
448.262	900.46
448.636	881.02
449.01	868.37
449.384	925.77
449.758	942.72
450.132	924.64
450.506	924.18
450.88	960.79
451.254	940
451.628	953.11
452.002	966.44
452.376	979.32
452.75	954.47
453.123	982.49
453.497	1002.15
453.871	995.82
454.244	1021.13
454.618	1025.88
454.992	1043.28
455.365	998.31
455.739	1038.98
456.112	1072.88
456.486	1066.55
456.859	1082.15
457.232	1104.97
457.606	1100.68
457.979	1100.9
458.352	1131.64
458.725	1153.33
459.099	1139.55
459.472	1179.77
459.845	1160.34
460.218	1189.49
460.591	1168.02
460.964	1196.49
461.337	1241.92
461.71	1233.78
462.083	1246.44
462.456	1251.41
462.829	1267.68
463.201	1271.07
463.574	1270.84
463.947	1286.44
464.32	1301.58
464.692	1346.09
465.065	1329.6
465.438	1354.68
465.81	1376.6
466.183	1357.17
466.555	1406.66
466.928	1429.48
467.3	1410.95
467.672	1453.89
468.045	1460.22
468.417	1467
468.789	1492.98
469.161	1478.52
469.534	1489.37
469.906	1556.48
470.278	1518.97
470.65	1590.61
471.022	1591.51
471.394	1613.43
471.766	1674.67
472.138	1663.15
472.51	1693.43
472.882	1701.57
473.253	1713.32
473.625	1741.34
473.997	1785.18
474.369	1787.66
474.74	1826.08
475.112	1836.03
475.484	1882.13
475.855	1903.59
476.227	1929.13
476.598	1973.42
476.97	1960.54
477.341	2014.78
477.713	2044.16
478.084	2050.03
478.455	2124.61
478.827	2128.9
479.198	2224.49
479.569	2212.51
479.94	2260.42
480.311	2250.25
480.682	2303.36
481.053	2361.89
481.424	2414.54
481.795	2409.12
482.166	2430.36
482.537	2473.52
482.908	2581.99
483.279	2553.97
483.65	2632.39
484.021	2638.49
484.391	2670.81
484.762	2684.36
485.133	2750.35
485.503	2770.01
485.874	2843.23
486.244	2896.79
486.615	2909.9
486.985	2976.11
487.356	3047.29
487.726	3037.12
488.097	3149.89
488.467	3109.21
488.837	3197.35
489.207	3245.93
489.578	3265.37
489.948	3283.67
490.318	3370.67
490.688	3395.53
491.058	3400.96
491.428	3496.77
491.798	3491.8
492.168	3570.22
492.538	3585.81
492.908	3622.64
493.278	3726.37
493.648	3711.46
494.017	3772.92
494.387	3824.22
494.757	3882.75
495.126	3948.06
495.496	3895.18
495.866	3984.44
496.235	4027.83
496.605	4065.12
496.974	4111.9
497.344	4107.38
497.713	4124.1
498.082	4211.1
498.452	4239.13
498.821	4271.22
499.19	4289.97
499.559	4381.04
499.928	4414.49
500.298	4454.04
500.667	4487.71
501.036	4495.16
501.405	4537.2
501.774	4538.78
502.143	4625.78
502.512	4658.32
502.88	4710.07
503.249	4727.93
503.618	4796.4
503.987	4792.33
504.356	4856.28
504.724	4909.84
505.093	4884.53
505.462	4981.71
505.83	4971.08
506.199	5005.89
506.567	5135.15
506.936	5144.64
507.304	5214.69
507.672	5250.17
508.041	5295.82
508.409	5330.17
508.777	5404.74
509.145	5416.27
509.514	5440.45
509.882	5519.54
510.25	5506.89
510.618	5540.33
510.986	5641.12
511.354	5666.88
511.722	5762.02
512.09	5786.66
512.458	5837.73
512.826	5908.69
513.193	5901.91
513.561	5956.37
513.929	6061.68
514.297	6130.38
514.664	6148.45
515.032	6249.92
515.4	6245.4
515.767	6340.09
516.135	6323.36
516.502	6391.16
516.869	6489.46
517.237	6534.88
517.604	6557.26
517.972	6677.03
518.339	6685.39
518.706	6714.09
519.073	6760.64
519.44	6864.59
519.808	6931.71
520.175	6956.34
520.542	7062.55
520.909	7051.93
521.276	7107.75
521.643	7219.61
522.009	7291.93
522.376	7377.8
522.743	7390.68
523.11	7533.73
523.477	7605.14
523.843	7734.63
524.21	7758.36
524.577	7846.04
524.943	7879.03
525.31	7947.05
525.676	8078.35
526.043	8150.44
526.409	8145.46
526.776	8317.21
527.142	8323.54
527.508	8394.27
527.874	8514.04
528.241	8546.81
528.607	8598.79
528.973	8726.24
529.339	8728.05
529.705	8779.8
530.071	8965.78
530.437	9004.42
530.803	9039.68
531.169	9142.05
531.535	9168.26
531.901	9262.27
532.267	9279.9
532.632	9382.95
532.998	9439.67
533.364	9558.53
533.73	9566.9
534.095	9675.59
534.461	9701.58
534.826	9749.26
535.192	9847.11
535.557	9918.3
535.923	9943.61
536.288	10029.26
536.653	10070.61
537.019	10108.12
537.384	10142.25
537.749	10212.98
538.114	10282.36
538.479	10409.13
538.845	10480.77
539.21	10384.95
539.575	10537.94
539.94	10525.29
540.305	10662.01
540.67	10666.08
541.034	10735.45
541.399	10838.5
541.764	10917.37
542.129	10886.63
542.494	11054.54
542.858	11116.01
543.223	11088.89
543.587	11223.57
543.952	11283.91
544.316	11370.69
544.681	11288.88
545.045	11363.01
545.41	11488.2
545.774	11526.17
546.138	11587.41
546.503	11656.11
546.867	11687.74
547.231	11808.64
547.595	11824.46
547.959	11905.14
548.324	11919.83
548.688	11987.85
549.052	12021.52
549.416	12104
549.779	12137.22
550.143	12231.46
550.507	12397.1
550.871	12411.79
551.235	12435.29
551.599	12515.52
551.962	12526.59
552.326	12771.56
552.689	12741.73
553.053	12747.38
553.417	12793.03
553.78	12941.72
554.143	12946.02
554.507	13030.99
554.87	13132.23
555.234	13274.59
555.597	13222.17
555.96	13288.83
556.323	13348.49
556.686	13444.08
557.05	13643.4
557.413	13659.22
557.776	13684.53
558.139	13710.29
558.502	13864.41
558.865	13910.51
559.228	14028.7
559.59	14083.84
559.953	14089.26
560.316	14364.96
560.679	14322.25
561.041	14504.84
561.404	14546.43
561.767	14681.11
562.129	14702.35
562.492	14882.69
562.854	14936.47
563.217	14941.22
563.579	14936.7
563.941	15064.38
564.304	15133.98
564.666	15277.93
565.028	15386.18
565.39	15458.49
565.753	15607.87
566.115	15645.38
566.477	15659.84
566.839	15735.32
567.201	15902.32
567.563	15881.98
567.925	15997.23
568.287	16127.63
568.648	16208.3
569.01	16258.02
569.372	16394.06
569.734	16325.14
570.095	16520.84
570.457	16642.42
570.819	16647.39
571.18	16686.93
571.542	16838.34
571.903	16867.95
572.265	16936.87
572.626	16977.32
572.987	17171.22
573.349	17215.06
573.71	17274.72
574.071	17352.68
574.432	17316.97
574.794	17502.51
575.155	17522.17
575.516	17554.71
575.877	17605.33
576.238	17636.06
576.599	17720.35
576.96	17813.46
577.32	17844.87
577.681	17896.39
578.042	17971.42
578.403	17998.09
578.763	18081.02
579.124	18172.09
579.485	18280.11
579.845	18274.91
580.206	18269.94
580.566	18321.69
580.927	18379.32
581.287	18527.34
581.648	18405.08
582.008	18521.01
582.368	18571.63
582.728	18592.19
583.089	18620.22
583.449	18663.15
583.809	18709.48
584.169	18761.68
584.529	18796.71
584.889	18887.55
585.249	18679.42
585.609	18776.82
585.969	18890.72
586.329	18933.43
586.688	19028.57
587.048	18979.98
587.408	18967.33
587.768	19040.09
588.127	19064.72
588.487	19044.16
588.846	19191.05
589.206	19080.54
589.565	19231.5
589.925	19289.35
590.284	19361.44
590.643	19391.27
591.003	19339.07
591.362	19389.69
591.721	19399.18
592.08	19492.51
592.44	19617.03
592.799	19527.31
593.158	19544.94
593.517	19542.23
593.876	19622.68
594.235	19601.43
594.593	19585.61
594.952	19594.43
595.311	19606.86
595.67	19697.48
596.029	19919.39
596.387	19852.73
596.746	19969.33
597.104	19854.08
597.463	19851.6
597.822	19997.58
598.18	19924.82
598.538	19911.26
598.897	19996
599.255	19894.53
599.613	20112.83
599.972	20177.01
600.33	20151.02
600.688	20097.92
601.046	20279.83
601.404	20335.65
601.762	20268.99
602.12	20430.34
602.478	20437.57
602.836	20422.43
603.194	20375.2
603.552	20474.41
603.91	20373.84
604.268	20512.6
604.625	20515.53
604.983	20536.32
605.341	20498.81
605.698	20605.48
606.056	20715.3
606.413	20672.59
606.771	20704.91
607.128	20826.26
607.485	20707.85
607.843	20810.67
608.2	20851.8
608.557	20902.19
608.914	20956.2
609.272	21074.16
609.629	21156.42
609.986	21228.06
610.343	21075.52
610.7	21221.96
611.057	21273.25
611.414	21242.75
611.771	21325
612.127	21336.08
612.484	21309.86
612.841	21406.81
613.198	21434.38
613.554	21445.91
613.911	21464.89
614.267	21602.51
614.624	21524.1
614.98	21579.01
615.337	21684.54
615.693	21698.55
616.05	21658.1
616.406	21835.5
616.762	21853.13
617.118	21729.74
617.475	21751.21
617.831	21881.83
618.187	21972.44
618.543	22061.93
618.899	22006.79
619.255	22045.21
619.611	22020.35
619.967	22097.19
620.323	22280.46
620.678	22050.63
621.034	22088.37
621.39	22136.06
621.746	22042.27
622.101	22303.74
622.457	22260.8
622.812	22208.14
623.168	22314.36
623.523	22352.55
623.879	22467.35
624.234	22297.86
624.589	22343.06
624.945	22387.58
625.3	22468.03
625.655	22423.73
626.01	22468.25
626.365	22529.04
626.72	22397.52
627.075	22434.35
627.43	22399.1
627.785	22401.36
628.14	22577.4
628.495	22582.6
628.85	22482.49
629.205	22452.21
629.559	22542.15
629.914	22485.65
630.269	22539.21
630.623	22395.03
630.978	22480.68
631.332	22649.04
631.687	22595.03
632.041	22499.21
632.396	22583.05
632.75	22501.92
633.104	22544.41
633.459	22410.63
633.813	22584.63
634.167	22434.81
634.521	22407.69
634.875	22461.47
635.229	22468.93
635.583	22293.57
635.937	22393
636.291	22338.08
636.645	22359.1
636.999	22407.69
637.352	22392.09
637.706	22273
638.06	22471.19
638.413	22407.01
638.767	22329.05
639.121	22224.64
639.474	22186.45
639.828	22100.35
640.181	22298.31
640.534	22327.69
640.888	22221.48
641.241	22211.76
641.594	22237.75
641.947	22253.34
642.301	22156.62
642.654	22194.13
643.007	22285.43
643.36	22196.85
643.713	22185.09
644.066	22186.9
644.419	22156.39
644.771	22036.85
645.124	21743.98
645.477	21853.35
645.83	21690.64
646.182	21578.78
646.535	21469.86
646.888	21575.85
647.24	21543.98
647.593	21684.54
647.945	21532.68
648.298	21479.58
648.65	21516.86
649.002	21453.36
649.355	21546.24
649.707	21518.45
650.059	21619.46
650.411	21923.41
650.763	21925.89
651.115	22138.77
651.467	21991.88
651.819	22014.03
652.171	22061.71
652.523	21985.55
652.875	22077.3
653.227	21867.81
653.578	22062.84
653.93	22030.52
654.282	21975.83
654.633	21915.95
654.985	21898.77
655.337	21956.63
655.688	22001.6
656.039	21969.06
656.391	21808.83
656.742	21861.94
657.094	21943.75
657.445	21972.67
657.796	21932.9
658.147	21901.26
658.498	21934.71
658.849	21986
659.2	21898.1
659.551	21906.46
659.902	22021.03
660.253	21935.84
660.604	22061.03
660.955	21951.65
661.306	21922.73
661.656	21931.99
662.007	21959.79
662.358	21896.97
662.708	21971.31
663.059	21967.7
663.409	21870.53
663.76	22039.56
664.11	22041.14
664.461	21973.8
664.811	22043.4
665.161	22008.38
665.511	21994.14
665.862	22023.06
666.212	22092.22
666.562	22094.7
666.912	22078.66
667.262	21969.96
667.612	22043.63
667.962	21992.11
668.312	21925.89
668.662	22110.97
669.011	21921.82
669.361	22062.16
669.711	21997.75
670.06	22020.35
670.41	21967.93
670.76	21962.28
671.109	22088.37
671.459	22023.06
671.808	21952.78
672.157	22003.4
672.507	21805.44
672.856	22030.97
673.205	21929.96
673.554	22113.91
673.904	21906.68
674.253	22098.77
674.602	22019
674.951	21727.71
675.3	21586.92
675.649	21917.98
675.998	21833.47
676.346	21928.6
676.695	21957.3
677.044	21878.21
677.393	21891.32
677.741	21969.73
678.09	21847.93
678.438	21887.25
678.787	21811.32
679.135	21931.77
679.484	21815.61
679.832	21692.68
680.181	21814.48
680.529	21793.47
680.877	21673.02
681.225	21656.29
681.573	21872.56
681.922	21651.78
682.27	21620.36
682.618	21701.27
682.966	21535.62
683.314	21604.77
683.661	21565.22
684.009	21465.79
684.357	21517.77
684.705	21400.71
685.053	21546.02
685.4	21476.41
685.748	21290.88
686.095	21239.81
686.443	21181.28
686.79	21247.72
687.138	21286.59
687.485	21343.08
687.832	21309.64
688.18	21285.01
688.527	21103.09
688.874	21145.35
689.221	21121.39
689.568	21081.17
689.915	21034.84
690.262	20958.69
690.609	20957.33
690.956	20914.17
691.303	20866.94
691.65	20834.17
691.997	20840.95
692.344	20649.09
692.69	20611.8
693.037	20740.61
693.383	20512.6
693.73	20569.32
694.077	20371.58
694.423	20423.33
694.769	20435.54
695.116	20386.05
695.462	20313.28
695.808	20297.23
696.155	20379.27
696.501	20160.29
696.847	20119.39
697.193	20047.3
697.539	20191.02
697.885	19970.24
698.231	19975.66
698.577	19948.54
698.923	19913.29
699.269	19911.26
699.614	19784.93
699.96	19767.31
700.306	19787.19
700.651	19723.46
700.997	19613.64
701.342	19631.26
701.688	19649.12
702.033	19465.62
702.379	19606.41
702.724	19509.23
703.069	19614.31
703.415	19278.73
703.76	19290.93
704.105	19217.49
704.45	19352.63
704.795	19212.07
705.14	19072.63
705.485	19150.82
705.83	19016.36
706.175	19197.15
706.52	19049.58
706.865	18895.69
707.209	18861.11
707.554	18830.38
707.899	18872.19
708.243	18787.9
708.588	18737.28
708.932	18696.6
709.277	18643.04
709.621	18761
709.966	18614.34
710.31	18587
710.654	18454.8
710.998	18473.33
711.342	18542.48
711.687	18468.36
712.031	18389.04
712.375	18291.41
712.719	18353.33
713.063	18305.42
713.407	18379.77
713.75	18340.68
714.094	18205.31
714.438	18267.68
714.782	18213.67
715.125	18142.04
715.469	18185.88
715.812	18106.78
716.156	17947.69
716.499	18048.25
716.843	18062.72
717.186	17949.27
717.53	17964.87
717.873	17970.29
718.216	18033.79
718.559	17885.77
718.902	17834.47
719.246	17697.3
719.589	17821.82
719.932	17718.77
720.275	17759.45
720.617	17657.53
720.96	17689.39
721.303	17683.74
721.646	17692.56
721.989	17628.6
722.331	17700.01
722.674	17616.85
723.016	17647.59
723.359	17595.84
723.701	17557.65
724.044	17508.16
724.386	17457.54
724.729	17539.34
725.071	17481.49
725.413	17437.65
725.755	17441.94
726.097	17366.01
726.439	17394.26
726.782	17316.07
727.124	17402.85
727.465	17309.06
727.807	17373.02
728.149	17278.11
728.491	17277.43
728.833	17364.43
729.175	17261.38
729.516	17203.53
729.858	17265.68
730.199	17292.57
730.541	17161.27
730.882	17155.17
731.224	17260.7
731.565	17021.39
731.906	17134.15
732.248	17140.26
732.589	17084.44
732.93	17027.49
733.271	17061.16
733.612	17090.54
733.953	17114.72
734.294	16999.69
734.635	16933.71
734.976	17013.25
735.317	16978.68
735.658	16990.43
735.999	16988.17
736.339	16939.81
736.68	16894.16
737.021	17014.16
737.361	16879.02
737.702	16912.24
738.042	16998.34
738.383	16916.53
738.723	16830.66
739.063	16813.94
739.404	16942.75
739.744	16823.43
740.084	16818.91
740.424	16817.33
740.764	16765.8
741.104	16870.88
741.444	16765.35
741.784	16752.7
742.124	16685.8
742.464	16736.2
742.804	16665.24
743.143	16685.13
743.483	16706.37
743.823	16625.69
744.162	16632.92
744.502	16729.42
744.841	16669.76
745.181	16711.11
745.52	16652.81
745.86	16599.93
746.199	16575.3
746.538	16642.42
746.877	16632.02
747.216	16683.09
747.556	16505.02
747.895	16679.7
748.234	16515.19
748.573	16538.01
748.911	16458.92
749.25	16575.07
749.589	16441.97
749.928	16402.2
750.267	16514.74
750.605	16462.31
750.944	16452.59
751.283	16436.55
751.621	16402.2
751.96	16314.74
752.298	16340.28
752.636	16410.56
752.975	16301.41
753.313	16335.76
753.651	16355.64
753.989	16222.54
754.327	16256.44
754.666	16196.55
755.004	16175.99
755.342	16224.57
755.679	16249.88
756.017	16014.64
756.355	16183.44
756.693	16143.22
757.031	16083.56
757.368	16055.99
757.706	16045.14
758.044	15931.93
758.381	16051.02
