Data from cardboard_FLMS001491_018.txt Node
Date: Tue Feb 07 11:39:01 GMT 2017
User: dcchb
Spectrometer: FLMS00149
Trigger mode: 0
Integration Time (sec): 2.000000E-2
Scans to average: 10
Electric dark correction enabled: true
Nonlinearity correction enabled: false
Boxcar width: 0
XAxis mode: Wavelengths
Number of Pixels in Spectrum: 2048
>>>>>Begin Spectral Data<<<<<
341.393	-31.4
341.776	-31.4
342.16	-31.4
342.543	-59.19
342.927	-54.9
343.31	-88.35
343.693	-75.24
344.077	-44.96
344.46	-51.51
344.843	-45.86
345.226	-36.37
345.61	-23.71
345.993	-17.61
346.376	-3.15
346.759	22.61
347.142	26.23
347.525	32.33
347.908	41.59
348.291	87.24
348.674	75.27
349.057	101.48
349.44	134.7
349.823	146
350.206	173.12
350.588	185.32
350.971	213.12
351.354	236.84
351.737	246.56
352.119	264.64
352.502	283.85
352.884	283.17
353.267	279.78
353.65	293.79
354.032	299.89
354.414	311.19
354.797	317.07
355.179	324.3
355.562	332.66
355.944	337.41
356.326	306.9
356.709	324.98
357.091	343.96
357.473	351.87
357.855	342.6
358.238	358.65
358.62	355.03
359.002	342.6
359.384	334.69
359.766	320.91
360.148	327.01
360.53	339.89
360.912	340.8
361.294	331.76
361.676	326.11
362.057	326.79
362.439	334.02
362.821	332.43
363.203	329.72
363.584	310.97
363.966	308.93
364.348	338.08
364.729	320.23
365.111	304.64
365.493	318.42
365.874	324.75
366.256	315.49
366.637	324.75
367.019	319.55
367.4	325.88
367.781	313.23
368.163	317.52
368.544	317.52
368.925	296.28
369.306	308.71
369.688	298.99
370.069	294.92
370.45	339.44
370.831	315.49
371.212	313.23
371.593	315.71
371.974	305.54
372.355	315.49
372.736	309.38
373.117	345.54
373.498	301.7
373.879	324.75
374.26	321.81
374.641	291.98
375.021	314.58
375.402	323.4
375.783	326.79
376.163	315.26
376.544	329.27
376.925	303.51
377.305	314.81
377.686	320.68
378.066	325.88
378.447	353
378.827	335.82
379.208	347.8
379.588	317.07
379.968	350.51
380.349	317.75
380.729	321.36
381.109	356.61
381.489	336.05
381.87	330.17
382.25	353.45
382.63	336.95
383.01	347.35
383.39	337.41
383.77	353.68
384.15	351.19
384.53	358.2
384.91	345.32
385.29	331.53
385.67	353
386.049	352.1
386.429	363.62
386.809	351.42
387.189	350.97
387.568	369.95
387.948	351.87
388.328	339.67
388.707	360.91
389.087	357.74
389.466	360.46
389.846	397.07
390.225	364.98
390.605	351.64
390.984	364.3
391.363	361.59
391.743	373.56
392.122	371.53
392.501	372.21
392.881	360.68
393.26	383.96
393.639	373.56
394.018	387.12
394.397	379.67
394.776	393.22
395.155	379.44
395.534	388.03
395.913	388.25
396.292	386.44
396.671	410.85
397.05	390.06
397.429	383.73
397.808	398.2
398.186	390.06
398.565	389.16
398.944	391.19
399.323	408.36
399.701	378.54
400.08	399.33
400.458	404.07
400.837	423.73
401.215	425.09
401.594	416.95
401.972	415.37
402.351	417.4
402.729	404.3
403.107	423.73
403.486	433.9
403.864	417.4
404.242	415.37
404.62	443.17
404.999	440
405.377	408.14
405.755	426.22
406.133	437.06
406.511	446.56
406.889	428.48
407.267	441.36
407.645	447.23
408.023	455.37
408.401	443.39
408.779	449.95
409.156	463.73
409.534	470.51
409.912	475.26
410.29	470.28
410.667	479.55
411.045	484.97
411.422	494.24
411.8	477.06
412.178	491.75
412.555	480.68
412.933	487.91
413.31	483.62
413.687	497.63
414.065	517.74
414.442	525.42
414.819	522.94
415.197	512.09
415.574	521.36
415.951	510.51
416.328	535.82
416.705	531.75
417.082	524.29
417.46	530.4
417.837	530.17
418.214	552.77
418.591	573.33
418.967	564.97
419.344	549.83
419.721	548.25
420.098	559.32
420.475	582.6
420.852	565.87
421.228	582.6
421.605	581.24
421.982	564.75
422.358	586.21
422.735	574.69
423.111	587.12
423.488	601.81
423.864	606.1
424.241	599.09
424.617	627.57
424.994	602.48
425.37	604.52
425.746	607.46
426.123	632.99
426.499	633.22
426.875	635.03
427.251	647.23
427.627	637.06
428.003	656.04
428.379	641.13
428.756	656.04
429.132	693.33
429.507	690.84
429.883	690.62
430.259	673.67
430.635	694.69
431.011	665.99
431.387	684.97
431.763	718.87
432.138	714.8
432.514	686.78
432.89	710.05
433.265	729.94
433.641	729.49
434.016	767.68
434.392	729.71
434.767	760.45
435.143	778.3
435.518	755.47
435.894	773.1
436.269	778.07
436.644	782.14
437.02	781.91
437.395	813.78
437.77	802.7
438.145	804.29
438.52	824.63
438.895	815.59
439.271	827.34
439.646	834.79
440.021	836.38
440.395	852.87
440.77	817.17
441.145	854.91
441.52	858.97
441.895	857.62
442.27	855.81
442.645	879.31
443.019	904.17
443.394	881.12
443.769	884.06
444.143	900.33
444.518	905.08
444.892	880.89
445.267	918.18
445.641	918.41
446.016	926.77
446.39	927.22
446.764	952.76
447.139	928.13
447.513	968.12
447.887	942.14
448.262	958.63
448.636	945.75
449.01	954.57
449.384	974.45
449.758	966.09
450.132	971.51
450.506	988.91
450.88	989.82
451.254	1020.55
451.628	998.41
452.002	999.54
452.376	1054.68
452.75	1032.3
453.123	1043.15
453.497	1041.57
453.871	1057.84
454.244	1105.75
454.618	1059.42
454.992	1093.32
455.365	1094.67
455.739	1101.23
456.112	1147.33
456.486	1173.54
456.859	1155.92
457.232	1172.64
457.606	1156.59
457.979	1195.91
458.352	1197.95
458.725	1231.62
459.099	1201.56
459.472	1243.6
459.845	1229.36
460.218	1260.32
460.591	1269.81
460.964	1292.64
461.337	1294.22
461.71	1307.1
462.083	1310.94
462.456	1321.34
462.829	1349.36
463.201	1347.1
463.574	1359.3
463.947	1381.9
464.32	1395.01
464.692	1428.9
465.065	1417.83
465.438	1432.74
465.81	1463.7
466.183	1506.19
466.555	1486.08
466.928	1509.13
467.3	1523.82
467.672	1520.88
468.045	1581.44
468.417	1568.79
468.789	1576.47
469.161	1594.55
469.534	1633.42
469.906	1668.9
470.278	1650.82
470.65	1698.05
471.022	1699.18
471.394	1767.2
471.766	1761.78
472.138	1762.23
472.51	1824.6
472.882	1820.98
473.253	1830.25
473.625	1865.05
473.997	1926.74
474.369	1944.6
474.74	1956.57
475.112	2004.26
475.484	1996.35
475.855	2076.34
476.227	2124.25
476.598	2154.76
476.97	2150.47
477.341	2175.78
477.713	2231.37
478.084	2240.63
478.455	2246.06
478.827	2277.47
479.198	2382.32
479.569	2377.13
479.94	2427.97
480.311	2436.79
480.682	2479.5
481.053	2579.83
481.424	2607.63
481.795	2590.45
482.166	2625.48
482.537	2715.87
482.908	2745.93
483.279	2745.48
483.65	2793.84
484.021	2902.08
484.391	2927.62
484.762	2961.07
485.133	2963.55
485.503	2987.05
485.874	3097.11
486.244	3137.78
486.615	3202.42
486.985	3230.66
487.356	3252.13
487.726	3306.14
488.097	3409.19
488.467	3415.29
488.837	3464.1
489.207	3490.09
489.578	3556.98
489.948	3571.67
490.318	3626.13
490.688	3617.77
491.058	3729.18
491.428	3816.64
491.798	3812.12
492.168	3879.46
492.538	3945.22
492.908	3993.13
493.278	4006.69
493.648	4033.58
494.017	4100.25
494.387	4154.71
494.757	4231.99
495.126	4218.89
495.496	4263.4
495.866	4264.99
496.235	4339.34
496.605	4357.41
496.974	4455.72
497.344	4473.12
497.713	4533.91
498.082	4565.32
498.452	4598.31
498.821	4717.4
499.19	4668.14
499.559	4730.96
499.928	4768.25
500.298	4843.05
500.667	4880.56
501.036	4843.5
501.405	4938.42
501.774	4940.22
502.143	4995.14
502.512	5058.64
502.88	5149.71
503.249	5090.28
503.618	5176.15
503.987	5207.11
504.356	5217.28
504.724	5358.52
505.093	5354.9
505.462	5364.84
505.83	5435.13
506.199	5493.43
506.567	5529.36
506.936	5569.13
507.304	5643.48
507.672	5718.51
508.041	5792.18
508.409	5774.33
508.777	5858.84
509.145	5892.51
509.514	5979.52
509.882	5995.34
510.25	6039.4
510.618	6115.56
510.986	6143.81
511.354	6142.45
511.722	6212.28
512.09	6344.25
512.458	6387.19
512.826	6433.07
513.193	6448.21
513.561	6549.67
513.929	6584.93
514.297	6637.35
514.664	6711.7
515.032	6784.24
515.4	6809.33
515.767	6830.34
516.135	6921.19
516.502	6923.9
516.869	7048.19
517.237	7103.1
517.604	7106.27
517.972	7146.49
518.339	7304.68
518.706	7300.16
519.073	7366.83
519.44	7447.95
519.808	7476.88
520.175	7577.89
520.542	7727.04
520.909	7740.15
521.276	7774.72
521.643	7841.39
522.009	7935.17
522.376	8040.71
522.743	8109.41
523.11	8198.67
523.477	8294.26
523.843	8364.77
524.21	8460.81
524.577	8521.6
524.943	8577.42
525.31	8625.1
525.676	8722.27
526.043	8818.99
526.409	8894.7
526.776	9001.36
527.142	9031.87
527.508	9185.76
527.874	9222.82
528.241	9320.9
528.607	9306.66
528.973	9485.64
529.339	9507.79
529.705	9569.48
530.071	9738.74
530.437	9817.38
530.803	9803.6
531.169	9927.89
531.535	9962.24
531.901	10005.17
532.267	10034.1
532.632	10209.92
532.998	10208.33
533.364	10291.95
533.73	10408.78
534.095	10503.92
534.461	10496.69
534.826	10590.7
535.192	10613.97
535.557	10750.92
535.923	10741.88
536.288	10868.65
536.653	10899.39
537.019	10915.21
537.384	11072.94
537.749	11079.27
538.114	11150.91
538.479	11217.8
538.845	11305.48
539.21	11291.69
539.575	11407.85
539.94	11488.98
540.305	11538.24
540.67	11653.49
541.034	11640.61
541.399	11768.97
541.764	11785.01
542.129	11956.76
542.494	11935.97
542.858	12016.2
543.223	12003.54
543.587	12157.21
543.952	12115.63
544.316	12306.36
544.681	12304.1
545.045	12413.47
545.41	12475.62
545.774	12479.69
546.138	12568.05
546.503	12640.81
546.867	12634.03
547.231	12730.75
547.595	12846
547.959	12977.3
548.324	12954.02
548.688	13008.26
549.052	13090.07
549.416	13141.59
549.779	13127.8
550.143	13306.56
550.507	13370.28
550.871	13478.76
551.235	13484.18
551.599	13620.67
551.962	13676.04
552.326	13695.02
552.689	13812.98
553.053	13860.44
553.417	13872.87
553.78	14074.45
554.143	14057.05
554.507	14148.12
554.87	14222.69
555.234	14422.69
555.597	14330.94
555.96	14431.05
556.323	14579.07
556.686	14602.57
557.05	14678.72
557.413	14771.6
557.776	14796.24
558.139	14977.7
558.502	14949.68
558.865	15086.85
559.228	15249.78
559.59	15319.84
559.953	15354.86
560.316	15466.95
560.679	15487.29
561.041	15653.84
561.404	15734.06
561.767	15938.8
562.129	15914.17
562.492	16079.59
562.854	16043.43
563.217	16076.88
563.579	16271.9
563.941	16329.98
564.304	16440.71
564.666	16587.15
565.028	16657.2
565.39	16719.57
565.753	16856.29
566.115	16942.17
566.477	16985.33
566.839	17090.64
567.201	17213.12
567.563	17286.34
567.925	17510.51
568.287	17453.79
568.648	17545.09
569.01	17546.9
569.372	17775.82
569.734	17701.7
570.095	17915.93
570.457	17990.28
570.819	17971.29
571.18	18075.47
571.542	18189.14
571.903	18232.3
572.265	18363.37
572.626	18389.36
572.987	18537.38
573.349	18603.37
573.71	18728.79
574.071	18734.21
574.432	18901.66
574.794	19076.35
575.155	18981.89
575.516	18989.35
575.877	19144.37
576.238	19161.77
576.599	19255.33
576.96	19269.79
577.32	19315.89
577.681	19464.59
578.042	19463.68
578.403	19601.98
578.763	19624.58
579.124	19653.73
579.485	19779.38
579.845	19883.11
580.206	19899.15
580.566	19910.45
580.927	19842.66
581.287	20053.27
581.648	20139.6
582.008	20135.76
582.368	20187.96
582.728	20190.67
583.089	20218.24
583.449	20213.27
583.809	20287.62
584.169	20424.34
584.529	20428.18
584.889	20517.21
585.249	20488.51
585.609	20417.56
585.969	20618.23
586.329	20554.95
586.688	20615.97
587.048	20707.04
587.408	20621.62
587.768	20695.97
588.127	20788.62
588.487	20810.77
588.846	20931.67
589.206	20745.23
589.565	20819.81
589.925	20923.08
590.284	20955.4
590.643	21059.35
591.003	21003.53
591.362	21269.51
591.721	21168.95
592.08	21074.71
592.44	21235.39
592.799	21207.59
593.158	21275.84
593.517	21176.18
593.876	21461.37
594.235	21374.37
594.593	21330.98
594.952	21420.69
595.311	21460.92
595.67	21490.07
596.029	21608.26
596.387	21645.77
596.746	21683.74
597.104	21558.77
597.463	21693.46
597.822	21752.66
598.18	21671.76
598.538	21664.08
598.897	21861.13
599.255	21666.79
599.613	22066.55
599.972	21945.88
600.33	22013.67
600.688	21949.95
601.046	21994.01
601.404	22176.15
601.762	22170.5
602.12	22236.72
602.478	22156.04
602.836	22304.06
603.194	22110.85
603.552	22120.56
603.91	22271.97
604.268	22294.12
604.625	22300.22
604.983	22320.11
605.341	22297.05
605.698	22452.53
606.056	22557.61
606.413	22566.2
606.771	22622.7
607.128	22728
607.485	22595.35
607.843	22678.97
608.2	22715.12
608.557	22869.47
608.914	22738.17
609.272	22939.3
609.629	22925.51
609.986	23024.49
610.343	22966.87
610.7	23105.62
611.057	23125.96
611.414	23127.32
611.771	23094.1
612.127	23277.82
612.484	23290.02
612.841	23284.15
613.198	23283.7
613.554	23355.78
613.911	23442.34
614.267	23445.5
614.624	23479.4
614.98	23595.78
615.337	23661.99
615.693	23652.5
616.05	23680.07
616.406	23819.27
616.762	23664.48
617.118	23745.83
617.475	23819.5
617.831	23844.58
618.187	23913.51
618.543	23897.92
618.899	24050.68
619.255	24045.94
619.611	23929.1
619.967	24181.53
620.323	24117.35
620.678	24188.08
621.034	24101.98
621.39	24153.28
621.746	24104.24
622.101	24511.46
622.457	24303.78
622.812	24240.05
623.168	24407.06
623.523	24445.47
623.879	24546.04
624.234	24268.75
624.589	24434.85
624.945	24409.54
625.3	24611.12
625.655	24521.18
626.01	24514.62
626.365	24481.86
626.72	24553.04
627.075	24504.23
627.43	24513.27
627.785	24497.68
628.14	24492.48
628.495	24544.45
628.85	24457.68
629.205	24484.12
629.559	24616.54
629.914	24506.94
630.269	24572.93
630.623	24565.92
630.978	24629.87
631.332	24720.95
631.687	24875.29
632.041	24635.75
632.396	24685.24
632.75	24549.43
633.104	24588.52
633.459	24547.62
633.813	24476.88
634.167	24546.26
634.521	24576.77
634.875	24632.13
635.229	24556.88
635.583	24452.48
635.937	24495.19
636.291	24460.39
636.645	24553.72
636.999	24559.14
637.352	24515.75
637.706	24422.87
638.06	24502.19
638.413	24343.33
638.767	24358.7
639.121	24429.43
639.474	24244.12
639.828	24252.03
640.181	24303.1
640.534	24275.99
640.888	24404.57
641.241	24196.67
641.594	24274.4
641.947	24273.5
642.301	24313.27
642.654	24310.56
643.007	24306.49
643.36	24355.53
643.713	24261.52
644.066	24419.49
644.419	24210
644.771	24229.66
645.124	23850.91
645.477	23800.29
645.83	23652.73
646.182	23659.73
646.535	23621.99
646.888	23635.55
647.24	23461.77
647.593	23628.32
647.945	23525.05
648.298	23350.59
648.65	23448.66
649.002	23393.98
649.355	23549.45
649.707	23527.08
650.059	23598.94
650.411	23971.36
650.763	23948.31
651.115	24215.2
651.467	24067.86
651.819	24095.2
652.171	24027.4
652.523	24046.16
652.875	24073.51
653.227	24006.84
653.578	24203.9
653.93	23998.03
654.282	24103.56
654.633	24005.26
654.985	23970.46
655.337	24017.01
655.688	23962.55
656.039	24118.7
656.391	23856.79
656.742	23966.84
657.094	24017.91
657.445	24113.05
657.796	24098.14
658.147	23970.23
658.498	23963.68
658.849	24018.59
659.2	24042.09
659.551	23965.49
659.902	24219.26
660.253	24114.63
660.604	24013.39
660.955	23938.14
661.306	24079.83
661.656	24031.47
662.007	24211.81
662.358	24024.47
662.708	24016.56
663.059	23984.24
663.409	23841.87
663.76	24092.94
664.11	24121.19
664.461	24179.94
664.811	24080.28
665.161	24021.98
665.511	23991.47
665.862	24080.51
666.212	24191.69
666.562	24132.71
666.912	24218.13
667.262	24025.6
667.612	24129.1
667.962	24203.9
668.312	24139.04
668.662	24308.08
669.011	24286.83
669.361	24225.37
669.711	24167.74
670.06	24183.11
670.41	24024.69
670.76	23991.93
671.109	24125.93
671.459	24037.35
671.808	24057.23
672.157	24074.86
672.507	23930.23
672.856	23992.83
673.205	24021.53
673.554	24090
673.904	24056.56
674.253	24106.27
674.602	24178.14
674.951	23718.49
675.3	23663.57
675.649	24141.98
675.998	24033.73
676.346	24038.7
676.695	24079.61
677.044	23902.21
677.393	24020.85
677.741	24078.7
678.09	23866.96
678.438	23935.66
678.787	23973.4
679.135	24043.68
679.484	23803
679.832	23963.68
680.181	23828.54
680.529	23875.77
680.877	23846.17
681.225	23913.74
681.573	24008.87
681.922	23830.12
682.27	23787.41
682.618	23727.75
682.966	23741.99
683.314	23714.19
683.661	23715.77
684.009	23677.58
684.357	23527.53
684.705	23635.1
685.053	23554.42
685.4	23588.55
685.748	23455.22
686.095	23482.56
686.443	23352.17
686.79	23358.5
687.138	23471.71
687.485	23285.05
687.832	23260.42
688.18	23417.25
688.527	23249.12
688.874	23239.4
689.221	23143.59
689.568	23064.94
689.915	23033.76
690.262	23040.76
690.609	23001.44
690.956	22982.91
691.303	22952.4
691.65	22933.42
691.997	22834.22
692.344	22720.09
692.69	22640.55
693.037	22585.18
693.383	22518.29
693.73	22673.32
694.077	22524.62
694.423	22431.51
694.769	22407.11
695.116	22453.44
695.462	22437.39
695.808	22295.25
696.155	22277.62
696.501	22188.58
696.847	22203.05
697.193	22118.08
697.539	22085.31
697.885	22054.8
698.231	21942.71
698.577	21952.21
698.923	21902.04
699.269	21818.42
699.614	21790.18
699.96	21687.58
700.306	21726.45
700.651	21651.87
700.997	21471.77
701.342	21527.36
701.688	21511.76
702.033	21423.18
702.379	21401.49
702.724	21331.66
703.069	21421.82
703.415	21224.99
703.76	21231.55
704.105	21251.66
704.45	21142.06
704.795	21086.47
705.14	20938.9
705.485	20946.81
705.83	20884.89
706.175	20873.82
706.52	20865
706.865	20730.77
707.209	20773.93
707.554	20710.2
707.899	20809.64
708.243	20678.79
708.588	20642.86
708.932	20486.03
709.277	20582.52
709.621	20574.61
709.966	20417.78
710.31	20494.62
710.654	20247.62
710.998	20314.73
711.342	20383.43
711.687	20232.93
712.031	20281.29
712.375	20120.62
712.719	20156.32
713.063	20192.48
713.407	20188.41
713.75	20057.79
714.094	20144.12
714.438	20108.41
714.782	20029.77
715.125	20045.81
715.469	19947.74
715.812	19850.11
716.156	19865.25
716.499	19860.73
716.843	19869.32
717.186	19802.88
717.53	19887.85
717.873	19815.31
718.216	19811.24
718.559	19640.63
718.902	19581.87
719.246	19655.32
719.589	19722.89
719.932	19553.17
720.275	19492.61
720.617	19522.44
720.96	19488.32
721.303	19477.92
721.646	19517.69
721.989	19306.17
722.331	19478.82
722.674	19456.9
723.016	19437.47
723.359	19407.64
723.701	19417.58
724.044	19243.58
724.386	19251.71
724.729	19354.99
725.071	19233.41
725.413	19217.81
725.755	19179.85
726.097	19105.5
726.439	19144.6
726.782	19034.54
727.124	19214.88
727.465	18986.41
727.807	19075.67
728.149	19042.45
728.491	19054.2
728.833	19090.36
729.175	19033.41
729.516	18987.99
729.858	18970.81
730.199	18994.54
730.541	18974.2
730.882	18868.44
731.224	18872.29
731.565	18876.35
731.906	18855.56
732.248	18955.67
732.589	18793.42
732.93	18714.55
733.271	18854.43
733.612	18826.19
733.953	18899.86
734.294	18713.42
734.635	18682.91
734.976	18739.86
735.317	18677.49
735.658	18688.11
735.999	18724.95
736.339	18610.82
736.68	18792.74
737.021	18641.11
737.361	18589.58
737.702	18715.45
738.042	18613.08
738.383	18538.51
738.723	18682.23
739.063	18571.5
739.404	18618.51
739.744	18529.47
740.084	18474.33
740.424	18429.81
740.764	18426.2
741.104	18545.74
741.444	18544.61
741.784	18351.17
742.124	18503.48
742.464	18470.94
742.804	18482.01
743.143	18421
743.483	18466.87
743.823	18351.85
744.162	18380.77
744.502	18344.62
744.841	18290.15
745.181	18432.52
745.52	18275.69
745.86	18376.03
746.199	18347.33
746.538	18354.33
746.877	18246.31
747.216	18393.2
747.556	18224.62
747.895	18320.66
748.234	18268.69
748.573	18289.25
748.911	18225.07
749.25	18229.59
749.589	18143.94
749.928	18171.74
750.267	18207.67
750.605	18109.59
750.944	18085.87
751.283	18136.49
751.621	18204.28
751.96	17968.13
752.298	18117.73
752.636	18054
752.975	17983.5
753.313	17943.05
753.651	18043.16
753.989	17938.07
754.327	17940.33
754.666	17873.67
755.004	17896.94
755.342	17939.66
755.679	17966.32
756.017	17865.76
756.355	17873.67
756.693	17769.72
757.031	17826.66
757.368	17711.64
757.706	17710.51
758.044	17774.46
