Data from cardboard_FLMS001491_029.txt Node
Date: Tue Feb 07 11:39:11 GMT 2017
User: dcchb
Spectrometer: FLMS00149
Trigger mode: 0
Integration Time (sec): 2.000000E-2
Scans to average: 10
Electric dark correction enabled: true
Nonlinearity correction enabled: false
Boxcar width: 0
XAxis mode: Wavelengths
Number of Pixels in Spectrum: 2048
>>>>>Begin Spectral Data<<<<<
341.393	-2.47
341.776	-2.47
342.16	-2.47
342.543	-56.03
342.927	-72.98
343.31	-58.06
343.693	-68.68
344.077	-45.41
344.46	-69.36
344.843	-63.04
345.226	-22.81
345.61	-4.28
345.993	-28.23
346.376	-2.47
346.759	-7.67
347.142	34.14
347.525	35.49
347.908	36.4
348.291	70.75
348.674	97.19
349.057	96.06
349.44	121.82
349.823	142.38
350.206	165.66
350.588	187.35
350.971	175.38
351.354	219.67
351.737	225.54
352.119	236.17
352.502	244.3
352.884	264.19
353.267	285.2
353.65	294.02
354.032	299.89
354.414	299.44
354.797	291.76
355.179	330.4
355.562	304.41
355.944	308.93
356.326	319.1
356.709	309.38
357.091	327.69
357.473	321.59
357.855	328.82
358.238	336.05
358.62	349.16
359.002	347.35
359.384	306.67
359.766	329.5
360.148	323.17
360.53	330.85
360.912	317.75
361.294	307.8
361.676	326.33
362.057	298.09
362.439	317.07
362.821	322.27
363.203	335.6
363.584	311.87
363.966	301.7
364.348	294.02
364.729	310.74
365.111	323.4
365.493	307.8
365.874	310.06
366.256	294.92
366.637	310.06
367.019	302.15
367.4	289.5
367.781	313.45
368.163	287.46
368.544	303.28
368.925	288.37
369.306	307.12
369.688	304.41
370.069	296.28
370.45	320.91
370.831	293.34
371.212	300.8
371.593	303.06
371.974	306.45
372.355	293.34
372.736	301.25
373.117	315.03
373.498	299.44
373.879	301.48
374.26	301.48
374.641	304.86
375.021	321.14
375.402	317.29
375.783	305.77
376.163	326.33
376.544	308.25
376.925	325.43
377.305	307.8
377.686	306.45
378.066	325.88
378.447	323.17
378.827	300.57
379.208	310.51
379.588	311.64
379.968	326.33
380.349	318.42
380.729	318.65
381.109	326.11
381.489	318.88
381.87	308.25
382.25	337.63
382.63	341.02
383.01	345.54
383.39	323.17
383.77	309.84
384.15	323.4
384.53	326.33
384.91	320.68
385.29	338.08
385.67	332.89
386.049	335.6
386.429	330.63
386.809	334.24
387.189	336.95
387.568	326.56
387.948	356.61
388.328	343.73
388.707	347.58
389.087	352.1
389.466	335.37
389.846	342.83
390.225	336.5
390.605	343.51
390.984	355.49
391.363	342.6
391.743	331.08
392.122	338.31
392.501	337.86
392.881	347.35
393.26	365.43
393.639	348.48
394.018	346.67
394.397	355.49
394.776	388.7
395.155	355.03
395.534	363.17
395.913	350.51
396.292	345.32
396.671	364.07
397.05	367.46
397.429	367.24
397.808	365.65
398.186	370.17
398.565	351.64
398.944	367.69
399.323	371.76
399.701	394.58
400.08	363.39
400.458	365.88
400.837	405.88
401.215	389.83
401.594	365.88
401.972	364.3
402.351	371.53
402.729	382.15
403.107	388.03
403.486	363.39
403.864	377.18
404.242	377.41
404.62	384.18
404.999	395.71
405.377	372.43
405.755	389.16
406.133	371.53
406.511	391.64
406.889	385.09
407.267	399.1
407.645	397.29
408.023	402.94
408.401	404.52
408.779	413.79
409.156	422.38
409.534	415.37
409.912	402.04
410.29	420.57
410.667	406.33
411.045	405.65
411.422	423.96
411.8	441.36
412.178	429.16
412.555	420.79
412.933	430.06
413.31	449.04
413.687	434.58
414.065	436.84
414.442	445.2
414.819	444.75
415.197	457.18
415.574	446.33
415.951	423.51
416.328	461.47
416.705	452.21
417.082	459.66
417.46	448.14
417.837	455.37
418.214	461.24
418.591	462.15
418.967	485.65
419.344	460.34
419.721	458.76
420.098	461.02
420.475	448.14
420.852	479.78
421.228	469.83
421.605	489.27
421.982	479.55
422.358	483.84
422.735	484.97
423.111	467.35
423.488	493.33
423.864	481.36
424.241	502.83
424.617	492.66
424.994	505.99
425.37	528.14
425.746	500.34
426.123	509.61
426.499	514.8
426.875	515.03
427.251	497.4
427.627	512.77
428.003	524.29
428.379	539.66
428.756	518.19
429.132	522.03
429.507	536.05
429.883	553.45
430.259	550.06
430.635	561.13
431.011	552.77
431.387	544.41
431.763	559.77
432.138	592.31
432.514	559.55
432.89	583.05
433.265	572.65
433.641	591.41
434.016	578.3
434.392	596.83
434.767	577.63
435.143	575.82
435.518	621.24
435.894	613.78
436.269	606.1
436.644	607.91
437.02	622.14
437.395	621.24
437.77	631.64
438.145	600.9
438.52	647.91
438.895	645.42
439.271	631.86
439.646	621.92
440.021	652.43
440.395	659.88
440.77	625.99
441.145	695.59
441.52	669.38
441.895	681.58
442.27	655.36
442.645	673.44
443.019	665.76
443.394	674.35
443.769	681.8
444.143	675.93
444.518	701.69
444.892	695.59
445.267	718.19
445.641	696.49
446.016	719.09
446.39	724.29
446.764	696.72
447.139	720.9
447.513	734.46
447.887	693.78
448.262	714.12
448.636	729.26
449.01	722.48
449.384	726.77
449.758	769.03
450.132	748.7
450.506	750.05
450.88	748.7
451.254	730.16
451.628	770.84
452.002	741.69
452.376	754.34
452.75	766.55
453.123	771.07
453.497	790.5
453.871	804.51
454.244	818.3
454.618	818.07
454.992	832.53
455.365	823.72
455.739	840.22
456.112	834.34
456.486	836.83
456.859	842.93
457.232	859.2
457.606	860.78
457.979	860.78
458.352	863.04
458.725	881.35
459.099	890.16
459.472	897.39
459.845	924.96
460.218	906.2
460.591	923.83
460.964	939.65
461.337	937.16
461.71	934.45
462.083	976.94
462.456	983.04
462.829	937.62
463.201	999.99
463.574	969.71
463.947	987.78
464.32	1035.69
464.692	1020.33
465.065	1020.33
465.438	1036.6
465.81	1047.9
466.183	1038.18
466.555	1066.65
466.928	1062.13
467.3	1084.05
467.672	1093.54
468.045	1117.27
468.417	1132.19
468.789	1127.22
469.161	1135.8
469.534	1160.21
469.906	1169.7
470.278	1180.1
470.65	1167.89
471.022	1216.93
471.394	1245.86
471.766	1238.85
472.138	1226.42
472.51	1281.56
472.882	1270.26
473.253	1328.57
473.625	1340.77
473.997	1335.8
474.369	1331.5
474.74	1355.46
475.112	1387.55
475.484	1373.54
475.855	1427.77
476.227	1445.17
476.598	1429.13
476.97	1451.28
477.341	1527.88
477.713	1524.72
478.084	1540.09
478.455	1564.49
478.827	1599.75
479.198	1622.12
479.569	1650.14
479.94	1647.2
480.311	1648.11
480.682	1703.25
481.053	1724.26
481.424	1768.33
481.795	1785.05
482.166	1816.24
482.537	1825.05
482.908	1867.08
483.279	1876.12
483.65	1895.78
484.021	1934.65
484.391	1982.33
484.762	1985.27
485.133	2012.39
485.503	2030.02
485.874	2071.82
486.244	2065.04
486.615	2132.16
486.985	2126.29
487.356	2194.31
487.726	2189.34
488.097	2266.85
488.467	2254.87
488.837	2280.18
489.207	2312.27
489.578	2361.31
489.948	2373.96
490.318	2442.89
490.688	2437.46
491.058	2464.58
491.428	2488.54
491.798	2554.07
492.168	2570.79
492.538	2550.68
492.908	2612.6
493.278	2609.89
493.648	2661.19
494.017	2702.32
494.387	2717.68
494.757	2736.44
495.126	2771.92
495.496	2803.33
495.866	2824.35
496.235	2831.8
496.605	2877
496.974	2905.93
497.344	2953.16
497.713	2970.33
498.082	2976.21
498.452	3026.15
498.821	3042.19
499.19	3075.64
499.559	3042.87
499.928	3091.23
500.298	3158.58
500.667	3165.13
501.036	3176.43
501.405	3212.13
501.774	3210.33
502.143	3281.28
502.512	3299.81
502.88	3313.37
503.249	3324.45
503.618	3347.27
503.987	3379.81
504.356	3429.98
504.724	3458.23
505.093	3467.49
505.462	3472.01
505.83	3498.68
506.199	3549.3
506.567	3589.07
506.936	3614.61
507.304	3649.41
507.672	3672.01
508.041	3678.11
508.409	3726.02
508.777	3756.75
509.145	3785.68
509.514	3786.58
509.882	3850.99
510.25	3846.92
510.618	3876.3
510.986	3902.51
511.354	3949.29
511.722	4038.55
512.09	4031.32
512.458	4101.15
512.826	4119.23
513.193	4103.64
513.561	4143.41
513.929	4198.32
514.297	4240.58
514.664	4279
515.032	4293.69
515.4	4338.88
515.767	4338.88
516.135	4400.8
516.502	4405.77
516.869	4461.37
517.237	4554.7
517.604	4529.39
517.972	4573
518.339	4640.8
518.706	4651.64
519.073	4725.09
519.44	4718.08
519.808	4747.23
520.175	4802.37
520.542	4894.57
520.909	4903.39
521.276	4949.26
521.643	4971.63
522.009	5027.9
522.376	5046.89
522.743	5114.68
523.11	5155.36
523.477	5189.93
523.843	5292.08
524.21	5296.37
524.577	5367.33
524.943	5382.25
525.31	5438.97
525.676	5502.69
526.043	5496.14
526.409	5608
526.776	5669.47
527.142	5641
527.508	5739.3
527.874	5751.73
528.241	5843.7
528.607	5822.23
528.973	5910.37
529.339	5944.94
529.705	5988.11
530.071	6073.53
530.437	6101.32
530.803	6167.08
531.169	6180.42
531.535	6176.57
531.901	6215.44
532.267	6291.6
532.632	6268.78
532.998	6395.33
533.364	6434.65
533.73	6472.61
534.095	6533.85
534.461	6575.43
534.826	6643.23
535.192	6688.2
535.557	6748.76
535.923	6737.69
536.288	6822.89
536.653	6820.17
537.019	6817.24
537.384	6882.77
537.749	6945.59
538.114	6991.24
538.479	7065.37
538.845	7024.69
539.21	7080.96
539.575	7092.71
539.94	7133.16
540.305	7172.93
540.67	7164.8
541.034	7234.85
541.399	7375.64
541.764	7357.33
542.129	7344.45
542.494	7387.39
542.858	7459.25
543.223	7487.27
543.587	7530.21
543.952	7528.18
544.316	7638.91
544.681	7679.59
545.045	7725.23
545.41	7724.56
545.774	7791.9
546.138	7837.77
546.503	7876.19
546.867	7894.72
547.231	7991.22
547.595	8008.84
547.959	8035.74
548.324	8082.06
548.688	8043.64
549.052	8125.68
549.416	8110.54
549.779	8201.61
550.143	8260.14
550.507	8311.43
550.871	8346.91
551.235	8379.23
551.599	8385.1
551.962	8488.38
552.326	8484.31
552.689	8593.23
553.053	8588.49
553.417	8632.1
553.78	8709.84
554.143	8743.06
554.507	8802.95
554.87	8837.75
555.234	8910.97
555.597	8866.67
555.96	8956.84
556.323	9044.97
556.686	9083.84
557.05	9156.16
557.413	9111.86
557.776	9183.95
558.139	9241.81
558.502	9294.68
558.865	9375.13
559.228	9448.35
559.59	9485.64
559.953	9465.3
560.316	9634.11
560.679	9627.78
561.041	9700.55
561.404	9749.59
561.767	9839.08
562.129	9809.7
562.492	9957.04
562.854	9970.15
563.217	10008.79
563.579	10065.06
563.941	10132.18
564.304	10197.26
564.666	10310.7
565.028	10337.14
565.39	10312.74
565.753	10447.65
566.115	10460.3
566.477	10507.31
566.839	10535.56
567.201	10652.62
567.563	10721.54
567.925	10725.61
568.287	10842.89
568.648	10838.6
569.01	10912.27
569.372	11023
569.734	10928.09
570.095	11071.36
570.457	11130.79
570.819	11157.01
571.18	11150.91
571.542	11293.05
571.903	11243.56
572.265	11364.01
572.626	11270.23
572.987	11399.49
573.349	11479.94
573.71	11584.57
574.071	11601.97
574.432	11576.66
574.794	11688.75
575.155	11783.21
575.516	11768.07
575.877	11748.86
576.238	11810.55
576.599	11867.5
576.96	11886.03
577.32	11939.59
577.681	12025.69
578.042	11979.59
578.403	12036.76
578.763	12129.41
579.124	12132.8
579.485	12272.91
579.845	12251.44
580.206	12258.22
580.566	12211.22
580.927	12309.52
581.287	12476.52
581.648	12327.37
582.008	12408.5
582.368	12382.74
582.728	12524.88
583.089	12509.29
583.449	12526.24
583.809	12481.72
584.169	12589.51
584.529	12625.44
584.889	12760.36
585.249	12629.74
585.609	12645.78
585.969	12675.16
586.329	12704.54
586.688	12707.93
587.048	12751.09
587.408	12768.04
587.768	12692.34
588.127	12761.71
588.487	12741.37
588.846	12943.4
589.206	12789.51
589.565	12836.96
589.925	12992.89
590.284	12866.12
590.643	12902.95
591.003	12923.29
591.362	13092.55
591.721	13033.34
592.08	13017.98
592.44	13098.88
592.799	13112.89
593.158	13129.39
593.517	13140.23
593.876	13109.27
594.235	13106.11
594.593	13189.27
594.952	13261.36
595.311	13189.27
595.67	13304.07
596.029	13258.87
596.387	13351.3
596.746	13379.55
597.104	13290.06
597.463	13344.3
597.822	13390.4
598.18	13360.11
598.538	13399.66
598.897	13425.42
599.255	13390.17
599.613	13566.66
599.972	13513.33
600.33	13547.91
600.688	13497.74
601.046	13617.74
601.404	13624.51
601.762	13621.58
602.12	13670.62
602.478	13704.51
602.836	13754.68
603.194	13671.75
603.552	13736.38
603.91	13622.25
604.268	13736.15
604.625	13795.58
604.983	13795.13
605.341	13771.86
605.698	13895.47
606.056	13934.34
606.413	13935.92
606.771	14020.44
607.128	14056.14
607.485	13910.61
607.843	13928.69
608.2	14125.52
608.557	14220.66
608.914	14094.33
609.272	14175.46
609.629	14217.27
609.986	14160.77
610.343	14182.01
610.7	14299.75
611.057	14350.37
611.414	14312.86
611.771	14325.29
612.127	14342.69
612.484	14372.74
612.841	14415.91
613.198	14381.33
613.554	14328.9
613.911	14503.81
614.267	14591.95
614.624	14527.99
614.98	14517.6
615.337	14600.53
615.693	14627.65
616.05	14660.42
616.406	14593.3
616.762	14661.78
617.118	14625.17
617.475	14736.8
617.831	14699.97
618.187	14752.17
618.543	14747.65
618.899	14916.23
619.255	14780.19
619.611	14872.39
619.967	14924.14
620.323	14956.46
620.678	14890.47
621.034	14990.35
621.39	14865.39
621.746	14870.13
622.101	15108.54
622.457	14894.09
622.812	14992.16
623.168	15149.67
623.523	15036.91
623.879	15074.65
624.234	14986.96
624.589	15072.61
624.945	15131.14
625.3	15181.54
625.655	15074.42
626.01	15119.39
626.365	15185.83
626.72	15123.68
627.075	15246.84
627.43	15133.85
627.785	15215.43
628.14	15127.98
628.495	15156.45
628.85	15111.03
629.205	15074.87
629.559	15260.4
629.914	15097.47
630.269	15214.53
630.623	15094.53
630.978	15090.01
631.332	15195.77
631.687	15243.46
632.041	15259.95
632.396	15202.55
632.75	15177.24
633.104	15125.49
633.459	15176.34
633.813	15151.93
634.167	15217.69
634.521	15156.9
634.875	15236.45
635.229	15162.78
635.583	15125.27
635.937	15141.54
636.291	15105.38
636.645	15192.16
636.999	15077.58
637.352	15133.85
637.706	15056.57
638.06	15195.32
638.413	15063.35
638.767	15060.86
639.121	15083.46
639.474	15021.54
639.828	15080.07
640.181	15009.56
640.534	15042.78
640.888	15049.11
641.241	14949
641.594	15026.29
641.947	15188.54
642.301	14945.38
642.654	15033.07
643.007	15032.39
643.36	14977.93
643.713	15039.39
644.066	15091.37
644.419	15019.05
644.771	14934.76
645.124	14822.45
645.477	14815.67
645.83	14683.02
646.182	14677.37
646.535	14560.99
646.888	14617.03
647.24	14509.01
647.593	14655.9
647.945	14640.08
648.298	14574.32
648.65	14580.87
649.002	14503.36
649.355	14683.47
649.707	14658.16
650.059	14660.65
650.411	14890.24
650.763	14843.01
651.115	15009.56
651.467	14997.36
651.819	14941.99
652.171	14973.41
652.523	14945.16
652.875	14935.89
653.227	14812.05
653.578	14947.64
653.93	14995.55
654.282	14876.01
654.633	14819.29
654.985	14861.09
655.337	14893.41
655.688	14862.22
656.039	15022.9
656.391	14829.23
656.742	14961.43
657.094	14869.68
657.445	14905.16
657.796	14968.43
658.147	14885.5
658.498	14887.98
658.849	14927.76
659.2	14857.7
659.551	14845.05
659.902	14908.32
660.253	14821.32
660.604	14952.39
660.955	14838.27
661.306	14961.88
661.656	14945.84
662.007	14841.66
662.358	14884.82
662.708	14932.95
663.059	14882.79
663.409	14893.86
663.76	14924.14
664.11	14970.69
664.461	15010.24
664.811	15029
665.161	14957.59
665.511	14994.42
665.862	15032.61
666.212	14990.13
666.562	14948.55
666.912	14960.07
667.262	14939.51
667.612	14962.56
667.962	14937.93
668.312	14936.12
668.662	15012.27
669.011	15002.78
669.361	14949.68
669.711	14921.2
670.06	14935.21
670.41	14890.02
670.76	14947.19
671.109	14994.65
671.459	15010.69
671.808	14961.88
672.157	14927.98
672.507	14779.51
672.856	14948.1
673.205	14928.21
673.554	15000.07
673.904	14979.73
674.253	15012.05
674.602	15011.6
674.951	14746.52
675.3	14709.46
675.649	14916.01
675.998	14927.53
676.346	14874.88
676.695	14960.98
677.044	14878.49
677.393	14960.98
677.741	14961.43
678.09	14848.66
678.438	14833.07
678.787	14906.74
679.135	14907.42
679.484	14815.9
679.832	14901.77
680.181	14778.83
680.529	14876.46
680.877	14784.71
681.225	14727.99
681.573	14865.84
681.922	14762.56
682.27	14750.81
682.618	14821.09
682.966	14722.79
683.314	14762.11
683.661	14738.16
684.009	14601.89
684.357	14640.08
684.705	14639.18
685.053	14683.92
685.4	14669.23
685.748	14531.84
686.095	14566.18
686.443	14465.85
686.79	14525.06
687.138	14544.94
687.485	14598.27
687.832	14553.3
688.18	14476.7
688.527	14421.56
688.874	14353.99
689.221	14331.84
689.568	14377.72
689.915	14362.57
690.262	14418.84
690.609	14346.53
690.956	14267.44
691.303	14194.9
691.65	14176.36
691.997	14184.27
692.344	14111.06
692.69	14071.51
693.037	14136.14
693.383	14075.58
693.73	14091.85
694.077	14055.46
694.423	14016.59
694.769	14036.03
695.116	14010.72
695.462	13953.55
695.808	13929.82
696.155	13911.29
696.501	13873.32
696.847	13837.39
697.193	13777.5
697.539	13798.3
697.885	13707.22
698.231	13660.9
698.577	13742.48
698.923	13650.28
699.269	13621.35
699.614	13498.64
699.96	13497.96
700.306	13460.23
700.651	13474.01
700.997	13468.59
701.342	13367.12
701.688	13435.14
702.033	13349.72
702.379	13356.5
702.724	13333.22
703.069	13303.17
703.415	13259.55
703.76	13264.07
704.105	13168.03
704.45	13220.46
704.795	13156.05
705.14	13158.31
705.485	13104.53
705.83	13106.34
706.175	13098.43
706.52	13044.42
706.865	12975.04
707.209	12958.77
707.554	12921.93
707.899	12950.18
708.243	12875.16
708.588	12958.54
708.932	12859.11
709.277	12733.01
709.621	12794.03
709.966	12784.31
710.31	12773.46
710.654	12738.44
710.998	12665.44
711.342	12707.25
711.687	12698.21
712.031	12629.29
712.375	12591.1
712.719	12621.15
713.063	12594.49
713.407	12615.5
713.75	12544.77
714.094	12476.75
714.438	12465.68
714.782	12545.45
715.125	12413.02
715.469	12462.29
715.812	12361.5
716.156	12355.62
716.499	12346.36
716.843	12338.67
717.186	12352.91
717.53	12363.08
717.873	12346.36
718.216	12321.72
718.559	12223.65
718.902	12197.21
719.246	12280.14
719.589	12239.01
719.932	12208.73
720.275	12171.45
720.617	12178.9
720.96	12248.96
721.303	12144.1
721.646	12160.15
721.989	12061.62
722.331	12099.13
722.674	12177.1
723.016	12138
723.359	12056.87
723.701	12134.61
724.044	12047.15
724.386	12015.07
724.729	12110.66
725.071	12036.08
725.413	12025.23
725.755	12053.71
726.097	12021.84
726.439	11926.25
726.782	11919.02
727.124	12013.48
727.465	11858.23
727.807	11904.33
728.149	11905.46
728.491	11874.28
728.833	11858.23
729.175	11853.71
729.516	11907.95
729.858	11778.24
730.199	11878.57
730.541	11883.32
730.882	11804
731.224	11833.6
731.565	11721.06
731.906	11777.33
732.248	11768.52
732.589	11789.08
732.93	11714.96
733.271	11712.02
733.612	11755.19
733.953	11776.65
734.294	11683.55
734.635	11760.16
734.976	11710.44
735.317	11640.39
735.658	11749.08
735.999	11762.42
736.339	11653.27
736.68	11681.51
737.021	11709.99
737.361	11632.48
737.702	11688.97
738.042	11689.65
738.383	11649.2
738.723	11657.11
739.063	11602.65
739.404	11655.98
739.744	11592.25
740.084	11583.89
740.424	11674.06
740.764	11547.51
741.104	11612.14
741.444	11548.19
741.784	11498.69
742.124	11656.88
742.464	11607.84
742.804	11496.66
743.143	11498.02
743.483	11587.28
743.823	11442.43
744.162	11420.73
744.502	11558.81
744.841	11451.24
745.181	11554.06
745.52	11445.81
745.86	11489.2
746.199	11454.63
746.538	11451.01
746.877	11434.97
747.216	11463.22
747.556	11390
747.895	11495.08
748.234	11402.43
748.573	11331.69
748.911	11354.29
749.25	11402.88
749.589	11385.7
749.928	11377.57
750.267	11397.68
750.605	11328.98
750.944	11284.24
751.283	11345.93
751.621	11392.48
751.96	11250.11
752.298	11284.24
752.636	11238.36
752.975	11233.39
753.313	11209.44
753.651	11228.42
753.989	11133.28
754.327	11167.4
754.666	11162.88
755.004	11171.47
755.342	11152.49
755.679	11157.23
756.017	11064.36
756.355	11107.52
756.693	11078.82
757.031	11088.54
757.368	11081.76
757.706	11001.76
758.044	11040.63
758.381	11050.12
758.719	11014.41
759.056	11004.92
759.394	10969.22
759.731	10906.85
760.068	10969.44
