Data from cardboard_FLMS001491_090.txt Node
Date: Tue Feb 07 11:40:17 GMT 2017
User: dcchb
Spectrometer: FLMS00149
Trigger mode: 0
Integration Time (sec): 2.000000E-2
Scans to average: 10
Electric dark correction enabled: true
Nonlinearity correction enabled: false
Boxcar width: 0
XAxis mode: Wavelengths
Number of Pixels in Spectrum: 2048
>>>>>Begin Spectral Data<<<<<
341.393	6.71
341.776	6.71
342.16	6.71
342.543	-57.7
342.927	-58.83
343.31	-34.87
343.693	-67.64
344.077	-79.62
344.46	-78.94
344.843	-48.43
345.226	-33.97
345.61	-12.27
345.993	-31.71
346.376	-16.34
346.759	2.87
347.142	23.43
347.525	35.86
347.908	39.7
348.291	76.31
348.674	95.07
349.057	130.55
349.44	118.12
349.823	144.33
350.206	169.87
350.588	197.89
350.971	202.86
351.354	240.6
351.737	229.75
352.119	258.68
352.502	272.24
352.884	280.15
353.267	272.01
353.65	292.13
354.032	297.77
354.414	316.98
354.797	348.62
355.179	328.96
355.562	326.93
355.944	333.03
356.326	321.28
356.709	338.23
357.091	325.12
357.473	345.46
357.855	352.46
358.238	357.66
358.62	335.51
359.002	350.2
359.384	346.13
359.766	356.53
360.148	357.43
360.53	345.23
360.912	327.83
361.294	338.9
361.676	341.16
362.057	349.98
362.439	332.35
362.821	331.67
363.203	316.53
363.584	309.75
363.966	325.57
364.348	329.86
364.729	327.38
365.111	327.38
365.493	319.47
365.874	316.31
366.256	306.81
366.637	328.28
367.019	338.68
367.4	337.77
367.781	350.65
368.163	325.8
368.544	325.57
368.925	343.65
369.306	313.59
369.688	324.21
370.069	315.18
370.45	337.77
370.831	331.67
371.212	321.95
371.593	315.18
371.974	320.6
372.355	313.59
372.736	335.29
373.117	317.44
373.498	324.21
373.879	318.34
374.26	341.16
374.641	330.77
375.021	325.34
375.402	321.28
375.783	317.66
376.163	341.16
376.544	321.28
376.925	330.54
377.305	342.07
377.686	346.81
378.066	332.8
378.447	331.45
378.827	335.29
379.208	349.75
379.588	345.46
379.968	350.43
380.349	335.29
380.729	340.71
381.109	333.48
381.489	371.67
381.87	378.68
382.25	362.86
382.63	352.46
383.01	369.19
383.39	364.21
383.77	359.02
384.15	360.37
384.53	361.28
384.91	351.78
385.29	368.28
385.67	370.32
386.049	368.28
386.429	390.65
386.809	366.02
387.189	373.7
387.568	385.91
387.948	374.38
388.328	373.25
388.707	378
389.087	385.91
389.466	387.26
389.846	380.94
390.225	384.78
390.605	376.64
390.984	389.52
391.363	405.57
391.743	410.54
392.122	396.3
392.501	386.81
392.881	403.08
393.26	407.83
393.639	411.22
394.018	400.6
394.397	419.35
394.776	421.61
395.155	418.9
395.534	416.87
395.913	420.26
396.292	423.42
396.671	418.68
397.05	415.74
397.429	398.56
397.808	435.4
398.186	433.82
398.565	422.97
398.944	424.78
399.323	436.75
399.701	434.04
400.08	450.76
400.458	430.43
400.837	441.5
401.215	462.29
401.594	444.21
401.972	458.45
402.351	474.49
402.729	455.96
403.107	458
403.486	486.24
403.864	452.8
404.242	484.21
404.62	458.9
404.999	478.33
405.377	474.72
405.755	482.85
406.133	475.62
406.511	483.31
406.889	500.93
407.267	495.28
407.645	502.97
408.023	503.87
408.401	508.84
408.779	512.23
409.156	513.36
409.534	538.22
409.912	540.48
410.29	525.57
410.667	547.49
411.045	521.27
411.422	555.62
411.8	536.64
412.178	575.96
412.555	584.09
412.933	554.04
413.31	564.89
413.687	559.69
414.065	592.68
414.442	583.64
414.819	564.66
415.197	588.61
415.574	595.17
415.951	585.68
416.328	595.17
416.705	603.98
417.082	607.37
417.46	606.24
417.837	624.77
418.214	611.44
418.591	632
418.967	610.99
419.344	622.29
419.721	649.86
420.098	631.55
420.475	654.6
420.852	641.95
421.228	642.17
421.605	639.01
421.982	668.16
422.358	667.03
422.735	675.62
423.111	680.36
423.488	682.62
423.864	663.41
424.241	695.5
424.617	691.44
424.994	691.44
425.37	708.39
425.746	700.48
426.123	731.44
426.499	746.35
426.875	719.68
427.251	714.49
427.627	742.73
428.003	742.96
428.379	751.1
428.756	768.27
429.132	756.97
429.507	804.88
429.883	780.93
430.259	810.98
430.635	800.59
431.011	803.75
431.387	837.2
431.763	830.64
432.138	853.01
432.514	828.83
432.89	860.02
433.265	851.21
433.641	882.62
434.016	882.84
434.392	915.61
434.767	933.01
435.143	883.97
435.518	911.54
435.894	909.96
436.269	921.04
436.644	922.17
437.02	921.04
437.395	959.68
437.77	944.31
438.145	961.94
438.52	982.5
438.895	1001.48
439.271	973.46
439.646	984.08
440.021	1010.07
440.395	1012.11
440.77	1010.98
441.145	1018.89
441.52	1022.05
441.895	1019.79
442.27	1054.82
442.645	1012.33
443.019	1043.07
443.394	1057.98
443.769	1066.34
444.143	1046.46
444.518	1090.75
444.892	1096.4
445.267	1082.84
445.641	1087.36
446.016	1099.34
446.39	1108.15
446.764	1094.14
447.139	1133.91
447.513	1117.19
447.887	1137.98
448.262	1133.68
448.636	1127.13
449.01	1128.49
449.384	1178.66
449.758	1179.79
450.132	1198.99
450.506	1211.65
450.88	1179.11
451.254	1200.8
451.628	1202.38
452.002	1220.24
452.376	1247.35
452.75	1251.87
453.123	1261.37
453.497	1302.95
453.871	1280.8
454.244	1300.23
454.618	1303.62
454.992	1314.92
455.365	1357.18
455.739	1365.54
456.112	1372.77
456.486	1372.55
456.859	1379.1
457.232	1362.83
457.606	1427.69
457.979	1446.22
458.352	1445.99
458.725	1469.04
459.099	1509.04
459.472	1523.73
459.845	1505.88
460.218	1526.44
460.591	1554.01
460.964	1561.92
461.337	1591.07
461.71	1589.72
462.083	1632.2
462.456	1648.02
462.829	1657.74
463.201	1655.03
463.574	1670.17
463.947	1700.9
464.32	1752.88
464.692	1754.23
465.065	1765.98
465.438	1788.58
465.81	1820.67
466.183	1823.61
466.555	1839.2
466.928	1890.95
467.3	1862.71
467.672	1922.82
468.045	1937.96
468.417	1971.85
468.789	1964.85
469.161	1964.85
469.534	2022.7
469.906	2062.02
470.278	2072.64
470.65	2090.04
471.022	2115.13
471.394	2199.19
471.766	2170.95
472.138	2206.43
472.51	2262.92
472.882	2324.16
473.253	2291.17
473.625	2309.25
473.997	2394.22
474.369	2411.17
474.74	2404.61
475.112	2460.43
475.484	2541.78
475.855	2567.77
476.227	2576.36
476.598	2646.19
476.97	2670.82
477.341	2719.41
477.713	2777.71
478.084	2781.55
478.455	2889.8
478.827	2876.46
479.198	2971.6
479.569	2982.22
479.94	3031.04
480.311	3062.67
480.682	3133.18
481.053	3195.55
481.424	3234.19
481.795	3307.41
482.166	3354.64
482.537	3358.03
482.908	3471.7
483.279	3482.32
483.65	3580.17
484.021	3619.04
484.391	3682.09
484.762	3732.49
485.133	3753.28
485.503	3781.07
485.874	3901.07
486.244	3943.1
486.615	4017.22
486.985	4069.43
487.356	4106.49
487.726	4161.18
488.097	4219.71
488.467	4249.31
488.837	4358.91
489.207	4392.81
489.578	4467.61
489.948	4518.68
490.318	4612.46
490.688	4627.83
491.058	4713.03
491.428	4781.27
491.798	4851.78
492.168	4899.91
492.538	4989.4
492.908	5021.94
493.278	5078.89
493.648	5119.57
494.017	5178.78
494.387	5253.8
494.757	5311.43
495.126	5409.5
495.496	5422.61
495.866	5526.56
496.235	5461.93
496.605	5544.42
496.974	5587.58
497.344	5658.76
497.713	5715.26
498.082	5763.39
498.452	5824.63
498.821	5905.31
499.19	5957.51
499.559	5962.26
499.928	6001.13
500.298	6090.62
500.667	6149.37
501.036	6164.29
501.405	6265.3
501.774	6250.39
502.143	6287.45
502.512	6371.06
502.88	6485.63
503.249	6535.35
503.618	6501.91
503.987	6588.91
504.356	6625.07
504.724	6707.1
505.093	6719.53
505.462	6792.97
505.83	6849.69
506.199	6943.7
506.567	7016.47
506.936	7024.83
507.304	7150.02
507.672	7218.27
508.041	7342.79
508.409	7315.9
508.777	7400.19
509.145	7434.54
509.514	7450.13
509.882	7574.87
510.25	7644.47
510.618	7705.26
510.986	7732.61
511.354	7883.11
511.722	7896.22
512.09	7974.86
512.458	8058.47
512.826	8123.33
513.193	8156.78
513.561	8169.66
513.929	8271.35
514.297	8346.15
514.664	8439.93
515.032	8489.2
515.4	8590.89
515.767	8667.72
516.135	8712.02
516.502	8783.65
516.869	8918.56
517.237	8923.31
517.604	8950.43
517.972	9100.71
518.339	9165.34
518.706	9189.29
519.073	9331.44
519.44	9475.61
519.808	9451.43
520.175	9528.94
520.542	9667.25
520.909	9762.38
521.276	9791.31
521.643	9900.91
522.009	10014.13
522.376	10074.47
522.743	10136.39
523.11	10271.98
523.477	10372.99
523.843	10505.64
524.21	10671.06
524.577	10700.66
524.943	10731.62
525.31	10878.29
525.676	11011.39
526.043	11022.24
526.409	11179.75
526.776	11319.41
527.142	11317.6
527.508	11397.6
527.874	11591.71
528.241	11685.72
528.607	11794.2
528.973	11860.18
529.339	11864.48
529.705	12075.77
530.071	12286.84
530.437	12292.49
530.803	12421.07
531.169	12470.11
531.535	12494.97
531.901	12529.54
532.267	12611.8
532.632	12758.24
532.998	12851.79
533.364	12995.29
533.73	13109.64
534.095	13219.24
534.461	13164.1
534.826	13243.87
535.192	13281.84
535.557	13544.66
535.923	13556.18
536.288	13683.19
536.653	13661.04
537.019	13772.45
537.384	13838.66
537.749	13926.57
538.114	14023.29
538.479	13972.22
538.845	14152.1
539.21	14191.65
539.575	14249.72
539.94	14369.04
540.305	14413.56
540.67	14568.13
541.034	14609.49
541.399	14743.95
541.764	14723.61
542.129	14915.92
542.494	14929.71
542.858	15061.91
543.223	15063.94
543.587	15164.05
543.952	15222.35
544.316	15241.79
544.681	15305.74
545.045	15495.12
545.41	15484.49
545.774	15651.95
546.138	15609.69
546.503	15694.88
546.867	15798.16
547.231	15910.47
547.595	15964.03
547.959	16069.79
548.324	16138.04
548.688	16220.52
549.052	16316.56
549.416	16331.48
549.779	16392.04
550.143	16502.77
550.507	16696.21
550.871	16755.2
551.235	16855.98
551.599	16960.39
551.962	17012.59
552.326	17146.6
552.689	17191.34
553.053	17210.32
553.417	17254.84
553.78	17438.79
554.143	17481.5
554.507	17700.25
554.87	17672.69
555.234	17972.34
555.597	17802.85
555.96	17878.56
556.323	18026.57
556.686	18093.92
557.05	18265.89
557.413	18300.69
557.776	18395.83
558.139	18447.58
558.502	18655.03
558.865	18708.59
559.228	18874.46
559.59	18915.59
559.953	19129.82
560.316	19257.5
560.679	19247.11
561.041	19486.87
561.404	19620.66
561.767	19777.04
562.129	19652.07
562.492	19937.03
562.854	20029.23
563.217	19994.21
563.579	20155.56
563.941	20243.92
564.304	20393.74
564.666	20580.86
565.028	20631.48
565.39	20692.72
565.753	20883.22
566.115	20965.03
566.477	21172.48
566.839	21128.19
567.201	21355.75
567.563	21459.7
567.925	21584.67
568.287	21599.36
568.648	21638.23
569.01	21871.67
569.372	22053.59
569.734	21939.24
570.095	22152.12
570.457	22390.53
570.819	22254.94
571.18	22373.35
571.542	22552.56
571.903	22624.19
572.265	22731.76
572.626	22803.17
572.987	22930.4
573.349	22964.3
573.71	23118.64
574.071	23151.19
574.432	23301.01
574.794	23539.42
575.155	23537.39
575.516	23500.33
575.877	23701.68
576.238	23731.51
576.599	23727.44
576.96	23845.4
577.32	23869.81
577.681	24088.56
578.042	24113.19
578.403	24097.37
578.763	24206.75
579.124	24350.93
579.485	24452.17
579.845	24543.24
580.206	24451.49
580.566	24555.22
580.927	24536.69
581.287	24735.55
581.648	24671.15
582.008	24763.57
582.368	24852.38
582.728	24866.85
583.089	24893.74
583.449	24884.02
583.809	24978.93
584.169	25048.31
584.529	25067.74
584.889	25222.09
585.249	25098.7
585.609	25092.83
585.969	25242.2
586.329	25289.21
586.688	25252.6
587.048	25442.65
587.408	25349.09
587.768	25365.59
588.127	25502.54
588.487	25404.23
588.846	25680.16
589.206	25609.65
589.565	25494.85
589.925	25810.1
590.284	25738.01
590.643	25730.1
591.003	25864.79
591.362	25873.83
591.721	25967.38
592.08	25886.48
592.44	25994.27
592.799	26042.86
593.158	25940.49
593.517	26076.08
593.876	26062.07
594.235	26003.31
594.593	26161.05
594.952	26331.89
595.311	26251.89
595.67	26408.5
596.029	26509.06
596.387	26513.36
596.746	26499.35
597.104	26504.32
597.463	26504.54
597.822	26680.36
598.18	26519.68
598.538	26565.56
598.897	26826.57
599.255	26535.73
599.613	26925.55
599.972	26828.83
600.33	26842.16
600.688	26716.29
601.046	26946.11
601.404	27015.04
601.762	27042.38
602.12	27049.39
602.478	27156.05
602.836	27236.95
603.194	27096.39
603.552	27246.67
603.91	27187.69
604.268	27381.36
604.625	27190.85
604.983	27276.95
605.341	27362.37
605.698	27335.26
606.056	27563.27
606.413	27587.23
606.771	27572.99
607.128	27646.66
607.485	27617.73
607.843	27711.52
608.2	27754.91
608.557	27810.05
608.914	27807.11
609.272	27799.42
609.629	28085.07
609.986	28119.87
610.343	28053.2
610.7	28260.43
611.057	28229.47
611.414	28181.34
611.771	28267.43
612.127	28349.47
612.484	28436.7
612.841	28505.85
613.198	28310.82
613.554	28446.19
613.911	28640.53
614.267	28700.64
614.624	28558.95
614.98	28677.14
615.337	28755.78
615.693	28754.43
616.05	28693.41
616.406	29042.33
616.762	28843.01
617.118	28955.55
617.475	28905.84
617.831	29030.35
618.187	29120.97
618.543	29262.21
618.899	29202.78
619.255	29196.9
619.611	29237.13
619.967	29390.34
620.323	29352.15
620.678	29387.63
621.034	29316.67
621.39	29387.41
621.746	29320.06
622.101	29716.21
622.457	29558.93
622.812	29468.76
623.168	29483.67
623.523	29647.51
623.879	29768.86
624.234	29499.49
624.589	29674.86
624.945	29733.61
625.3	29731.35
625.655	29685.48
626.01	29753.95
626.365	29741.52
626.72	29749.66
627.075	29700.17
627.43	29671.92
627.785	29681.63
628.14	29617.68
628.495	29815.42
628.85	29724.57
629.205	29772.48
629.559	29888.86
629.914	29762.54
630.269	29785.36
630.623	29681.18
630.978	29661.97
631.332	29795.98
631.687	29833.5
632.041	29706.49
632.396	29922.76
632.75	29784.23
633.104	29821.29
633.459	29662.88
633.813	29703.78
634.167	29662.88
634.521	29727.28
634.875	29831.24
635.229	29787.39
635.583	29527.29
635.937	29606.83
636.291	29630.79
636.645	29564.58
636.999	29525.93
637.352	29667.85
637.706	29367.97
638.06	29509.21
638.413	29667.4
638.767	29573.84
639.121	29534.07
639.474	29342.21
639.828	29454.52
640.181	29374.98
640.534	29508.08
640.888	29438.93
641.241	29409.1
641.594	29307.86
641.947	29489.32
642.301	29300.4
642.654	29296.11
643.007	29348.31
643.36	29376.78
643.713	29374.07
644.066	29352.38
644.419	29167.52
644.771	28937.25
645.124	28774.54
645.477	28705.39
645.83	28597.82
646.182	28460.88
646.535	28365.29
646.888	28531.38
647.24	28461.1
647.593	28531.83
647.945	28629.01
648.298	28336.13
648.65	28341.78
649.002	28235.12
649.355	28448.22
649.707	28305.17
650.059	28506.75
650.411	28779.96
650.763	28818.38
651.115	29136.11
651.467	29058.15
651.819	29031.71
652.171	29023.57
652.523	29021.09
652.875	29016.12
653.227	28970.02
653.578	29140.18
653.93	29026.28
654.282	28913.07
654.633	28890.7
654.985	28932.95
655.337	29068.54
655.688	28996.46
656.039	29124.59
656.391	28967.76
656.742	28988.55
657.094	28869.9
657.445	29094.08
657.796	28891.6
658.147	28808.89
658.498	29055.89
658.849	29030.13
659.2	28934.76
659.551	28796.23
659.902	29046.17
660.253	28861.32
660.604	28992.61
660.955	28783.35
661.306	29031.03
661.656	28903.12
662.007	28965.27
662.358	28912.84
662.708	29041.43
663.059	28998.26
663.409	28709.46
663.76	29036.68
664.11	28973.4
664.461	29000.3
664.811	29012.95
665.161	28972.73
665.511	28914.42
665.862	29001.88
666.212	29135.43
666.562	29139.5
666.912	29045.04
667.262	29007.53
667.612	29058.15
667.962	28977.7
668.312	28855.22
668.662	29149.9
669.011	29097.47
669.361	28935.89
669.711	29046.4
670.06	28944.71
670.41	28941.77
670.76	28808.89
671.109	29099.05
671.459	28857.93
671.808	28902.9
672.157	28922.56
672.507	28769.79
672.856	28811.83
673.205	28891.15
673.554	28890.47
673.904	28868.55
674.253	29093.18
674.602	28860.19
674.951	28496.58
675.3	28440.09
675.649	28821.54
675.998	28853.63
676.346	28788.55
676.695	29019.05
677.044	28685.73
677.393	28748.33
677.741	28870.36
678.09	28699.06
678.438	28718.27
678.787	28735.45
679.135	28683.92
679.484	28719.4
679.832	28661.32
680.181	28558.95
680.529	28629.23
680.877	28466.07
681.225	28522.34
681.573	28719.63
681.922	28391.27
682.27	28532.29
682.618	28511.5
682.966	28468.56
683.314	28422.23
683.661	28314.89
684.009	28219.98
684.357	28180.21
684.705	28182.69
685.053	28109.7
685.4	28216.81
685.748	28030.38
686.095	28062.92
686.443	27983.83
686.79	27969.82
687.138	28052.98
687.485	27972.3
687.832	27829.71
688.18	27945.86
688.527	27796.94
688.874	27785.64
689.221	27654.57
689.568	27606.44
689.915	27677.17
690.262	27556.72
690.609	27507.68
690.956	27401.69
691.303	27484.63
691.65	27237.41
691.997	27328.93
692.344	27233.11
692.69	27161.48
693.037	27274.01
693.383	26916.06
693.73	27121.48
694.077	26867.02
694.423	26909.73
694.769	26875.38
695.116	26817.76
695.462	26751.09
695.808	26714.93
696.155	26697.76
696.501	26520.81
696.847	26458.44
697.193	26301.16
697.539	26394.49
697.885	26347.26
698.231	26318.33
698.577	26253.7
698.923	26145.23
699.269	25991.79
699.614	26036.08
699.96	25885.35
700.306	25909.08
700.651	25834.28
700.997	25665.24
701.342	25765.58
701.688	25642.19
702.033	25688.52
702.379	25659.82
702.724	25486.49
703.069	25540.73
703.415	25223.9
703.76	25324.46
704.105	25300.96
704.45	25256.21
704.795	24997.24
705.14	24941.19
705.485	24999.27
705.83	24922.44
706.175	25004.47
706.52	24862.33
706.865	24806.51
707.209	24793.85
707.554	24726.28
707.899	24733.52
708.243	24599.96
708.588	24512.96
708.932	24479.74
709.277	24416.69
709.621	24467.99
709.966	24162.23
710.31	24271.38
710.654	24216.47
710.998	24295.34
711.342	24157.94
711.687	24210.82
712.031	24115.45
712.375	23999.07
712.719	24003.59
713.063	23960.43
713.407	24082.01
713.75	23922.24
714.094	23930.83
714.438	23830.72
714.782	23927.21
715.125	23827.33
715.469	23887.21
715.812	23721.57
716.156	23604.05
716.499	23524.73
716.843	23669.36
717.186	23536.94
717.53	23627.78
717.873	23691.51
718.216	23561.8
718.559	23438.41
718.902	23377.62
719.246	23324.97
719.589	23391.63
719.932	23211.97
720.275	23197.96
720.617	23129.49
720.96	23135.59
721.303	23195.93
721.646	23176.72
721.989	23083.39
722.331	23256.04
722.674	23076.16
723.016	23138.98
723.359	23071.64
723.701	23103.73
724.044	22870.06
724.386	22888.37
724.729	22995.48
725.071	22872.32
725.413	22866.45
725.755	22753
726.097	22819.44
726.439	22816.96
726.782	22798.2
727.124	22838.2
727.465	22666
727.807	22701.48
728.149	22627.36
728.491	22621.48
728.833	22650.18
729.175	22576.96
729.516	22422.39
729.858	22491.32
730.199	22565.66
730.541	22447.02
730.882	22532.9
731.224	22600.69
731.565	22412.22
731.906	22532.67
732.248	22496.06
732.589	22306.46
732.93	22283.19
733.271	22384.43
733.612	22357.99
733.953	22432.79
734.294	22318.21
734.635	22283.19
734.976	22394.59
735.317	22265.33
735.658	22258.78
735.999	22144.88
736.339	22173.36
736.68	22327.93
737.021	22181.95
737.361	22143.08
737.702	22116.64
738.042	22179.23
738.383	22062.85
738.723	22163.87
739.063	22023.53
739.404	22036.41
739.744	22057.65
740.084	22001.38
740.424	21984.21
740.764	21968.84
741.104	22132.45
741.444	22027.6
741.784	21845.23
742.124	21997.09
742.464	21964.55
742.804	21959.8
743.143	21864.44
743.483	21901.27
743.823	21868.73
744.162	21840.49
744.502	21834.16
744.841	21743.76
745.181	21950.09
745.52	21823.76
745.86	21767.94
746.199	21856.98
746.538	21796.87
746.877	21897.66
747.216	21718.91
747.556	21764.55
747.895	21781.96
748.234	21665.8
748.573	21626.25
748.911	21729.75
749.25	21607.04
749.589	21628.29
749.928	21831.67
750.267	21698.34
750.605	21602.98
750.944	21589.64
751.283	21466.48
751.621	21531.34
751.96	21496.31
752.298	21552.81
752.636	21544.22
752.975	21478.91
753.313	21402.76
753.651	21442.3
753.989	21491.79
754.327	21448.18
754.666	21213.38
755.004	21322.76
755.342	21337
755.679	21326.83
756.017	21268.3
756.355	21244.57
