Data from cardboard_FLMS001491_060.txt Node
Date: Tue Feb 07 11:39:45 GMT 2017
User: dcchb
Spectrometer: FLMS00149
Trigger mode: 0
Integration Time (sec): 2.000000E-2
Scans to average: 10
Electric dark correction enabled: true
Nonlinearity correction enabled: false
Boxcar width: 0
XAxis mode: Wavelengths
Number of Pixels in Spectrum: 2048
>>>>>Begin Spectral Data<<<<<
341.393	-20.23
341.776	-20.23
342.16	-20.23
342.543	-69.49
342.927	-67.46
343.31	-38.98
343.693	-60.22
344.077	-66.55
344.46	-80.79
344.843	-48.93
345.226	-54.12
345.61	-38.53
345.993	0.11
346.376	-8.25
346.759	9.15
347.142	21.81
347.525	25.65
347.908	59.55
348.291	73.56
348.674	98.87
349.057	107.68
349.44	124.4
349.823	133.67
350.206	164.4
350.588	186.32
350.971	224.74
351.354	223.84
351.737	243.5
352.119	246.66
352.502	250.05
352.884	287.79
353.267	261.8
353.65	274.68
354.032	290.5
354.414	306.77
354.797	308.13
355.179	288.24
355.562	327.79
355.944	315.13
356.326	311.29
356.709	334.79
357.091	343.61
357.473	344.74
357.855	334.34
358.238	325.98
358.62	345.64
359.002	331.86
359.384	321.23
359.766	315.81
360.148	330.73
360.53	311.29
360.912	326.43
361.294	328.24
361.676	330.73
362.057	319.88
362.439	321.46
362.821	313.1
363.203	316.04
363.584	314.68
363.966	321.23
364.348	341.57
364.729	314.68
365.111	304.06
365.493	316.04
365.874	321.91
366.256	314.68
366.637	291.63
367.019	312.42
367.4	283.27
367.781	291.4
368.163	297.05
368.544	308.58
368.925	316.04
369.306	316.71
369.688	293.21
370.069	288.92
370.45	315.81
370.831	314.68
371.212	302.93
371.593	307.68
371.974	296.6
372.355	297.05
372.736	311.29
373.117	292.53
373.498	310.16
373.879	309.03
374.26	283.5
374.641	290.05
375.021	302.48
375.402	317.39
375.783	310.84
376.163	320.33
376.544	317.84
376.925	311.07
377.305	309.94
377.686	298.18
378.066	309.71
378.447	301.12
378.827	320.56
379.208	298.18
379.588	303.38
379.968	325.08
380.349	302.48
380.729	339.54
381.109	322.36
381.489	297.51
381.87	314.68
382.25	336.83
382.63	331.4
383.01	335.25
383.39	339.31
383.77	335.02
384.15	358.97
384.53	337.96
384.91	354.45
385.29	323.04
385.67	339.54
386.049	344.74
386.429	348.13
386.809	359.2
387.189	330.73
387.568	379.09
387.948	348.58
388.328	352.65
388.707	331.63
389.087	357.62
389.466	337.28
389.846	348.58
390.225	363.95
390.605	363.04
390.984	348.13
391.363	333.44
391.743	365.98
392.122	358.52
392.501	360.1
392.881	373.89
393.26	358.52
393.639	365.08
394.018	362.36
394.397	351.97
394.776	351.52
395.155	386.77
395.534	376.6
395.913	381.8
396.292	370.5
396.671	359.2
397.05	368.01
397.429	374.79
397.808	376.15
398.186	374.11
398.565	390.61
398.944	381.12
399.323	377.5
399.701	377.73
400.08	382.7
400.458	384.74
400.837	420.89
401.215	375.47
401.594	395.58
401.972	387
402.351	374.57
402.729	394.45
403.107	417.28
403.486	387.45
403.864	402.14
404.242	407.79
404.62	401.91
404.999	420.21
405.377	426.99
405.755	409.82
406.133	415.24
406.511	436.94
406.889	424.06
407.267	438.97
407.645	436.49
408.023	431.51
408.401	423.83
408.779	460.67
409.156	431.51
409.534	419.54
409.912	435.36
410.29	438.07
410.667	446.2
411.045	440.1
411.422	454.79
411.8	442.36
412.178	463.38
412.555	449.82
412.933	448.91
413.31	450.27
413.687	471.29
414.065	483.49
414.442	485.07
414.819	476.94
415.197	456.82
415.574	483.49
415.951	491.4
416.328	485.3
416.705	505.18
417.082	492.53
417.46	470.16
417.837	498.86
418.214	494.56
418.591	516.48
418.967	513.55
419.344	519.2
419.721	518.52
420.098	490.72
420.475	510.61
420.852	503.15
421.228	500.21
421.605	516.71
421.982	530.49
422.358	545.41
422.735	527.1
423.111	530.49
423.488	558.74
423.864	543.15
424.241	545.18
424.617	529.36
424.994	546.99
425.37	565.75
425.746	558.06
426.123	558.29
426.499	571.62
426.875	577.5
427.251	574.34
427.627	558.52
428.003	596.03
428.379	588.8
428.756	602.58
429.132	583.15
429.507	593.54
429.883	615.01
430.259	590.61
430.635	598.52
431.011	618.85
431.387	630.15
431.763	612.75
432.138	623.15
432.514	635.8
432.89	637.38
433.265	639.42
433.641	671.96
434.016	663.37
434.392	679.87
434.767	688.46
435.143	679.87
435.518	654.79
435.894	674.45
436.269	689.36
436.644	670.38
437.02	690.49
437.395	719.87
437.77	716.25
438.145	733.43
438.52	718.51
438.895	719.64
439.271	730.26
439.646	743.37
440.021	723.94
440.395	741.56
440.77	759.64
441.145	755.12
441.52	792.86
441.895	759.42
442.27	754.22
442.645	756.48
443.019	749.25
443.394	782.69
443.769	789.92
444.143	771.17
444.518	807.78
444.892	798.51
445.267	800.77
445.641	806.65
446.016	809.81
446.39	815.46
446.764	819.98
447.139	825.63
447.513	817.27
447.887	815.01
448.262	803.93
448.636	822.24
449.01	854.33
449.384	823.59
449.758	854.55
450.132	840.09
450.506	868.79
450.88	895.68
451.254	875.8
451.628	908.11
452.002	898.17
452.376	889.36
452.75	882.58
453.123	895
453.497	925.06
453.871	917.38
454.244	933.42
454.618	917.38
454.992	954.44
455.365	949.69
455.739	979.07
456.112	985.85
456.486	989.01
456.859	1003.93
457.232	998.5
457.606	1004.61
457.979	1011.39
458.352	1048
458.725	1059.97
459.099	1040.99
459.472	1044.15
459.845	1076.69
460.218	1051.16
460.591	1086.64
460.964	1082.8
461.337	1089.8
461.71	1127.31
462.083	1128.67
462.456	1162.57
462.829	1123.25
463.201	1171.61
463.574	1178.39
463.947	1183.13
464.32	1207.09
464.692	1229.01
465.065	1245.73
465.438	1251.15
465.81	1245.5
466.183	1255.45
466.555	1269.46
466.928	1297.48
467.3	1267.65
467.672	1328.21
468.045	1359.17
468.417	1321.89
468.789	1349.68
469.161	1365.27
469.534	1373.86
469.906	1411.6
470.278	1421.77
470.65	1422
471.022	1464.93
471.394	1464.48
471.766	1506.97
472.138	1520.3
472.51	1538.38
472.882	1568.43
473.253	1601.65
473.625	1607.98
473.997	1613.86
474.369	1630.13
474.74	1675.78
475.112	1684.14
475.484	1692.27
475.855	1727.53
476.227	1752.16
476.598	1793.51
476.97	1799.61
477.341	1823.12
477.713	1892.94
478.084	1864.92
478.455	1929.55
478.827	1910.8
479.198	1954.41
479.569	2012.94
479.94	2054.3
480.311	2064.01
480.682	2076.22
481.053	2138.81
481.424	2186.27
481.795	2207.51
482.166	2224.91
482.537	2266.27
482.908	2300.17
483.279	2318.92
483.65	2379.94
484.021	2402.54
484.391	2438.69
484.762	2422.65
485.133	2508.75
485.503	2526.15
485.874	2599.37
486.244	2598.69
486.615	2641.63
486.985	2687.73
487.356	2718.69
487.726	2749.65
488.097	2817.44
488.467	2823.77
488.837	2852.02
489.207	2930.21
489.578	2909.19
489.948	2998.23
490.318	3051.11
490.688	3047.72
491.058	3086.59
491.428	3145.34
491.798	3187.15
492.168	3250.42
492.538	3274.15
492.908	3353.47
493.278	3382.62
493.648	3378.78
494.017	3397.09
494.387	3496.97
494.757	3473.69
495.126	3535.16
495.496	3544.65
495.866	3583.3
496.235	3583.75
496.605	3625.1
496.974	3653.58
497.344	3734.93
497.713	3748.71
498.082	3798.66
498.452	3860.58
498.821	3851.54
499.19	3853.35
499.559	3890.41
499.928	3941.48
500.298	4006.11
500.667	4028.03
501.036	4017.18
501.405	4066.67
501.774	4106.45
502.143	4182.83
502.512	4201.58
502.88	4240.91
503.249	4238.42
503.618	4296.72
503.987	4303.95
504.356	4358.19
504.724	4362.94
505.093	4423.27
505.462	4482.93
505.83	4501.01
506.199	4559.09
506.567	4619.65
506.936	4633.44
507.304	4644.51
507.672	4660.78
508.041	4738.07
508.409	4787.78
508.777	4783.94
509.145	4857.16
509.514	4910.72
509.882	5019.87
510.25	4970.15
510.618	5069.13
510.986	5057.38
511.354	5143.93
511.722	5163.59
512.09	5190.26
512.458	5256.47
512.826	5349.35
513.193	5349.12
513.561	5408.33
513.929	5439.29
514.297	5470.48
514.664	5547.31
515.032	5599.97
515.4	5664.14
515.767	5695.33
516.135	5763.8
516.502	5780.3
516.869	5867.76
517.237	5898.94
517.604	5917.7
517.972	6029.78
518.339	5999.96
518.706	6026.85
519.073	6101.65
519.44	6123.57
519.808	6239.5
520.175	6316.33
520.542	6321.75
520.909	6408.08
521.276	6415.09
521.643	6531.47
522.009	6563.56
522.376	6633.84
522.743	6670.45
523.11	6758.58
523.477	6896.88
523.843	6949.31
524.21	6971.46
524.577	6987.5
524.943	7084.45
525.31	7156.08
525.676	7260.49
526.043	7295.51
526.409	7343.87
526.776	7474.49
527.142	7439.01
527.508	7532.8
527.874	7628.61
528.241	7720.14
528.607	7731.66
528.973	7880.58
529.339	7849.17
529.705	7971.88
530.071	8034.25
530.437	8111.09
530.803	8168.71
531.169	8225.21
531.535	8249.39
531.901	8302.72
532.267	8393.56
532.632	8502.71
532.998	8557.63
533.364	8608.93
533.73	8619.55
534.095	8784.97
534.461	8775.25
534.826	8879.65
535.192	8911.29
535.557	8949.93
535.923	8971.18
536.288	9112.19
536.653	9094.11
537.019	9145.41
537.384	9211.85
537.749	9179.76
538.114	9322.81
538.479	9271.96
538.845	9346.53
539.21	9492.97
539.575	9523.93
539.94	9533.2
540.305	9678.73
540.67	9678.73
541.034	9727.31
541.399	9784.49
541.764	9866.29
542.129	9887.31
542.494	9949.68
542.858	10003.24
543.223	10076.91
543.587	10169.11
543.952	10160.98
544.316	10211.6
544.681	10274.65
545.045	10360.29
545.41	10401.87
545.774	10407.75
546.138	10454.3
546.503	10523.23
546.867	10545.82
547.231	10716.89
547.595	10783.78
547.959	10820.62
548.324	10765.03
548.688	10905.81
549.052	10930.22
549.416	10972.48
549.779	11057.9
550.143	11085.47
550.507	11257.9
550.871	11242.76
551.235	11235.75
551.599	11391.23
551.962	11404.11
552.326	11510.77
552.689	11631.67
553.053	11601.62
553.417	11666.25
553.78	11842.74
554.143	11851.55
554.507	11921.83
554.87	11912.79
555.234	12070.3
555.597	12013.58
555.96	12167.93
556.323	12291.54
556.686	12244.76
557.05	12319.56
557.413	12384.42
557.776	12452.44
558.139	12621.93
558.502	12623.28
558.865	12672.77
559.228	12804.07
559.59	12834.13
559.953	12954.35
560.316	13101.01
560.679	13067.34
561.041	13209.71
561.404	13244.51
561.767	13440.66
562.129	13367.9
562.492	13667.78
562.854	13489.93
563.217	13565.86
563.579	13653.99
563.941	13797.49
564.304	13806.98
564.666	14001.78
565.028	14065.05
565.39	14063.7
565.753	14209.68
566.115	14237.03
566.477	14339.85
566.839	14324.48
567.201	14532.16
567.563	14558.15
567.925	14721.08
568.287	14737.8
568.648	14735.09
569.01	14946.16
569.372	14986.16
569.734	14990.91
570.095	15114.74
570.457	15160.62
570.819	15242.2
571.18	15248.98
571.542	15399.26
571.903	15312.48
572.265	15472.93
572.626	15689.87
572.987	15508.86
573.349	15693.71
573.71	15764.67
574.071	15853.93
574.432	15914.27
574.794	16029.07
575.155	15983.42
575.516	16009.64
575.877	16094.38
576.238	16175.51
576.599	16202.4
576.96	16346.8
577.32	16408.5
577.681	16372.56
578.042	16491.43
578.403	16592.67
578.763	16659.11
579.124	16659.56
579.485	16701.14
579.845	16722.16
580.206	16770.52
580.566	16752.21
580.927	17005.54
581.287	16953.11
581.648	16947.69
582.008	17041.7
582.368	17086.22
582.728	17107.01
583.089	17084.64
583.449	17068.14
583.809	17200.34
584.169	17197.4
584.529	17252.77
584.889	17470.16
585.249	17365.76
585.609	17260.45
585.969	17375.02
586.329	17379.77
586.688	17467.22
587.048	17514.68
587.408	17468.58
587.768	17536.6
588.127	17524.85
588.487	17489.37
588.846	17695.01
589.206	17593.32
589.565	17706.09
589.925	17770.49
590.284	17732.75
590.643	17754
591.003	17761
591.362	17797.61
591.721	17862.02
592.08	17888.68
592.44	17900.43
592.799	17891.17
593.158	17896.37
593.517	17921
593.876	17972.3
594.235	18021.79
594.593	18016.14
594.952	18051.16
595.311	18158.51
595.67	18178.39
596.029	18174.78
596.387	18256.36
596.746	18444.15
597.104	18239.86
597.463	18215
597.822	18325.96
598.18	18227.2
598.538	18322.34
598.897	18507.65
599.255	18389.01
599.613	18561.43
599.972	18529.12
600.33	18618.15
600.688	18563.47
601.046	18638.72
601.404	18662.9
601.762	18657.02
602.12	18869.45
602.478	18844.59
602.836	18856.34
603.194	18834.19
603.552	18845.27
603.91	18780.86
604.268	19049.78
604.625	18880.52
604.983	19022.44
605.341	18902.89
605.698	19002.78
606.056	19027.86
606.413	19056.11
606.771	19247.52
607.128	19299.49
607.485	19214.52
607.843	19204.81
608.2	19256.56
608.557	19331.81
608.914	19330.45
609.272	19426.04
609.629	19500.17
609.986	19520.28
610.343	19555.31
610.7	19686.38
611.057	19604.57
611.414	19663.55
611.771	19681.4
612.127	19739.25
612.484	19751.91
612.841	19832.59
613.198	19744.23
613.554	19798.24
613.911	19934.96
614.267	19945.8
614.624	19932.92
614.98	19981.06
615.337	20064.44
615.693	20173.37
616.05	20029.87
616.406	20301.73
616.762	20175.85
617.118	20256.76
617.475	20284.1
617.831	20250.88
618.187	20383.76
618.543	20458.78
618.899	20462.17
619.255	20468.5
619.611	20498.11
619.967	20619.68
620.323	20618.1
620.678	20597.76
621.034	20531.55
621.39	20628.5
621.746	20619.46
622.101	20797.31
622.457	20649.97
622.812	20741.26
623.168	20808.83
623.523	20772.45
623.879	20907.13
624.234	20659
624.589	20886.12
624.945	20898.55
625.3	20857.87
625.655	20789.62
626.01	20946.45
626.365	20929.96
626.72	20908.72
627.075	20949.84
627.43	20886.34
627.785	20850.86
628.14	21010.18
628.495	21010.41
628.85	20919.79
629.205	20965.44
629.559	21016.51
629.914	21040.01
630.269	21013.12
630.623	20916.4
630.978	20911.88
631.332	21070.75
631.687	21090.18
632.041	20976.51
632.396	21105.77
632.75	21106
633.104	20962.73
633.459	20919.11
633.813	21022.39
634.167	21059.67
634.521	21014.48
634.875	20862.62
635.229	20922.73
635.583	20908.04
635.937	20948.04
636.291	20978.32
636.645	20983.29
636.999	20946
637.352	21035.72
637.706	20804.99
638.06	20949.84
638.413	20942.16
638.767	20853.12
639.121	20930.86
639.474	20831.43
639.828	20883.63
640.181	20816.06
640.534	20911.2
640.888	20817.42
641.241	20789.62
641.594	20695.61
641.947	20839.11
642.301	20836.63
642.654	20764.54
643.007	20819.9
643.36	20839.11
643.713	20800.47
644.066	20810.87
644.419	20655.16
644.771	20623.98
645.124	20462.85
645.477	20411.55
645.83	20293.14
646.182	20209.75
646.535	20189.64
646.888	20229.19
647.24	20099.47
647.593	20240.26
647.945	20144.67
648.298	20090.66
648.65	20088.4
649.002	20094.27
649.355	20277.55
649.707	20147.38
650.059	20356.64
650.411	20564.77
650.763	20573.36
651.115	20798.44
651.467	20768.15
651.819	20697.87
652.171	20686.12
652.523	20522.29
652.875	20624.66
653.227	20575.84
653.578	20794.59
653.93	20696.52
654.282	20593.47
654.633	20552.57
654.985	20593.02
655.337	20599.35
655.688	20736.74
656.039	20687.7
656.391	20588.5
656.742	20651.55
657.094	20557.09
657.445	20699.91
657.796	20574.71
658.147	20581.94
658.498	20567.48
658.849	20732
659.2	20685.67
659.551	20633.02
659.902	20679.57
660.253	20718.66
660.604	20682.96
660.955	20605.22
661.306	20768.61
661.656	20615.62
662.007	20728.16
662.358	20747.36
662.708	20735.84
663.059	20696.52
663.409	20548.5
663.76	20711.21
664.11	20697.42
664.461	20681.83
664.811	20803.18
665.161	20754.6
665.511	20707.82
665.862	20698.78
666.212	20788.27
666.562	20744.88
666.912	20819.68
667.262	20695.61
667.612	20704.65
667.962	20772
668.312	20707.14
668.662	20833.24
669.011	20689.06
669.361	20708.27
669.711	20727.7
670.06	20769.74
670.41	20779.23
670.76	20680.25
671.109	20742.17
671.459	20769.96
671.808	20730.42
672.157	20711.43
672.507	20678.67
672.856	20600.93
673.205	20731.55
673.554	20602.06
673.904	20743.3
674.253	20837.53
674.602	20719.34
674.951	20360.26
675.3	20372.46
675.649	20614.49
675.998	20518.67
676.346	20553.47
676.695	20749.17
677.044	20582.85
677.393	20586.92
677.741	20689.96
678.09	20568.16
678.438	20587.59
678.787	20597.09
679.135	20583.3
679.484	20567.26
679.832	20605.67
680.181	20516.64
680.529	20629.85
680.877	20471.21
681.225	20438.67
681.573	20671.21
681.922	20409.75
682.27	20486.58
682.618	20439.58
682.966	20330.88
683.314	20447.48
683.661	20437.77
684.009	20304.44
684.357	20351.22
684.705	20155.97
685.053	20315.96
685.4	20197.55
685.748	20136.31
686.095	20241.61
686.443	20071.68
686.79	20125.01
687.138	20185.34
687.485	20212.01
687.832	20074.84
688.18	20200.94
688.527	20006.14
688.874	19960.49
689.221	19954.62
689.568	19947.16
689.915	19877.1
690.262	19889.99
690.609	19781.97
690.956	19699.26
691.303	19769.99
691.65	19609.31
691.997	19619.03
692.344	19575.87
692.69	19561.86
693.037	19611.8
693.383	19390.11
693.73	19568.64
694.077	19350.79
694.423	19331.58
694.769	19296.1
695.116	19334.52
695.462	19208.2
695.808	19167.74
696.155	19148.76
696.501	19101.98
696.847	19170.68
697.193	18831.48
697.539	19176.78
697.885	18902.67
698.231	18956.68
698.577	18953.96
698.923	18931.82
699.269	18824.48
699.614	18764.59
699.96	18707.19
700.306	18798.26
700.651	18697.93
700.997	18603.47
701.342	18524.37
701.688	18495.67
702.033	18515.56
702.379	18485.5
702.724	18471.04
703.069	18437.59
703.415	18251.38
703.76	18377.48
704.105	18285.73
704.45	18201.44
704.795	18165.96
705.14	18106.98
705.485	18132.07
705.83	18138.39
706.175	18145.17
706.52	18071.73
706.865	17916.25
707.209	17903.82
707.554	17979.3
707.899	17923.26
708.243	17788.8
708.588	17744.05
708.932	17738.86
709.277	17694.79
709.621	17725.97
709.966	17605.07
710.31	17664.06
710.654	17513.55
710.998	17591.97
711.342	17663.38
711.687	17511.52
712.031	17460.67
712.375	17428.81
712.719	17473.33
713.063	17435.81
713.407	17429.71
713.75	17359.88
714.094	17345.87
714.438	17241.47
714.782	17326.66
715.125	17235.59
715.469	17248.7
715.812	17224.29
716.156	17071.08
716.499	17149.49
716.843	17166.67
717.186	17074.47
717.53	17105.65
717.873	17112.43
718.216	17008.03
718.559	16985.43
718.902	16943.17
719.246	16904.3
719.589	16902.95
719.932	16893.68
720.275	16824.3
720.617	16866.56
720.96	16723.29
721.303	16798.32
721.646	16801.93
721.989	16699.56
722.331	16885.77
722.674	16684.42
723.016	16819.11
723.359	16742.95
723.701	16701.14
724.044	16752.89
724.386	16586.57
724.729	16795.38
725.071	16710.63
725.413	16696.62
725.755	16556.51
726.097	16534.37
726.439	16500.7
726.782	16483.52
727.124	16644.87
727.465	16515.16
727.807	16497.31
728.149	16457.76
728.491	16414.6
728.833	16523.75
729.175	16442.62
729.516	16454.6
729.858	16386.35
730.199	16438.1
730.541	16377.76
730.882	16411.43
731.224	16386.12
731.565	16291.89
731.906	16332.79
732.248	16323.98
732.589	16294.6
732.93	16218.67
733.271	16273.81
733.612	16287.59
733.953	16305.45
734.294	16300.93
734.635	16162.63
734.976	16292.57
735.317	16140.48
735.658	16160.14
735.999	16230.87
736.339	16115.62
736.68	16186.58
737.021	16169.86
737.361	16059.8
737.702	16201.72
738.042	16087.83
738.383	16149.07
738.723	16188.16
739.063	15986.59
739.404	16080.59
739.744	16040.14
740.084	16053.48
740.424	16008.96
740.764	16053.93
741.104	16044.66
741.444	15998.79
741.784	15971.67
742.124	15982.29
742.464	16001.73
742.804	15945.91
743.143	15936.64
743.483	15953.82
743.823	15884.89
744.162	15809.19
744.502	15845.12
744.841	15890.09
745.181	15885.57
745.52	15873.82
745.86	15883.31
746.199	15874.5
746.538	15809.87
746.877	15906.81
747.216	15888.28
747.556	15855.06
747.895	15821.84
748.234	15757.21
748.573	15747.72
748.911	15692.13
749.25	15772.81
749.589	15715.41
749.928	15783.43
750.267	15772.35
750.605	15708.63
750.944	15747.95
751.283	15691.45
751.621	15647.61
751.96	15618.91
752.298	15665.01
752.636	15715.86
752.975	15514.06
753.313	15574.39
753.651	15608.52
753.989	15573.26
754.327	15502.53
754.666	15510.44
755.004	15517.9
755.342	15571.23
755.679	15494.39
756.017	15434.51
756.355	15524.22
756.693	15446.26
757.031	15464.34
757.368	15304.12
757.706	15374.17
758.044	15327.17
758.381	15250.56
758.719	15297.79
