Data from cardboard_FLMS001491_100.txt Node
Date: Tue Feb 07 11:40:27 GMT 2017
User: dcchb
Spectrometer: FLMS00149
Trigger mode: 0
Integration Time (sec): 2.000000E-2
Scans to average: 10
Electric dark correction enabled: true
Nonlinearity correction enabled: false
Boxcar width: 0
XAxis mode: Wavelengths
Number of Pixels in Spectrum: 2048
>>>>>Begin Spectral Data<<<<<
341.393	-30.25
341.776	-30.25
342.16	-30.25
342.543	-53.98
342.927	-65.73
343.31	-71.16
343.693	-54.21
344.077	-75.9
344.46	-60.54
344.843	-58.28
345.226	-46.3
345.61	-28.22
345.993	-2.91
346.376	-12.4
346.759	11.78
347.142	18.56
347.525	42.06
347.908	80.03
348.291	54.72
348.674	91.55
349.057	111.21
349.44	143.53
349.823	151.66
350.206	160.02
350.588	194.15
350.971	202.96
351.354	228.27
351.737	233.69
352.119	242.28
352.502	248.61
352.884	261.26
353.267	270.08
353.65	288.38
354.032	295.61
354.414	283.86
354.797	336.97
355.179	324.99
355.562	320.02
355.944	316.86
356.326	323.41
356.709	305.78
357.091	318.66
357.473	340.58
357.855	350.75
358.238	350.53
358.62	350.98
359.002	350.98
359.384	326.8
359.766	336.06
360.148	334.48
360.53	350.98
360.912	331.54
361.294	314.82
361.676	320.92
362.057	342.84
362.439	341.04
362.821	344.43
363.203	311.43
363.584	317.08
363.966	318.89
364.348	337.65
364.729	308.27
365.111	323.18
365.493	320.25
365.874	309.4
366.256	316.4
366.637	313.24
367.019	311.21
367.4	310.98
367.781	315.5
368.163	299.91
368.544	302.39
368.925	317.31
369.306	289.51
369.688	296.97
370.069	318.21
370.45	299.91
370.831	311.66
371.212	313.47
371.593	320.47
371.974	323.86
372.355	326.35
372.736	332.9
373.117	305.56
373.498	316.86
373.879	341.26
374.26	294.26
374.641	336.52
375.021	322.73
375.402	343.3
375.783	307.14
376.163	332
376.544	316.18
376.925	329.74
377.305	342.84
377.686	320.25
378.066	315.27
378.447	326.12
378.827	334.26
379.208	314.14
379.588	301.04
379.968	319.57
380.349	342.84
380.729	354.82
381.109	312.79
381.489	306.01
381.87	350.08
382.25	327.25
382.63	354.6
383.01	339
383.39	345.56
383.77	349.85
384.15	325.22
384.53	340.81
384.91	346.91
385.29	362.28
385.67	351.88
386.049	343.75
386.429	352.79
386.809	369.06
387.189	355.95
387.568	348.49
387.948	340.36
388.328	346.69
388.707	345.33
389.087	369.06
389.466	379.45
389.846	348.95
390.225	373.35
390.605	348.72
390.984	372.45
391.363	372.9
391.743	385.1
392.122	369.74
392.501	381.49
392.881	392.79
393.26	389.62
393.639	378.1
394.018	383.75
394.397	384.42
394.776	370.41
395.155	392.56
395.534	374.48
395.913	408.15
396.292	373.35
396.671	384.65
397.05	395.72
397.429	410.41
397.808	395.95
398.186	384.42
398.565	394.59
398.944	407.93
399.323	386.68
399.701	421.94
400.08	405.89
400.458	404.76
400.837	421.94
401.215	426.91
401.594	408.38
401.972	413.58
402.351	402.5
402.729	430.75
403.107	426.01
403.486	445.67
403.864	439.56
404.242	428.49
404.62	429.4
404.999	437.08
405.377	437.53
405.755	448.6
406.133	426.01
406.511	459.9
406.889	463.97
407.267	458.77
407.645	445.89
408.023	451.99
408.401	443.86
408.779	466.23
409.156	476.17
409.534	474.14
409.912	496.06
410.29	478.21
410.667	506.46
411.045	495.38
411.422	490.86
411.8	475.04
412.178	484.54
412.555	517.08
412.933	497.87
413.31	532.44
413.687	515.95
414.065	522.95
414.442	539.68
414.819	527.02
415.197	538.55
415.574	542.84
415.951	527.25
416.328	552.78
416.705	540.35
417.082	524.08
417.46	542.39
417.837	541.71
418.214	556.17
418.591	558.66
418.967	558.66
419.344	562.27
419.721	571.09
420.098	578.54
420.475	594.14
420.852	586.91
421.228	565.89
421.605	606.34
421.982	595.72
422.358	600.24
422.735	603.18
423.111	617.41
423.488	608.37
423.864	595.49
424.241	600.24
424.617	630.52
424.994	621.48
425.37	634.81
425.746	655.6
426.123	638.88
426.499	623.97
426.875	653.34
427.251	661.25
427.627	642.27
428.003	660.35
428.379	671.42
428.756	686.56
429.132	723.4
429.507	695.38
429.883	692.21
430.259	691.54
430.635	731.53
431.011	703.51
431.387	729.73
431.763	728.37
432.138	757.75
432.514	752.78
432.89	773.57
433.265	781.48
433.641	777.41
434.016	758.43
434.392	773.34
434.767	775.38
435.143	799.33
435.518	795.04
435.894	798.65
436.269	806.33
436.644	832.1
437.02	816.5
437.395	834.81
437.77	845.43
438.145	851.08
438.52	854.24
438.895	875.71
439.271	845.88
439.646	883.17
440.021	884.75
440.395	875.71
440.77	901.93
441.145	904.64
441.52	923.39
441.895	884.98
442.27	915.71
442.645	922.26
443.019	922.94
443.394	939.66
443.769	936.27
444.143	935.6
444.518	954.58
444.892	952.55
445.267	946.44
445.641	961.13
446.016	971.3
446.39	983.05
446.764	971.53
447.139	987.8
447.513	997.06
447.887	981.02
448.262	1018.98
448.636	988.25
449.01	1007.91
449.384	1004.97
449.758	1037.29
450.132	1049.49
450.506	1049.94
450.88	1040
451.254	1048.81
451.628	1090.4
452.002	1075.93
452.376	1078.19
452.75	1084.52
453.123	1096.72
453.497	1122.03
453.871	1085.2
454.244	1126.78
454.618	1101.69
454.992	1140.11
455.365	1153.44
455.739	1154.57
456.112	1183.05
456.486	1179.43
456.859	1190.96
457.232	1198.64
457.606	1228.24
457.979	1237.06
458.352	1263.95
458.725	1247.91
459.099	1285.19
459.472	1311.63
459.845	1322.48
460.218	1299.43
460.591	1335.36
460.964	1336.72
461.337	1336.26
461.71	1390.95
462.083	1390.73
462.456	1407
462.829	1417.17
463.201	1416.04
463.574	1441.12
463.947	1472.76
464.32	1464.62
464.692	1482.02
465.065	1482.48
465.438	1535.36
465.81	1524.28
466.183	1562.25
466.555	1598.18
466.928	1611.74
467.3	1594.11
467.672	1623.04
468.045	1627.33
468.417	1656.03
468.789	1634.79
469.161	1720.21
469.534	1731.06
469.906	1753.43
470.278	1761.79
470.65	1784.84
471.022	1836.59
471.394	1830.26
471.766	1862.13
472.138	1851.05
472.51	1900.54
472.882	1943.48
473.253	1949.81
473.625	1992.29
473.997	2019.86
474.369	2019.41
474.74	2049.01
475.112	2071.84
475.484	2158.62
475.855	2171.95
476.227	2190.25
476.598	2225.28
476.97	2280.42
477.341	2297.37
477.713	2326.07
478.084	2339.85
478.455	2404.71
478.827	2437.7
479.198	2486.97
479.569	2519.74
479.94	2566.06
480.311	2604.03
480.682	2647.19
481.053	2731.93
481.424	2756.57
481.795	2741.43
482.166	2792.95
482.537	2850.35
482.908	2917.01
483.279	2970.57
483.65	2997.24
484.021	3014.86
484.391	3085.82
484.762	3074.3
485.133	3164.46
485.503	3214.18
485.874	3277.91
486.244	3301.18
486.615	3369.88
486.985	3401.75
487.356	3462.54
487.726	3448.98
488.097	3554.96
488.467	3571.69
488.837	3643.55
489.207	3699.14
489.578	3759.48
489.948	3761.29
490.318	3888.97
490.688	3854.84
491.058	3972.35
491.428	3969.42
491.798	4055.74
492.168	4113.82
492.538	4118.11
492.908	4218.67
493.278	4266.36
493.648	4269.07
494.017	4336.64
494.387	4375.05
494.757	4430.19
495.126	4516.75
495.496	4533.92
495.866	4514.49
496.235	4659.11
496.605	4634.48
496.974	4700.47
497.344	4725.1
497.713	4810.3
498.082	4842.39
498.452	4880.13
498.821	4937.07
499.19	4976.39
499.559	4999.44
499.928	5034.02
500.298	5066.79
500.667	5147.24
501.036	5196.73
501.405	5253.68
501.774	5258.87
502.143	5345.65
502.512	5370.73
502.88	5411.41
503.249	5476.04
503.618	5490.96
503.987	5535.7
504.356	5621.8
504.724	5584.51
505.093	5739.09
505.462	5721.69
505.83	5811.17
506.199	5833.32
506.567	5913.32
506.936	5926.2
507.304	6007.55
507.672	6002.36
508.041	6067.21
508.409	6188.11
508.777	6245.51
509.145	6303.37
509.514	6296.36
509.882	6334.1
510.25	6376.36
510.618	6503.13
510.986	6497.48
511.354	6623.58
511.722	6649.57
512.09	6679.4
512.458	6773.18
512.826	6795.1
513.193	6780.19
513.561	6911.71
513.929	6977.92
514.297	7033.06
514.664	7127.3
515.032	7115.77
515.4	7273.96
515.767	7258.82
516.135	7322.1
516.502	7359.83
516.869	7487.06
517.237	7478.7
517.604	7490.9
517.972	7657.45
518.339	7697
518.706	7799.15
519.073	7803.21
519.44	7920.05
519.808	7968.86
520.175	8020.16
520.542	8146.93
520.909	8179.02
521.276	8243.65
521.643	8303.99
522.009	8506.02
522.376	8497.88
522.743	8553.7
523.11	8662.17
523.477	8837.54
523.843	8829.85
524.21	8968.83
524.577	9065.33
524.943	9146.68
525.31	9176.74
525.676	9219.45
526.043	9400.23
526.409	9353.23
526.776	9507.8
527.142	9619.21
527.508	9672.09
527.874	9784.63
528.241	9872.99
528.607	9870.28
528.973	10007.67
529.339	10048.13
529.705	10137.61
530.071	10292.64
530.437	10386.65
530.803	10384.39
531.169	10491.96
531.535	10511.39
531.901	10575.34
532.267	10652.4
532.632	10842.46
532.998	10817.14
533.364	10983.47
533.73	11016.46
534.095	11083.8
534.461	11148.66
534.826	11227.53
535.192	11270.69
535.557	11395.89
535.923	11423.91
536.288	11559.95
536.653	11604.24
537.019	11606.95
537.384	11700.06
537.749	11804.46
538.114	11876.78
538.479	11859.38
538.845	12033.84
539.21	12034.74
539.575	12088.52
539.94	12167.84
540.305	12226.37
540.67	12330.55
541.034	12349.76
541.399	12473.37
541.764	12506.14
542.129	12626.36
542.494	12670.88
542.858	12719.02
543.223	12794.27
543.587	12846.02
543.952	12860.71
544.316	12936.86
544.681	12916.98
545.045	13069.74
545.41	13176.4
545.774	13275.39
546.138	13280.36
546.503	13318.1
546.867	13415.27
547.231	13502.95
547.595	13636.51
547.959	13643.06
548.324	13638.31
548.688	13721.7
549.052	13911.98
549.416	13925.54
549.779	13999.66
550.143	14040.56
550.507	14178.41
550.871	14202.37
551.235	14172.31
551.599	14362.59
551.962	14387.9
552.326	14559.19
552.689	14684.61
553.053	14589.02
553.417	14632.19
553.78	14876.7
554.143	14828.79
554.507	14874.21
554.87	15018.84
555.234	15234.88
555.597	15150.82
555.96	15191.27
556.323	15362.34
556.686	15344.71
557.05	15577.25
557.413	15626.74
557.776	15635.1
558.139	15759.16
558.502	15846.84
558.865	15897.46
559.228	16026.27
559.59	16221.07
559.953	16209.77
560.316	16533.15
560.679	16441.18
561.041	16593.26
561.404	16578.12
561.767	16797.55
562.129	16786.93
562.492	16903.54
562.854	17018.34
563.217	17044.55
563.579	17192.57
563.941	17368.16
564.304	17428.04
564.666	17500.81
565.028	17567.7
565.39	17680.69
565.753	17738.77
566.115	17824.19
566.477	17936.05
566.839	17977.86
567.201	18185.09
567.563	18233.9
567.925	18341.01
568.287	18415.82
568.648	18553.44
569.01	18670.27
569.372	18709.59
569.734	18790.95
570.095	18932.86
570.457	19016.25
570.819	19116.81
571.18	19233.65
571.542	19180.99
571.903	19302.35
572.265	19462.12
572.626	19452.4
572.987	19509.57
573.349	19619.17
573.71	19624.82
574.071	19862.1
574.432	19998.82
574.794	20036.34
575.155	20070.46
575.516	20162.44
575.877	20233.62
576.238	20282.88
576.599	20351.81
576.96	20380.06
577.32	20422.77
577.681	20496.21
578.042	20596.77
578.403	20716.32
578.763	20762.19
579.124	20752.48
579.485	20943.21
579.845	20959.03
580.206	20961.74
580.566	21049.87
580.927	21024.56
581.287	21193.6
581.648	21132.13
582.008	21384.55
582.368	21335.74
582.728	21407.83
583.089	21380.48
583.449	21414.83
583.809	21505.9
584.169	21588.39
584.529	21668.84
584.889	21656.63
585.249	21622.96
585.609	21681.72
585.969	21789.74
586.329	21786.57
586.688	21929.85
587.048	21830.87
587.408	21916.51
587.768	21884.65
588.127	21982.5
588.487	22056.17
588.846	22131.65
589.206	22081.93
589.565	22050.3
589.925	22239.44
590.284	22113.8
590.643	22280.8
591.003	22260.91
591.362	22497.74
591.721	22428.59
592.08	22326.9
592.44	22495.93
592.799	22541.81
593.158	22485.76
593.517	22584.75
593.876	22682.82
594.235	22609.83
594.593	22739.09
594.952	22640.56
595.311	22640.79
595.67	22862.93
596.029	22862.25
596.387	22811.86
596.746	22818.86
597.104	22935.7
597.463	23040.55
597.822	23025.86
598.18	23030.84
598.538	22949.71
598.897	23084.62
599.255	23049.82
599.613	23233.99
599.972	23102.92
600.33	23219.08
600.688	23325.06
601.046	23300.66
601.404	23446.64
601.762	23375.46
602.12	23511.27
602.478	23510.37
602.836	23591.72
603.194	23568.67
603.552	23510.6
603.91	23441.67
604.268	23659.07
604.625	23615.68
604.983	23844.83
605.341	23707.65
605.698	23916.46
606.056	23916.24
606.413	23883.92
606.771	23947.65
607.128	24091.82
607.485	23814.77
607.843	24093.41
608.2	24205.95
608.557	24184.25
608.914	24202.78
609.272	24359.61
609.629	24449.1
609.986	24562.32
610.343	24399.16
610.7	24542.66
611.057	24541.53
611.414	24459.95
611.771	24676.22
612.127	24677.57
612.484	24727.06
612.841	24845.7
613.198	24774.07
613.554	24756.89
613.911	24934.29
614.267	24980.84
614.624	24960.95
614.98	25014.06
615.337	25187.84
615.693	25170.89
616.05	25099.93
616.406	25232.81
616.762	25185.13
617.118	25170.67
617.475	25195.98
617.831	25456.99
618.187	25454.73
618.543	25453.14
618.899	25623.99
619.255	25519.81
619.611	25551.45
619.967	25717.54
620.323	25812.46
620.678	25573.37
621.034	25673.93
621.39	25609.07
621.746	25754.15
622.101	26010.64
622.457	25648.17
622.812	25819.46
623.168	25956.63
623.523	25879.12
623.879	25982.4
624.234	25863.75
624.589	25889.52
624.945	25917.09
625.3	26018.78
625.655	26043.19
626.01	25989.85
626.365	26040.25
626.72	26102.84
627.075	26088.16
627.43	26123.64
627.785	26018.1
628.14	26149.85
628.495	26081.15
628.85	26088.38
629.205	26083.64
629.559	26310.07
629.914	26127.48
630.269	26074.82
630.623	26061.26
630.978	25962.74
631.332	26132
631.687	26326.12
632.041	26168.83
632.396	26282.95
632.75	26048.16
633.104	26227.81
633.459	26063.3
633.813	26068.72
634.167	26085.22
634.521	26172.22
634.875	26207.7
635.229	26100.58
635.583	25993.92
635.937	26117.76
636.291	25915.51
636.645	26029.63
636.999	25995.73
637.352	26032.79
637.706	25933.81
638.06	26097.42
638.413	26056.74
638.767	25955.05
639.121	25922.51
639.474	25813.81
639.828	25860.82
640.181	25962.96
640.534	26009.06
640.888	25919.35
641.241	25849.97
641.594	25755.74
641.947	25913.92
642.301	25838.67
642.654	25861.04
643.007	25887.03
643.36	25857.88
643.713	25838.22
644.066	25888.16
644.419	25715.28
644.771	25551.22
645.124	25351.23
645.477	25297.22
645.83	25173.38
646.182	25123.66
646.535	25048.18
646.888	25242.53
647.24	25001.4
647.593	25221.06
647.945	25155.98
648.298	25092.48
648.65	24917.34
649.002	24888.64
649.355	24967.96
649.707	25041.86
650.059	25108.75
650.411	25351.45
650.763	25496.76
651.115	25720.03
651.467	25687.94
651.819	25635.51
652.171	25652.24
652.523	25590.09
652.875	25553.93
653.227	25524.55
653.578	25674.61
653.93	25558.68
654.282	25510.09
654.633	25404.33
654.985	25664.44
655.337	25573.59
655.688	25628.28
656.039	25688.84
656.391	25415.18
656.742	25455.63
657.094	25527.04
657.445	25655.4
657.796	25565.23
658.147	25482.75
658.498	25507.15
658.849	25664.44
659.2	25507.61
659.551	25565.23
659.902	25544.89
660.253	25523.88
660.604	25513.03
660.955	25447.95
661.306	25662.86
661.656	25569.07
662.007	25612.69
662.358	25525.91
662.708	25584.67
663.059	25552.8
663.409	25477.78
663.76	25578.79
664.11	25526.59
664.461	25694.49
664.811	25690.43
665.161	25630.99
665.511	25607.49
665.862	25601.84
666.212	25601.84
666.562	25710.54
666.912	25697.66
667.262	25520.71
667.612	25621.5
667.962	25626.25
668.312	25524.33
668.662	25798.22
669.011	25705.12
669.361	25596.87
669.711	25554.61
670.06	25609.52
670.41	25561.84
670.76	25496.31
671.109	25696.53
671.459	25471.67
671.808	25629.86
672.157	25670.77
672.507	25506.48
672.856	25579.24
673.205	25594.38
673.554	25697.66
673.904	25626.93
674.253	25693.59
674.602	25599.13
674.951	25251.34
675.3	25251.12
675.649	25510.54
675.998	25515.97
676.346	25534.5
676.695	25705.57
677.044	25376.54
677.393	25496.08
677.741	25454.27
678.09	25507.15
678.438	25465.8
678.787	25382.86
679.135	25406.82
679.484	25304.22
679.832	25410.21
680.181	25293.6
680.529	25345.58
680.877	25178.8
681.225	25275.07
681.573	25453.37
681.922	25255.41
682.27	25103.77
682.618	25212.25
682.966	25153.94
683.314	25166.15
683.661	25033.49
684.009	25016.55
684.357	24988.75
684.705	24967.51
685.053	24993.04
685.4	25064.91
685.748	24745.82
686.095	24838.47
686.443	24811.81
686.79	24863.78
687.138	24766.38
687.485	24869.43
687.832	24807.51
688.18	24693.62
688.527	24564.58
688.874	24562.77
689.221	24556.22
689.568	24493.4
689.915	24406.84
690.262	24449.55
690.609	24299.95
690.956	24297.47
691.303	24362.78
691.65	24231.48
691.997	24336.11
692.344	24107.64
692.69	24077.81
693.037	23971.83
693.383	23893.64
693.73	23996.91
694.077	23873.52
694.423	23987.87
694.769	23859.74
695.116	23868.33
695.462	23813.64
695.808	23619.07
696.155	23620.2
696.501	23516.7
696.847	23562.57
697.193	23357.15
697.539	23511.95
697.885	23235.8
698.231	23305.86
698.577	23410.71
698.923	23201.9
699.269	23137.05
699.614	22993.77
699.96	23152.87
700.306	22986.32
700.651	22900.9
700.997	23011.4
701.342	22951.06
701.688	22882.14
702.033	22862.25
702.379	22836.04
702.724	22722.59
703.069	22787.23
703.415	22586.1
703.76	22496.84
704.105	22636.95
704.45	22517.18
704.795	22302.49
705.14	22197.86
705.485	22256.39
705.83	22146.34
706.175	22218.43
706.52	22110.41
706.865	22185.21
707.209	22038.32
707.554	21970.52
707.899	22014.36
708.243	21892.79
708.588	21888.04
708.932	21785.44
709.277	21921.71
709.621	21805.33
709.966	21692.57
710.31	21723.98
710.654	21554.94
710.998	21593.36
711.342	21556.07
711.687	21620.7
712.031	21451.67
712.375	21408.96
712.719	21475.62
713.063	21483.53
713.407	21531.21
713.75	21393.36
714.094	21383.65
714.438	21233.59
714.782	21347.72
715.125	21186.82
715.469	21269.75
715.812	21065.01
716.156	21149.3
716.499	21163.31
716.843	20978.69
717.186	20986.37
717.53	21015.07
717.873	21176.87
718.216	20945.69
718.559	20876.32
718.902	20809.42
719.246	20933.26
719.589	20787.28
719.932	20675.19
720.275	20808.75
720.617	20670.67
720.96	20659.37
721.303	20709.31
721.646	20737.79
721.989	20608.75
722.331	20633.84
722.674	20630.45
723.016	20609.43
723.359	20662.54
723.701	20589.54
724.044	20475.42
724.386	20433.62
724.729	20475.42
725.071	20401.98
725.413	20409.44
725.755	20423.67
726.097	20314.3
726.439	20234.3
726.782	20371.02
727.124	20436.33
727.465	20175.99
727.807	20290.12
728.149	20163.34
728.491	20284.01
728.833	20266.39
729.175	20165.83
729.516	20100.97
729.858	20138.03
730.199	20185.71
730.541	20133.74
730.882	20119.73
731.224	20155.88
731.565	20017.58
731.906	20018.94
732.248	20154.53
732.589	19972.84
732.93	20029.33
733.271	19911.82
733.612	20044.92
733.953	20077.69
734.294	19910.92
734.635	19917.02
734.976	19992.5
735.317	19812.61
735.658	19843.8
735.999	19994.3
736.339	19825.04
736.68	19829.11
737.021	19755.22
737.361	19800.41
737.702	19796.8
738.042	19736.01
738.383	19739.62
738.723	19755.67
739.063	19672.05
739.404	19694.2
739.744	19658.49
740.084	19717.25
740.424	19620.08
740.764	19578.95
741.104	19753.63
741.444	19592.96
741.784	19571.27
742.124	19609.68
742.464	19590.47
742.804	19548.44
743.143	19535.56
743.483	19509.35
743.823	19490.14
744.162	19519.52
744.502	19476.8
744.841	19444.04
745.181	19640.64
745.52	19429.57
745.86	19416.01
746.199	19387.77
746.538	19381.21
746.877	19422.79
747.216	19421.21
747.556	19398.61
747.895	19494.88
748.234	19312.29
748.573	19336.02
748.911	19273.87
749.25	19376.02
749.589	19288.11
749.928	19284.94
750.267	19351.38
750.605	19279.3
750.944	19169.69
751.283	19134.21
751.621	19255.57
751.96	19077.27
752.298	19131.95
752.636	19119.3
752.975	19123.59
753.313	19074.55
753.651	19131.73
753.989	18985.07
754.327	18982.35
754.666	18912.3
755.004	18990.72
755.342	19026.87
755.679	19003.6
756.017	18863.71
756.355	18935.35
756.693	18764.96
757.031	18856.71
