Data from cardboard_FLMS001491_058.txt Node
Date: Tue Feb 07 11:39:44 GMT 2017
User: dcchb
Spectrometer: FLMS00149
Trigger mode: 0
Integration Time (sec): 2.000000E-2
Scans to average: 10
Electric dark correction enabled: true
Nonlinearity correction enabled: false
Boxcar width: 0
XAxis mode: Wavelengths
Number of Pixels in Spectrum: 2048
>>>>>Begin Spectral Data<<<<<
341.393	-8.8
341.776	-8.8
342.16	-8.8
342.543	-53.77
342.927	-65.97
343.31	-71.4
343.693	-72.75
344.077	-65.97
344.46	-68.01
344.843	-43.6
345.226	-42.7
345.61	-39.31
345.993	-6.09
346.376	-32.98
346.759	13.8
347.142	40.92
347.525	48.15
347.908	44.53
348.291	78.66
348.674	105.55
349.057	111.2
349.44	124.76
349.823	150.29
350.206	160.46
350.588	188.71
350.971	203.62
351.354	228.03
351.737	233
352.119	241.82
352.502	257.18
352.884	260.57
353.267	254.24
353.65	275.94
354.032	282.72
354.414	275.26
354.797	297.18
355.179	302.15
355.562	315.94
355.944	306.67
356.326	321.36
356.709	333.34
357.091	348.03
357.473	323.4
357.855	318.2
358.238	340.8
358.62	309.61
359.002	343.28
359.384	352.1
359.766	335.15
360.148	320.01
360.53	331.53
360.912	319.33
361.294	323.17
361.676	326.56
362.057	330.63
362.439	319.55
362.821	324.75
363.203	344.86
363.584	314.13
363.966	316.84
364.348	305.99
364.729	291.31
365.111	285.88
365.493	310.29
365.874	306.22
366.256	314.81
366.637	312.32
367.019	288.59
367.4	308.03
367.781	296.05
368.163	284.98
368.544	309.84
368.925	302.15
369.306	307.35
369.688	305.09
370.069	292.44
370.45	295.6
370.831	303.73
371.212	301.48
371.593	303.51
371.974	304.19
372.355	303.06
372.736	335.37
373.117	306.22
373.498	301.7
373.879	292.21
374.26	313.68
374.641	305.09
375.021	305.77
375.402	316.84
375.783	313.23
376.163	308.25
376.544	286.56
376.925	331.3
377.305	305.32
377.686	308.48
378.066	324.3
378.447	315.71
378.827	316.39
379.208	316.39
379.588	314.58
379.968	329.27
380.349	338.08
380.729	316.16
381.109	321.59
381.489	319.78
381.87	343.06
382.25	339.21
382.63	339.21
383.01	333.34
383.39	326.33
383.77	326.33
384.15	336.73
384.53	345.99
384.91	333.56
385.29	325.88
385.67	330.63
386.049	348.25
386.429	331.98
386.809	343.51
387.189	344.64
387.568	355.49
387.948	332.43
388.328	348.71
388.707	345.32
389.087	349.61
389.466	343.06
389.846	353.68
390.225	329.27
390.605	351.19
390.984	337.18
391.363	362.26
391.743	339.21
392.122	349.16
392.501	360.91
392.881	360
393.26	367.01
393.639	371.08
394.018	346.67
394.397	376.28
394.776	368.14
395.155	381.25
395.534	357.07
395.913	348.03
396.292	388.93
396.671	365.65
397.05	353.23
397.429	374.69
397.808	370.85
398.186	390.29
398.565	371.53
398.944	382.83
399.323	369.5
399.701	381.02
400.08	372.66
400.458	390.29
400.837	386.44
401.215	379.67
401.594	407.46
401.972	393
402.351	406.11
402.729	403.85
403.107	404.3
403.486	398.87
403.864	397.97
404.242	383.51
404.62	391.87
404.999	403.17
405.377	388.93
405.755	440
406.133	417.86
406.511	422.6
406.889	413.56
407.267	404.3
407.645	419.89
408.023	415.82
408.401	424.18
408.779	421.25
409.156	435.26
409.534	435.93
409.912	434.8
410.29	435.93
410.667	422.83
411.045	456.05
411.422	449.27
411.8	435.26
412.178	461.47
412.555	447.46
412.933	464.41
413.31	468.48
413.687	450.62
414.065	468.48
414.442	468.48
414.819	478.42
415.197	472.54
415.574	489.04
415.951	488.59
416.328	492.2
416.705	483.62
417.082	494.92
417.46	479.1
417.837	513.9
418.214	495.82
418.591	498.76
418.967	502.15
419.344	522.03
419.721	513.67
420.098	527.68
420.475	511.19
420.852	524.29
421.228	529.49
421.605	548.47
421.982	517.97
422.358	534.69
422.735	541.47
423.111	539.89
423.488	537.85
423.864	560.23
424.241	557.51
424.617	541.24
424.994	557.74
425.37	556.38
425.746	552.32
426.123	533.79
426.499	557.74
426.875	558.42
427.251	554.58
427.627	575.37
428.003	575.37
428.379	572.43
428.756	604.74
429.132	604.07
429.507	595.7
429.883	598.64
430.259	602.94
430.635	613.56
431.011	598.64
431.387	648.81
431.763	627.34
432.138	647.91
432.514	635.48
432.89	672.76
433.265	664.63
433.641	653.33
434.016	665.53
434.392	692.88
434.767	659.43
435.143	684.97
435.518	702.37
435.894	697.85
436.269	727.9
436.644	686.78
437.02	704.63
437.395	702.59
437.77	716.61
438.145	744.63
438.52	730.62
438.895	724.74
439.271	722.71
439.646	747.79
440.021	759.99
440.395	742.14
440.77	718.87
441.145	740.11
441.52	756.15
441.895	760.45
442.27	786.89
442.645	767.23
443.019	778.98
443.394	788.69
443.769	803.61
444.143	757.51
444.518	798.64
444.892	793.44
445.267	811.74
445.641	818.07
446.016	779.65
446.39	809.71
446.764	820.78
447.139	824.4
447.513	834.57
447.887	823.04
448.262	829.37
448.636	834.79
449.01	835.25
449.384	862.82
449.758	843.38
450.132	877.28
450.506	856.71
450.88	862.14
451.254	848.35
451.628	889.93
452.002	889.71
452.376	902.82
452.75	892.19
453.123	908.24
453.497	927.9
453.871	934.23
454.244	938.52
454.618	924.51
454.992	952.76
455.365	949.59
455.739	964.96
456.112	999.31
456.486	973.55
456.859	989.59
457.232	986.2
457.606	1024.17
457.979	1011.51
458.352	1046.77
458.725	1056.03
459.099	1061
459.472	1063.04
459.845	1061.46
460.218	1073.43
460.591	1100.78
460.964	1104.62
461.337	1115.01
461.71	1138.74
462.083	1139.42
462.456	1148.46
462.829	1159.98
463.201	1186.88
463.574	1151.85
463.947	1184.84
464.32	1210.38
464.692	1213.09
465.065	1237.72
465.438	1252.41
465.81	1260.09
466.183	1268
466.555	1301.22
466.928	1299.64
467.3	1308.68
467.672	1341.45
468.045	1333.31
468.417	1319.98
468.789	1341.67
469.161	1388.68
469.534	1392.97
469.906	1403.37
470.278	1407.43
470.65	1442.24
471.022	1440.88
471.394	1480.2
471.766	1498.51
472.138	1519.97
472.51	1561.55
472.882	1552.74
473.253	1578.73
473.625	1583.7
473.997	1633.42
474.369	1651.95
474.74	1664.6
475.112	1650.82
475.484	1699.4
475.855	1767.65
476.227	1742.57
476.598	1789.8
476.97	1794.09
477.341	1862.79
477.713	1859.63
478.084	1891.72
478.455	1923.35
478.827	1933.07
479.198	2020.75
479.569	2003.13
479.94	2051.26
480.311	2048.77
480.682	2144.14
481.053	2144.14
481.424	2174.87
481.795	2231.82
482.166	2247.86
482.537	2279.28
482.908	2296
483.279	2301.2
483.65	2381.87
484.021	2425.71
484.391	2427.97
484.762	2455.09
485.133	2476.56
485.503	2543.68
485.874	2571.02
486.244	2593.39
486.615	2643.56
486.985	2679.49
487.356	2750.9
487.726	2744.12
488.097	2777.57
488.467	2814.86
488.837	2889.88
489.207	2913.61
489.578	2927.39
489.948	2965.81
490.318	3002.65
490.688	3046.71
491.058	3096.43
491.428	3108.18
491.798	3194.05
492.168	3255.07
492.538	3229.53
492.908	3290.32
493.278	3384.56
493.648	3358.57
494.017	3395.86
494.387	3428.4
494.757	3481.05
495.126	3512.24
495.496	3537.32
495.866	3596.98
496.235	3625.23
496.605	3679.69
496.974	3669.75
497.344	3728.73
497.713	3773.93
498.082	3712.01
498.452	3848.95
498.821	3839.01
499.19	3867.94
499.559	3950.42
499.928	3957.88
500.298	4009.4
500.667	4021.38
501.036	4032.45
501.405	4088.27
501.774	4084.65
502.143	4169.62
502.512	4171.66
502.88	4246.68
503.249	4250.52
503.618	4313.57
503.987	4311.09
504.356	4371.42
504.724	4361.48
505.093	4399.45
505.462	4451.42
505.83	4525.32
506.199	4512.21
506.567	4609.61
506.936	4655.26
507.304	4671.98
507.672	4732.32
508.041	4782.26
508.409	4833.33
508.777	4817.06
509.145	4865.42
509.514	4893.67
509.882	4950.39
510.25	4976.38
510.618	5027.45
510.986	5094.34
511.354	5138.86
511.722	5199.43
512.09	5236.71
512.458	5247.11
512.826	5325.52
513.193	5369.14
513.561	5344.51
513.929	5478.97
514.297	5511.51
514.664	5497.27
515.032	5605.06
515.4	5624.05
515.767	5675.57
516.135	5734.55
516.502	5701.11
516.869	5889.35
517.237	5878.28
517.604	5878.96
517.972	5973.19
518.339	6025.84
518.706	6079.4
519.073	6082.79
519.44	6181.32
519.808	6246.4
520.175	6310.81
520.542	6399.62
520.909	6403.01
521.276	6458.15
521.643	6531.59
522.009	6653.62
522.376	6651.59
522.743	6666.05
523.11	6748.76
523.477	6847.29
523.843	6906.73
524.21	6980.4
524.577	7029.21
524.943	7094.52
525.31	7155.08
525.676	7275.08
526.043	7361.4
526.409	7393.49
526.776	7451.8
527.142	7540.38
527.508	7591.68
527.874	7633.49
528.241	7724.33
528.607	7725.46
528.973	7803.88
529.339	7922.07
529.705	7986.7
530.071	8026.24
530.437	8144.43
530.803	8144.21
531.169	8184.88
531.535	8247.93
531.901	8322.73
532.267	8410.87
532.632	8437.53
532.998	8505.78
533.364	8644.08
533.73	8677.75
534.095	8751.65
534.461	8756.62
534.826	8838.2
535.192	8912.32
535.557	9011.08
535.923	9018.53
536.288	9051.53
536.653	9138.3
537.019	9107.57
537.384	9214.46
537.749	9216.49
538.114	9325.87
538.479	9339.88
538.845	9415.13
539.21	9435.25
539.575	9532.42
539.94	9580.33
540.305	9660.33
540.67	9679.99
541.034	9739.87
541.399	9760.66
541.764	9839.98
542.129	9905.74
542.494	9931.96
542.858	9923.37
543.223	10020.32
543.587	10142.57
543.952	10203.14
544.316	10223.02
544.681	10287.88
545.045	10309.35
545.41	10461.43
545.774	10491.94
546.138	10471.6
546.503	10588.89
546.867	10555.89
547.231	10771.26
547.595	10692.61
547.959	10778.71
548.324	10812.39
548.688	10780.97
549.052	10989.1
549.416	11042.44
549.779	11023.91
550.143	11122.43
550.507	11177.12
550.871	11259.61
551.235	11246.05
551.599	11359.72
551.962	11408.53
552.326	11502.31
552.689	11542.54
553.053	11475.42
553.417	11594.51
553.78	11877.44
554.143	11823.43
554.507	11869.08
554.87	11973.71
555.234	12039.47
555.597	12036.53
555.96	12120.83
556.323	12216.19
556.686	12278.34
557.05	12460.03
557.413	12368.95
557.776	12488.5
558.139	12597.2
558.502	12583.19
558.865	12638.1
559.228	12781.37
559.59	12827.7
559.953	12902.05
560.316	13060.46
560.679	13059.33
561.041	13170.29
561.404	13265.2
561.767	13344.75
562.129	13406.22
562.492	13535.25
562.854	13590.62
563.217	13549.94
563.579	13611.63
563.941	13757.62
564.304	13890.27
564.666	13959.42
565.028	14038.74
565.39	14045.75
565.753	14197.61
566.115	14233.09
566.477	14358.96
566.839	14398.73
567.201	14504.72
567.563	14636.47
567.925	14650.48
568.287	14755.11
568.648	14682.79
569.01	14867.65
569.372	14916.68
569.734	15031.26
570.095	15064.02
570.457	15241.42
570.819	15229.44
571.18	15223.57
571.542	15369.55
571.903	15503.56
572.265	15495.65
572.626	15565.03
572.987	15601.41
573.349	15718.92
573.71	15759.6
574.071	15805.25
574.432	15865.36
574.794	16004.11
575.155	15986.49
575.516	16067.39
575.877	16086.37
576.238	16158.69
576.599	16306.25
576.96	16339.7
577.32	16327.95
577.681	16478.68
578.042	16481.61
578.403	16535.85
578.763	16675.06
579.124	16622.4
579.485	16708.95
579.845	16743.3
580.206	16731.33
580.566	16821.49
580.927	16879.8
581.287	16883.19
581.648	16915.5
582.008	17096.06
582.368	17078.44
582.728	17043.63
583.089	17044.09
583.449	17166.57
583.809	17166.12
584.169	17241.59
584.529	17200.69
584.889	17282.5
585.249	17267.13
585.609	17311.88
585.969	17412.89
586.329	17451.31
586.688	17495.37
587.048	17507.12
587.408	17475.26
587.768	17523.17
588.127	17559.78
588.487	17585.09
588.846	17682.71
589.206	17585.54
589.565	17639.78
589.925	17711.86
590.284	17687.23
590.643	17710.96
591.003	17797.06
591.362	17894.23
591.721	17926.77
592.08	17875.25
592.44	17935.59
592.799	17932.88
593.158	17911.18
593.517	17971.07
593.876	18063.95
594.235	18044.06
594.593	17975.13
594.952	18138.52
595.311	18100.33
595.67	18127.67
596.029	18203.15
596.387	18298.29
596.746	18332.64
597.104	18255.35
597.463	18228.24
597.822	18459.87
598.18	18362.47
598.538	18380.77
598.897	18565.18
599.255	18298.29
599.613	18606.76
599.972	18512.07
600.33	18569.24
600.688	18491.96
601.046	18698.96
601.404	18760.88
601.762	18770.14
602.12	18877.71
602.478	18798.16
602.836	18773.76
603.194	18841.33
603.552	18760.88
603.91	18744.38
604.268	18981.21
604.625	18875.22
604.983	18995.9
605.341	18986.18
605.698	19061.43
606.056	19137.14
606.413	19099.4
606.771	19161.54
607.128	19266.4
607.485	19203.58
607.843	19219.62
608.2	19305.5
608.557	19469.33
608.914	19272.95
609.272	19516.79
609.629	19454.64
609.986	19524.25
610.343	19517.47
610.7	19733.28
611.057	19648.99
611.414	19671.14
611.771	19645.15
612.127	19700.06
612.484	19887.85
612.841	19835.65
613.198	19817.8
613.554	19813.73
613.911	19969.88
614.267	19934.63
614.624	19917
614.98	20029.32
615.337	20150.67
615.693	20088.3
616.05	20100.5
616.406	20223.21
616.762	20263.89
617.118	20272.7
617.475	20194.06
617.831	20332.59
618.187	20359.48
618.543	20390.21
618.899	20540.94
619.255	20404.45
619.611	20459.59
619.967	20545.91
620.323	20640.6
620.678	20506.82
621.034	20556.54
621.39	20521.06
621.746	20616.42
622.101	20787.94
622.457	20648.28
622.812	20743.65
623.168	20751.11
623.523	20816.19
623.879	20853.93
624.234	20714.72
624.589	20866.58
624.945	20798.11
625.3	20935.73
625.655	20858.22
626.01	20883.08
626.365	20975.28
626.72	20890.31
627.075	20875.62
627.43	20989.07
627.785	20987.03
628.14	20913.14
628.495	20980.93
628.85	21001.27
629.205	20928.96
629.559	21105.67
629.914	21008.28
630.269	21001.72
630.623	21031.1
630.978	20967.82
631.332	20982.29
631.687	21111.78
632.041	20928.05
632.396	21004.43
632.75	21106.58
633.104	21072.91
633.459	20910.88
633.813	21081.49
634.167	21001.72
634.521	20935.51
634.875	20981.84
635.229	21045.11
635.583	20844.66
635.937	21019.57
636.291	20930.09
636.645	20910.42
636.999	20923.31
637.352	21020.03
637.706	20752.69
638.06	20970.76
638.413	21011.44
638.767	20855.28
639.121	20940.93
639.474	20770.77
639.828	20752.01
640.181	20822.07
640.534	20952.91
640.888	20853.93
641.241	20723.99
641.594	20822.74
641.947	20801.5
642.301	20754.95
642.654	20727.38
643.007	20738
643.36	20730.77
643.713	20787.94
644.066	20901.39
644.419	20632.47
644.771	20630.43
645.124	20439.7
645.477	20469.53
645.83	20341.17
646.182	20264.79
646.535	20186.15
646.888	20195.64
647.24	20105.02
647.593	20227.96
647.945	20211.01
648.298	20210.56
648.65	20081.97
649.002	20078.58
649.355	20133.72
649.707	20089.88
650.059	20141.63
650.411	20527.38
650.763	20486.48
651.115	20727.38
651.467	20642.64
651.819	20723.31
652.171	20702.52
652.523	20726.93
652.875	20622.97
653.227	20528.06
653.578	20738.9
653.93	20689.19
654.282	20508.4
654.633	20515.18
654.985	20592.24
655.337	20594.95
655.688	20727.15
656.039	20693.03
656.391	20526.03
656.742	20585.24
657.094	20601.05
657.445	20802.86
657.796	20629.3
658.147	20619.13
658.498	20563.77
658.849	20649.87
659.2	20554.95
659.551	20640.38
659.902	20679.24
660.253	20649.19
660.604	20662.52
660.955	20594.27
661.306	20691.22
661.656	20664.1
662.007	20621.62
662.358	20576.65
662.708	20614.39
663.059	20740.03
663.409	20527.84
663.76	20793.59
664.11	20695.74
664.461	20751.56
664.811	20758.56
665.161	20738.23
665.511	20673.59
665.862	20697.77
666.212	20792.24
666.562	20778
666.912	20645.8
667.262	20691.67
667.612	20756.53
667.962	20711.11
668.312	20844.66
668.662	20792.69
669.011	20874.95
669.361	20721.5
669.711	20813.7
670.06	20633.82
670.41	20707.72
670.76	20729.86
671.109	20689.19
671.459	20714.27
671.808	20666.59
672.157	20744.78
672.507	20582.3
672.856	20746.14
673.205	20704.33
673.554	20738.68
673.904	20595.86
674.253	20731.67
674.602	20642.64
674.951	20390.21
675.3	20396.54
675.649	20706.14
675.998	20691.67
676.346	20634.5
676.695	20736.87
677.044	20579.59
677.393	20655.52
677.741	20735.06
678.09	20606.25
678.438	20591.34
678.787	20634.73
679.135	20646.93
679.484	20504.33
679.832	20535.07
680.181	20516.99
680.529	20489.87
680.877	20492.81
681.225	20446.03
681.573	20590.89
681.922	20406.03
682.27	20446.26
682.618	20502.98
682.966	20406.48
683.314	20491.45
683.661	20385.92
684.009	20271.35
684.357	20257.56
684.705	20288.75
685.053	20278.13
685.4	20191.12
685.748	20208.75
686.095	20205.58
686.443	20098.02
686.79	20221.86
687.138	20159.26
687.485	20011.47
687.832	20136.21
688.18	20078.58
688.527	19990.22
688.874	20003.1
689.221	20017.34
689.568	19876.1
689.915	19852.83
690.262	19852.83
690.609	19762.66
690.956	19781.64
691.303	19783
691.65	19691.25
691.997	19715.88
692.344	19589.56
692.69	19607.63
693.037	19549.78
693.383	19459.84
693.73	19515.66
694.077	19310.24
694.423	19387.07
694.769	19352.05
695.116	19290.58
695.462	19282.9
695.808	19268.89
696.155	19265.95
696.501	19119.29
696.847	19176.69
697.193	18967.43
697.539	19051.04
697.885	18922.91
698.231	18893.98
698.577	18774.44
698.923	18882
699.269	18828.9
699.614	18781.67
699.96	18801.78
700.306	18734.44
700.651	18673.65
700.997	18588.45
701.342	18613.99
701.688	18473.2
702.033	18452.86
702.379	18501.22
702.724	18405.18
703.069	18452.18
703.415	18279.31
703.76	18270.49
704.105	18310.04
704.45	18343.94
704.795	18142.59
705.14	18171.29
705.485	18054.91
705.83	18006.55
706.175	18101.69
706.52	18075.7
706.865	17828.7
707.209	17999.99
707.554	17864.63
707.899	17933.1
708.243	17813.78
708.588	17738.76
708.932	17737.63
709.277	17742.15
709.621	17715.71
709.966	17541.93
710.31	17625.09
710.654	17600.68
710.998	17539.89
711.342	17576.5
711.687	17542.83
712.031	17452.66
712.375	17305.77
712.719	17452.66
713.063	17467.35
713.407	17446.34
713.75	17313.01
714.094	17315.27
714.438	17291.54
714.782	17312.1
715.125	17231.65
715.469	17334.7
715.812	17158.43
716.156	17140.13
716.499	17118.43
716.843	17039.34
717.186	17067.14
717.53	17189.17
717.873	17153.91
718.216	17034.37
718.559	16944.43
718.902	16849.97
719.246	16927.93
719.589	16950.98
719.932	16948.72
720.275	16826.01
720.617	16894.26
720.96	16755.28
721.303	16852.45
721.646	16929.51
721.989	16709.41
722.331	16828.05
722.674	16701.95
723.016	16784.43
723.359	16699.24
723.701	16789.86
724.044	16703.53
724.386	16525
724.729	16703.98
725.071	16541.73
725.413	16587.83
725.755	16676.41
726.097	16566.58
726.439	16496.08
726.782	16528.17
727.124	16653.81
727.465	16481.16
727.807	16462.18
728.149	16531.78
728.491	16454.27
728.833	16430.99
729.175	16414.5
729.516	16429.19
729.858	16310.09
730.199	16386.7
730.541	16414.95
730.882	16349.41
731.224	16475.74
731.565	16353.03
731.906	16284.11
732.248	16333.6
732.589	16316.42
732.93	16218.8
733.271	16273.03
733.612	16349.41
733.953	16332.24
734.294	16223.32
734.635	16208.85
734.976	16276.65
735.317	16220.6
735.658	16179.48
735.999	16158.46
736.339	16209.31
736.68	16209.53
737.021	16128.63
737.361	16141.74
737.702	16239.36
738.042	16176.99
738.383	16075.52
738.723	16113.94
739.063	16064.22
739.404	16156.65
739.744	16071.68
740.084	15965.7
740.424	16056.32
740.764	16026.71
741.104	16134.28
741.444	16008.18
741.784	16041.17
742.124	16075.98
742.464	16067.39
742.804	15990.55
743.143	15866.26
743.483	15913.49
743.823	15868.07
744.162	15955.98
744.502	15970.67
744.841	15864.68
745.181	15930.89
745.52	15815.64
745.86	15821.75
746.199	15886.38
746.538	15916.21
746.877	15817.68
747.216	15852.48
747.556	15891.57
747.895	15819.26
748.234	15730.45
748.573	15702.65
748.911	15717.34
749.25	15735.65
749.589	15650.68
749.928	15788.98
750.267	15729.77
750.605	15688.64
750.944	15659.04
751.283	15656.1
751.621	15758.47
751.96	15661.3
752.298	15663.11
752.636	15728.19
752.975	15577.91
753.313	15572.94
753.651	15729.54
753.989	15571.81
754.327	15550.34
754.666	15455.43
755.004	15438.48
755.342	15575.88
755.679	15448.2
756.017	15366.39
756.355	15558.7
756.693	15418.14
757.031	15476.67
757.368	15308.76
757.706	15400.29
758.044	15321.65
758.381	15336.33
758.719	15249.78
