Data from cardboard_FLMS001491_044.txt Node
Date: Tue Feb 07 11:39:30 GMT 2017
User: dcchb
Spectrometer: FLMS00149
Trigger mode: 0
Integration Time (sec): 2.000000E-2
Scans to average: 10
Electric dark correction enabled: true
Nonlinearity correction enabled: false
Boxcar width: 0
XAxis mode: Wavelengths
Number of Pixels in Spectrum: 2048
>>>>>Begin Spectral Data<<<<<
341.393	-13.43
341.776	-13.43
342.16	-13.43
342.543	-59.08
342.927	-77.38
343.31	-86.42
343.693	-56.37
344.077	-59.98
344.46	-53.43
344.843	-78.29
345.226	-55.46
345.61	-25.18
345.993	-3.94
346.376	-15.47
346.759	28.6
347.142	31.09
347.525	41.03
347.908	52.78
348.291	76.28
348.674	103.85
349.057	100.92
349.44	140.01
349.823	151.99
350.206	168.71
350.588	189.73
350.971	212.1
351.354	225.66
351.737	215.26
352.119	244.64
352.502	248.48
352.884	248.26
353.267	278.76
353.65	275.83
354.032	279.67
354.414	280.12
354.797	302.27
355.179	300.68
355.562	295.94
355.944	317.86
356.326	323.06
356.709	293.9
357.091	302.49
357.473	316.73
357.855	330.06
358.238	304.07
358.62	323.28
359.002	317.41
359.384	326.45
359.766	322.38
360.148	329.38
360.53	307.01
360.912	329.38
361.294	298.88
361.676	321.25
362.057	317.18
362.439	323.06
362.821	326.9
363.203	311.76
363.584	315.83
363.966	297.52
364.348	312.66
364.729	316.28
365.111	298.65
365.493	312.89
365.874	307.01
366.256	289.84
366.637	297.75
367.019	288.26
367.4	295.26
367.781	296.39
368.163	302.04
368.544	287.8
368.925	294.81
369.306	303.62
369.688	280.12
370.069	290.97
370.45	304.3
370.831	317.63
371.212	294.58
371.593	289.39
371.974	302.94
372.355	311.53
372.736	310.18
373.117	294.36
373.498	314.92
373.879	300.01
374.26	310.4
374.641	314.47
375.021	292.32
375.402	309.05
375.783	307.92
376.163	304.3
376.544	287.8
376.925	303.17
377.305	309.5
377.686	316.28
378.066	294.36
378.447	309.5
378.827	304.07
379.208	300.23
379.588	298.42
379.968	311.08
380.349	317.18
380.729	298.2
381.109	301.59
381.489	293
381.87	321.7
382.25	310.4
382.63	295.49
383.01	317.41
383.39	320.12
383.77	320.57
384.15	316.28
384.53	288.26
384.91	326.45
385.29	326.67
385.67	325.32
386.049	314.24
386.429	323.96
386.809	324.19
387.189	314.7
387.568	340.91
387.948	332.55
388.328	347.46
388.707	316.28
389.087	314.02
389.466	334.13
389.846	345.65
390.225	337.75
390.605	337.07
390.984	326.67
391.363	337.07
391.743	348.82
392.122	328.93
392.501	330.74
392.881	361.93
393.26	340.46
393.639	356.28
394.018	339.55
394.397	361.25
394.776	339.1
395.155	357.86
395.534	347.69
395.913	350.63
396.292	338.42
396.671	358.76
397.05	345.65
397.429	353.11
397.808	375.03
398.186	352.66
398.565	353.34
398.944	347.01
399.323	340.01
399.701	361.47
400.08	363.51
400.458	355.82
400.837	371.64
401.215	354.47
401.594	365.54
401.972	384.52
402.351	369.16
402.729	381.59
403.107	401.02
403.486	380
403.864	377.52
404.242	379.55
404.62	354.02
404.999	369.61
405.377	394.24
405.755	384.52
406.133	400.57
406.511	382.72
406.889	402.6
407.267	387.46
407.645	402.83
408.023	401.47
408.401	394.47
408.779	420
409.156	408.93
409.534	405.09
409.912	395.82
410.29	382.72
410.667	410.29
411.045	414.81
411.422	413.45
411.8	388.37
412.178	424.52
412.555	401.25
412.933	422.04
413.31	431.08
413.687	425.2
414.065	454.13
414.442	428.36
414.819	439.66
415.197	453
415.574	426.78
415.951	440.57
416.328	428.36
416.705	450.96
417.082	426.78
417.46	449.61
417.837	474.01
418.214	448.25
418.591	449.38
418.967	477.18
419.344	462.49
419.721	480.11
420.098	469.49
420.475	481.24
420.852	463.84
421.228	453.22
421.605	478.53
421.982	474.24
422.358	489.15
422.735	501.36
423.111	486.89
423.488	475.82
423.864	480.34
424.241	504.52
424.617	500.68
424.994	507.01
425.37	516.5
425.746	490.96
426.123	483.28
426.499	500.68
426.875	511.98
427.251	520.79
427.627	507.01
428.003	532.99
428.379	514.01
428.756	536.84
429.132	547.91
429.507	550.17
429.883	527.12
430.259	537.51
430.635	564.41
431.011	528.7
431.387	551.53
431.763	553.56
432.138	578.42
432.514	561.02
432.89	561.02
433.265	575.93
433.641	561.69
434.016	589.26
434.392	593.33
434.767	577.74
435.143	595.14
435.518	611.64
435.894	606.66
436.269	610.96
436.644	619.32
437.02	608.02
437.395	632.88
437.77	635.14
438.145	642.14
438.52	651.41
438.895	651.18
439.271	624.52
439.646	658.64
440.021	665.42
440.395	655.48
440.77	664.97
441.145	646.66
441.52	699.54
441.895	648.92
442.27	672.43
442.645	661.58
443.019	665.65
443.394	676.72
443.769	704.06
444.143	672.65
444.518	692.54
444.892	695.25
445.267	678.53
445.641	681.92
446.016	688.02
446.39	700.45
446.764	683.05
447.139	693.67
447.513	709.71
447.887	732.31
448.262	731.63
448.636	706.78
449.01	716.94
449.384	754.68
449.758	743.84
450.132	727.11
450.506	726.44
450.88	764.4
451.254	742.25
451.628	774.57
452.002	773.89
452.376	790.39
452.75	772.08
453.123	794
453.497	775.7
453.871	784.06
454.244	796.04
454.618	813.44
454.992	794
455.365	837.39
455.739	831.97
456.112	851.63
456.486	852.99
456.859	867.67
457.232	870.16
457.606	876.04
457.979	861.57
458.352	902.93
458.725	893.44
459.099	883.04
459.472	900.67
459.845	936.83
460.218	912.65
460.591	916.94
460.964	916.94
461.337	950.38
461.71	959.42
462.083	953.55
462.456	963.49
462.829	956.26
463.201	984.06
463.574	980.67
463.947	980.44
464.32	997.39
464.692	1045.3
465.065	1012.98
465.438	1042.81
465.81	1032.87
466.183	1066.09
466.555	1051.17
466.928	1085.07
467.3	1083.71
467.672	1101.57
468.045	1124.17
468.417	1113.09
468.789	1117.39
469.161	1127.78
469.534	1142.47
469.906	1145.41
470.278	1217.72
470.65	1196.48
471.022	1200.1
471.394	1212.52
471.766	1213.65
472.138	1253.2
472.51	1273.99
472.882	1277.38
473.253	1277.38
473.625	1313.76
473.997	1321.45
474.369	1378.85
474.74	1364.84
475.112	1367.55
475.484	1397.15
475.855	1412.75
476.227	1402.8
476.598	1478.96
476.97	1445.51
477.341	1502.01
477.713	1505.62
478.084	1525.96
478.455	1559.41
478.827	1565.51
479.198	1634.43
479.569	1629.24
479.94	1668.78
480.311	1657.26
480.682	1682.34
481.053	1751.04
481.424	1754.88
481.795	1794.43
482.166	1803.24
482.537	1809.12
482.908	1830.14
483.279	1854.54
483.65	1866.07
484.021	1936.8
484.391	1965.27
484.762	2004.14
485.133	1978.15
485.503	2030.13
485.874	2052.5
486.244	2102.67
486.615	2135.21
486.985	2162.56
487.356	2165.04
487.726	2223.57
488.097	2250.24
488.467	2257.02
488.837	2296.34
489.207	2305.15
489.578	2377.01
489.948	2360.29
490.318	2401.65
490.688	2424.92
491.058	2447.97
491.428	2495.65
491.798	2525.26
492.168	2571.81
492.538	2579.04
492.908	2621.3
493.278	2618.59
493.648	2631.7
494.017	2703.33
494.387	2708.08
494.757	2746.5
495.126	2751.02
495.496	2792.82
495.866	2807.06
496.235	2812.26
496.605	2821.97
496.974	2883.67
497.344	2938.58
497.713	2941.29
498.082	3002.31
498.452	3006.83
498.821	3030.56
499.19	3043.66
499.559	3096.54
499.928	3091.57
500.298	3106.49
500.667	3127.05
501.036	3170.89
501.405	3196.65
501.774	3202.98
502.143	3201.17
502.512	3265.58
502.88	3283.66
503.249	3291.57
503.618	3382.41
503.987	3351.45
504.356	3411.34
504.724	3375.18
505.093	3447.49
505.462	3451.11
505.83	3483.43
506.199	3530.66
506.567	3565.23
506.936	3599.81
507.304	3635.51
507.672	3653.59
508.041	3690.43
508.409	3725.23
508.777	3772.01
509.145	3782.4
509.514	3820.82
509.882	3800.71
510.25	3851.33
510.618	3828.05
510.986	3917.99
511.354	3929.06
511.722	3963.64
512.09	4065.56
512.458	4067.36
512.826	4065.1
513.193	4118.66
513.561	4159.11
513.929	4143.07
514.297	4219.68
514.664	4260.13
515.032	4296.29
515.4	4327.7
515.767	4357.3
516.135	4402.05
516.502	4378.54
516.869	4449.73
517.237	4463.06
517.604	4461.25
517.972	4540.8
518.339	4567.92
518.706	4631.87
519.073	4641.14
519.44	4668.03
519.808	4767.01
520.175	4747.35
520.542	4864.18
520.909	4865.76
521.276	4902.37
521.643	4939.66
522.009	5015.36
522.376	5042.48
522.743	5070.95
523.11	5112.76
523.477	5210.84
523.843	5223.94
524.21	5272.3
524.577	5344.85
524.943	5322.25
525.31	5392.08
525.676	5474.79
526.043	5459.64
526.409	5490.15
526.776	5555.46
527.142	5628.91
527.508	5616.48
527.874	5708.9
528.241	5775.79
528.607	5854.89
528.973	5866.41
529.339	5882.01
529.705	5944.38
530.071	5988.67
530.437	6028.9
530.803	6068.89
531.169	6148.89
531.535	6124.03
531.901	6203.13
532.267	6248.1
532.632	6327.42
532.998	6282.67
533.364	6381.43
533.73	6414.65
534.095	6465.49
534.461	6470.92
534.826	6535.32
535.192	6583.68
535.557	6594.08
535.923	6602.67
536.288	6689.22
536.653	6702.1
537.019	6720.18
537.384	6763.34
537.749	6808.08
538.114	6832.72
538.479	6877.23
538.845	6891.92
539.21	6930.34
539.575	7013.05
539.94	7067.51
540.305	7061.86
540.67	7081.52
541.034	7124.46
541.399	7145.25
541.764	7219.82
542.129	7297.79
542.494	7251.91
542.858	7304.34
543.223	7328.97
543.587	7394.06
543.952	7392.48
544.316	7469.54
544.681	7436.32
545.045	7463.89
545.41	7604.45
545.774	7567.16
546.138	7633.37
546.503	7685.8
546.867	7639.47
547.231	7768.06
547.595	7742.07
547.959	7861.84
548.324	7800.6
548.688	7931.44
549.052	7985.45
549.416	7896.19
549.779	7988.17
550.143	8061.16
550.507	8090.31
550.871	8155.84
551.235	8173.47
551.599	8218.44
551.962	8257.09
552.326	8285.56
552.689	8338.66
553.053	8331.66
553.417	8420.92
553.78	8523.07
554.143	8562.61
554.507	8564.87
554.87	8601.93
555.234	8676.51
555.597	8674.02
555.96	8645.78
556.323	8828.37
556.686	8880.35
557.05	8913.57
557.413	8924.41
557.776	8923.06
558.139	9039.21
558.502	9066.33
558.865	9130.28
559.228	9167.57
559.59	9199.21
559.953	9251.86
560.316	9354.46
560.679	9297.96
561.041	9455.7
561.404	9484.4
561.767	9572.76
562.129	9581.34
562.492	9776.37
562.854	9665.18
563.217	9675.8
563.579	9734.33
563.941	9868.79
564.304	9893.65
564.666	9903.82
565.028	9936.36
565.39	10026.76
565.753	10131.16
566.115	10163.48
566.477	10227.65
566.839	10258.16
567.201	10316.69
567.563	10388.55
567.925	10439.63
568.287	10482.34
568.648	10482.79
569.01	10589.23
569.372	10709.22
569.734	10690.02
570.095	10718.04
570.457	10728.88
570.819	10782.44
571.18	10854.08
571.542	10945.38
571.903	10899.05
572.265	11015.43
572.626	10985.15
572.987	11099.72
573.349	11103.34
573.71	11234.18
574.071	11120.96
574.432	11322.54
574.794	11325.48
575.155	11381.07
575.516	11376.55
575.877	11309.89
576.238	11454.97
576.599	11489.32
576.96	11564.57
577.32	11599.82
577.681	11718.92
578.042	11681.18
578.403	11702.19
578.763	11757.78
579.124	11740.84
579.485	11843.88
579.845	11874.62
580.206	11827.61
580.566	11874.17
580.927	11839.36
581.287	12038.91
581.648	11974.05
582.008	11989.42
582.368	11976.76
582.728	12038.68
583.089	12065.12
583.449	12092.24
583.809	12100.37
584.169	12170.43
584.529	12122.97
584.889	12244.1
585.249	12173.59
585.609	12182.41
585.969	12235.29
586.329	12326.81
586.688	12331.55
587.048	12290.88
587.408	12369.75
587.768	12340.37
588.127	12362.29
588.487	12353.25
588.846	12456.3
589.206	12343.53
589.565	12389.41
589.925	12533.58
590.284	12485
590.643	12479.8
591.003	12606.58
591.362	12585.78
591.721	12571.32
592.08	12530.87
592.44	12635.73
592.799	12736.06
593.158	12600.47
593.517	12630.98
593.876	12683.86
594.235	12663.75
594.593	12665.1
594.952	12685.44
595.311	12759.57
595.67	12784.65
596.029	12834.14
596.387	12827.59
596.746	12782.84
597.104	12866
597.463	12811.54
597.822	12940.8
598.18	12801.6
598.538	12943.52
598.897	12939.22
599.255	12845.89
599.613	13062.16
599.972	12941.48
600.33	13017.86
600.688	12909.84
601.046	13076.39
601.404	13076.62
601.762	13048.6
602.12	13158.65
602.478	13155.26
602.836	13140.35
603.194	13082.72
603.552	13180.57
603.91	13172.21
604.268	13140.35
604.625	13195.26
604.983	13223.06
605.341	13245.65
605.698	13341.92
606.056	13363.62
606.413	13307.35
606.771	13429.6
607.128	13438.42
607.485	13350.96
607.843	13402.26
608.2	13423.28
608.557	13493.56
608.914	13458.08
609.272	13529.71
609.629	13588.92
609.986	13698.75
610.343	13545.08
610.7	13678.86
611.057	13696.49
611.414	13637.73
611.771	13675.47
612.127	13743.27
612.484	13762.7
612.841	13835.02
613.198	13788.24
613.554	13800.67
613.911	13801.8
614.267	13863.49
614.624	13816.26
614.98	13994.11
615.337	13928.57
615.693	13995.01
616.05	13995.47
616.406	14005.86
616.762	14002.24
617.118	14079.98
617.475	14016.03
617.831	14092.64
618.187	14188.68
618.543	14203.14
618.899	14271.84
619.255	14250.6
619.611	14255.8
619.967	14368.79
620.323	14236.81
620.678	14218.51
621.034	14287.44
621.39	14403.36
621.746	14279.75
622.101	14418.96
622.457	14378.73
622.812	14437.04
623.168	14340.54
623.523	14510.71
623.879	14565.62
624.234	14469.35
624.589	14472.51
624.945	14472.97
625.3	14469.13
625.655	14535.79
626.01	14519.29
626.365	14506.41
626.72	14472.74
627.075	14536.69
627.43	14601.1
627.785	14602.91
628.14	14519.75
628.495	14645.39
628.85	14497.37
629.205	14521.55
629.559	14631.83
629.914	14599.52
630.269	14603.81
630.623	14548.9
630.978	14536.47
631.332	14590.48
631.687	14642.23
632.041	14510.48
632.396	14613.3
632.75	14493.76
633.104	14622.34
633.459	14595.45
633.813	14512.97
634.167	14578.05
634.521	14535.56
634.875	14604.71
635.229	14530.14
635.583	14555.22
635.937	14418.05
636.291	14464.83
636.645	14479.52
636.999	14462.12
637.352	14560.2
637.706	14482.46
638.06	14519.52
638.413	14451.5
638.767	14428.45
639.121	14512.97
639.474	14395.45
639.828	14398.62
640.181	14433.87
640.534	14497.6
640.888	14420.76
641.241	14313.65
641.594	14419.41
641.947	14418.73
642.301	14424.83
642.654	14293.54
643.007	14449.92
643.36	14404.04
643.713	14352.74
644.066	14432.06
644.419	14291.95
644.771	14284.27
645.124	14143.94
645.477	14141.9
645.83	14024.17
646.182	13961.12
646.535	13920.89
646.888	13974.67
647.24	13870.95
647.593	13985.75
647.945	13964.96
648.298	13949.14
648.65	13913.43
649.002	13925.64
649.355	13978.97
649.707	13858.52
650.059	13933.77
650.411	14136.03
650.763	14163.82
651.115	14277.27
651.467	14276.81
651.819	14242.69
652.171	14225.74
652.523	14313.65
652.875	14290.6
653.227	14179.19
653.578	14310.03
653.93	14222.8
654.282	14182.35
654.633	14133.31
654.985	14246.31
655.337	14213.76
655.688	14282.92
656.039	14294.89
656.391	14229.81
656.742	14268.23
657.094	14191.39
657.445	14289.24
657.796	14196.82
658.147	14263.03
658.498	14240.88
658.849	14290.37
659.2	14235.46
659.551	14235.46
659.902	14295.8
660.253	14250.37
660.604	14253.31
660.955	14232.52
661.306	14267.77
661.656	14256.02
662.007	14237.49
662.358	14208.57
662.708	14155.69
663.059	14270.26
663.409	14170.15
663.76	14231.84
664.11	14298.28
664.461	14282.01
664.811	14338.28
665.161	14273.42
665.511	14262.35
665.862	14211.5
666.212	14354.1
666.562	14251.5
666.912	14390.71
667.262	14316.13
667.612	14230.26
667.962	14277.72
668.312	14195.23
668.662	14292.18
669.011	14312.29
669.361	14256.02
669.711	14310.71
670.06	14260.54
670.41	14249.7
670.76	14366.98
671.109	14251.05
671.459	14229.58
671.808	14242.01
672.157	14370.6
672.507	14166.76
672.856	14242.92
673.205	14216.02
673.554	14300.09
673.904	14206.99
674.253	14381.67
674.602	14302.8
674.951	14043.6
675.3	14032.3
675.649	14331.5
675.998	14184.84
676.346	14202.24
676.695	14255.8
677.044	14169.02
677.393	14201.34
677.741	14238.17
678.09	14190.49
678.438	14155.46
678.787	14244.72
679.135	14189.36
679.484	14135.12
679.832	14228.23
680.181	14114.11
680.529	14198.62
680.877	14157.04
681.225	14171.51
681.573	14201.56
681.922	14079.53
682.27	14044.5
682.618	14135.57
682.966	14014.22
683.314	14090.83
683.661	14095.35
684.009	14039.53
684.357	13982.81
684.705	13956.82
685.053	13970.83
685.4	13984.84
685.748	13899.65
686.095	13880.21
686.443	13857.16
686.79	13888.8
687.138	13969.03
687.485	13956.6
687.832	13854.45
688.18	13869.37
688.527	13724.74
688.874	13808.58
689.221	13783.49
689.568	13754.57
689.915	13724.96
690.262	13745.3
690.609	13684.51
690.956	13651.07
691.303	13597.96
691.65	13546.44
691.997	13580.34
692.344	13442.71
692.69	13529.26
693.037	13509.6
693.383	13372.2
693.73	13443.62
694.077	13427.34
694.423	13438.42
694.769	13277.29
695.116	13305.99
695.462	13343.05
695.808	13296.73
696.155	13324.52
696.501	13262.38
696.847	13211.98
697.193	13113.45
697.539	13266.67
697.885	13074.81
698.231	13127.47
698.577	13035.49
698.923	13102.16
699.269	12995.72
699.614	12913.91
699.96	12906.23
700.306	12928.15
700.651	12953.68
700.997	12887.02
701.342	12918.43
701.688	12906.91
702.033	12868.72
702.379	12843.63
702.724	12792.33
703.069	12796.63
703.415	12722.96
703.76	12617.65
704.105	12717.76
704.45	12675.73
704.795	12620.81
705.14	12522.96
705.485	12548.72
705.83	12464.43
706.175	12544.66
706.52	12438.9
706.865	12489.52
707.209	12515.96
707.554	12366.13
707.899	12456.97
708.243	12289.52
708.588	12332.23
708.932	12235.06
709.277	12227.38
709.621	12286.58
709.966	12178.11
710.31	12264.89
710.654	12282.06
710.998	12141.28
711.342	12177.66
711.687	12072.8
712.031	12089.53
712.375	12019.7
712.719	12061.73
713.063	12051.79
713.407	12214.95
713.75	12031.45
714.094	12088.4
714.438	12030.32
714.782	12019.47
715.125	11920.27
715.469	11914.39
715.812	11975.41
716.156	11848.4
716.499	11890.89
716.843	11837.78
717.186	11897.67
717.53	11830.78
717.873	11864.22
718.216	11829.87
718.559	11745.58
718.902	11653.61
719.246	11783.77
719.589	11805.69
719.932	11743.77
720.275	11720.27
720.617	11682.76
720.96	11656.77
721.303	11664
721.646	11693.83
721.989	11630.78
722.331	11713.49
722.674	11592.14
723.016	11608.18
723.359	11634.85
723.701	11573.16
724.044	11562.31
724.386	11538.58
724.729	11633.72
725.071	11567.73
725.413	11586.94
725.755	11475.53
726.097	11480.28
726.439	11499.03
726.782	11508.07
727.124	11527.96
727.465	11451.8
727.807	11478.92
728.149	11424.01
728.491	11393.95
728.833	11486.6
729.175	11397.57
729.516	11341.07
729.858	11395.76
730.199	11423.56
730.541	11330
730.882	11385.59
731.224	11356.66
731.565	11279.15
731.906	11315.08
732.248	11361.64
732.589	11273.95
732.93	11218.82
733.271	11221.53
733.612	11312.15
733.953	11308.08
734.294	11230.11
734.635	11108.76
734.976	11304.91
735.317	11266.95
735.658	11183.56
735.999	11224.24
736.339	11202.54
736.68	11246.16
737.021	11199.83
737.361	11152.83
737.702	11235.76
738.042	11221.3
738.383	11106.5
738.723	11203
739.063	11176.1
739.404	11204.8
739.744	11212.04
740.084	11089.33
740.424	11150.12
740.764	11102.66
741.104	11160.74
741.444	11102.89
741.784	11112.6
742.124	11110.8
742.464	11068.31
742.804	11065.37
743.143	11029.67
743.483	10998.48
743.823	11066.28
744.162	10994.87
744.502	11065.6
744.841	11056.56
745.181	11128.42
745.52	10981.31
745.86	11103.34
746.199	11054.98
746.538	10980.18
746.877	11058.59
747.216	11031.25
747.556	10972.49
747.895	11025.83
748.234	10986.5
748.573	10931.37
748.911	10979.05
749.25	10953.06
749.589	10941.08
749.928	10942.44
750.267	10951.93
750.605	10945.6
750.944	10941.53
751.283	10872.16
751.621	10878.94
751.96	10773.86
752.298	10815.89
752.636	10802.33
752.975	10780.63
753.313	10743.57
753.651	10797.36
753.989	10846.17
754.327	10784.48
754.666	10730.92
755.004	10782.22
755.342	10753.97
755.679	10674.65
756.017	10627.64
756.355	10721.43
756.693	10656.57
757.031	10675.33
757.368	10666.97
757.706	10586.74
758.044	10603.24
758.381	10602.33
758.719	10509
759.056	10615.22
759.394	10517.36
759.731	10523.92
760.068	10498.61
