Data from cardboard_FLMS001491_040.txt Node
Date: Tue Feb 07 11:39:22 GMT 2017
User: dcchb
Spectrometer: FLMS00149
Trigger mode: 0
Integration Time (sec): 2.000000E-2
Scans to average: 10
Electric dark correction enabled: true
Nonlinearity correction enabled: false
Boxcar width: 0
XAxis mode: Wavelengths
Number of Pixels in Spectrum: 2048
>>>>>Begin Spectral Data<<<<<
341.393	-14.75
341.776	-14.75
342.16	-14.75
342.543	-52.26
342.927	-91.58
343.31	-58.81
343.693	-77.12
344.077	-53.16
344.46	-56.78
344.843	-45.03
345.226	-51.13
345.61	-39.38
345.993	-3.45
346.376	3.56
346.759	7.17
347.142	45.37
347.525	39.72
347.908	51.69
348.291	62.09
348.674	75.87
349.057	99.38
349.44	134.18
349.823	142.76
350.206	147.06
350.588	193.61
350.971	202.2
351.354	201.29
351.737	216.43
352.119	246.04
352.502	253.27
352.884	243.55
353.267	287.17
353.65	285.13
354.032	283.33
354.414	293.95
354.797	302.08
355.179	318.35
355.562	311.57
355.944	301.18
356.326	324.45
356.709	326.49
357.091	333.27
357.473	324.91
357.855	314.06
358.238	335.08
358.62	331.69
359.002	324.45
359.384	336.21
359.766	325.13
360.148	354.28
360.53	329.65
360.912	328.75
361.294	301.63
361.676	314.74
362.057	300.95
362.439	320.16
362.821	302.08
363.203	316.32
363.584	294.63
363.966	313.83
364.348	312.48
364.729	335.3
365.111	319.26
365.493	311.12
365.874	297.11
366.256	322.19
366.637	310.22
367.019	324.68
367.4	296.21
367.781	278.35
368.163	317.68
368.544	305.7
368.925	295.98
369.306	312.03
369.688	319.03
370.069	301.63
370.45	297.79
370.831	293.95
371.212	292.14
371.593	325.58
371.974	295.53
372.355	312.03
372.736	302.31
373.117	328.3
373.498	331.91
373.879	312.48
374.26	323.55
374.641	304.12
375.021	307.51
375.402	312.03
375.783	328.07
376.163	328.97
376.544	295.08
376.925	319.26
377.305	321.52
377.686	331.23
378.066	307.28
378.447	309.99
378.827	330.78
379.208	300.5
379.588	313.83
379.968	294.63
380.349	318.58
380.729	327.39
381.109	322.19
381.489	318.13
381.87	313.83
382.25	324
382.63	343.89
383.01	342.53
383.39	338.69
383.77	329.43
384.15	312.03
384.53	326.26
384.91	315.42
385.29	322.65
385.67	316.77
386.049	334.17
386.429	362.87
386.809	352.93
387.189	340.05
387.568	339.14
387.948	342.53
388.328	350.89
388.707	375.3
389.087	342.76
389.466	357.22
389.846	348.63
390.225	354.51
390.605	340.05
390.984	341.4
391.363	339.82
391.743	390.89
392.122	372.59
392.501	356.09
392.881	355.64
393.26	377.11
393.639	372.36
394.018	357.67
394.397	352.02
394.776	379.37
395.155	362.19
395.534	375.3
395.913	372.82
396.292	387.96
396.671	375.75
397.05	372.59
397.429	385.02
397.808	373.49
398.186	378.92
398.565	361.74
398.944	388.86
399.323	382.53
399.701	382.76
400.08	382.31
400.458	384.34
400.837	380.27
401.215	406.49
401.594	394.74
401.972	394.74
402.351	409.88
402.729	413.04
403.107	397.22
403.486	414.17
403.864	393.15
404.242	415.75
404.62	410.1
404.999	409.2
405.377	403.1
405.755	405.81
406.133	420.05
406.511	429.08
406.889	414.85
407.267	419.59
407.645	426.37
408.023	427.95
408.401	410.33
408.779	434.51
409.156	428.86
409.534	451.91
409.912	432.25
410.29	461.17
410.667	451.01
411.045	487.16
411.422	464.11
411.8	465.92
412.178	459.82
412.555	470.67
412.933	479.25
413.31	480.83
413.687	478.35
414.065	453.72
414.442	484.22
414.819	463.66
415.197	497.78
415.574	489.65
415.951	524.45
416.328	460.72
416.705	501.17
417.082	489.2
417.46	519.93
417.837	509.53
418.214	518.57
418.591	513.38
418.967	513.6
419.344	539.59
419.721	512.47
420.098	505.47
420.475	521.51
420.852	513.83
421.228	514.73
421.605	510.66
421.982	545.24
422.358	540.95
422.735	540.95
423.111	531.45
423.488	581.62
423.864	546.6
424.241	549.53
424.617	559.25
424.994	568.97
425.37	579.14
425.746	559.25
426.123	585.69
426.499	588.63
426.875	576.2
427.251	594.5
427.627	608.29
428.003	605.8
428.379	610.77
428.756	605.35
429.132	612.58
429.507	621.4
429.883	612.58
430.259	630.44
430.635	637.89
431.011	640.6
431.387	684.67
431.763	644.67
432.138	654.39
432.514	667.27
432.89	678.8
433.265	653.03
433.641	705.91
434.016	693.94
434.392	675.86
434.767	696.2
435.143	689.64
435.518	733.48
435.894	741.17
436.269	743.88
436.644	731.9
437.02	729.87
437.395	723.77
437.77	737.55
438.145	740.49
438.52	761.51
438.895	766.93
439.271	732.81
439.646	747.72
440.021	777.55
440.395	799.47
440.77	799.02
441.145	802.63
441.52	793.37
441.895	788.17
442.27	801.73
442.645	809.41
443.019	821.16
443.394	807.61
443.769	820.26
444.143	816.65
444.518	830.88
444.892	809.41
445.267	803.31
445.641	847.38
446.016	858.23
446.39	849.64
446.764	851.9
447.139	842.63
447.513	854.84
447.887	860.94
448.262	870.43
448.636	841.05
449.01	888.51
449.384	895.29
449.758	914.72
450.132	915.85
450.506	898.68
450.88	898
451.254	926.25
451.628	923.08
452.002	933.03
452.376	921.73
452.75	948.17
453.123	947.49
453.497	951.33
453.871	958.11
454.244	982.74
454.618	996.08
454.992	991.33
455.365	988.84
455.739	1012.35
456.112	1016.19
456.486	1022.74
456.859	1029.52
457.232	1093.93
457.606	1020.26
457.979	1088.05
458.352	1085.11
458.725	1101.84
459.099	1115.62
459.472	1121.95
459.845	1130.54
460.218	1128.05
460.591	1125.11
460.964	1134.83
461.337	1179.8
461.71	1199.91
462.083	1185.68
462.456	1226.8
462.829	1187.03
463.201	1218.89
463.574	1241.49
463.947	1233.13
464.32	1255.73
464.692	1291.43
465.065	1288.27
465.438	1326.69
465.81	1320.59
466.183	1337.31
466.555	1347.25
466.928	1380.7
467.3	1388.61
467.672	1394.26
468.045	1413.69
468.417	1428.15
468.789	1441.94
469.161	1448.49
469.534	1469.28
469.906	1476.97
470.278	1508.15
470.65	1526.91
471.022	1576.85
471.394	1575.04
471.766	1577.76
472.138	1607.81
472.51	1651.88
472.882	1651.88
473.253	1677.87
473.625	1678.77
473.997	1712.44
474.369	1768.03
474.74	1771.2
475.112	1791.76
475.484	1807.35
475.855	1845.54
476.227	1827.01
476.598	1930.74
476.97	1903.17
477.341	1948.59
477.713	2013.22
478.084	1992.66
478.455	2037.18
478.827	2071.3
479.198	2114.01
479.569	2131.19
479.94	2179.32
480.311	2174.8
480.682	2254.57
481.053	2298.41
481.424	2321.92
481.795	2359.2
482.166	2386.1
482.537	2397.17
482.908	2440.56
483.279	2481.69
483.65	2565.98
484.021	2538.63
484.391	2617.95
484.762	2636.03
485.133	2662.47
485.503	2688.46
485.874	2736.59
486.244	2804.62
486.615	2847.1
486.985	2859.98
487.356	2915.57
487.726	2952.86
488.097	2996.7
488.467	2976.14
488.837	3085.74
489.207	3127.54
489.578	3164.61
489.948	3186.3
490.318	3278.28
490.688	3267.65
491.058	3288.22
491.428	3364.37
491.798	3388.78
492.168	3492.06
492.538	3485.5
492.908	3548.55
493.278	3582.9
493.648	3582
494.017	3644.14
494.387	3687.98
494.757	3733.86
495.126	3734.76
495.496	3765.27
495.866	3814.31
496.235	3852.05
496.605	3899.73
496.974	3920.97
497.344	3989.44
497.713	4042.1
498.082	4049.55
498.452	4118.71
498.821	4119.84
499.19	4160.74
499.559	4163
499.928	4252.71
500.298	4283.45
500.667	4342.2
501.036	4331.13
501.405	4400.96
501.774	4386.72
502.143	4416.55
502.512	4490.22
502.88	4517.11
503.249	4539.49
503.618	4594.4
503.987	4636.88
504.356	4671.01
504.724	4729.31
505.093	4746.26
505.462	4761.17
505.83	4845.24
506.199	4838.69
506.567	4903.54
506.936	4918.46
507.304	5014.27
507.672	5059.92
508.041	5054.05
508.409	5133.82
508.777	5168.62
509.145	5194.84
509.514	5233.48
509.882	5332.68
510.25	5367.26
510.618	5363.87
510.986	5411.78
511.354	5514.6
511.722	5518.44
512.09	5566.58
512.458	5623.07
512.826	5643.18
513.193	5693.13
513.561	5743.97
513.929	5784.65
514.297	5851.99
514.664	5949.84
515.032	5942.61
515.4	6002.05
515.767	6065.09
516.135	6113.46
516.502	6089.73
516.869	6216.28
517.237	6248.82
517.604	6260.57
517.972	6367.46
518.339	6413.79
518.706	6436.38
519.073	6552.31
519.44	6538.3
519.808	6672.08
520.175	6706.21
520.542	6797.73
520.909	6851.97
521.276	6879.99
521.643	6926.77
522.009	6992.08
522.376	7092.64
522.743	7185.74
523.11	7309.13
523.477	7335.12
523.843	7330.15
524.21	7430.93
524.577	7580.99
524.943	7560.87
525.31	7671.61
525.676	7692.62
526.043	7790.02
526.409	7847.19
526.776	7924.03
527.142	8027.98
527.508	8116.34
527.874	8190.91
528.241	8226.62
528.607	8282.44
528.973	8389.1
529.339	8393.4
529.705	8536.22
530.071	8588.87
530.437	8714.74
530.803	8694.18
531.169	8812.37
531.535	8880.61
531.901	8891.01
532.267	8920.84
532.632	9013.27
532.998	9051.91
533.364	9214.16
533.73	9189.98
534.095	9367.15
534.461	9371.45
534.826	9411.9
535.192	9512.91
535.557	9593.36
535.923	9589.75
536.288	9624.55
536.653	9683.76
537.019	9705.45
537.384	9798.78
537.749	9893.92
538.114	9914.94
538.479	9941.15
538.845	10064.31
539.21	10132.11
539.575	10154.93
539.94	10255.49
540.305	10306.34
540.67	10386.56
541.034	10403.51
541.399	10482.61
541.764	10512.44
542.129	10551.53
542.494	10624.07
542.858	10736.61
543.223	10673.56
543.587	10819.77
543.952	10828.59
544.316	10857.74
544.681	10890.28
545.045	11007.34
545.41	11107.9
545.774	11064.74
546.138	11230.83
546.503	11295.69
546.867	11234.68
547.231	11414.78
547.595	11472.41
547.959	11507.66
548.324	11542.69
548.688	11586.08
549.052	11697.72
549.416	11712.4
549.779	11740.2
550.143	11837.37
550.507	11930.25
550.871	12069.91
551.235	11965.96
551.599	12185.61
551.962	12153.3
552.326	12226.06
552.689	12341.09
553.053	12383.8
553.417	12358.94
553.78	12634.41
554.143	12584.02
554.507	12636.45
554.87	12723.45
555.234	12890.23
555.597	12835.09
555.96	12950.34
556.323	13022.2
556.686	13080.73
557.05	13209.54
557.413	13272.36
557.776	13345.36
558.139	13447.95
558.502	13500.83
558.865	13513.26
559.228	13661.96
559.59	13740.37
559.953	13821.05
560.316	13917.32
560.679	13987.15
561.041	14032.34
561.404	14176.97
561.767	14249.29
562.129	14292.68
562.492	14453.57
562.854	14468.49
563.217	14483.63
563.579	14633.68
563.941	14722.95
564.304	14850.4
564.666	14960
565.028	14900.34
565.39	15108.25
565.753	15172.43
566.115	15263.72
566.477	15335.13
566.839	15361.8
567.201	15504.17
567.563	15568.57
567.925	15719.53
568.287	15766.08
568.648	15717.27
569.01	15943.03
569.372	16157.71
569.734	15957.72
570.095	16081.1
570.457	16256.47
570.819	16294.88
571.18	16282.91
571.542	16440.64
571.903	16519.51
572.265	16640.86
572.626	16736.45
572.987	16773.74
573.349	16779.16
573.71	16911.82
574.071	16992.27
574.432	17028.87
574.794	17154.52
575.155	17248.98
575.516	17193.16
575.877	17324.23
576.238	17345.48
576.599	17472.25
576.96	17516.32
577.32	17631.57
577.681	17587.5
578.042	17730.1
578.403	17755.86
578.763	17787.27
579.124	17873.37
579.485	17934.84
579.845	18052.12
580.206	18057.1
580.566	18087.6
580.927	18177.54
581.287	18140.71
581.648	18243.76
582.008	18294.15
582.368	18360.14
582.728	18292.12
583.089	18474.26
583.449	18502.06
583.809	18552.22
584.169	18530.98
584.529	18541.83
584.889	18766.23
585.249	18642.39
585.609	18701.15
585.969	18764.42
586.329	18874.25
586.688	18855.72
587.048	18817.75
587.408	18887.81
587.768	18932.55
588.127	18998.77
588.487	18980.01
588.846	19142.94
589.206	19041.48
589.565	19075.15
589.925	19283.28
590.284	19114.02
590.643	19186.56
591.003	19237.86
591.362	19324.41
591.721	19332.77
592.08	19282.15
592.44	19428.36
592.799	19438.08
593.158	19390.17
593.517	19476.95
593.876	19511.97
594.235	19455.93
594.593	19490.28
594.952	19581.12
595.311	19515.14
595.67	19668.8
596.029	19777.95
596.387	19771.4
596.746	19809.59
597.104	19752.19
597.463	19967.78
597.822	19946.09
598.18	19883.71
598.538	19899.53
598.897	20054.11
599.255	19892.75
599.613	20180.2
599.972	20169.58
600.33	20171.39
600.688	20132.07
601.046	20257.72
601.404	20324.83
601.762	20283.25
602.12	20406.64
602.478	20446.86
602.836	20513.08
603.194	20499.97
603.552	20447.09
603.91	20478.05
604.268	20432.17
604.625	20494.77
604.983	20649.12
605.341	20520.08
605.698	20656.35
606.056	20792.39
606.413	20736.35
606.771	20779.28
607.128	20933.86
607.485	20800.07
607.843	20817.02
608.2	20949.9
608.557	21050.69
608.914	20944.25
609.272	21102.21
609.629	21068.77
609.986	21184.92
610.343	21189.67
610.7	21334.52
611.057	21292.94
611.414	21271.7
611.771	21379.72
612.127	21463.11
612.484	21408.19
612.841	21538.81
613.198	21502.65
613.554	21433.5
613.911	21672.37
614.267	21639.15
614.624	21704.46
614.98	21733.38
615.337	21883.44
615.693	21828.07
616.05	21782.42
616.406	21892.25
616.762	21851.12
617.118	21892.02
617.475	21996.88
617.831	21985.35
618.187	22037.78
618.543	21989.65
618.899	22155.52
619.255	22157.55
619.611	22181.73
619.967	22261.96
620.323	22322.29
620.678	22239.58
621.034	22158.46
621.39	22315.51
621.746	22318.45
622.101	22611.55
622.457	22431.9
622.812	22370.65
623.168	22520.03
623.523	22533.14
623.879	22663.75
624.234	22543.53
624.589	22496.3
624.945	22552.57
625.3	22555.28
625.655	22560.03
626.01	22613.59
626.365	22712.34
626.72	22666.01
627.075	22643.64
627.43	22734.04
627.785	22666.01
628.14	22701.27
628.495	22659.91
628.85	22776.97
629.205	22691.55
629.559	22816.07
629.914	22638.9
630.269	22735.62
630.623	22668.27
630.978	22716.18
631.332	22882.73
631.687	22887.93
632.041	22751.21
632.396	22901.49
632.75	22710.08
633.104	22779.68
633.459	22743.98
633.813	22649.52
634.167	22695.84
634.521	22645.68
634.875	22699.46
635.229	22675.73
635.583	22646.35
635.937	22646.13
636.291	22750.76
636.645	22701.72
636.999	22612.23
637.352	22705.34
637.706	22467.15
638.06	22638.44
638.413	22646.35
638.767	22513.48
639.121	22489.75
639.474	22364.33
639.828	22476.19
640.181	22515.51
640.534	22610.87
640.888	22522.52
641.241	22468.05
641.594	22515.74
641.947	22614.94
642.301	22396.19
642.654	22502.4
643.007	22514.15
643.36	22508.28
643.713	22429.86
644.066	22557.77
644.419	22407.04
644.771	22290.2
645.124	22232.13
645.477	22116.2
645.83	22053.37
646.182	21970.44
646.535	21869.2
646.888	21954.85
647.24	21790.33
647.593	21995.75
647.945	21910.55
648.298	21864.23
648.65	21670.33
649.002	21654.74
649.355	21793.27
649.707	21798.24
650.059	21955.75
650.411	22159.36
650.763	22205.24
651.115	22487.71
651.467	22392.12
651.819	22360.03
652.171	22355.74
652.523	22315.06
652.875	22280.49
653.227	22334.72
653.578	22430.31
653.93	22332.69
654.282	22268.28
654.633	22166.82
654.985	22265.57
655.337	22228.29
655.688	22231
656.039	22380.82
656.391	22185.35
656.742	22263.09
657.094	22253.6
657.445	22391.45
657.796	22313.71
658.147	22273.93
658.498	22335.63
658.849	22386.93
659.2	22314.61
659.551	22241.17
659.902	22302.41
660.253	22258.34
660.604	22405.46
660.955	22229.87
661.306	22296.98
661.656	22348.73
662.007	22375.63
662.358	22310.54
662.708	22231.68
663.059	22354.16
663.409	22151.9
663.76	22362.07
664.11	22398.22
664.461	22491.33
664.811	22451.78
665.161	22387.38
665.511	22319.58
665.862	22358
666.212	22464.44
666.562	22438
666.912	22385.12
667.262	22398.68
667.612	22430.31
667.962	22393.03
668.312	22367.26
668.662	22449.97
669.011	22499.69
669.361	22324.78
669.711	22397.09
670.06	22276.19
670.41	22329.53
670.76	22317.1
671.109	22398.68
671.459	22312.58
671.808	22289.53
672.157	22458.34
672.507	22212.24
672.856	22255.86
673.205	22265.8
673.554	22331.11
673.904	22357.77
674.253	22438.9
674.602	22272.58
674.951	22004.79
675.3	21958.01
675.649	22197.33
675.998	22342.41
676.346	22303.09
676.695	22380.15
677.044	22176.76
677.393	22271.67
677.741	22310.77
678.09	22231.22
678.438	22146.93
678.787	22253.6
679.135	22272.8
679.484	22179.47
679.832	22292.92
680.181	22138.8
680.529	22142.19
680.877	22131.11
681.225	22032.58
681.573	22177.44
681.922	22073.26
682.27	21988.97
682.618	22037.1
682.966	22020.83
683.314	22023.77
683.661	21940.84
684.009	21903.55
684.357	21866.04
684.705	21809.09
685.053	21848.86
685.4	21849.31
685.748	21732.71
686.095	21713.04
686.443	21710.11
686.79	21657.45
687.138	21707.17
687.485	21743.33
687.832	21594.86
688.18	21637.79
688.527	21638.02
688.874	21523.22
689.221	21481.19
689.568	21498.36
689.915	21363
690.262	21382.88
690.609	21371.36
690.956	21369.55
691.303	21307.63
691.65	21302.43
691.997	21183.34
692.344	21069.67
692.69	21134.98
693.037	21109.22
693.383	20973.18
693.73	21011.37
694.077	20822.67
694.423	20942.67
694.769	20873.74
695.116	20857.7
695.462	20801.2
695.808	20803.46
696.155	20742.67
696.501	20624.94
696.847	20612.73
697.193	20441.21
697.539	20525.51
697.885	20338.39
698.231	20345.85
698.577	20393.98
698.923	20358.73
699.269	20144.5
699.614	20180.88
699.96	20117.38
700.306	20248.45
700.651	20102.24
700.997	19853.43
701.342	20018.85
701.688	19940.44
702.033	19874.22
702.379	19870.61
702.724	19833.55
703.069	19856.82
703.415	19690.27
703.76	19654.57
704.105	19702.25
704.45	19651.63
704.795	19468.13
705.14	19390.39
705.485	19462.26
705.83	19406.21
706.175	19441.01
706.52	19403.95
706.865	19386.1
707.209	19379.77
707.554	19257.97
707.899	19196.5
708.243	19142.27
708.588	19282.83
708.932	19056.84
709.277	19068.14
709.621	19082.61
709.966	18959.22
710.31	19040.8
710.654	18883.06
710.998	18939.78
711.342	18959.67
711.687	18919.45
712.031	18803.06
712.375	18713.12
712.719	18726.46
713.063	18716.51
713.407	18838.09
713.75	18705.21
714.094	18571.43
714.438	18707.25
714.782	18697.3
715.125	18596.29
715.469	18585.67
715.812	18497.08
716.156	18402.4
716.499	18368.95
716.843	18464.77
717.186	18360.36
717.53	18396.97
717.873	18358.78
718.216	18389.97
718.559	18262.74
718.902	18136.42
719.246	18223.65
719.589	18218.67
719.932	18126.47
720.275	18209.41
720.617	18098.45
720.96	18079.92
721.303	18147.04
721.646	18172.8
721.989	17974.61
722.331	18084.44
722.674	18106.81
723.016	18001.96
723.359	18023.2
723.701	17990.66
724.044	17937.1
724.386	17889.64
724.729	17958.57
725.071	17832.02
725.413	17979.58
725.755	17928.51
726.097	17864.56
726.439	17787.27
726.782	17841.96
727.124	17846.71
727.465	17841.96
727.807	17758.57
728.149	17739.36
728.491	17658.46
728.833	17751.57
729.175	17672.7
729.516	17666.15
729.858	17643.77
730.199	17658.91
730.541	17627.05
730.882	17650.1
731.224	17628.18
731.565	17623.89
731.906	17557.45
732.248	17572.59
732.589	17494.17
732.93	17466.83
733.271	17494.62
733.612	17505.7
733.953	17573.72
734.294	17496.43
734.635	17426.38
734.976	17389.09
735.317	17353.61
735.658	17430.9
735.999	17393.16
736.339	17423.67
736.68	17415.08
737.021	17290.11
737.361	17286.72
737.702	17368.07
738.042	17378.02
738.383	17394.06
738.723	17368.3
739.063	17207.85
739.404	17307.74
739.744	17314.06
740.084	17182.09
740.424	17274.07
740.764	17252.82
741.104	17301.18
741.444	17213.5
741.784	17192.03
742.124	17185.48
742.464	17134.86
742.804	17121.08
743.143	17077.23
743.483	17131.92
743.823	17084.47
744.162	17013.06
744.502	17120.17
744.841	16996.33
745.181	16994.98
745.52	17018.25
745.86	17153.39
746.199	17005.6
746.538	16971.7
746.877	17056.44
747.216	17063.68
747.556	17023.9
747.895	16973.51
748.234	17012.83
748.573	16995.2
748.911	16971.02
749.25	16932.83
749.589	16822.33
749.928	16817.35
750.267	16901.42
750.605	16760.63
750.944	16755.66
751.283	16754.53
751.621	16831.82
751.96	16728.77
752.298	16821.87
752.636	16711.59
752.975	16706.4
753.313	16633.63
753.651	16760.63
753.989	16613.07
754.327	16616.46
754.666	16619.62
755.004	16690.13
755.342	16656.68
755.679	16728.09
756.017	16526.97
756.355	16533.75
756.693	16495.1
757.031	16447.42
757.368	16456.69
757.706	16371.49
758.044	16375.11
758.381	16391.38
