Data from cardboard_FLMS001491_064.txt Node
Date: Tue Feb 07 11:39:56 GMT 2017
User: dcchb
Spectrometer: FLMS00149
Trigger mode: 0
Integration Time (sec): 2.000000E-2
Scans to average: 10
Electric dark correction enabled: true
Nonlinearity correction enabled: false
Boxcar width: 0
XAxis mode: Wavelengths
Number of Pixels in Spectrum: 2048
>>>>>Begin Spectral Data<<<<<
341.393	-18.83
341.776	-18.83
342.16	-18.83
342.543	-46.62
342.927	-62.22
343.31	-90.46
343.693	-47.75
344.077	-58.83
344.46	-61.76
344.843	-54.76
345.226	-54.08
345.61	-24.25
345.993	2.87
346.376	-7.53
346.759	-17.47
347.142	30.21
347.525	23.66
347.908	60.72
348.291	99.81
348.674	83.77
349.057	115.86
349.44	122.86
349.823	141.62
350.206	157.89
350.588	210.55
350.971	205.12
351.354	243.31
351.737	236.08
352.119	246.7
352.502	267.04
352.884	264.78
353.267	281.05
353.65	319.92
354.032	293.03
354.414	305.01
354.797	311.56
355.179	326.93
355.562	321.73
355.944	314.72
356.326	332.8
356.709	351.78
357.091	349.07
357.473	356.76
357.855	340.49
358.238	338.23
358.62	340.49
359.002	335.51
359.384	338.45
359.766	358.11
360.148	326.25
360.53	342.75
360.912	339.81
361.294	330.77
361.676	353.14
362.057	335.97
362.439	323.99
362.821	333.71
363.203	339.36
363.584	342.29
363.966	330.09
364.348	325.12
364.729	336.42
365.111	304.1
365.493	335.97
365.874	333.71
366.256	328.28
366.637	323.31
367.019	314.27
367.4	339.58
367.781	332.58
368.163	308.85
368.544	332.12
368.925	313.59
369.306	338.9
369.688	318.34
370.069	315.63
370.45	318.11
370.831	334.61
371.212	332.8
371.593	328.51
371.974	310.43
372.355	310.2
372.736	313.14
373.117	339.58
373.498	306.36
373.879	339.58
374.26	331.9
374.641	338
375.021	343.65
375.402	326.47
375.783	323.76
376.163	330.77
376.544	334.16
376.925	337.55
377.305	335.06
377.686	344.78
378.066	312.24
378.447	329.86
378.827	338.68
379.208	342.29
379.588	343.65
379.968	333.71
380.349	338.9
380.729	331.9
381.109	347.26
381.489	344.78
381.87	337.1
382.25	364.21
382.63	358.11
383.01	338.68
383.39	352.69
383.77	368.96
384.15	357.89
384.53	358.79
384.91	364.44
385.29	347.04
385.67	340.71
386.049	366.93
386.429	374.83
386.809	366.47
387.189	370.99
387.568	365.12
387.948	362.41
388.328	365.8
388.707	361.5
389.087	367.6
389.466	362.18
389.846	372.12
390.225	376.87
390.605	381.39
390.984	385.91
391.363	384.1
391.743	392.69
392.122	361.73
392.501	405.79
392.881	413.03
393.26	395.63
393.639	413.7
394.018	409.18
394.397	385
394.776	398.11
395.155	397.43
395.534	420.03
395.913	405.79
396.292	402.4
396.671	417.09
397.05	407.38
397.429	413.03
397.808	427.26
398.186	418.45
398.565	439.69
398.944	408.05
399.323	421.16
399.701	434.49
400.08	416.42
400.458	424.78
400.837	440.82
401.215	409.64
401.594	450.76
401.972	443.31
402.351	455.06
402.729	484.89
403.107	456.41
403.486	467.04
403.864	460.48
404.242	446.7
404.62	460.26
404.999	473.59
405.377	466.81
405.755	457.77
406.133	478.56
406.511	468.62
406.889	476.08
407.267	460.48
407.645	478.79
408.023	472.69
408.401	490.76
408.779	474.27
409.156	490.54
409.534	472.91
409.912	499.35
410.29	510.65
410.667	507.03
411.045	519.24
411.422	537.99
411.8	507.49
412.178	530.76
412.555	540.48
412.933	534.38
413.31	568.28
413.687	543.64
414.065	569.41
414.442	567.82
414.819	553.36
415.197	568.5
415.574	553.81
415.951	573.93
416.328	570.31
416.705	589.52
417.082	587.71
417.46	562.17
417.837	582.96
418.214	583.42
418.591	585.22
418.967	607.37
419.344	600.82
419.721	614.6
420.098	608.05
420.475	633.59
420.852	639.01
421.228	610.99
421.605	622.06
421.982	624.77
422.358	624.09
422.735	650.53
423.111	667.48
423.488	620.7
423.864	667.71
424.241	676.52
424.617	662.74
424.994	671.78
425.37	684.21
425.746	688.95
426.123	701.83
426.499	681.95
426.875	696.63
427.251	686.69
427.627	722.17
428.003	717.88
428.379	715.84
428.756	732.57
429.132	729.18
429.507	733.02
429.883	736.63
430.259	747.93
430.635	749.51
431.011	766.24
431.387	758.33
431.763	810.3
432.138	793.35
432.514	774.37
432.89	817.76
433.265	818.66
433.641	810.08
434.016	839.46
434.392	850.53
434.767	839
435.143	839.46
435.518	851.88
435.894	858.89
436.269	856.63
436.644	873.13
437.02	876.97
437.395	853.47
437.77	921.26
438.145	913.13
438.52	890.75
438.895	906.12
439.271	923.75
439.646	932.56
440.021	934.14
440.395	948.83
440.77	939.11
441.145	912.45
441.52	987.25
441.895	985.44
442.27	959.68
442.645	989.28
443.019	980.02
443.394	986.34
443.769	981.82
444.143	1014.37
444.518	982.28
444.892	1004.42
445.267	1004.42
445.641	1025.67
446.016	1031.31
446.39	1028.38
446.764	1047.13
447.139	1033.12
447.513	1056.62
447.887	1071.54
448.262	1053.69
448.636	1066.12
449.01	1079.22
449.384	1096.17
449.758	1104.76
450.132	1113.57
450.506	1123.06
450.88	1113.57
451.254	1116.06
451.628	1152.67
452.002	1130.3
452.376	1145.89
452.75	1163.97
453.123	1147.24
453.497	1176.62
453.871	1217.3
454.244	1207.13
454.618	1233.12
454.992	1219.33
455.365	1221.82
455.739	1267.24
456.112	1244.42
456.486	1253.68
456.859	1305.43
457.232	1289.16
457.606	1294.58
457.979	1306.56
458.352	1323.51
458.725	1368.93
459.099	1392.89
459.472	1399.67
459.845	1396.95
460.218	1404.41
460.591	1428.82
460.964	1431.08
461.337	1482.83
461.71	1471.3
462.083	1514.69
462.456	1499.55
462.829	1504.3
463.201	1556.95
463.574	1564.18
463.947	1566.89
464.32	1581.36
464.692	1591.3
465.065	1642.82
465.438	1615.93
465.81	1663.61
466.183	1683.05
466.555	1686.89
466.928	1713.33
467.3	1715.82
467.672	1759.88
468.045	1769.6
468.417	1769.37
468.789	1787
469.161	1814.57
469.534	1876.49
469.906	1902.48
470.278	1883.95
470.65	1903.83
471.022	1954.91
471.394	1984.96
471.766	2016.83
472.138	2026.54
472.51	2079.2
472.882	2127.56
473.253	2138.86
473.625	2139.99
473.997	2192.19
474.369	2216.14
474.74	2250.04
475.112	2264.5
475.484	2299.98
475.855	2325.74
476.227	2320.77
476.598	2428.34
476.97	2473.31
477.341	2488
477.713	2550.14
478.084	2546.3
478.455	2627.2
478.827	2648.9
479.198	2669.46
479.569	2703.14
479.94	2803.7
480.311	2804.38
480.682	2848.22
481.053	2954.2
481.424	2969.79
481.795	2965.28
482.166	3018.38
482.537	3113.75
482.908	3149.23
483.279	3193.29
483.65	3254.99
484.021	3307.87
484.391	3332.27
484.762	3406.62
485.133	3438.48
485.503	3492.94
485.874	3547.41
486.244	3598.48
486.615	3680.06
486.985	3701.98
487.356	3781.07
487.726	3865.36
488.097	3921.18
488.467	3917.57
488.837	4026.26
489.207	4014.51
489.578	4095.41
489.948	4133.38
490.318	4201.63
490.688	4185.58
491.058	4277.56
491.428	4344.45
491.798	4440.94
492.168	4534.27
492.538	4515.97
492.908	4577.89
493.278	4714.61
493.648	4683.2
494.017	4703.53
494.387	4838.45
494.757	4851.1
495.126	4883.19
495.496	4919.35
495.866	4971.32
496.235	5035.5
496.605	5077.54
496.974	5131.32
497.344	5222.84
497.713	5211.09
498.082	5304.87
498.452	5367.7
498.821	5418.09
499.19	5414.25
499.559	5543.51
499.928	5563.4
500.298	5546.68
500.667	5627.8
501.036	5699.44
501.405	5741.47
501.774	5758.65
502.143	5847.23
502.512	5845.43
502.88	5905.76
503.249	5985.76
503.618	6006.78
503.987	6098.98
504.356	6163.61
504.724	6108.92
505.093	6193.44
505.462	6260.56
505.83	6312.98
506.199	6396.82
506.567	6497.84
506.936	6443.83
507.304	6614.22
507.672	6666.19
508.041	6675.01
508.409	6701.9
508.777	6806.08
509.145	6871.39
509.514	6912.06
509.882	6999.07
510.25	7106.41
510.618	7083.81
510.986	7241.77
511.354	7270.7
511.722	7305.73
512.09	7443.8
512.458	7432.95
512.826	7509.11
513.193	7591.82
513.561	7658.49
513.929	7727.64
514.297	7748.65
514.664	7904.13
515.032	7912.04
515.4	8016.67
515.767	8032.26
516.135	8142.09
516.502	8169.43
516.869	8312.48
517.237	8368.97
517.604	8422.53
517.972	8488.52
518.339	8501.63
518.706	8629.08
519.073	8672.92
519.44	8778.91
519.808	8861.39
520.175	8955.85
520.542	9078.79
520.909	9184.09
521.276	9211.89
521.643	9273.58
522.009	9394.48
522.376	9547.02
522.743	9553.58
523.11	9682.16
523.477	9828.6
523.843	9888.93
524.21	9999.44
524.577	10078.99
524.943	10168.93
525.31	10249.38
525.676	10432.42
526.043	10500.44
526.409	10556.04
526.776	10663.83
527.142	10717.16
527.508	10860.21
527.874	10902.47
528.241	11048.9
528.607	11051.84
528.973	11164.16
529.339	11257.03
529.705	11422.23
530.071	11519.63
530.437	11601.88
530.803	11738.83
531.169	11846.4
531.535	11818.6
531.901	12002.55
532.267	12027.86
532.632	12200.06
532.998	12227.86
533.364	12346.05
533.73	12378.59
534.095	12546.04
534.461	12590.33
534.826	12670.56
535.192	12714.62
535.557	12935.41
535.923	12946.26
536.288	13004.56
536.653	13104.9
537.019	13163.65
537.384	13225.8
537.749	13358.67
538.114	13404.32
538.479	13431.21
538.845	13483.87
539.21	13529.29
539.575	13684.54
539.94	13845.44
540.305	13842.73
540.67	13925.21
541.034	14082.27
541.399	14068.03
541.764	14201.36
542.129	14172.44
542.494	14356.16
542.858	14410.62
543.223	14486.1
543.587	14713.67
543.952	14628.47
544.316	14729.49
544.681	14779.43
545.045	14952.98
545.41	14969.93
545.774	15077.05
546.138	15119.08
546.503	15226.65
546.867	15277.49
547.231	15412.41
547.595	15493.31
547.959	15523.81
548.324	15690.36
548.688	15627.54
549.052	15771.49
549.416	15800.64
549.779	15954.54
550.143	15973.29
550.507	16177.58
550.871	16232.95
551.235	16209.9
551.599	16467.52
551.962	16439.95
552.326	16542.77
552.689	16685.14
553.053	16636.1
553.417	16806.95
553.78	17027.73
554.143	16994.74
554.507	17168.97
554.87	17293.49
555.234	17386.36
555.597	17299.14
555.96	17477.66
556.323	17618.22
556.686	17779.57
557.05	17805.79
557.413	17840.14
557.776	18032
558.139	18038.78
558.502	18227.92
558.865	18209.85
559.228	18388.15
559.59	18572.55
559.953	18683.96
560.316	18906.1
560.679	18902.03
561.041	19086.66
561.404	19168.69
561.767	19329.36
562.129	19274.9
562.492	19474.45
562.854	19600.09
563.217	19573.2
563.579	19760.09
563.941	19907.65
564.304	20020.87
564.666	20127.54
565.028	20132.96
565.39	20304.25
565.753	20473.06
566.115	20497.47
566.477	20674.41
566.839	20740.63
567.201	20973.62
567.563	21048.87
567.925	21195.08
568.287	21201.86
568.648	21319.37
569.01	21501.96
569.372	21570.21
569.734	21616.08
570.095	21835.74
570.457	21868.73
570.819	21975.17
571.18	21967.49
571.542	22087.71
571.903	22360.92
572.265	22290.87
572.626	22370.19
572.987	22430.07
573.349	22726.79
573.71	22694.02
574.071	22809.73
574.432	22965.88
574.794	23105.99
575.155	23077.29
575.516	23070.06
575.877	23290.16
576.238	23359.99
576.599	23403.16
576.96	23461.69
577.32	23615.81
577.681	23614.68
578.042	23727.22
578.403	23812.18
578.763	23851.96
579.124	23940.99
579.485	24019.64
579.845	24052.18
580.206	24144.38
580.566	24128.79
580.927	24188.45
581.287	24264.15
581.648	24392.06
582.008	24474.99
582.368	24480.42
582.728	24491.94
583.089	24503.01
583.449	24723.8
583.809	24671.37
584.169	24858.03
584.529	24891.7
584.889	24875.66
585.249	24902.1
585.609	24834.3
585.969	25120.17
586.329	24993.62
586.688	25082.43
587.048	25067.07
587.408	25102.77
587.768	25208.08
588.127	25213.96
588.487	25253.5
588.846	25396.32
589.206	25403.78
589.565	25288.3
589.925	25539.37
590.284	25516.55
590.643	25629.31
591.003	25704.34
591.362	25652.59
591.721	25698.01
592.08	25802.19
592.44	25846.93
592.799	25892.36
593.158	25805.8
593.517	25803.32
593.876	25970.55
594.235	25956.76
594.593	26128.28
594.952	26137.55
595.311	26022.3
595.67	26175.29
596.029	26420.25
596.387	26366.69
596.746	26417.31
597.104	26347.49
597.463	26464.09
597.822	26464.32
598.18	26385.22
598.538	26362.63
598.897	26580.7
599.255	26359.24
599.613	26865.89
599.972	26641.49
600.33	26655.73
600.688	26603.75
601.046	26780.92
601.404	26897.75
601.762	26958.99
602.12	27001.03
602.478	27043.51
602.836	27095.26
603.194	27010.52
603.552	27044.87
603.91	27122.83
604.268	27066.11
604.625	27093.45
604.983	27273.11
605.341	27113.34
605.698	27309.27
606.056	27489.83
606.413	27335.71
606.771	27543.16
607.128	27628.58
607.485	27568.47
607.843	27507.91
608.2	27758.97
608.557	27735.02
608.914	27657.06
609.272	27850.04
609.629	28024.28
609.986	27975.46
610.343	27908.8
610.7	28268.11
611.057	28107.89
611.414	28097.04
611.771	28285.51
612.127	28318.51
612.484	28220.2
612.841	28398.73
613.198	28356.7
613.554	28476.92
613.911	28517.6
614.267	28520.08
614.624	28505.85
614.98	28559.86
615.337	28795.78
615.693	28704.49
616.05	28688.89
616.406	28893.63
616.762	28777.7
617.118	28893.18
617.475	28985.16
617.831	29045.95
618.187	29055.21
618.543	29171.59
618.899	29424.01
619.255	29329.78
619.611	29215.43
619.967	29390.57
620.323	29516.89
620.678	29295.43
621.034	29340.63
621.39	29343.56
621.746	29298.37
622.101	29669.21
622.457	29536.55
622.812	29659.71
623.168	29725.48
623.523	29553.5
623.879	29827.85
624.234	29591.92
624.589	29636.44
624.945	29684.8
625.3	29820.61
625.655	29719.37
626.01	29848.18
626.365	29863.1
626.72	29781.75
627.075	29727.96
627.43	29678.02
627.785	29741.29
628.14	29889.54
628.495	29772.93
628.85	29859.03
629.205	29803.89
629.559	29995.98
629.914	29783.33
630.269	29877.79
630.623	29822.87
630.978	29847.28
631.332	29852.25
631.687	29904.91
632.041	29789.88
632.396	29868.97
632.75	29827.39
633.104	29927.5
633.459	29852.25
633.813	29650.22
634.167	29807.73
634.521	29856.09
634.875	29980.38
635.229	29841.4
635.583	29642.54
635.937	29742.42
636.291	29827.62
636.645	29581.52
636.999	29705.81
637.352	29746.49
637.706	29518.7
638.06	29642.54
638.413	29648.19
638.767	29528.19
639.121	29550.34
639.474	29421.53
639.828	29518.48
640.181	29565.93
640.534	29527.74
640.888	29427.4
641.241	29478.25
641.594	29467.4
641.947	29696.55
642.301	29518.7
642.654	29506.95
643.007	29570.68
643.36	29461.3
643.713	29466.27
644.066	29645.25
644.419	29302.44
644.771	29185.83
645.124	28829.45
645.477	28897.93
645.83	28767.31
646.182	28707.42
646.535	28609.57
646.888	28735.22
647.24	28570.03
647.593	28710.13
647.945	28678.95
648.298	28492.97
648.65	28461.55
649.002	28422.01
649.355	28535.22
649.707	28495.45
650.059	28706.97
650.411	28997.13
650.763	28970.47
651.115	29353.96
651.467	29163.68
651.819	29174.08
652.171	29292.72
652.523	29182.44
652.875	29210.69
653.227	29106.73
653.578	29301.98
653.93	29278.48
654.282	29057.92
654.633	29005.49
654.985	29239.16
655.337	29134.98
655.688	29201.42
656.039	29171.14
656.391	28972.5
656.742	29010.69
657.094	29088.43
657.445	29103.57
657.796	29149.45
658.147	29053.85
658.498	29079.16
658.849	29144.02
659.2	29028.32
659.551	29067.64
659.902	29167.07
660.253	29045.04
660.604	29136.56
660.955	28977.25
661.306	29151.71
661.656	29117.58
662.007	29077.81
662.358	29013.18
662.708	29132.5
663.059	29226.28
663.409	28962.33
663.76	29143.12
664.11	29148.54
664.461	29222.44
664.811	29261.31
665.161	29245.04
665.511	29182.21
665.862	29262.89
666.212	29304.7
666.562	29288.88
666.912	29152.16
667.262	29191.93
667.612	29189.44
667.962	29169.56
668.312	29147.64
668.662	29376.56
669.011	29169.56
669.361	29115.32
669.711	29252.49
670.06	29142.21
670.41	29089.11
670.76	29075.78
671.109	29129.56
671.459	29163.91
671.808	29130.24
672.157	29138.15
672.507	28993.52
672.856	29071.71
673.205	29039.39
673.554	29185.15
673.904	28992.39
674.253	29109.45
674.602	29006.4
674.951	28640.98
675.3	28607.31
675.649	29022.9
675.998	28977.47
676.346	29142.89
676.695	29165.49
677.044	28962.78
677.393	29060.41
677.741	28982.67
678.09	28895.67
678.438	28977.02
678.787	29004.59
679.135	29011.6
679.484	28759.85
679.832	28901.54
680.181	28713.52
680.529	28868.32
680.877	28714.2
681.225	28609.57
681.573	28938.38
681.922	28632.17
682.27	28670.36
682.618	28706.52
682.966	28571.16
683.314	28681.66
683.661	28570.48
684.009	28402.57
684.357	28468.79
684.705	28405.06
685.053	28470.14
685.4	28275.34
685.748	28256.81
686.095	28247.77
686.443	28248.23
686.79	28138.4
687.138	28070.6
687.485	28231.28
687.832	28058.85
688.18	28206.42
688.527	28005.52
688.874	27975.46
689.221	28017.05
689.568	27836.94
689.915	27647.56
690.262	27846.2
690.609	27801.91
690.956	27623.84
691.303	27639.65
691.65	27523.05
691.997	27632.42
692.344	27450.73
692.69	27449.6
693.037	27272.21
693.383	27141.59
693.73	27207.58
694.077	27077.41
694.423	27198.54
694.769	26975.27
695.116	27057.3
695.462	26975.72
695.808	26834.03
696.155	26886.91
696.501	26587.25
696.847	26747.93
697.193	26569.85
697.539	26724.65
697.885	26394.04
698.231	26337.32
698.577	26487.82
698.923	26395.85
699.269	26293.25
699.614	26117.89
699.96	26187.94
700.306	26276.3
700.651	25943.88
700.997	25917.21
701.342	25963.99
701.688	26011.67
702.033	25801.51
702.379	25839.48
702.724	25623.66
703.069	25735.98
703.415	25445.59
703.76	25504.57
704.105	25602.42
704.45	25371.01
704.795	25306.83
705.14	25237.91
705.485	25194.97
705.83	25173.96
706.175	25232.03
706.52	25114.98
706.865	25062.32
707.209	25166.27
707.554	24981.19
707.899	25023
708.243	24863.23
708.588	24774.19
708.932	24693.29
709.277	24633.18
709.621	24700.07
709.966	24593.63
710.31	24547.53
710.654	24301.44
710.998	24448.1
711.342	24446.74
711.687	24428.21
712.031	24259.4
712.375	24192.29
712.719	24299.86
713.063	24277.26
713.407	24264.83
713.75	24248.56
714.094	24208.33
714.438	24082.23
714.782	24154.77
715.125	23991.84
715.469	24022.57
715.812	23991.61
716.156	23730.6
716.499	23856.48
716.843	23905.97
717.186	23737.38
717.53	23829.81
717.873	23715.01
718.216	23755.01
718.559	23609.03
718.902	23560.21
719.246	23604.73
719.589	23582.59
719.932	23419.65
720.275	23456.26
720.617	23392.76
720.96	23339.88
721.303	23399.09
721.646	23435.7
721.989	23254.69
722.331	23402.7
722.674	23319.77
723.016	23291.75
723.359	23272.76
723.701	23313.44
724.044	23207.45
724.386	23116.16
724.729	23317.51
725.071	23085.2
725.413	23101.69
725.755	23108.25
726.097	22965.65
726.439	22991.42
726.782	22978.76
727.124	23055.14
727.465	22926.56
727.807	22905.09
728.149	22898.08
728.491	22920.91
728.833	22812.44
729.175	22799.56
729.516	22809.73
729.858	22634.59
730.199	22740.12
730.541	22670.29
730.882	22716.17
731.224	22838.42
731.565	22670.52
731.906	22755.94
732.248	22719.56
732.589	22576.06
732.93	22549.17
733.271	22616.96
733.612	22576.51
733.953	22663.51
734.294	22601.82
734.635	22508.04
734.976	22557.08
735.317	22474.14
735.658	22528.6
735.999	22422.39
736.339	22341.71
736.68	22435.27
737.021	22394.14
737.361	22199.12
737.702	22384.43
738.042	22375.39
738.383	22396.63
738.723	22335.61
739.063	22305.33
739.404	22250.42
739.744	22266.24
740.084	22186.69
740.424	22322.96
740.764	22107.6
741.104	22229.63
741.444	22222.4
741.784	22173.81
742.124	22129.07
742.464	22131.32
742.804	22178.33
743.143	22086.13
743.483	22026.69
743.823	22015.4
744.162	22031.44
744.502	22041.38
744.841	21899.92
745.181	22100.14
745.52	21940.14
745.86	22005.9
746.199	21903.31
746.538	21964.32
746.877	22030.99
747.216	21950.99
747.556	21963.65
747.895	21996.64
748.234	21749.19
748.573	21900.14
748.911	21753.93
749.25	21815.85
749.589	21692.92
749.928	21838.9
750.267	21899.69
750.605	21793.93
750.944	21671.68
751.283	21720.49
751.621	21706.7
751.96	21600.72
752.298	21746.7
752.636	21687.72
752.975	21676.42
753.313	21526.14
753.651	21530.66
753.989	21489.53
754.327	21574.05
754.666	21434.85
755.004	21478.69
755.342	21453.6
755.679	21477.78
756.017	21299.26
756.355	21396.2
756.693	21273.04
757.031	21353.94
