Data from cardboard_FLMS001491_098.txt Node
Date: Tue Feb 07 11:40:26 GMT 2017
User: dcchb
Spectrometer: FLMS00149
Trigger mode: 0
Integration Time (sec): 2.000000E-2
Scans to average: 10
Electric dark correction enabled: true
Nonlinearity correction enabled: false
Boxcar width: 0
XAxis mode: Wavelengths
Number of Pixels in Spectrum: 2048
>>>>>Begin Spectral Data<<<<<
341.393	-3.8
341.776	-3.8
342.16	-3.8
342.543	-37.47
342.927	-65.72
343.31	-63.01
343.693	-55.55
344.077	-52.84
344.46	-66.17
344.843	-66.17
345.226	-32.95
345.61	-41.09
345.993	-29.56
346.376	-14.65
346.759	-7.19
347.142	34.39
347.525	58.12
347.908	43.21
348.291	73.71
348.674	113.71
349.057	106.03
349.44	134.28
349.823	148.29
350.206	169.08
350.588	208.85
350.971	210.66
351.354	223.09
351.737	230.77
352.119	231.22
352.502	279.81
352.884	290.43
353.267	278
353.65	301.73
354.032	305.12
354.414	309.86
354.797	311.45
355.179	308.96
355.562	348.51
355.944	311.67
356.326	337.66
356.709	352.35
357.091	342.86
357.473	346.93
357.855	350.99
358.238	348.96
358.62	345.34
359.002	344.67
359.384	341.5
359.766	341.28
360.148	357.1
360.53	354.84
360.912	334.95
361.294	341.05
361.676	334.95
362.057	343.99
362.439	362.97
362.821	323.2
363.203	316.87
363.584	328.62
363.966	348.51
364.348	334.95
364.729	308.28
365.111	329.07
365.493	336.53
365.874	297.44
366.256	322.52
366.637	324.1
367.019	291.56
367.4	323.88
367.781	302.41
368.163	312.12
368.544	313.25
368.925	329.07
369.306	330.2
369.688	306.93
370.069	299.02
370.45	339.69
370.831	321.84
371.212	325.23
371.593	324.78
371.974	336.53
372.355	353.25
372.736	300.37
373.117	319.36
373.498	312.12
373.879	329.07
374.26	340.15
374.641	334.04
375.021	322.75
375.402	301.28
375.783	305.35
376.163	331.11
376.544	327.72
376.925	319.58
377.305	335.17
377.686	312.12
378.066	317.1
378.447	333.59
378.827	321.16
379.208	327.04
379.588	334.72
379.968	337.89
380.349	328.17
380.729	327.94
381.109	339.24
381.489	344.21
381.87	357.32
382.25	352.12
382.63	346.93
383.01	357.55
383.39	346.02
383.77	344.67
384.15	337.21
384.53	340.37
384.91	339.92
385.29	362.52
385.67	360.48
386.049	355.29
386.429	354.84
386.809	365.23
387.189	332.91
387.568	337.43
387.948	343.54
388.328	377.21
388.707	358
389.087	366.36
389.466	370.88
389.846	354.84
390.225	380.37
390.605	367.94
390.984	380.37
391.363	385.12
391.743	393.7
392.122	373.59
392.501	384.89
392.881	389.64
393.26	365.68
393.639	402.07
394.018	371.56
394.397	400.71
394.776	386.25
395.155	395.51
395.534	395.96
395.913	381.5
396.292	412.01
396.671	393.03
397.05	396.87
397.429	437.09
397.808	399.35
398.186	421.5
398.565	411.11
398.944	402.29
399.323	409.07
399.701	404.55
400.08	421.05
400.458	426.02
400.837	426.7
401.215	418.79
401.594	418.11
401.972	411.56
402.351	443.19
402.729	430.77
403.107	435.96
403.486	442.74
403.864	440.71
404.242	431.22
404.62	434.38
404.999	416.3
405.377	435.06
405.755	448.39
406.133	440.03
406.511	451.56
406.889	437.09
407.267	457.43
407.645	461.95
408.023	465.57
408.401	465.57
408.779	479.13
409.156	457.66
409.534	454.95
409.912	459.24
410.29	487.71
410.667	498.33
411.045	515.51
411.422	525.9
411.8	514.15
412.178	513.7
412.555	516.19
412.933	522.97
413.31	520.93
413.687	535.17
414.065	542.18
414.442	538.79
414.819	554.6
415.197	546.69
415.574	539.24
415.951	537.66
416.328	568.39
416.705	591.44
417.082	575.17
417.46	562.29
417.837	574.94
418.214	575.62
418.591	588.5
418.967	587.82
419.344	591.21
419.721	578.11
420.098	576.52
420.475	595.05
420.852	600.7
421.228	574.49
421.605	591.44
421.982	575.62
422.358	612
422.735	605.68
423.111	618.11
423.488	616.3
423.864	629.86
424.241	619.24
424.617	635.73
424.994	630.08
425.37	629.86
425.746	641.38
426.123	653.13
426.499	636.18
426.875	648.39
427.251	656.75
427.627	679.8
428.003	666.92
428.379	680.02
428.756	672.12
429.132	694.49
429.507	675.73
429.883	702.17
430.259	715.5
430.635	751.44
431.011	716.86
431.387	728.84
431.763	731.77
432.138	731.77
432.514	741.27
432.89	744.2
433.265	771.1
433.641	772.9
434.016	787.82
434.392	795.28
434.767	771.32
435.143	801.83
435.518	836.86
435.894	811.77
436.269	815.61
436.644	827.14
437.02	824.2
437.395	848.16
437.77	852
438.145	861.04
438.52	858.32
438.895	888.15
439.271	874.6
439.646	883.18
440.021	869.62
440.395	902.39
440.77	887.7
441.145	884.09
441.52	901.04
441.895	896.52
442.27	911.66
442.645	893.58
443.019	924.31
443.394	938.1
443.769	958.89
444.143	926.57
444.518	941.49
444.892	945.1
445.267	949.62
445.641	955.72
446.016	960.7
446.39	989.39
446.764	982.16
447.139	988.72
447.513	1006.34
447.887	997.3
448.262	1024.42
448.636	981.71
449.01	1004.99
449.384	1014.03
449.758	1019.9
450.132	1041.82
450.506	1038.89
450.88	1067.13
451.254	1057.64
451.628	1076.17
452.002	1052.22
452.376	1084.08
452.75	1103.74
453.123	1096.96
453.497	1085.44
453.871	1115.49
454.244	1113.69
454.618	1150.97
454.992	1160.24
455.365	1152.33
455.739	1190.52
456.112	1172.89
456.486	1209.73
456.859	1208.15
457.232	1202.5
457.606	1214.25
457.979	1237.52
458.352	1245.21
458.725	1276.62
459.099	1288.14
459.472	1313.68
459.845	1332.44
460.218	1329.05
460.591	1309.84
460.964	1356.16
461.337	1367.92
461.71	1395.49
462.083	1427.58
462.456	1399.1
462.829	1436.16
463.201	1441.59
463.574	1454.92
463.947	1475.26
464.32	1480.91
464.692	1500.34
465.065	1486.33
465.438	1531.3
465.81	1556.84
466.183	1545.99
466.555	1596.84
466.928	1617.4
467.3	1593.45
467.672	1638.87
468.045	1647.46
468.417	1675.93
468.789	1700.34
469.161	1699.43
469.534	1751.63
469.906	1741.92
470.278	1752.09
470.65	1809.94
471.022	1825.31
471.394	1849.71
471.766	1871.18
472.138	1903.72
472.51	1919.31
472.882	1959.76
473.253	1976.04
473.625	1987.79
473.997	2040.89
474.369	2043.6
474.74	2069.82
475.112	2110.5
475.484	2114.56
475.855	2136.26
476.227	2205.18
476.598	2246.76
476.97	2219.87
477.341	2311.17
477.713	2338.51
478.084	2361.79
478.455	2434.78
478.827	2431.39
479.198	2534.21
479.569	2500.09
479.94	2570.37
480.311	2591.16
480.682	2655.57
481.053	2694.43
481.424	2760.42
481.795	2771.95
482.166	2832.96
482.537	2879.51
482.908	2898.05
483.279	2939.85
483.65	2989.12
484.021	3043.35
484.391	3101.88
484.762	3157.47
485.133	3152.73
485.503	3200.41
485.874	3271.59
486.244	3339.39
486.615	3376.68
486.985	3414.19
487.356	3470.23
487.726	3524.47
488.097	3602.21
488.467	3580.74
488.837	3671.58
489.207	3732.83
489.578	3781.19
489.948	3876.1
490.318	3871.13
490.688	3843.11
491.058	3961.75
491.428	4004
491.798	4061.4
492.168	4164.9
492.538	4147.73
492.908	4236.32
493.278	4215.75
493.648	4289.87
494.017	4338.46
494.387	4408.74
494.757	4425.91
495.126	4473.15
495.496	4531.9
495.866	4607.15
496.235	4603.09
496.605	4681.5
496.974	4688.73
497.344	4745
497.713	4795.4
498.082	4858.67
498.452	4883.3
498.821	4961.49
499.19	4923.75
499.559	5058.21
499.928	5032.45
500.298	5139.79
500.667	5150.42
501.036	5149.06
501.405	5254.59
501.774	5279.9
502.143	5305.89
502.512	5335.72
502.88	5467.7
503.249	5459.11
503.618	5474.7
503.987	5531.42
504.356	5557.86
504.724	5623.17
505.093	5642.83
505.462	5676.05
505.83	5741.13
506.199	5801.25
506.567	5896.16
506.936	5948.81
507.304	6010.96
507.672	6028.13
508.041	6053.89
508.409	6139.32
508.777	6183.61
509.145	6241.91
509.514	6234.68
509.882	6342.02
510.25	6374.79
510.618	6488.01
510.986	6474.45
511.354	6603.94
511.722	6621.79
512.09	6773.42
512.458	6777.27
512.826	6849.58
513.193	6805.29
513.561	6897.04
513.929	6914.89
514.297	6993.3
514.664	7117.82
515.032	7146.52
515.4	7258.38
515.767	7278.72
516.135	7306.06
516.502	7324.37
516.869	7450.47
517.237	7567.08
517.604	7520.52
517.972	7637.36
518.339	7737.92
518.706	7837.58
519.073	7829.67
519.44	7949.89
519.808	7997.8
520.175	8029.66
520.542	8131.81
520.909	8192.6
521.276	8293.16
521.643	8378.35
522.009	8454.06
522.376	8502.19
522.743	8562.98
523.11	8690.44
523.477	8714.39
523.843	8855.18
524.21	8990.31
524.577	9051.78
524.943	9006.59
525.31	9197.54
525.676	9312.57
526.043	9355.73
526.409	9402.51
526.776	9491.77
527.142	9571.77
527.508	9646.12
527.874	9768.37
528.241	9892.66
528.607	9903.06
528.973	10060.57
529.339	10094.01
529.705	10208.59
530.071	10297.17
530.437	10394.35
530.803	10432.31
531.169	10520.22
531.535	10523.61
531.901	10573.78
532.267	10669.14
532.632	10777.16
532.998	10785.07
533.364	10991.39
533.73	11055.34
534.095	11108.9
534.461	11243.59
534.826	11318.61
535.192	11268.67
535.557	11432.74
535.923	11444.04
536.288	11486.07
536.653	11660.3
537.019	11556.35
537.384	11703.69
537.749	11801.99
538.114	11828.88
538.479	11905.72
538.845	11977.81
539.21	11982.55
539.575	12085.83
539.94	12115.2
540.305	12225.26
540.67	12275.65
541.034	12394.74
541.399	12433.39
541.764	12576.89
542.129	12585.47
542.494	12680.16
542.858	12714.74
543.223	12731.91
543.587	12897.33
543.952	12869.31
544.316	12971.68
544.681	12908.18
545.045	13016.65
545.41	13178.45
545.774	13209.64
546.138	13302.97
546.503	13382.52
546.867	13361.72
547.231	13603.98
547.595	13603.3
547.959	13669.97
548.324	13690.76
548.688	13767.14
549.052	13896.63
549.416	13894.37
549.779	13951.31
550.143	14077.19
550.507	14152.66
550.871	14178.43
551.235	14280.12
551.599	14367.12
551.962	14444.63
552.326	14498.64
552.689	14619.54
553.053	14582.48
553.417	14594.91
553.78	14888.01
554.143	14840.33
554.507	15014.34
554.87	15076.26
555.234	15227.44
555.597	15158.97
555.96	15246.87
556.323	15372.97
556.686	15412.52
557.05	15579.29
557.413	15667.88
557.776	15678.73
558.139	15808.89
558.502	15805.28
558.865	15941.32
559.228	16114.19
559.59	16174.53
559.953	16160.75
560.316	16383.34
560.679	16478.71
561.041	16489.33
561.404	16664.24
561.767	16765.93
562.129	16857.9
562.492	17041.63
562.854	17021.52
563.217	17077.56
563.579	17090.89
563.941	17361.85
564.304	17392.35
564.666	17475.06
565.028	17534.95
565.39	17622.18
565.753	17765.22
566.115	17808.16
566.477	17918.89
566.839	17976.74
567.201	18197.53
567.563	18222.16
567.925	18407.69
568.287	18508.93
568.648	18581.47
569.01	18716.16
569.372	18814.01
569.734	18755.26
570.095	18940.11
570.457	19017.17
570.819	19151.18
571.18	19085.87
571.542	19305.52
571.903	19354.34
572.265	19413.77
572.626	19446.54
572.987	19618.74
573.349	19614.44
573.71	19882.68
574.071	19767.21
574.432	19892.85
574.794	20087.42
575.155	20041.1
575.516	20025.05
575.877	20196.12
576.238	20234.76
576.599	20418.71
576.96	20363.8
577.32	20429.56
577.681	20548.2
578.042	20589.33
578.403	20689.67
578.763	20811.47
579.124	20779.16
579.485	20863.9
579.845	21068.87
580.206	20964.01
580.566	21080.39
580.927	21122.88
581.287	21170.79
581.648	21126.04
582.008	21274.96
582.368	21299.6
582.728	21394.51
583.089	21472.25
583.449	21451.68
583.809	21480.61
584.169	21535.75
584.529	21513.38
584.889	21760.6
585.249	21629.53
585.609	21629.3
585.969	21818.9
586.329	21742.75
586.688	21846.7
587.048	21802.18
587.408	21855.74
587.768	21914.95
588.127	22007.83
588.487	21885.34
588.846	22120.14
589.206	22020.71
589.565	22105.45
589.925	22157.65
590.284	22162.4
590.643	22262.28
591.003	22366.91
591.362	22448.72
591.721	22391.32
592.08	22392.22
592.44	22495.27
592.799	22514.7
593.158	22501.6
593.517	22586.57
593.876	22630.18
594.235	22524.2
594.593	22608.49
594.952	22829.05
595.311	22700.24
595.67	22762.61
596.029	22950.17
596.387	22893.45
596.746	23013.9
597.104	22846.45
597.463	22930.29
597.822	23002.6
598.18	22945.43
598.538	23074.01
598.897	23116.95
599.255	23060.23
599.613	23334.57
599.972	23215.93
600.33	23211.41
600.688	23221.8
601.046	23328.02
601.404	23453.21
601.762	23360.78
602.12	23631.29
602.478	23622.02
602.836	23652.08
603.194	23560.55
603.552	23618.63
603.91	23529.14
604.268	23674
604.625	23648.46
604.983	23839.87
605.341	23650.49
605.698	23821.11
606.056	23819.3
606.413	23930.94
606.771	24118.5
607.128	23965.29
607.485	23995.8
607.843	24090.48
608.2	24021.56
608.557	24304.49
608.914	24136.58
609.272	24290.25
609.629	24464.48
609.986	24546.06
610.343	24398.5
610.7	24672.39
611.057	24595.1
611.414	24632.62
611.771	24589.45
612.127	24702.44
612.484	24744.93
612.841	24807.07
613.198	24797.81
613.554	24843.91
613.911	25009.1
614.267	25006.84
614.624	24976.33
614.98	25030.12
615.337	25148.76
615.693	25125.94
616.05	25186.27
616.406	25248.42
616.762	25295.87
617.118	25278.47
617.475	25315.31
617.831	25361.41
618.187	25542.87
618.543	25460.84
618.899	25548.3
619.255	25587.39
619.611	25630.55
619.967	25577.22
620.323	25736.31
620.678	25657.22
621.034	25703.55
621.39	25638.01
621.746	25744.22
622.101	25926.59
622.457	25782.19
622.812	25829.87
623.168	25870.32
623.523	25925.91
623.879	25975.86
624.234	25825.35
624.589	25995.07
624.945	25976.53
625.3	26039.36
625.655	25970.66
626.01	26110.77
626.365	26068.28
626.72	26032.35
627.075	26077.55
627.43	26054.95
627.785	26018.57
628.14	26145.34
628.495	26057.89
628.85	26127.72
629.205	25979.02
629.559	26200.48
629.914	26046.36
630.269	26271.22
630.623	26127.26
630.978	26016.99
631.332	26229.18
631.687	26210.65
632.041	26173.37
632.396	26216.98
632.75	25983.99
633.104	26147.15
633.459	26039.81
633.813	26056.08
634.167	26081.84
634.521	26090.66
634.875	26115.51
635.229	26082.97
635.583	25938.8
635.937	25994.16
636.291	26087.04
636.645	25981.28
636.999	25911
637.352	26023.76
637.706	25914.16
638.06	25899.47
638.413	25927.72
638.767	26007.72
639.121	26045.23
639.474	25787.84
639.828	25847.72
640.181	25862.64
640.534	25904.45
640.888	25888.85
641.241	25779.93
641.594	25867.84
641.947	25901.73
642.301	25776.09
642.654	25833.04
643.007	25918.46
643.36	25918.68
643.713	25778.35
644.066	25911.45
644.419	25739.7
644.771	25580.16
645.124	25391.24
645.477	25312.37
645.83	25227.4
646.182	25167.74
646.535	25002.55
646.888	25200.74
647.24	25053.85
647.593	25175.2
647.945	25118.7
648.298	25038.71
648.65	25043.68
649.002	24930.23
649.355	25127.74
649.707	24986.96
650.059	25147.86
650.411	25476.21
650.763	25478.02
651.115	25679.82
651.467	25671.46
651.819	25658.12
652.171	25652.02
652.523	25596.21
652.875	25576.09
653.227	25530.22
653.578	25610.67
653.93	25598.01
654.282	25490.9
654.633	25460.84
654.985	25553.04
655.337	25596.88
655.688	25535.19
656.039	25582.65
656.391	25517.79
656.742	25567.51
657.094	25586.49
657.445	25623.78
657.796	25545.13
658.147	25511.91
658.498	25581.29
658.849	25588.75
659.2	25547.17
659.551	25518.92
659.902	25566.83
660.253	25568.18
660.604	25460.62
660.955	25475.98
661.306	25547.62
661.656	25527.51
662.007	25548.98
662.358	25672.59
662.708	25562.31
663.059	25588.07
663.409	25423.1
663.76	25579.03
664.11	25623.55
664.461	25583.55
664.811	25711.46
665.161	25752.59
665.511	25607.5
665.862	25633.94
666.212	25682.76
666.562	25740.38
666.912	25601.86
667.262	25586.94
667.612	25584.91
667.962	25528.41
668.312	25643.44
668.662	25674.62
669.011	25660.38
669.361	25621.29
669.711	25664
670.06	25668.97
670.41	25559.37
670.76	25487.73
671.109	25703.1
671.459	25553.04
671.808	25589.43
672.157	25580.16
672.507	25420.16
672.856	25505.81
673.205	25537.22
673.554	25699.71
673.904	25577.67
674.253	25680.5
674.602	25624
674.951	25215.88
675.3	25200.96
675.649	25642.76
675.998	25547.62
676.346	25584.91
676.695	25612.7
677.044	25460.39
677.393	25470.56
677.741	25666.49
678.09	25360.05
678.438	25497.9
678.787	25469.2
679.135	25511.91
679.484	25389.88
679.832	25416.55
680.181	25235.31
680.529	25291.81
680.877	25247.97
681.225	25338.13
681.573	25383.56
681.922	25267.85
682.27	25147.86
682.618	25225.59
682.966	25171.13
683.314	25209.32
683.661	25008.88
684.009	24964.81
684.357	25045.26
684.705	24998.48
685.053	24996.22
685.4	24967.3
685.748	24848.43
686.095	24874.42
686.443	24866.28
686.79	24696.57
687.138	24808.66
687.485	24840.97
687.832	24771.59
688.18	24722.33
688.527	24600.3
688.874	24547.19
689.221	24576.35
689.568	24550.13
689.915	24465.61
690.262	24462.68
690.609	24391.04
690.956	24337.71
691.303	24238.95
691.65	24165.73
691.997	24165.51
692.344	24146.07
692.69	24091.16
693.037	24135
693.383	23912.86
693.73	23970.03
694.077	23868.34
694.423	23995.12
694.769	23788.8
695.116	23718.51
695.462	23756.03
695.808	23639.42
696.155	23772.52
696.501	23619.31
696.847	23544.51
697.193	23290.05
697.539	23471.06
697.885	23364.4
698.231	23275.14
698.577	23386.77
698.923	23334.8
699.269	23175.93
699.614	23007.12
699.96	22973
700.306	22976.84
700.651	22954.92
700.997	22917.18
701.342	22945.2
701.688	22908.59
702.033	22821.82
702.379	22773.91
702.724	22676.06
703.069	22719.22
703.415	22445.55
703.76	22539.56
704.105	22442.84
704.45	22593.57
704.795	22357.42
705.14	22354.48
705.485	22302.73
705.83	22193.58
706.175	22259.8
706.52	22186.58
706.865	22074.04
707.209	22113.59
707.554	22019.8
707.899	21951.56
708.243	21932.12
708.588	21863.87
708.932	21743.88
709.277	21805.12
709.621	21910.2
709.966	21698.23
710.31	21743.2
710.654	21661.62
710.998	21561.96
711.342	21630.89
711.687	21579.14
712.031	21489.65
712.375	21377.79
712.719	21414.17
713.063	21456.2
713.407	21552.92
713.75	21295.75
714.094	21295.53
714.438	21305.7
714.782	21377.56
715.125	21221.41
715.469	21229.09
715.812	21154.74
716.156	21072.71
716.499	21080.17
716.843	21141.86
717.186	21037.23
717.53	21182.99
717.873	21095.76
718.216	20979.15
718.559	20851.47
718.902	20815.77
719.246	20914.75
719.589	20735.99
719.932	20721.98
720.275	20779.83
720.617	20697.13
720.96	20711.36
721.303	20735.99
721.646	20708.2
721.989	20575.55
722.331	20635.66
722.674	20636.11
723.016	20678.37
723.359	20674.08
723.701	20622.1
724.044	20501.2
724.386	20447.87
724.729	20470.92
725.071	20461.43
725.413	20367.19
725.755	20412.16
726.097	20371.03
726.439	20308.21
726.782	20285.16
727.124	20432.05
727.465	20347.08
727.807	20310.92
728.149	20246.06
728.491	20311.37
728.833	20297.59
729.175	20214.2
729.516	20208.32
729.858	20208.55
730.199	20125.16
730.541	20138.72
730.882	20036.8
731.224	20144.37
731.565	20038.61
731.906	20051.04
732.248	20133.75
732.589	19964.49
732.93	19919.97
733.271	19957.26
733.612	19915.22
733.953	20009.46
734.294	19936.47
734.635	19864.15
734.976	19969.01
735.317	19936.02
735.658	19878.39
735.999	19871.38
736.339	19854.89
736.68	19811.5
737.021	19831.16
737.361	19772.86
737.702	19804.49
738.042	19656.7
738.383	19749.81
738.723	19878.84
739.063	19754.55
739.404	19763.14
739.744	19738.28
740.084	19603.37
740.424	19710.03
740.764	19700.32
741.104	19632.75
741.444	19653.08
741.784	19609.24
742.124	19654.89
742.464	19583.71
742.804	19619.64
743.143	19533.54
743.483	19524.73
743.823	19444.5
744.162	19522.01
744.502	19502.58
744.841	19387.1
745.181	19498.29
745.52	19388.23
745.86	19473.65
746.199	19349.59
746.538	19464.39
746.877	19389.36
747.216	19433.88
747.556	19433.66
747.895	19494.22
748.234	19299.2
748.573	19247.67
748.911	19316.82
749.25	19311.62
749.589	19285.64
749.928	19300.78
750.267	19263.04
750.605	19265.07
750.944	19222.59
751.283	19188.69
751.621	19306.2
751.96	19104.85
752.298	19079.54
752.636	19183.72
752.975	19157.73
753.313	19068.47
753.651	19170.39
753.989	19043.61
754.327	19030.05
754.666	18944.18
755.004	19062.37
755.342	19047.9
755.679	18910.51
756.017	18853.78
756.355	18963.61
756.693	18776.95
757.031	18934.01
757.368	18896.72
757.706	18793.22
