Data from cardboard_FLMS001491_009.txt Node
Date: Tue Feb 07 11:38:51 GMT 2017
User: dcchb
Spectrometer: FLMS00149
Trigger mode: 0
Integration Time (sec): 2.000000E-2
Scans to average: 10
Electric dark correction enabled: true
Nonlinearity correction enabled: false
Boxcar width: 0
XAxis mode: Wavelengths
Number of Pixels in Spectrum: 2048
>>>>>Begin Spectral Data<<<<<
341.393	-17.3
341.776	-17.3
342.16	-17.3
342.543	-56.4
342.927	-71.76
343.31	-66.34
343.693	-80.13
344.077	-61.82
344.46	-46.45
344.843	-53.23
345.226	-47.13
345.61	-42.39
345.993	-21.6
346.376	-5.1
346.759	29.02
347.142	34.67
347.525	40.55
347.908	54.79
348.291	84.84
348.674	84.16
349.057	96.14
349.44	121.68
349.823	137.04
350.206	149.25
350.588	185.63
350.971	196.7
351.354	224.73
351.737	221.11
352.119	240.09
352.502	244.84
352.884	265.63
353.267	264.95
353.65	276.25
354.032	294.55
354.414	299.07
354.797	285.06
355.179	304.05
355.562	306.98
355.944	316.25
356.326	304.95
356.709	326.64
357.091	326.87
357.473	320.99
357.855	342.24
358.238	330.71
358.62	317.83
359.002	322.8
359.384	313.08
359.766	311.28
360.148	330.03
360.53	333.42
360.912	328.68
361.294	306.53
361.676	318.06
362.057	306.98
362.439	335.68
362.821	317.38
363.203	323.25
363.584	312.18
363.966	315.57
364.348	319.41
364.729	304.95
365.111	297.49
365.493	296.59
365.874	309.24
366.256	315.12
366.637	302.01
367.019	309.47
367.4	299.98
367.781	295.91
368.163	286.65
368.544	303.14
368.925	294.55
369.306	293.88
369.688	304.5
370.069	297.27
370.45	295.01
370.831	301.11
371.212	309.24
371.593	287.77
371.974	298.17
372.355	314.89
372.736	292.97
373.117	298.62
373.498	290.03
373.879	294.78
374.26	297.94
374.641	310.83
375.021	296.81
375.402	289.36
375.783	293.42
376.163	292.07
376.544	315.57
376.925	320.32
377.305	324.84
377.686	307.21
378.066	308.11
378.447	314.89
378.827	317.38
379.208	314.67
379.588	312.86
379.968	322.58
380.349	330.49
380.729	326.42
381.109	329.13
381.489	338.4
381.87	322.12
382.25	321.22
382.63	321.45
383.01	336.59
383.39	326.87
383.77	325.74
384.15	322.8
384.53	344.04
384.91	299.53
385.29	331.39
385.67	326.42
386.049	344.04
386.429	324.38
386.809	328.9
387.189	304.27
387.568	358.51
387.948	332.29
388.328	353.08
388.707	347.89
389.087	352.86
389.466	344.04
389.846	345.4
390.225	333.2
390.605	337.27
390.984	340.88
391.363	349.24
391.743	347.21
392.122	340.43
392.501	326.42
392.881	360.99
393.26	346.53
393.639	344.27
394.018	352.86
394.397	346.76
394.776	376.13
395.155	353.99
395.534	332.97
395.913	351.28
396.292	364.38
396.671	365.06
397.05	362.12
397.429	352.18
397.808	346.53
398.186	368
398.565	377.04
398.944	360.54
399.323	379.98
399.701	370.71
400.08	376.36
400.458	370.03
400.837	358.06
401.215	369.35
401.594	378.39
401.972	376.13
402.351	357.38
402.729	366.19
403.107	386.08
403.486	389.69
403.864	375.23
404.242	368.68
404.62	369.13
404.999	396.7
405.377	385.4
405.755	375.91
406.133	382.69
406.511	390.37
406.889	405.29
407.267	403.93
407.645	394.21
408.023	407.55
408.401	418.84
408.779	402.12
409.156	409.35
409.534	410.03
409.912	402.8
410.29	419.75
410.667	424.04
411.045	410.71
411.422	413.87
411.8	419.52
412.178	433.31
412.555	424.04
412.933	441.22
413.31	433.08
413.687	421.56
414.065	423.82
414.442	432.86
414.819	422.01
415.197	447.32
415.574	454.55
415.951	438.51
416.328	457.26
416.705	450.93
417.082	450.71
417.46	447.32
417.837	459.3
418.214	463.82
418.591	469.01
418.967	430.6
419.344	464.72
419.721	448.22
420.098	459.07
420.475	457.26
420.852	471.05
421.228	472.18
421.605	471.95
421.982	462.46
422.358	475.57
422.735	491.84
423.111	486.64
423.488	506.07
423.864	488.9
424.241	504.94
424.617	475.34
424.994	538.62
425.37	490.26
425.746	511.95
426.123	491.39
426.499	510.14
426.875	497.94
427.251	520.76
427.627	539.07
428.003	522.35
428.379	538.62
428.756	557.82
429.132	532.51
429.507	525.06
429.883	541.1
430.259	552.63
430.635	542.91
431.011	554.43
431.387	576.81
431.763	567.32
432.138	552.85
432.514	565.51
432.89	549.01
433.265	597.82
433.641	589.46
434.016	596.47
434.392	617.48
434.767	602.34
435.143	586.98
435.518	624.49
435.894	610.93
436.269	599.63
436.644	615.22
437.02	638.27
437.395	612.96
437.77	631.72
438.145	645.28
438.52	614.77
438.895	634.21
439.271	645.96
439.646	640.53
440.021	637.14
440.395	658.61
440.77	664.71
441.145	639.18
441.52	675.79
441.895	657.93
442.27	669.69
442.645	679.86
443.019	674.88
443.394	678.73
443.769	687.54
444.143	705.39
444.518	691.38
444.892	699.74
445.267	699.74
445.641	693.87
446.016	723.24
446.39	714.2
446.764	718.95
447.139	719.63
447.513	722.34
447.887	713.07
448.262	720.08
448.636	732.96
449.01	734.54
449.384	749.91
449.758	727.54
450.132	758.27
450.506	754.43
450.88	761.89
451.254	736.35
451.628	754.2
452.002	766.41
452.376	788.78
452.75	820.64
453.123	802.11
453.497	796.46
453.871	775.67
454.244	814.77
454.618	807.08
454.992	850.25
455.365	821.55
455.739	855.9
456.112	843.24
456.486	863.13
456.859	854.31
457.232	862.45
457.606	842.34
457.979	871.71
458.352	894.09
458.725	912.84
459.099	906.06
459.472	909
459.845	900.41
460.218	900.19
460.591	920.98
460.964	932.73
461.337	962.11
461.71	967.53
462.083	949.68
462.456	981.09
462.829	966.4
463.201	988.32
463.574	986.06
463.947	996.91
464.32	1015.21
464.692	1020.86
465.065	1010.69
465.438	1026.96
465.81	1055.66
466.183	1062.67
466.555	1106.74
466.928	1101.31
467.3	1082.78
467.672	1091.37
468.045	1131.37
468.417	1133.4
468.789	1141.76
469.161	1149.45
469.534	1178.15
469.906	1198.03
470.278	1188.32
470.65	1216.11
471.022	1242.1
471.394	1233.96
471.766	1239.16
472.138	1264.7
472.51	1282.33
472.882	1301.99
473.253	1309.44
473.625	1337.24
473.997	1338.14
474.369	1335.88
474.74	1397.12
475.112	1400.51
475.484	1440.51
475.855	1425.82
476.227	1445.94
476.598	1496.78
476.97	1499.72
477.341	1532.49
477.713	1541.08
478.084	1543.11
478.455	1573.62
478.827	1595.76
479.198	1617.68
479.569	1662.2
479.94	1687.96
480.311	1709.66
480.682	1707.85
481.053	1752.14
481.424	1784.68
481.795	1799.37
482.166	1801.41
482.537	1834.17
482.908	1866.72
483.279	1888.64
483.65	1957.11
484.021	2000.95
484.391	1996.88
484.762	2021.74
485.133	2028.52
485.503	2052.93
485.874	2064
486.244	2112.81
486.615	2162.08
486.985	2197.33
487.356	2245.24
487.726	2236.65
488.097	2271
488.467	2272.58
488.837	2319.81
489.207	2366.82
489.578	2359.13
489.948	2385.12
490.318	2470.32
490.688	2482.29
491.058	2529.52
491.428	2543.08
491.798	2571.56
492.168	2624.44
492.538	2601.16
492.908	2665.11
493.278	2675.51
493.648	2709.41
494.017	2744.89
494.387	2792.34
494.757	2784.66
495.126	2843.19
495.496	2841.38
495.866	2834.15
496.235	2916.86
496.605	2945.56
496.974	2966.57
497.344	2979.23
497.713	3002.51
498.082	3034.14
498.452	3089.51
498.821	3100.58
499.19	3106.01
499.559	3141.49
499.928	3159.34
500.298	3193.46
500.667	3190.98
501.036	3214.7
501.405	3285.66
501.774	3271.88
502.143	3319.79
502.512	3354.13
502.88	3372.21
503.249	3403.85
503.618	3432.78
503.987	3443.17
504.356	3502.15
504.724	3515.49
505.093	3499.44
505.462	3603.39
505.83	3593.45
506.199	3638.87
506.567	3657.63
506.936	3710.96
507.304	3747.12
507.672	3733.11
508.041	3728.59
508.409	3824.18
508.777	3854.01
509.145	3876.16
509.514	3886.78
509.882	3930.62
510.25	3979.2
510.618	3990.5
510.986	3975.36
511.354	4044.96
511.722	4075.7
512.09	4111.86
512.458	4121.12
512.826	4157.05
513.193	4258.52
513.561	4277.27
513.929	4295.13
514.297	4334
514.664	4406.08
515.032	4401.11
515.4	4425.75
515.767	4501.9
516.135	4519.98
516.502	4507.55
516.869	4552.3
517.237	4636.36
517.604	4650.82
517.972	4688.34
518.339	4732.4
518.706	4781.44
519.073	4808.33
519.44	4875.9
519.808	4885.85
520.175	4873.87
520.542	5008.33
520.909	4978.27
521.276	5053.07
521.643	5093.3
522.009	5146.63
522.376	5238.61
522.743	5258.49
523.11	5312.5
523.477	5389.11
523.843	5382.33
524.21	5485.38
524.577	5471.37
524.943	5545.72
525.31	5637.92
525.676	5693.28
526.043	5714.07
526.409	5696.22
526.776	5852.37
527.142	5846.72
527.508	5912.26
527.874	5973.5
528.241	6039.49
528.607	6019.6
528.973	6041.07
529.339	6133.72
529.705	6192.25
530.071	6242.19
530.437	6259.37
530.803	6329.88
531.169	6391.57
531.535	6404.68
531.901	6439.03
532.267	6465.01
532.632	6569.64
532.998	6549.08
533.364	6661.62
533.73	6621.17
534.095	6759.7
534.461	6796.08
534.826	6750.43
535.192	6862.29
535.557	6928.05
535.923	6956.07
536.288	6930.99
536.653	7036.75
537.019	7025
537.384	7121.72
537.749	7079.46
538.114	7168.95
538.479	7219.12
538.845	7264.09
539.21	7304.31
539.575	7364.88
539.94	7410.53
540.305	7451.2
540.67	7450.98
541.034	7466.12
541.399	7588.83
541.764	7598.77
542.129	7636.28
542.494	7705.66
542.858	7761.93
543.223	7735.26
543.587	7822.04
543.952	7806.22
544.316	7836.95
544.681	7854.81
545.045	7928.48
545.41	8001.92
545.774	8027.01
546.138	8062.71
546.503	8130.51
546.867	8124.18
547.231	8237.17
547.595	8240.79
547.959	8255.02
548.324	8308.81
548.688	8244.85
549.052	8415.47
549.416	8413.89
549.779	8486.88
550.143	8511.51
550.507	8577.5
550.871	8597.61
551.235	8578.18
551.599	8739.3
551.962	8730.94
552.326	8806.87
552.689	8914.67
553.053	8849.13
553.417	8923.48
553.78	9063.14
554.143	8977.72
554.507	9085.51
554.87	9111.05
555.234	9183.81
555.597	9189.24
555.96	9281.66
556.323	9304.71
556.686	9374.99
557.05	9498.83
557.413	9469.23
557.776	9530.7
558.139	9600.75
558.502	9590.58
558.865	9694.08
559.228	9744.48
559.59	9814.3
559.953	9883.91
560.316	9963.9
560.679	9947.18
561.041	10025.6
561.404	10087.29
561.767	10151.7
562.129	10143.11
562.492	10258.81
562.854	10306.95
563.217	10350.34
563.579	10372.26
563.941	10460.39
564.304	10522.31
564.666	10605.7
565.028	10609.99
565.39	10639.14
565.753	10789.42
566.115	10863.54
566.477	10830.55
566.839	10893.37
567.201	11036.87
567.563	11063.99
567.925	11089.3
568.287	11142.86
568.648	11207.71
569.01	11301.04
569.372	11386.24
569.734	11389.18
570.095	11472.57
570.457	11534.71
570.819	11573.58
571.18	11608.83
571.542	11639.79
571.903	11725.44
572.265	11737.19
572.626	11787.81
572.987	11872.1
573.349	12003.4
573.71	11931.99
574.071	12068.26
574.432	12097.86
574.794	12139.67
575.155	12073
575.516	12111.42
575.877	12214.92
576.238	12249.72
576.599	12324.52
576.96	12324.29
577.32	12430.05
577.681	12368.14
578.042	12464.4
578.403	12484.29
578.763	12510.28
579.124	12548.02
579.485	12629.37
579.845	12672.08
580.206	12715.47
580.566	12708.01
580.927	12755.47
581.287	12807.22
581.648	12802.7
582.008	12875.47
582.368	12909.36
582.728	12921.34
583.089	12962.02
583.449	12977.61
583.809	12993.2
584.169	12997.95
584.529	13011.73
584.889	13162.46
585.249	13099.64
585.609	13017.16
585.969	13219.41
586.329	13110.49
586.688	13169.47
587.048	13231.62
587.408	13241.56
587.768	13148.45
588.127	13236.36
588.487	13250.6
588.846	13344.38
589.206	13314.78
589.565	13291.05
589.925	13483.59
590.284	13412.4
590.643	13451.04
591.003	13502.12
591.362	13514.55
591.721	13518.16
592.08	13535.56
592.44	13573.08
592.799	13489.91
593.158	13642.45
593.517	13578.27
593.876	13579.18
594.235	13660.98
594.593	13616.24
594.952	13717.03
595.311	13692.17
595.67	13742.11
596.029	13835.22
596.387	13875.21
596.746	13913.86
597.104	13837.93
597.463	13850.58
597.822	13963.35
598.18	13916.8
598.538	13869.79
598.897	14075.43
599.255	13910.02
599.613	14092.38
599.972	14086.28
600.33	14125.83
600.688	13984.36
601.046	14133.51
601.404	14208.99
601.762	14189.1
602.12	14246.73
602.478	14307.75
602.836	14246.73
603.194	14222.32
603.552	14273.17
603.91	14286.73
604.268	14384.58
604.625	14245.37
604.983	14368.31
605.341	14283.11
605.698	14494.63
606.056	14417.35
606.413	14412.38
606.771	14521.07
607.128	14560.85
607.485	14532.6
607.843	14496.67
608.2	14582.31
608.557	14681.07
608.914	14628.41
609.272	14686.94
609.629	14836.09
609.986	14730.56
610.343	14746.38
610.7	14791.12
611.057	14811.69
611.414	14827.28
611.771	14855.75
612.127	14907.96
612.484	14874.74
612.841	14992.25
613.198	14987.28
613.554	14999.03
613.911	15101.17
614.267	15162.86
614.624	15119.7
614.98	15166.25
615.337	15248.74
615.693	15235.18
616.05	15120.61
616.406	15316.76
616.762	15250.77
617.118	15314.05
617.475	15250.09
617.831	15336.42
618.187	15438.34
618.543	15366.02
618.899	15557.2
619.255	15403.31
619.611	15423.2
619.967	15581.84
620.323	15496.87
620.678	15591.78
621.034	15434.27
621.39	15467.49
621.746	15594.49
622.101	15700.03
622.457	15582.74
622.812	15586.81
623.168	15654.6
623.523	15728.95
623.879	15723.3
624.234	15625
624.589	15767.82
624.945	15743.19
625.3	15803.53
625.655	15887.59
626.01	15852.11
626.365	15825.22
626.72	15848.72
627.075	15851.43
627.43	15723.53
627.785	15722.17
628.14	15809.63
628.495	15798.78
628.85	15821.15
629.205	15782.06
629.559	15842.62
629.914	15872
630.269	15801.04
630.623	15824.54
630.978	15775.96
631.332	15882.62
631.687	15786.58
632.041	15789.51
632.396	15916.74
632.75	15777.54
633.104	15840.81
633.459	15818.67
633.813	15785.22
634.167	15832.68
634.521	15854.37
634.875	15875.84
635.229	15879.68
635.583	15851.66
635.937	15802.62
636.291	15794.94
636.645	15774.83
636.999	15815.05
637.352	15859.34
637.706	15767.82
638.06	15787.93
638.413	15709.74
638.767	15664.32
639.121	15719.91
639.474	15641.04
639.828	15718.33
640.181	15680.14
640.534	15784.77
640.888	15614.15
641.241	15611.67
641.594	15657.31
641.947	15610.31
642.301	15682.62
642.654	15727.14
643.007	15754.49
643.36	15677.65
643.713	15691.66
644.066	15747.48
644.419	15639.24
644.771	15550.88
645.124	15424.78
645.477	15446.47
645.83	15327.83
646.182	15240.15
646.535	15254.61
646.888	15302.75
647.24	15216.65
647.593	15273.82
647.945	15231.11
648.298	15249.64
648.65	15173.03
649.002	15112.02
649.355	15202.19
649.707	15141.4
650.059	15306.59
650.411	15492.12
650.763	15447.6
651.115	15607.6
651.467	15550.88
651.819	15550.88
652.171	15598.56
652.523	15569.41
652.875	15594.94
653.227	15533.7
653.578	15654.83
653.93	15531.89
654.282	15470.88
654.633	15493.93
654.985	15512.23
655.337	15614.6
655.688	15514.72
656.039	15572.8
656.391	15525.34
656.742	15478.56
657.094	15514.04
657.445	15636.98
657.796	15611.89
658.147	15599.24
658.498	15545
658.849	15665.45
659.2	15606.24
659.551	15562.18
659.902	15592.68
660.253	15584.55
660.604	15576.64
660.955	15516.08
661.306	15607.15
661.656	15566.24
662.007	15528.05
662.358	15513.14
662.708	15630.42
663.059	15583.19
663.409	15495.96
663.76	15577.32
664.11	15662.96
664.461	15585.9
664.811	15706.13
665.161	15612.12
665.511	15574.15
665.862	15628.16
666.212	15659.8
666.562	15765.11
666.912	15656.64
667.262	15565.57
667.612	15646.92
667.962	15680.82
668.312	15578.67
668.662	15779.57
669.011	15633.81
669.361	15633.81
669.711	15640.37
670.06	15559.24
670.41	15591.33
670.76	15553.81
671.109	15686.24
671.459	15574.83
671.808	15676.52
672.157	15679.91
672.507	15593.14
672.856	15599.69
673.205	15609.86
673.554	15568.96
673.904	15553.14
674.253	15688.73
674.602	15591.33
674.951	15440.6
675.3	15407.6
675.649	15639.91
675.998	15622.96
676.346	15625.9
676.695	15604.89
677.044	15560.14
677.393	15547.03
677.741	15557.88
678.09	15512.23
678.438	15532.8
678.787	15506.81
679.135	15608.28
679.484	15532.8
679.832	15499.13
680.181	15409.86
680.529	15525.79
680.877	15482.86
681.225	15477.66
681.573	15538.45
681.922	15460.94
682.27	15438.34
682.618	15470.65
682.966	15339.13
683.314	15488.96
683.661	15341.16
684.009	15291.67
684.357	15262.07
684.705	15309.75
685.053	15228.63
685.4	15249.64
685.748	15196.76
686.095	15168.97
686.443	15177.33
686.79	15070.44
687.138	15144.33
687.485	15158.34
687.832	15094.62
688.18	15129.19
688.527	15030.89
688.874	15074.28
689.221	15040.83
689.568	14981.85
689.915	15031.34
690.262	15075.18
690.609	14912.25
690.956	14903.44
691.303	14888.75
691.65	14822.99
691.997	14882.19
692.344	14747.73
692.69	14715.64
693.037	14781.63
693.383	14706.83
693.73	14750.67
694.077	14592.48
694.423	14554.29
694.769	14614.86
695.116	14645.82
695.462	14552.94
695.808	14535.76
696.155	14547.29
696.501	14463.22
696.847	14425.03
697.193	14325.6
697.539	14437.01
697.885	14408.99
698.231	14272.94
698.577	14225.04
698.923	14209.89
699.269	14229.78
699.614	14149.11
699.96	14133.29
700.306	14151.59
700.651	14084.25
700.997	14166.05
701.342	14002.89
701.688	14013.29
702.033	13960.86
702.379	14001.99
702.724	13947.53
703.069	13905.5
703.415	13839.06
703.76	13847.64
704.105	13865.95
704.45	13780.75
704.795	13748.89
705.14	13744.14
705.485	13649.01
705.83	13517.48
706.175	13670.93
706.52	13635.9
706.865	13586.63
707.209	13573.3
707.554	13576.24
707.899	13525.84
708.243	13442.91
708.588	13526.07
708.932	13464.38
709.277	13482.91
709.621	13440.88
709.966	13294.44
710.31	13344.83
710.654	13261.67
710.998	13311.39
711.342	13326.98
711.687	13239.98
712.031	13159.3
712.375	13174.44
712.719	13256.7
713.063	13204.27
713.407	13307.09
713.75	13172.86
714.094	13140.32
714.438	13078.85
714.782	13113.65
715.125	13040.89
715.469	13035.24
715.812	12983.71
716.156	12935.58
716.499	12989.81
716.843	13023.49
717.186	12959.31
717.53	12950.49
717.873	12990.94
718.216	12937.61
718.559	12868.46
718.902	12791.63
719.246	12810.38
719.589	12772.64
719.932	12749.14
720.275	12748.92
720.617	12743.72
720.96	12753.66
721.303	12740.55
721.646	12792.98
721.989	12697.84
722.331	12654.46
722.674	12691.97
723.016	12722.48
723.359	12595.93
723.701	12635.92
724.044	12694.91
724.386	12569.49
724.729	12616.72
725.071	12592.99
725.413	12571.29
725.755	12550.5
726.097	12502.37
726.439	12522.93
726.782	12508.7
727.124	12541.01
727.465	12483.16
727.807	12457.85
728.149	12490.39
728.491	12395.93
728.833	12530.39
729.175	12531.52
729.516	12442.26
729.858	12420.11
730.199	12465.76
730.541	12475.25
730.882	12392.99
731.224	12385.54
731.565	12359.77
731.906	12331.98
732.248	12387.57
732.589	12353.67
732.93	12327.23
733.271	12395.71
733.612	12332.43
733.953	12331.75
734.294	12341.92
734.635	12271.41
734.976	12279.78
735.317	12264.18
735.658	12238.65
735.999	12269.83
736.339	12208.14
736.68	12174.02
737.021	12259.21
737.361	12065.09
737.702	12269.61
738.042	12278.42
738.383	12233.22
738.723	12214.47
739.063	12143.96
739.404	12176.28
739.744	12119.1
740.084	12167.01
740.424	12186.45
740.764	12125.2
741.104	12136.05
741.444	12147.35
741.784	12027.58
742.124	12136.5
742.464	12078.65
742.804	12122.94
743.143	12112.77
743.483	12068.26
743.823	12014.47
744.162	12026.68
744.502	12055.38
744.841	12032.78
745.181	12096.96
745.52	12026.9
745.86	12065.54
746.199	12081.36
746.538	12008.82
746.877	12095.37
747.216	12009.95
747.556	12004.53
747.895	12082.04
748.234	11945.55
748.573	11928.82
748.911	11962.27
749.25	12001.37
749.589	11917.3
749.928	11938.09
750.267	11974.7
750.605	11889.05
750.944	11856.28
751.283	11873.01
751.621	11831.2
751.96	11857.41
752.298	11769.28
752.636	11797.3
752.975	11827.36
753.313	11751.65
753.651	11842.5
753.989	11769.51
754.327	11834.14
754.666	11793.46
755.004	11773.35
755.342	11781.94
755.679	11766.57
756.017	11746.68
756.355	11698.55
756.693	11622.39
757.031	11721.37
757.368	11657.19
757.706	11562.96
758.044	11564.09
758.381	11539
758.719	11524.09
759.056	11582.39
759.394	11489.06
759.731	11544.65
