Data from cardboard_FLMS001491_067.txt Node
Date: Tue Feb 07 11:39:57 GMT 2017
User: dcchb
Spectrometer: FLMS00149
Trigger mode: 0
Integration Time (sec): 2.000000E-2
Scans to average: 10
Electric dark correction enabled: true
Nonlinearity correction enabled: false
Boxcar width: 0
XAxis mode: Wavelengths
Number of Pixels in Spectrum: 2048
>>>>>Begin Spectral Data<<<<<
341.393	-5.8
341.776	-5.8
342.16	-5.8
342.543	-68.4
342.927	-73.83
343.31	-94.39
343.693	-42.87
344.077	-70.89
344.46	-84.22
344.843	-42.87
345.226	-49.87
345.61	-29.31
345.993	-13.04
346.376	17.25
346.759	-5.58
347.142	25.38
347.525	56.34
347.908	44.14
348.291	75.32
348.674	89.11
349.057	125.49
349.44	141.54
349.823	159.84
350.206	172.27
350.588	193.51
350.971	197.58
351.354	231.25
351.737	239.16
352.119	259.95
352.502	259.5
352.884	269.89
353.267	285.03
353.65	294.75
354.032	306.05
354.414	316.22
354.797	299.27
355.179	318.25
355.562	311.25
355.944	324.58
356.326	320.74
356.709	358.48
357.091	346.28
357.473	337.01
357.855	347.63
358.238	352.15
358.62	340.85
359.002	351.93
359.384	334.53
359.766	345.37
360.148	344.24
360.53	313.51
360.912	348.54
361.294	334.3
361.676	319.61
362.057	333.4
362.439	331.14
362.821	336.11
363.203	354.19
363.584	328.88
363.966	324.81
364.348	333.4
364.729	344.02
365.111	314.19
365.493	307.63
365.874	326.16
366.256	322.1
366.637	341.08
367.019	303.34
367.4	318.25
367.781	314.86
368.163	329.33
368.544	336.11
368.925	325.49
369.306	318.48
369.688	324.36
370.069	330.01
370.45	314.19
370.831	316.67
371.212	310.12
371.593	312.15
371.974	296.33
372.355	333.85
372.736	318.93
373.117	304.24
373.498	322.77
373.879	321.19
374.26	316.45
374.641	315.09
375.021	325.26
375.402	327.75
375.783	331.81
376.163	341.08
376.544	342.66
376.925	358.48
377.305	332.72
377.686	347.41
378.066	337.91
378.447	338.82
378.827	336.33
379.208	330.23
379.588	344.69
379.968	334.98
380.349	334.3
380.729	337.24
381.109	334.75
381.489	341.3
381.87	353.96
382.25	346.5
382.63	332.04
383.01	360.97
383.39	343.34
383.77	355.99
384.15	348.31
384.53	354.64
384.91	376.78
385.29	333.4
385.67	352.15
386.049	381.98
386.429	373.85
386.809	370.68
387.189	367.52
387.568	369.55
387.948	373.17
388.328	352.83
388.707	370.91
389.087	398.7
389.466	391.02
389.846	378.82
390.225	373.17
390.605	386.73
390.984	377.01
391.363	395.99
391.743	377.69
392.122	385.82
392.501	364.58
392.881	392.15
393.26	406.61
393.639	395.77
394.018	395.54
394.397	394.18
394.776	400.51
395.155	403.45
395.534	404.81
395.913	389.21
396.292	414.97
396.671	410.46
397.05	411.59
397.429	415.88
397.808	427.18
398.186	420.4
398.565	431.7
398.944	414.97
399.323	409.33
399.701	426.73
400.08	439.61
400.458	414.52
400.837	435.31
401.215	417.46
401.594	430.12
401.972	434.64
402.351	425.82
402.729	437.12
403.107	432.15
403.486	442.09
403.864	466.5
404.242	459.04
404.62	465.14
404.999	449.78
405.377	468.31
405.755	459.95
406.133	463.56
406.511	466.05
406.889	483.9
407.267	478.93
407.645	475.54
408.023	497.01
408.401	468.31
408.779	514.41
409.156	495.65
409.534	494.29
409.912	519.38
410.29	527.06
410.667	524.35
411.045	510.79
411.422	531.13
411.8	535.88
412.178	539.04
412.555	532.94
412.933	529.55
413.31	542.2
413.687	541.53
414.065	562.77
414.442	539.72
414.819	589.21
415.197	564.8
415.574	548.53
415.951	565.25
416.328	564.8
416.705	563.22
417.082	595.08
417.46	570.23
417.837	609.32
418.214	593.28
418.591	594.41
418.967	604.35
419.344	609.55
419.721	583.33
420.098	636.89
420.475	616.55
420.852	607.74
421.228	633.95
421.605	625.36
421.982	626.72
422.358	640.51
422.735	637.34
423.111	628.3
423.488	652.71
423.864	675.31
424.241	617.23
424.617	661.52
424.994	672.14
425.37	666.49
425.746	677.34
426.123	692.71
426.499	672.82
426.875	692.93
427.251	694.06
427.627	730.22
428.003	709.66
428.379	747.4
428.756	733.16
429.132	722.09
429.507	748.98
429.883	737.68
430.259	747.4
430.635	725.93
431.011	755.3
431.387	757.56
431.763	771.35
432.138	794.85
432.514	814.06
432.89	770.67
433.265	792.14
433.641	794.4
434.016	817.45
434.392	848.86
434.767	839.6
435.143	836.66
435.518	857.68
435.894	869.88
436.269	851.8
436.644	874.85
437.02	900.84
437.395	890.44
437.77	875.08
438.145	904.68
438.52	888.41
438.895	910.56
439.271	947.16
439.646	935.19
440.021	928.86
440.395	934.74
440.77	930.89
441.145	972.25
441.52	991.91
441.895	940.16
442.27	989.88
442.645	965.47
443.019	965.69
443.394	982.64
443.769	988.97
444.143	990.55
444.518	989.42
444.892	1033.49
445.267	1014.28
445.641	1019.25
446.016	1020.16
446.39	1011.12
446.764	1045.47
447.139	1035.98
447.513	1038.91
447.887	1060.83
448.262	1048.63
448.636	1082.08
449.01	1081.62
449.384	1094.05
449.758	1081.62
450.132	1112.81
450.506	1102.64
450.88	1122.75
451.254	1122.75
451.628	1141.06
452.002	1158.68
452.376	1130.66
452.75	1160.04
453.123	1181.51
453.497	1174.73
453.871	1180.38
454.244	1218.57
454.618	1215.18
454.992	1230.55
455.365	1216.08
455.739	1263.31
456.112	1278.91
456.486	1273.03
456.859	1276.42
457.232	1320.04
457.606	1303.54
457.979	1301.51
458.352	1358.45
458.725	1348.96
459.099	1357.1
459.472	1390.99
459.845	1389.19
460.218	1426.93
460.591	1453.14
460.964	1436.64
461.337	1473.03
461.71	1453.59
462.083	1509.41
462.456	1514.38
462.829	1489.75
463.201	1559.58
463.574	1550.76
463.947	1561.61
464.32	1589.41
464.692	1631.44
465.065	1625.56
465.438	1622.85
465.81	1670.08
466.183	1674.6
466.555	1725.9
466.928	1731.55
467.3	1731.32
467.672	1757.54
468.045	1776.97
468.417	1767.26
468.789	1813.81
469.161	1823.07
469.534	1829.85
469.906	1870.08
470.278	1900.36
470.65	1932.68
471.022	1969.96
471.394	2011.54
471.766	2007.25
472.138	2041.37
472.51	2070.75
472.882	2089.51
473.253	2123.4
473.625	2147.13
473.997	2155.49
474.369	2206.11
474.74	2242.95
475.112	2291.76
475.484	2293.34
475.855	2329.27
476.227	2353.91
476.598	2423.06
476.97	2436.16
477.341	2457.18
477.713	2535.15
478.084	2563.62
478.455	2584.64
478.827	2651.75
479.198	2708.47
479.569	2699.89
479.94	2808.36
480.311	2802.93
480.682	2880.67
481.053	2926.77
481.424	2969.03
481.795	2999.99
482.166	3025.3
482.537	3083.61
482.908	3164.96
483.279	3200.89
483.65	3255.35
484.021	3343.03
484.391	3357.72
484.762	3396.82
485.133	3463.03
485.503	3487.89
485.874	3536.47
486.244	3571.28
486.615	3623.25
486.985	3653.53
487.356	3773.08
487.726	3780.54
488.097	3903.7
488.467	3909.35
488.837	3987.99
489.207	4061.66
489.578	4162.22
489.948	4129
490.318	4211.26
490.688	4222.78
491.058	4274.99
491.428	4392.72
491.798	4407.41
492.168	4504.58
492.538	4493.29
492.908	4611.25
493.278	4692.38
493.648	4655.54
494.017	4761.75
494.387	4810.79
494.757	4868.64
495.126	4898.7
495.496	4958.58
495.866	5019.83
496.235	5069.77
496.605	5079.71
496.974	5154.06
497.344	5230.67
497.713	5242.42
498.082	5285.13
498.452	5381.85
498.821	5364.68
499.19	5436.54
499.559	5474.73
499.928	5534.84
500.298	5595.18
500.667	5679.02
501.036	5684.21
501.405	5759.92
501.774	5727.15
502.143	5858.22
502.512	5890.76
502.88	5957.88
503.249	5926.92
503.618	6023.19
503.987	6065.9
504.356	6110.64
504.724	6205.78
505.093	6146.12
505.462	6254.6
505.83	6354.03
506.199	6400.58
506.567	6489.84
506.936	6474.93
507.304	6566.45
507.672	6637.18
508.041	6662.49
508.409	6767.12
508.777	6818.65
509.145	6865.43
509.514	6914.24
509.882	6987.46
510.25	7008.47
510.618	7105.42
510.986	7150.17
511.354	7226.77
511.722	7344.28
512.09	7387.22
512.458	7387.9
512.826	7505.18
513.193	7576.82
513.561	7614.79
513.929	7662.02
514.297	7804.39
514.664	7856.59
515.032	7967.77
515.4	8032.18
515.767	8140.2
516.135	8145.17
516.502	8080.99
516.869	8318.95
517.237	8358.49
517.604	8351.49
517.972	8546.74
518.339	8556.23
518.706	8550.58
519.073	8659.05
519.44	8740.41
519.808	8909.67
520.175	8905.6
520.542	9023.56
520.909	9175.2
521.276	9200.28
521.643	9294.97
522.009	9364.12
522.376	9465.13
522.743	9520.95
523.11	9697.44
523.477	9715.75
523.843	9897.21
524.21	10037.77
524.577	10062.4
524.943	10143.98
525.31	10217.43
525.676	10321.61
526.043	10414.49
526.409	10584.65
526.776	10682.73
527.142	10724.31
527.508	10840.92
527.874	10927.69
528.241	11073.23
528.607	11127.91
528.973	11212.43
529.339	11307.12
529.705	11436.61
530.071	11550.73
530.437	11602.7
530.803	11722.02
531.169	11762.02
531.535	11824.39
531.901	11938.74
532.267	12031.17
532.632	12198.85
532.998	12209.24
533.364	12369.91
533.73	12388.9
534.095	12525.84
534.461	12564.71
534.826	12656.69
535.192	12773.97
535.557	12844.25
535.923	12898.04
536.288	13028.65
536.653	13149.33
537.019	13109.56
537.384	13220.06
537.749	13270.46
538.114	13368.31
538.479	13411.02
538.845	13554.97
539.21	13532.37
539.575	13644.91
539.94	13796.32
540.305	13937.33
540.67	13851.01
541.034	14009.65
541.399	14140.72
541.764	14147.95
542.129	14249.64
542.494	14372.8
542.858	14478.79
543.223	14418
543.587	14705.67
543.952	14612.34
544.316	14707.03
544.681	14840.13
545.045	14831.55
545.41	15005.78
545.774	15067.92
546.138	15086.68
546.503	15306.33
546.867	15278.31
547.231	15398.31
547.595	15476.27
547.959	15540.23
548.324	15542.03
548.688	15744.97
549.052	15787.45
549.416	15979.09
549.779	15907.22
550.143	15981.35
550.507	16142.02
550.871	16274.22
551.235	16264.05
551.599	16474.21
551.962	16532.52
552.326	16608
552.689	16692.06
553.053	16655.68
553.417	16842.79
553.78	17069.68
554.143	17050.92
554.507	17226.96
554.87	17178.83
555.234	17374.98
555.597	17344.47
555.96	17499.27
556.323	17634.18
556.686	17685.03
557.05	17877.34
557.413	17951.01
557.776	18040.5
558.139	18117.33
558.502	18312.36
558.865	18310.32
559.228	18536.08
559.59	18543.99
559.953	18690.65
560.316	18938.56
560.679	18800.71
561.041	19149.85
561.404	19170.19
561.767	19374.02
562.129	19304.87
562.492	19503.51
562.854	19555.26
563.217	19574.92
563.579	19701.93
563.941	19912.54
564.304	19936.72
564.666	20137.85
565.028	20222.82
565.39	20265.53
565.753	20488.12
566.115	20526.31
566.477	20748
566.839	20778.51
567.201	20865.96
567.563	20945.51
567.925	21202.22
568.287	21224.37
568.648	21266.18
569.01	21515.21
569.372	21556.57
569.734	21613.97
570.095	21645.83
570.457	21863.45
570.819	21966.27
571.18	21989.55
571.542	22139.83
571.903	22170.79
572.265	22383.21
572.626	22467.28
572.987	22449.2
573.349	22634.5
573.71	22740.94
574.071	22759.25
574.432	22804.89
574.794	23071.1
575.155	23101.84
575.516	23063.19
575.877	23230.65
576.238	23257.09
576.599	23486.91
576.96	23501.83
577.32	23584.76
577.681	23660.92
578.042	23747.02
578.403	23711.76
578.763	23844.87
579.124	23942.49
579.485	24054.58
579.845	24232.65
580.206	24139.32
580.566	24205.54
580.927	24121.7
581.287	24413.67
581.648	24298.19
582.008	24494.57
582.368	24471.97
582.728	24549.93
583.089	24572.31
583.449	24668.35
583.809	24672.64
584.169	24771.85
584.529	24793.54
584.889	24954.67
585.249	24878.74
585.609	24947.44
585.969	24976.14
586.329	25049.58
586.688	25154.89
587.048	25159.18
587.408	25116.7
587.768	25153.08
588.127	25204.38
588.487	25188.33
588.846	25398.27
589.206	25243.02
589.565	25360.53
589.925	25605.95
590.284	25510.59
590.643	25577.93
591.003	25650.24
591.362	25694.31
591.721	25754.87
592.08	25642.33
592.44	25730.24
592.799	25769.56
593.158	25812.27
593.517	25908.99
593.876	25935.21
594.235	25866.28
594.593	26061.08
594.952	26140.63
595.311	26101.08
595.67	26271.7
596.029	26292.49
596.387	26360.51
596.746	26403.9
597.104	26341.52
597.463	26330
597.822	26441.86
598.18	26310.57
598.538	26411.81
598.897	26629.65
599.255	26444.12
599.613	26925.46
599.972	26638.47
600.33	26718.01
600.688	26614.06
601.046	26839.82
601.404	26952.13
601.762	26933.15
602.12	27020.38
602.478	26919.14
602.836	26977.44
603.194	26989.19
603.552	26998
603.91	26960.04
604.268	27128.17
604.625	26999.59
604.983	27393.25
605.341	27128.85
605.698	27411.1
606.056	27343.53
606.413	27403.42
606.771	27525.67
607.128	27627.82
607.485	27574.94
607.843	27455.17
608.2	27625.78
608.557	27816.06
608.914	27696.52
609.272	27864.87
609.629	28048.82
609.986	28071.2
610.343	27827.81
610.7	28216.96
611.057	28218.31
611.414	28233
611.771	28190.06
612.127	28241.14
612.484	28359.1
612.841	28478.42
613.198	28333.34
613.554	28430.51
613.911	28472.32
614.267	28478.42
614.624	28599.54
614.98	28621.92
615.337	28834.57
615.693	28779.65
616.05	28690.39
616.406	28984.17
616.762	28963.6
617.118	28998.86
617.475	28883.15
617.831	28996.14
618.187	29106.88
618.543	29166.08
618.899	29391.84
619.255	29281.56
619.611	29265.29
619.967	29375.57
620.323	29474.78
620.678	29306.19
621.034	29366.76
621.39	29489.24
621.746	29355.23
622.101	29766.75
622.457	29495.11
622.812	29600.87
623.168	29572.4
623.523	29743.02
623.879	29754.77
624.234	29627.09
624.589	29752.73
624.945	29770.59
625.3	29762
625.655	29727.88
626.01	29764.94
626.365	29776.69
626.72	29740.31
627.075	29780.53
627.43	29790.93
627.785	29755.45
628.14	29844.26
628.495	29787.76
628.85	29870.47
629.205	29788.89
629.559	29894.43
629.914	29867.53
630.269	29838.61
630.623	29778.72
630.978	29802
631.332	30006.97
631.687	30038.6
632.041	29861.66
632.396	29982.56
632.75	29893.3
633.104	29797.71
633.459	29813.3
633.813	29777.82
634.167	29734.88
634.521	29769.23
634.875	29822.11
635.229	29845.16
635.583	29649.91
635.937	29647.43
636.291	29686.3
636.645	29717.71
636.999	29679.74
637.352	29627.99
637.706	29616.92
638.06	29736.92
638.413	29567.43
638.767	29621.21
639.121	29669.35
639.474	29392.97
639.828	29542.12
640.181	29577.37
640.534	29526.98
640.888	29474.55
641.241	29475
641.594	29552.29
641.947	29535.79
642.301	29498.05
642.654	29410.6
643.007	29562.91
643.36	29445.4
643.713	29437.94
644.066	29548.67
644.419	29350.49
644.771	29064.17
645.124	29014.67
645.477	28955.47
645.83	28722.48
646.182	28677.06
646.535	28518.64
646.888	28669.6
647.24	28542.37
647.593	28814
647.945	28633.44
648.298	28492.88
648.65	28445.88
649.002	28396.61
649.355	28560.45
649.707	28528.59
650.059	28527
650.411	28905.98
650.763	28904.4
651.115	29403.59
651.467	29193.43
651.819	29278.4
652.171	29149.81
652.523	29166.99
652.875	29183.48
653.227	29090.15
653.578	29232.97
653.93	29247.44
654.282	29103.49
654.633	29035.47
654.985	29114.56
655.337	29137.84
655.688	29160.21
656.039	29245.86
656.391	28970.61
656.742	29113.2
657.094	29020.78
657.445	29098.29
657.796	29115.69
658.147	29206.53
658.498	28976.94
658.849	29218.74
659.2	29138.06
659.551	29006.31
659.902	29074.56
660.253	29001.79
660.604	29123.6
660.955	28843.83
661.306	29129.02
661.656	29124.28
662.007	29110.72
662.358	29048.12
662.708	29060.32
663.059	29074.79
663.409	28855.58
663.76	29123.82
664.11	29185.97
664.461	29124.5
664.811	29233.88
665.161	29162.24
665.511	29162.69
665.862	29150.26
666.212	29186.2
666.562	29231.17
666.912	29279.75
667.262	29181.45
667.612	29141.23
667.962	29220.55
668.312	29156.37
668.662	29289.7
669.011	29080.89
669.361	29210.6
669.711	29018.06
670.06	29133.99
670.41	29064.17
670.76	29000.44
671.109	29166.99
671.459	29088.12
671.808	29067.1
672.157	29076.14
672.507	28971.06
672.856	29063.71
673.205	29044.28
673.554	29148
673.904	29135.8
674.253	29112.98
674.602	29045.63
674.951	28748.24
675.3	28536.5
675.649	29017.84
675.998	29001.34
676.346	29033.43
676.695	29085.18
677.044	28829.37
677.393	29036.37
677.741	28958.41
678.09	28871.4
678.438	28818.97
678.787	29047.22
679.135	29087.89
679.484	28794.79
679.832	28978.97
680.181	28795.92
680.529	28807.45
680.877	28692.2
681.225	28656.04
681.573	28896.94
681.922	28659.88
682.27	28661.46
682.618	28735.13
682.966	28499.66
683.314	28667.79
683.661	28526.1
684.009	28380.79
684.357	28384.18
684.705	28339.21
685.053	28329.72
685.4	28398.42
685.748	28217.86
686.095	28292.89
686.443	28250.63
686.79	28130.63
687.138	28206.79
687.485	28247.24
687.832	28115.72
688.18	28029.84
688.527	27964.99
688.874	28021.93
689.221	28007.7
689.568	27942.84
689.915	27712.56
690.262	27837.3
690.609	27733.13
690.956	27609.51
691.303	27677.99
691.65	27574.71
691.997	27618.78
692.344	27429.41
692.69	27344.21
693.037	27343.98
693.383	27193.03
693.73	27325
694.077	27029.64
694.423	27104.22
694.769	27000.94
695.116	26988.74
695.462	26936.54
695.808	27001.39
696.155	26843.21
696.501	26676.43
696.847	26788.29
697.193	26658.13
697.539	26694.51
697.885	26541.07
698.231	26352.6
698.577	26452.03
698.923	26357.8
699.269	26216.33
699.614	26146.28
699.96	26119.38
700.306	26144.69
700.651	26121.19
700.997	25998.26
701.342	26054.07
701.688	25890.92
702.033	25860.63
702.379	25787.64
702.724	25796.91
703.069	25677.36
703.415	25384.04
703.76	25382.23
704.105	25504.03
704.45	25516.69
704.795	25209.35
705.14	25269.69
705.485	25337.03
705.83	25167.09
706.175	25298.84
706.52	25023.14
706.865	25128.9
707.209	25023.14
707.554	24997.83
707.899	25010.94
708.243	24738.86
708.588	24861.11
708.932	24731.62
709.277	24641.23
709.621	24699.99
709.966	24560.78
710.31	24729.14
710.654	24431.07
710.998	24453.89
711.342	24479.43
711.687	24349.71
712.031	24337.96
712.375	24321.69
712.719	24324.4
713.063	24305.42
713.407	24342.03
713.75	24145.42
714.094	24170.28
714.438	24066.78
714.782	24114.01
715.125	23977.07
715.469	24097.74
715.812	23839.67
716.156	23884.64
716.499	23856.39
716.843	23940.46
717.186	23806
717.53	23824.75
717.873	23777.07
718.216	23835.15
718.559	23653.23
718.902	23431.32
719.246	23600.13
719.589	23499.11
719.932	23502.96
720.275	23496.18
720.617	23426.12
720.96	23445.56
721.303	23369.63
721.646	23418.89
721.989	23326.69
722.331	23424.54
722.674	23301.6
723.016	23294.37
723.359	23287.37
723.701	23300.7
724.044	23137.77
724.386	23080.37
724.729	23131.44
725.071	23135.96
725.413	23143.87
725.755	23066.58
726.097	23034.95
726.439	22924.44
726.782	22957.43
727.124	23017.54
727.465	23013.7
727.807	22896.87
728.149	22846.48
728.491	22842.63
728.833	22824.1
729.175	22756.31
729.516	22807.38
729.858	22747.04
730.199	22789.53
730.541	22743.88
730.882	22700.49
731.224	22813.71
731.565	22698.23
731.906	22769.42
732.248	22733.48
732.589	22663.66
732.93	22553.6
733.271	22587.95
733.612	22535.52
733.953	22642.64
734.294	22515.64
734.635	22517.44
734.976	22498.91
735.317	22447.16
735.658	22503.43
735.999	22454.17
736.339	22401.97
736.68	22555.41
737.021	22444.9
737.361	22243.55
737.702	22436.09
738.042	22355.19
738.383	22368.07
738.723	22410.78
739.063	22345.47
739.404	22342.53
739.744	22115.2
740.084	22216.44
740.424	22248.98
740.764	22171.47
741.104	22313.61
741.444	22204.91
741.784	22157.45
742.124	22186.38
742.464	22119.04
742.804	22185.25
743.143	22060.28
743.483	22078.36
743.823	21926.05
744.162	22038.59
744.502	22084.91
744.841	21991.36
745.181	22108.64
745.52	21979.61
745.86	22049.21
746.199	21901.19
746.538	22023.9
746.877	22025.25
747.216	22008.76
747.556	21871.13
747.895	21897.12
748.234	21867.07
748.573	21818.93
748.911	21810.12
749.25	21915.65
749.589	21674.08
749.928	21778.71
750.267	21742.32
750.605	21743.45
750.944	21745.71
751.283	21651.48
751.621	21687.41
751.96	21593.18
752.298	21620.29
752.636	21622.78
752.975	21606.06
753.313	21454.2
753.651	21648.09
753.989	21462.78
754.327	21454.65
754.666	21395.89
755.004	21484.48
755.342	21538.49
755.679	21403.8
756.017	21333.75
756.355	21418.72
756.693	21165.62
757.031	21310.7
757.368	21264.6
