Data from cardboard_FLMS001491_051.txt Node
Date: Tue Feb 07 11:39:43 GMT 2017
User: dcchb
Spectrometer: FLMS00149
Trigger mode: 0
Integration Time (sec): 2.000000E-2
Scans to average: 10
Electric dark correction enabled: true
Nonlinearity correction enabled: false
Boxcar width: 0
XAxis mode: Wavelengths
Number of Pixels in Spectrum: 2048
>>>>>Begin Spectral Data<<<<<
341.393	-5.32
341.776	-5.32
342.16	-5.32
342.543	-78.77
342.927	-47.36
343.31	-62.27
343.693	-55.04
344.077	-73.57
344.46	-60.46
344.843	-61.82
345.226	-45.78
345.61	-36.51
345.993	-10.52
346.376	-1.26
346.759	5.07
347.142	21.57
347.525	31.96
347.908	75.8
348.291	62.24
348.674	105.86
349.057	104.73
349.44	106.99
349.823	146.54
350.206	147.89
350.588	179.08
350.971	189.7
351.354	220.43
351.737	245.74
352.119	227.66
352.502	268.57
352.884	255.46
353.267	274.44
353.65	300.43
354.032	283.48
354.414	316.25
354.797	312.18
355.179	302.92
355.562	321.9
355.944	309.92
356.326	321.22
356.709	317.38
357.091	307.21
357.473	330.94
357.855	289.81
358.238	330.03
358.62	349.24
359.002	329.81
359.384	332.52
359.766	339.75
360.148	332.07
360.53	332.75
360.912	306.31
361.294	318.06
361.676	311.73
362.057	322.58
362.439	307.89
362.821	313.54
363.203	299.75
363.584	333.65
363.966	307.66
364.348	317.83
364.729	304.95
365.111	322.35
365.493	302.01
365.874	318.06
366.256	288.45
366.637	295.91
367.019	305.85
367.4	292.29
367.781	296.36
368.163	314.21
368.544	296.14
368.925	302.69
369.306	291.62
369.688	303.82
370.069	300.88
370.45	321.9
370.831	293.2
371.212	297.49
371.593	304.5
371.974	298.85
372.355	305.63
372.736	307.89
373.117	306.76
373.498	294.55
373.879	313.31
374.26	300.66
374.641	320.99
375.021	323.48
375.402	308.34
375.783	335.68
376.163	316.02
376.544	320.77
376.925	337.49
377.305	286.65
377.686	315.57
378.066	313.31
378.447	321.45
378.827	315.57
379.208	325.74
379.588	321.22
379.968	309.92
380.349	300.88
380.729	314.67
381.109	335.68
381.489	325.74
381.87	329.81
382.25	338.17
382.63	333.42
383.01	337.49
383.39	319.41
383.77	348.11
384.15	337.94
384.53	330.71
384.91	334.78
385.29	322.8
385.67	322.35
386.049	353.31
386.429	353.76
386.809	341.33
387.189	348.56
387.568	332.07
387.948	344.27
388.328	342.91
388.707	357.6
389.087	344.72
389.466	329.13
389.846	347.21
390.225	347.43
390.605	353.31
390.984	340.43
391.363	353.54
391.743	340.65
392.122	346.53
392.501	358.96
392.881	364.84
393.26	351.5
393.639	358.73
394.018	346.98
394.397	348.11
394.776	362.8
395.155	357.15
395.534	367.77
395.913	387.89
396.292	380.88
396.671	381.33
397.05	367.32
397.429	373.42
397.808	376.81
398.186	376.59
398.565	380.2
398.944	394.44
399.323	379.3
399.701	416.13
400.08	380.65
400.458	373.2
400.837	370.26
401.215	391.28
401.594	391.05
401.972	386.76
402.351	388.11
402.729	382.24
403.107	404.61
403.486	400.31
403.864	393.08
404.242	409.81
404.62	404.83
404.999	422.23
405.377	393.53
405.755	419.3
406.133	400.54
406.511	415.23
406.889	429.92
407.267	449.8
407.645	405.51
408.023	424.27
408.401	435.12
408.779	440.99
409.156	461.33
409.534	437.83
409.912	443.25
410.29	438.73
410.667	438.51
411.045	436.92
411.422	436.02
411.8	435.79
412.178	444.83
412.555	470.82
412.933	464.27
413.31	474.89
413.687	444.38
414.065	478.28
414.442	476.92
414.819	489.13
415.197	495.23
415.574	472.85
415.951	492.52
416.328	476.7
416.705	500.65
417.082	481.67
417.46	495.45
417.837	507.66
418.214	491.84
418.591	482.35
418.967	491.16
419.344	499.97
419.721	509.46
420.098	523.02
420.475	508.33
420.852	542.46
421.228	524.38
421.605	513.76
421.982	522.8
422.358	521.22
422.735	507.43
423.111	510.37
423.488	549.01
423.864	520.76
424.241	539.97
424.617	564.15
424.994	548.56
425.37	551.5
425.746	538.62
426.123	553.53
426.499	587.88
426.875	575.9
427.251	572.06
427.627	589.46
428.003	575.45
428.379	575.68
428.756	564.38
429.132	595.79
429.507	601.21
429.883	618.84
430.259	635.34
430.635	608.44
431.011	621.1
431.387	633.98
431.763	640.31
432.138	635.79
432.514	641.21
432.89	657.03
433.265	649.8
433.641	657.48
434.016	647.09
434.392	648.67
434.767	661.55
435.143	645.73
435.518	688.89
435.894	709.46
436.269	695.67
436.644	702.45
437.02	694.09
437.395	704.26
437.77	698.61
438.145	722.11
438.52	728.44
438.895	749.91
439.271	736.8
439.646	728.22
440.021	759.17
440.395	746.52
440.77	744.49
441.145	741.32
441.52	760.3
441.895	778.84
442.27	751.27
442.645	750.14
443.019	768.89
443.394	765.73
443.769	753.07
444.143	791.04
444.518	793.52
444.892	780.19
445.267	775.67
445.641	815.9
446.016	803.92
446.39	814.09
446.764	837.82
447.139	803.47
447.513	817.03
447.887	814.77
448.262	847.31
448.636	821.09
449.01	833.98
449.384	869
449.758	850.47
450.132	853.41
450.506	852.51
450.88	869
451.254	865.16
451.628	860.64
452.002	867.65
452.376	889.57
452.75	911.49
453.123	907.19
453.497	921.2
453.871	930.92
454.244	930.92
454.618	940.64
454.992	950.36
455.365	932.05
455.739	978.38
456.112	987.64
456.486	978.15
456.859	993.52
457.232	989.23
457.606	1008.43
457.979	1037.36
458.352	1035.1
458.725	1039.85
459.099	1039.62
459.472	1075.32
459.845	1078.04
460.218	1093.86
460.591	1069.9
460.964	1099.96
461.337	1104.48
461.71	1141.76
462.083	1120.52
462.456	1151.03
462.829	1166.62
463.201	1172.95
463.574	1157.36
463.947	1180.86
464.32	1204.36
464.692	1190.12
465.065	1191.25
465.438	1245.49
465.81	1247.52
466.183	1253.85
466.555	1294.3
466.928	1300.18
467.3	1268.77
467.672	1327.07
468.045	1349.89
468.417	1358.26
468.789	1357.8
469.161	1367.97
469.534	1385.6
469.906	1401.19
470.278	1410.91
470.65	1425.6
471.022	1458.59
471.394	1507.86
471.766	1486.61
472.138	1509.89
472.51	1524.35
472.882	1548.76
473.253	1576.55
473.625	1621.3
473.997	1637.57
474.369	1616.1
474.74	1632.6
475.112	1686.16
475.484	1712.14
475.855	1737.23
476.227	1754.18
476.598	1781.75
476.97	1780.84
477.341	1829.66
477.713	1879.6
478.084	1852.71
478.455	1927.28
478.827	1934.29
479.198	1991.46
479.569	2007.05
479.94	2040.72
480.311	2045.02
480.682	2114.17
481.053	2102.42
481.424	2184.22
481.795	2204.56
482.166	2251.57
482.537	2294.5
482.908	2315.97
483.279	2301.73
483.65	2374.05
484.021	2395.29
484.391	2439.13
484.762	2444.78
485.133	2478
485.503	2516.19
485.874	2567.94
486.244	2599.8
486.615	2673.93
486.985	2669.41
487.356	2717.77
487.726	2749.63
488.097	2816.07
488.467	2821.49
488.837	2908.05
489.207	2915.5
489.578	2983.98
489.948	3012
490.318	3035.05
490.688	3047.7
491.058	3096.29
491.428	3150.3
491.798	3160.69
492.168	3254.48
492.538	3262.84
492.908	3312.78
493.278	3336.51
493.648	3314.14
494.017	3420.8
494.387	3453.79
494.757	3482.49
495.126	3503.51
495.496	3538.99
495.866	3582.15
496.235	3624.18
496.605	3610.17
496.974	3673.9
497.344	3706.22
497.713	3701.02
498.082	3783.95
498.452	3826.66
498.821	3839.55
499.19	3891.3
499.559	3912.76
499.928	3943.5
500.298	3975.14
500.667	4018.07
501.036	4040.9
501.405	4117.73
501.774	4127.22
502.143	4173.1
502.512	4200.44
502.88	4251.06
503.249	4249.48
503.618	4305.3
503.987	4291.74
504.356	4345.3
504.724	4414.67
505.093	4441.56
505.462	4411.51
505.83	4470.49
506.199	4519.53
506.567	4569.24
506.936	4609.47
507.304	4693.99
507.672	4716.13
508.041	4783.25
508.409	4835.45
508.777	4804.04
509.145	4923.13
509.514	4910.48
509.882	4938.5
510.25	5024.37
510.618	5040.42
510.986	5051.27
511.354	5146.63
511.722	5181.43
512.09	5239.74
512.458	5258.27
512.826	5271.82
513.193	5350.24
513.561	5429.79
513.929	5450.58
514.297	5515.21
514.664	5535.77
515.032	5571.25
515.4	5613.51
515.767	5648.76
516.135	5730.34
516.502	5754.07
516.869	5829.78
517.237	5878.59
517.604	5894.63
517.972	5981.64
518.339	6061.41
518.706	6006.95
519.073	6080.62
519.44	6155.64
519.808	6239.93
520.175	6267.5
520.542	6371.91
520.909	6385.47
521.276	6417.78
521.643	6538.01
522.009	6576.88
522.376	6657.1
522.743	6679.47
523.11	6810.77
523.477	6868.39
523.843	6885.79
524.21	6986.13
524.577	7050.31
524.943	7102.06
525.31	7165.11
525.676	7257.31
526.043	7294.37
526.409	7352.45
526.776	7421.6
527.142	7555.15
527.508	7545.44
527.874	7653.91
528.241	7711.76
528.607	7748.37
528.973	7902.26
529.339	7877.18
529.705	7981.58
530.071	8045.31
530.437	8078.76
530.803	8241.69
531.169	8221.13
531.535	8252.31
531.901	8282.59
532.267	8387.22
532.632	8474.23
532.998	8550.61
533.364	8597.84
533.73	8622.7
534.095	8725.07
534.461	8759.42
534.826	8843.48
535.192	8893.42
535.557	8951.73
535.923	8972.07
536.288	9060.43
536.653	9103.14
537.019	9091.61
537.384	9193.98
537.749	9249.57
538.114	9269.69
538.479	9413.64
538.845	9446.86
539.21	9403.69
539.575	9531.6
539.94	9512.39
540.305	9647.08
540.67	9586.74
541.034	9767.07
541.399	9729.11
541.764	9831.48
542.129	9854.3
542.494	9945.37
542.858	10080.51
543.223	10095.88
543.587	10132.04
543.952	10160.06
544.316	10265.37
544.681	10237.57
545.045	10342.2
545.41	10359.83
545.774	10430.11
546.138	10579.71
546.503	10568.86
546.867	10553.27
547.231	10723.21
547.595	10724.79
547.959	10858.12
548.324	10795.97
548.688	10850.89
549.052	10950.55
549.416	10924.33
549.779	11068.51
550.143	11100.82
550.507	11172.01
550.871	11226.47
551.235	11283.64
551.599	11394.6
551.962	11430.76
552.326	11463.3
552.689	11611.32
553.053	11573.13
553.417	11615.61
553.78	11772.44
554.143	11766.34
554.507	11870.75
554.87	11852.67
555.234	12162.72
555.597	11986.22
555.96	12139.21
556.323	12224.41
556.686	12219.44
557.05	12422.6
557.413	12383.5
557.776	12535.14
558.139	12490.84
558.502	12676.38
558.865	12649.94
559.228	12772.42
559.59	12852.42
559.953	12878.4
560.316	13068.91
560.679	13089.7
561.041	13173.54
561.404	13145.06
561.767	13444.04
562.129	13334.66
562.492	13509.12
562.854	13556.58
563.217	13647.2
563.579	13698.5
563.941	13762
564.304	13904.14
564.666	13950.47
565.028	14004.25
565.39	14116.79
565.753	14236.79
566.115	14292.6
566.477	14362.66
566.839	14385.26
567.201	14546.16
567.563	14622.77
567.925	14696.89
568.287	14656.89
568.648	14673.61
569.01	14864.34
569.372	14965.81
569.734	14979.59
570.095	15117.67
570.457	15152.02
570.819	15198.8
571.18	15273.6
571.542	15337.55
571.903	15370.32
572.265	15517.2
572.626	15509.97
572.987	15638.56
573.349	15641.04
573.71	15754.49
574.071	15832.45
574.432	15870.87
574.794	15963.29
575.155	16024.99
575.516	16005.78
575.877	16182.05
576.238	16178.66
576.599	16323.51
576.96	16226.79
577.32	16357.86
577.681	16452.55
578.042	16556.27
578.403	16622.49
578.763	16595.37
579.124	16631.07
579.485	16720.79
579.845	16822.03
580.206	16772.54
580.566	16751.07
580.927	16829.71
581.287	17028.35
581.648	16825.42
582.008	17050.05
582.368	17053.89
582.728	17152.64
583.089	17105.19
583.449	17170.49
583.809	17171.17
584.169	17271.96
584.529	17214.56
584.889	17427.89
585.249	17221.57
585.609	17324.62
585.969	17431.96
586.329	17313.32
586.688	17460.88
587.048	17486.42
587.408	17516.7
587.768	17480.54
588.127	17511.05
588.487	17507.44
588.846	17657.94
589.206	17573.87
589.565	17667.2
589.925	17699.29
590.284	17768.45
590.643	17782.68
591.003	17796.24
591.362	17876.24
591.721	17853.19
592.08	17882.57
592.44	17899.06
592.799	17951.72
593.158	17914.88
593.517	17963.69
593.876	18062
594.235	18035.33
594.593	18137.25
594.952	18151.71
595.311	18064.71
595.67	18158.94
596.029	18246.17
596.387	18353.74
596.746	18313.06
597.104	18243.69
597.463	18356.45
597.822	18336.11
598.18	18309.9
598.538	18397.58
598.897	18415.21
599.255	18388.99
599.613	18589.44
599.972	18547.86
600.33	18624.92
600.688	18544.7
601.046	18595.54
601.404	18791.47
601.762	18661.3
602.12	18877.12
602.478	18822.65
602.836	18836.89
603.194	18895.87
603.552	18864.24
603.91	18824.01
604.268	18920.05
604.625	18888.19
604.983	19054.29
605.341	18912.6
605.698	19043.67
606.056	19076.43
606.413	19059.03
606.771	19088.86
607.128	19244.79
607.485	19231.91
607.843	19230.1
608.2	19287.73
608.557	19435.97
608.914	19364.79
609.272	19481.85
609.629	19477.1
609.986	19566.14
610.343	19467.16
610.7	19667.15
611.057	19667.6
611.414	19651.56
611.771	19653.14
612.127	19727.26
612.484	19793.93
612.841	19814.49
613.198	19769.3
613.554	19891.55
613.911	19925.45
614.267	19910.54
614.624	19994.6
614.98	19965.9
615.337	20101.94
615.693	20005.22
616.05	20149.17
616.406	20215.39
616.762	20187.59
617.118	20184.2
617.475	20291.99
617.831	20387.59
618.187	20336.51
618.543	20372.67
618.899	20480.24
619.255	20500.35
619.611	20416.74
619.967	20686.11
620.323	20540.58
620.678	20601.59
621.034	20525.21
621.39	20601.14
621.746	20636.62
622.101	20720.68
622.457	20585.32
622.812	20742.83
623.168	20713.45
623.523	20704.87
623.879	20883.84
624.234	20766.56
624.589	20788.48
624.945	20771.76
625.3	20906.44
625.655	20876.16
626.01	20753.9
626.365	20971.52
626.72	20889.95
627.075	20807.46
627.43	20850.4
627.785	20859.44
628.14	20918.42
628.495	21025.08
628.85	20956.38
629.205	20871.41
629.559	21133.33
629.914	20897.85
630.269	21030.05
630.623	20992.54
630.978	20969.49
631.332	21008.13
631.687	21123.16
632.041	20952.09
632.396	21021.02
632.75	21007.46
633.104	20967.01
633.459	20945.54
633.813	21002.71
634.167	20951.86
634.521	20939.89
634.875	21042.48
635.229	20974.91
635.583	20976.5
635.937	20923.62
636.291	21010.39
636.645	21006.78
636.999	20944.18
637.352	21026.21
637.706	20756.84
638.06	20946.44
638.413	20863.51
638.767	20848.14
639.121	20907.35
639.474	20817.63
639.828	20852.21
640.181	20816.05
640.534	20807.24
640.888	20769.72
641.241	20765.65
641.594	20847.69
641.947	20790.29
642.301	20783.51
642.654	20763.39
643.007	20931.53
643.36	20785.99
643.713	20775.15
644.066	20807.91
644.419	20691.98
644.771	20514.59
645.124	20480.46
645.477	20436.17
645.83	20309.62
646.182	20228.27
646.535	20178.1
646.888	20303.07
647.24	20063.98
647.593	20185.78
647.945	20229.17
648.298	20101.27
648.65	20064.43
649.002	20014.71
649.355	20184.65
649.707	20261.94
650.059	20274.14
650.411	20473.91
650.763	20550.74
651.115	20789.38
651.467	20777.86
651.819	20700.8
652.171	20740.34
652.523	20635.71
652.875	20756.84
653.227	20624.64
653.578	20765.43
653.93	20689.72
654.282	20551.87
654.633	20578.31
654.985	20585.55
655.337	20620.57
655.688	20560.24
656.039	20742.83
656.391	20554.36
656.742	20546.23
657.094	20606.34
657.445	20649.95
657.796	20642.72
658.147	20631.42
658.498	20656.28
658.849	20664.87
659.2	20675.94
659.551	20662.15
659.902	20632.55
660.253	20671.87
660.604	20654.47
660.955	20572.67
661.306	20698.31
661.656	20659.22
662.007	20790.51
662.358	20787.35
662.708	20663.28
663.059	20656.28
663.409	20626
663.76	20744.41
664.11	20759.55
664.461	20876.39
664.811	20709.61
665.161	20669.61
665.511	20633.91
665.862	20749.16
666.212	20717.75
666.562	20807.24
666.912	20714.36
667.262	20790.51
667.612	20774.02
667.962	20606.56
668.312	20633.68
668.662	20803.39
669.011	20756.84
669.361	20686.79
669.711	20697.41
670.06	20588.48
670.41	20770.17
670.76	20731.76
671.109	20729.05
671.459	20703.06
671.808	20609.05
672.157	20855.14
672.507	20679.78
672.856	20647.24
673.205	20668.26
673.554	20760
673.904	20656.05
674.253	20903.28
674.602	20649.05
674.951	20237.31
675.3	20336.51
675.649	20587.35
675.998	20669.84
676.346	20706.45
676.695	20692.21
677.044	20600.46
677.393	20701.7
677.741	20660.57
678.09	20566.11
678.438	20488.6
678.787	20681.14
679.135	20622.16
679.484	20534.02
679.832	20569.05
680.181	20504.19
680.529	20564.3
680.877	20415.61
681.225	20458.54
681.573	20633
681.922	20494.48
682.27	20387.59
682.618	20471.2
682.966	20469.17
683.314	20512.78
683.661	20408.6
684.009	20299.45
684.357	20234.14
684.705	20313.01
685.053	20210.87
685.4	20197.53
685.748	20247.7
686.095	20155.28
686.443	20115.5
686.79	20074.15
687.138	20211.77
687.485	20089.51
687.832	20127.48
688.18	20119.34
688.527	20044.09
688.874	20024.43
689.221	19972.91
689.568	19983.98
689.915	19907.82
690.262	19962.51
690.609	19819.69
690.956	19764.1
691.303	19781.5
691.65	19733.59
691.997	19682.07
692.344	19543.77
692.69	19524.11
693.037	19600.04
693.383	19421.28
693.73	19510.09
694.077	19387.84
694.423	19407.05
694.769	19377.22
695.116	19212.93
695.462	19262.42
695.808	19166.83
696.155	19289.76
696.501	19064.91
696.847	19076.66
697.193	19009.32
697.539	19147.17
697.885	18935.65
698.231	18910.11
698.577	18921.18
698.923	18920.96
699.269	18846.83
699.614	18657.01
699.96	18779.72
700.306	18737.01
700.651	18609.1
700.997	18645.03
701.342	18586.73
701.688	18553.96
702.033	18500.63
702.379	18527.97
702.724	18406.85
703.069	18482.32
703.415	18351.93
703.76	18214.31
704.105	18312.84
704.45	18304.93
704.795	18169.34
705.14	18140.19
705.485	18047.53
705.83	18083.47
706.175	18097.25
706.52	17966.41
706.865	17904.26
707.209	17935.67
707.554	17833.53
707.899	17967.08
708.243	17818.39
708.588	17754.21
708.932	17740.42
709.277	17729.8
709.621	17732.74
709.966	17631.73
710.31	17649.13
710.654	17522.58
710.998	17611.61
711.342	17495.68
711.687	17491.62
712.031	17394.44
712.375	17397.38
712.719	17462.24
713.063	17496.36
713.407	17503.82
713.75	17431.96
714.094	17335.01
714.438	17275.35
714.782	17231.06
715.125	17302.24
715.469	17175.69
715.812	17215.24
716.156	17136.15
716.499	17090.5
716.843	17097.95
717.186	16998.75
717.53	17143.38
717.873	17149.7
718.216	17058.63
718.559	17002.82
718.902	16853.22
719.246	16917.85
719.589	16882.14
719.932	16844.63
720.275	16884.17
720.617	16833.33
720.96	16794.01
721.303	16820.45
721.646	16785.19
721.989	16734.35
722.331	16784.06
722.674	16746.1
723.016	16897.06
723.359	16709.72
723.701	16819.32
724.044	16697.74
724.386	16701.35
724.729	16676.72
725.071	16709.26
725.413	16581.58
725.755	16647.12
726.097	16581.36
726.439	16464.3
726.782	16566.22
727.124	16578.65
727.465	16540.23
727.807	16529.61
728.149	16483.73
728.491	16490.06
728.833	16573.22
729.175	16414.36
729.516	16370.29
729.858	16412.55
730.199	16451.42
730.541	16347.24
730.882	16312.66
731.224	16340.46
731.565	16327.81
731.906	16387.69
732.248	16438.31
732.589	16288.26
732.93	16216.62
733.271	16293.23
733.612	16319.67
733.953	16275.15
734.294	16196.28
734.635	16151.99
734.976	16222.5
735.317	16178.2
735.658	16230.63
735.999	16335.49
736.339	16210.07
736.68	16254.36
737.021	16139.34
737.361	16059.56
737.702	16147.92
738.042	16098.21
738.383	16096.85
738.723	16077.19
739.063	16075.61
739.404	16054.82
739.744	16136.85
740.084	16046
740.424	16018.89
740.764	16004.2
741.104	16022.5
741.444	15996.74
741.784	15906.8
742.124	15968.49
742.464	15985.44
742.804	15974.82
743.143	15977.53
743.483	15971.66
743.823	15913.13
744.162	15857.99
744.502	15883.07
744.841	15858.21
745.181	15942.96
745.52	15929.62
745.86	15942.5
746.199	15876.07
746.538	15857.31
746.877	15934.6
747.216	15907.48
747.556	15858.89
747.895	15788.38
748.234	15728.27
748.573	15782.28
748.911	15785.45
749.25	15779.8
749.589	15795.16
749.928	15809.85
750.267	15742.28
750.605	15735.28
750.944	15697.54
751.283	15629.29
751.621	15831.77
751.96	15703.19
752.298	15637.43
752.636	15568.5
752.975	15596.52
753.313	15463.42
753.651	15721.27
753.989	15711.32
754.327	15609.41
754.666	15512.69
755.004	15629.74
755.342	15612.57
755.679	15481.05
756.017	15451.22
756.355	15476.08
756.693	15356.08
757.031	15410.99
757.368	15343.42
757.706	15363.31
758.044	15295.29
758.381	15383.42
758.719	15389.98
