Data from cardboard_FLMS001491_020.txt Node
Date: Tue Feb 07 11:39:02 GMT 2017
User: dcchb
Spectrometer: FLMS00149
Trigger mode: 0
Integration Time (sec): 2.000000E-2
Scans to average: 10
Electric dark correction enabled: true
Nonlinearity correction enabled: false
Boxcar width: 0
XAxis mode: Wavelengths
Number of Pixels in Spectrum: 2048
>>>>>Begin Spectral Data<<<<<
341.393	-15.38
341.776	-15.38
342.16	-15.38
342.543	-74.36
342.927	-58.32
343.31	-74.59
343.693	-90.18
344.077	-68.49
344.46	-66.68
344.843	-52.44
345.226	-43.4
345.61	-20.8
345.993	-3.18
346.376	8.8
346.759	13.09
347.142	24.62
347.525	24.39
347.908	66.88
348.291	54
348.674	108.01
349.057	119.98
349.44	120.21
349.823	139.64
350.206	168.57
350.588	176.93
350.971	215.57
351.354	241.34
351.737	237.04
352.119	232.07
352.502	254.44
352.884	269.36
353.267	268.91
353.65	291.5
354.032	291.96
354.414	308.45
354.797	307.32
355.179	309.81
355.562	314.55
355.944	319.53
356.326	331.05
356.709	330.15
357.091	335.12
357.473	320.43
357.855	325.85
358.238	332.41
358.62	320.88
359.002	332.18
359.384	329.24
359.766	335.57
360.148	324.72
360.53	334.89
360.912	336.93
361.294	330.82
361.676	334.89
362.057	353.65
362.439	318.85
362.821	315.46
363.203	313.88
363.584	328.56
363.966	322.24
364.348	311.16
364.729	310.26
365.111	323.59
365.493	322.24
365.874	317.72
366.256	319.07
366.637	316.14
367.019	311.62
367.4	334.67
367.781	328.34
368.163	311.84
368.544	294.22
368.925	297.83
369.306	296.7
369.688	313.65
370.069	304.38
370.45	312.97
370.831	309.13
371.212	291.73
371.593	305.74
371.974	290.6
372.355	327.43
372.736	303.03
373.117	293.31
373.498	311.16
373.879	316.81
374.26	305.06
374.641	311.16
375.021	321.79
375.402	327.21
375.783	315.01
376.163	349.58
376.544	323.14
376.925	310.94
377.305	319.98
377.686	308.68
378.066	322.92
378.447	318.17
378.827	327.89
379.208	341.9
379.588	317.94
379.968	331.95
380.349	332.41
380.729	337.83
381.109	326.53
381.489	332.41
381.87	336.93
382.25	343.48
382.63	341.45
383.01	341.9
383.39	345.06
383.77	332.86
384.15	314.55
384.53	347.1
384.91	342.35
385.29	342.35
385.67	329.47
386.049	351.84
386.429	348
386.809	363.59
387.189	326.3
387.568	335.12
387.948	352.97
388.328	366.76
388.707	362.24
389.087	364.04
389.466	353.2
389.846	344.16
390.225	369.47
390.605	348.9
390.984	359.07
391.363	374.44
391.743	355.68
392.122	397.94
392.501	371.05
392.881	376.02
393.26	368.11
393.639	383.25
394.018	364.5
394.397	381.22
394.776	366.98
395.155	364.27
395.534	369.24
395.913	388.22
396.292	398.62
396.671	390.94
397.05	381.22
397.429	388.22
397.808	376.7
398.186	408.34
398.565	385.29
398.944	407.21
399.323	389.81
399.701	395.68
400.08	404.72
400.458	388
400.837	417.6
401.215	406.08
401.594	395.68
401.972	417.38
402.351	396.36
402.729	411.05
403.107	420.99
403.486	418.51
403.864	420.31
404.242	432.29
404.62	430.48
404.999	422.8
405.377	433.87
405.755	456.25
406.133	436.58
406.511	440.43
406.889	445.17
407.267	427.55
407.645	445.4
408.023	443.59
408.401	455.12
408.779	428.22
409.156	437.49
409.534	460.76
409.912	441.33
410.29	465.96
410.667	475
411.045	492.4
411.422	477.49
411.8	478.39
412.178	482.69
412.555	483.36
412.933	484.49
413.31	518.39
413.687	502.12
414.065	484.72
414.442	540.54
414.819	525.62
415.197	521.55
415.574	493.76
415.951	509.58
416.328	523.36
416.705	551.61
417.082	559.29
417.46	538.73
417.837	538.28
418.214	548.9
418.591	566.52
418.967	539.63
419.344	556.58
419.721	568.11
420.098	570.37
420.475	553.19
420.852	540.31
421.228	555
421.605	552.51
421.982	572.17
422.358	581.21
422.735	570.59
423.111	595.9
423.488	597.03
423.864	571.72
424.241	585.28
424.617	610.37
424.994	605.39
425.37	610.82
425.746	606.75
426.123	626.41
426.499	614.88
426.875	630.48
427.251	629.8
427.627	616.24
428.003	648.1
428.379	653.3
428.756	663.02
429.132	653.08
429.507	659.18
429.883	651.72
430.259	692.4
430.635	687.65
431.011	692.17
431.387	712.28
431.763	695.33
432.138	702.79
432.514	720.42
432.89	700.53
433.265	719.06
433.641	737.59
434.016	735.56
434.392	751.15
434.767	738.72
435.143	747.99
435.518	761.55
435.894	777.14
436.269	774.43
436.644	778.04
437.02	788.67
437.395	784.37
437.77	792.96
438.145	812.85
438.52	846.29
438.895	811.49
439.271	828.44
439.646	834.54
440.021	854.43
440.395	839.74
440.77	835.9
441.145	865.05
441.52	878.38
441.895	862.11
442.27	871.83
442.645	885.16
443.019	880.41
443.394	882.22
443.769	880.19
444.143	890.13
444.518	910.7
444.892	896.23
445.267	899.4
445.641	931.26
446.016	937.14
446.39	928.78
446.764	916.35
447.139	937.59
447.513	922.9
447.887	938.94
448.262	951.6
448.636	968.32
449.01	973.29
449.384	961.32
449.758	962.22
450.132	993.18
450.506	974.2
450.88	980.53
451.254	1004.71
451.628	1010.35
452.002	1021.2
452.376	1034.08
452.75	1018.04
453.123	1023.24
453.497	1047.19
453.871	1052.61
454.244	1079.73
454.618	1098.94
454.992	1108.43
455.365	1108.43
455.739	1127.87
456.112	1139.62
456.486	1142.33
456.859	1144.36
457.232	1147.3
457.606	1164.7
457.979	1164.25
458.352	1199.28
458.725	1213.51
459.099	1223.91
459.472	1226.17
459.845	1241.76
460.218	1249.9
460.591	1279.27
460.964	1256.22
461.337	1286.73
461.71	1301.87
462.083	1375.77
462.456	1335.32
462.829	1329.67
463.201	1350.01
463.574	1380.29
463.947	1362.89
464.32	1372.38
464.692	1415.77
465.065	1419.61
465.438	1442.89
465.81	1472.49
466.183	1491.7
466.555	1501.64
466.928	1524.69
467.3	1546.84
467.672	1546.61
468.045	1578.7
468.417	1569.66
468.789	1602.66
469.161	1614.18
469.534	1609.44
469.906	1661.64
470.278	1684.01
470.65	1670.9
471.022	1720.17
471.394	1752.48
471.766	1747.28
472.138	1765.82
472.51	1809.2
472.882	1825.93
473.253	1824.57
473.625	1886.72
473.997	1921.29
474.369	1938.47
474.74	1956.32
475.112	1968.75
475.484	2012.36
475.855	2063.66
476.227	2048.75
476.598	2102.53
476.97	2117.22
477.341	2165.35
477.713	2201.74
478.084	2226.37
478.455	2262.53
478.827	2306.14
479.198	2373.26
479.569	2380.49
479.94	2455.74
480.311	2441.28
480.682	2474.95
481.053	2538.45
481.424	2584.55
481.795	2612.8
482.166	2645.57
482.537	2684.89
482.908	2747.26
483.279	2788.84
483.65	2811.21
484.021	2881.72
484.391	2923.98
484.762	2950.87
485.133	3023.64
485.503	3024.77
485.874	3070.19
486.244	3145.21
486.615	3194.7
486.985	3235.38
487.356	3256.17
487.726	3289.62
488.097	3428.37
488.467	3391.08
488.837	3451.42
489.207	3469.95
489.578	3545.43
489.948	3591.98
490.318	3634.92
490.688	3687.8
491.058	3723.73
491.428	3803.5
491.798	3852.09
492.168	3871.07
492.538	3923.72
492.908	3926.89
493.278	4022.25
493.648	4057.51
494.017	4100.89
494.387	4108.13
494.757	4165.53
495.126	4210.04
495.496	4277.84
495.866	4288.91
496.235	4351.74
496.605	4367.33
496.974	4410.04
497.344	4482.35
497.713	4511.51
498.082	4585.4
498.452	4612.97
498.821	4659.07
499.19	4703.59
499.559	4726.87
499.928	4748.79
500.298	4805.51
500.667	4824.04
501.036	4863.13
501.405	4952.17
501.774	4952.85
502.143	4980.87
502.512	5076.69
502.88	5113.75
503.249	5143.35
503.618	5191.26
503.987	5174.77
504.356	5242.33
504.724	5298.15
505.093	5351.48
505.462	5399.84
505.83	5438.71
506.199	5479.84
506.567	5518.71
506.936	5564.13
507.304	5635.54
507.672	5680.51
508.041	5744.92
508.409	5759.38
508.777	5879.38
509.145	5943.11
509.514	5915.76
509.882	6046.61
510.25	6037.79
510.618	6112.82
510.986	6064.23
511.354	6177
511.722	6256.54
512.09	6282.98
512.458	6316.43
512.826	6420.16
513.193	6456.99
513.561	6510.1
513.929	6597.1
514.297	6635.07
514.664	6731.79
515.032	6775.4
515.4	6834.61
515.767	6824.89
516.135	6913.48
516.502	6907.15
516.869	7060.82
517.237	7121.15
517.604	7105.11
517.972	7219.01
518.339	7280.7
518.706	7244.32
519.073	7375.84
519.44	7472.56
519.808	7539.9
520.175	7586
520.542	7691.99
520.909	7745.54
521.276	7788.93
521.643	7839.78
522.009	7976.73
522.376	8090.39
522.743	8032.77
523.11	8175.14
523.477	8253.33
523.843	8362.03
524.21	8439.99
524.577	8456.26
524.943	8583.04
525.31	8666.88
525.676	8749.36
526.043	8879.07
526.409	8880.88
526.776	8966.76
527.142	9085.17
527.508	9129.69
527.874	9223.02
528.241	9298.05
528.607	9347.99
528.973	9407.87
529.339	9475.22
529.705	9633.4
530.071	9662.56
530.437	9719.73
530.803	9834.08
531.169	9928.09
531.535	10036.33
531.901	10001.53
532.267	10044.69
532.632	10138.25
532.998	10233.16
533.364	10324.46
533.73	10325.59
534.095	10488.07
534.461	10474.29
534.826	10603.77
535.192	10701.85
535.557	10823.66
535.923	10804.9
536.288	10893.48
536.653	10895.74
537.019	10941.85
537.384	11067.49
537.749	11132.35
538.114	11193.36
538.479	11225.68
538.845	11289.41
539.21	11328.05
539.575	11402.17
539.94	11492.11
540.305	11536.18
540.67	11667.48
541.034	11686.46
541.399	11804.65
541.764	11839.67
542.129	11895.49
542.494	11933.68
542.858	11951.31
543.223	12054.13
543.587	12095.71
543.952	12159.44
544.316	12263.39
544.681	12337.29
545.045	12396.72
545.41	12409.38
545.774	12573.67
546.138	12572.31
546.503	12643.04
546.867	12701.12
547.231	12765.98
547.595	12823.6
547.959	12937.5
548.324	12974.11
548.688	13009.59
549.052	13099.08
549.416	13141.56
549.779	13135.23
550.143	13271.5
550.507	13409.8
550.871	13452.97
551.235	13525.28
551.599	13620.87
551.962	13619.97
552.326	13649.12
552.689	13747.42
553.053	13800.53
553.417	13913.07
553.78	14004.82
554.143	14090.91
554.507	14184.7
554.87	14221.76
555.234	14477.8
555.597	14424.92
555.96	14465.82
556.323	14493.62
556.686	14591.69
557.05	14639.6
557.413	14764.8
557.776	14836.88
558.139	14945.13
558.502	14941.97
558.865	15061.96
559.228	15233.94
559.59	15315.52
559.953	15314.84
560.316	15522.97
560.679	15583.08
561.041	15668.27
561.404	15765.67
561.767	15872.11
562.129	15835.05
562.492	16090.18
562.854	16059.9
563.217	16124.99
563.579	16210.18
563.941	16315.26
564.304	16490.17
564.666	16563.84
565.028	16604.75
565.39	16710.28
565.753	16840.22
566.115	16934.46
566.477	17098.52
566.839	17056.94
567.201	17231.85
567.563	17237.5
567.925	17444.05
568.287	17434.56
568.648	17558.17
569.01	17700.54
569.372	17792.74
569.734	17715.68
570.095	17871.38
570.457	17891.27
570.819	17975.56
571.18	18130.58
571.542	18276.12
571.903	18220.3
572.265	18311.14
572.626	18444.25
572.987	18469.1
573.349	18656.44
573.71	18686.95
574.071	18711.36
574.432	18790.68
574.794	19009.2
575.155	18977.79
575.516	18978.92
575.877	19073.38
576.238	19155.19
576.599	19223.89
576.96	19231.57
577.32	19332.81
577.681	19456.2
578.042	19520.6
578.403	19604.67
578.763	19620.49
579.124	19739.13
579.485	19841.27
579.845	19828.17
580.206	19847.15
580.566	19998.78
580.927	19926.69
581.287	20091.89
581.648	20039.01
582.008	20162.85
582.368	20214.37
582.728	20252.79
583.089	20279.68
583.449	20275.16
583.809	20386.12
584.169	20419.79
584.529	20415.95
584.889	20588.6
585.249	20455.27
585.609	20455.27
585.969	20701.36
586.329	20563.51
586.688	20600.12
587.048	20589.28
587.408	20620.01
587.768	20670.18
588.127	20720.12
588.487	20741.14
588.846	20938.42
589.206	20831.08
589.565	20903.17
589.925	21050.73
590.284	20939.32
590.643	20967.34
591.003	21118.53
591.362	21146.55
591.721	20976.84
592.08	21105.19
592.44	21206.21
592.799	21275.58
593.158	21226.09
593.517	21184.74
593.876	21364.85
594.235	21391.97
594.593	21347.67
594.952	21433.77
595.311	21351.51
595.67	21480.78
596.029	21645.52
596.387	21578.4
596.746	21698.85
597.104	21651.39
597.463	21702.01
597.822	21674.9
598.18	21793.31
598.538	21774.55
598.897	21917.83
599.255	21729.58
599.613	22003.7
599.972	21916.7
600.33	21993.76
600.688	21796.7
601.046	22172.51
601.404	22183.81
601.762	22061.33
602.12	22223.36
602.478	22237.14
602.836	22168.89
603.194	22188.33
603.552	22326.18
603.91	22116.01
604.268	22297.03
604.625	22330.25
604.983	22385.61
605.341	22275.11
605.698	22498.6
606.056	22505.83
606.413	22534.08
606.771	22703.57
607.128	22668.99
607.485	22536.12
607.843	22639.39
608.2	22793.96
608.557	22851.14
608.914	22771.59
609.272	22947.18
609.629	22919.61
609.986	23062.43
610.343	22966.84
610.7	23090.23
611.057	23136.1
611.414	23035.99
611.771	23168.42
612.127	23330.9
612.484	23216.32
612.841	23366.6
613.198	23243.22
613.554	23411.35
613.911	23478.46
614.267	23431.01
614.624	23413.16
614.98	23502.87
615.337	23706.03
615.693	23626.26
616.05	23625.13
616.406	23820.15
616.762	23725.92
617.118	23725.24
617.475	23808.17
617.831	23811.79
618.187	23921.62
618.543	23904.89
618.899	24065.57
619.255	23988.28
619.611	24108.96
619.967	24132.01
620.323	24287.48
620.678	24087.04
621.034	24102.18
621.39	24211.33
621.746	24157.54
622.101	24449.51
622.457	24210.2
622.812	24291.55
623.168	24332
623.523	24467.59
623.879	24491.55
624.234	24348.27
624.589	24483.86
624.945	24385.79
625.3	24521.83
625.655	24472.34
626.01	24524.99
626.365	24514.37
626.72	24459
627.075	24509.62
627.43	24593.69
627.785	24454.71
628.14	24607.93
628.495	24542.62
628.85	24489.96
629.205	24551.2
629.559	24618.77
629.914	24497.42
630.269	24571.09
630.623	24477.08
630.978	24572.67
631.332	24726.12
631.687	24658.77
632.041	24445.22
632.396	24600.24
632.75	24629.17
633.104	24683.86
633.459	24576.06
633.813	24594.37
634.167	24524.99
634.521	24521.38
634.875	24456.52
635.229	24404.32
635.583	24527.25
635.937	24476.63
636.291	24400.47
636.645	24490.42
636.999	24367.71
637.352	24435.05
637.706	24303.53
638.06	24444.77
638.413	24516.4
638.767	24328.84
639.121	24389.18
639.474	24267.14
639.828	24353.47
640.181	24381.27
640.534	24388.05
640.888	24334.04
641.241	24322.96
641.594	24297.88
641.947	24330.19
642.301	24241.38
642.654	24276.64
643.007	24422.62
643.36	24335.84
643.713	24148.5
644.066	24388.95
644.419	24210.87
644.771	24168.16
645.124	23880.94
645.477	23767.04
645.83	23642.75
646.182	23627.61
646.535	23594.17
646.888	23544.45
647.24	23593.49
647.593	23566.37
647.945	23599.82
648.298	23481.85
648.65	23439.6
649.002	23395.3
649.355	23499.48
649.707	23518.01
650.059	23650.44
650.411	24014.5
650.763	23880.49
651.115	24116.19
651.467	23988.06
651.819	24107.83
652.171	24077.09
652.523	23987.15
652.875	23916.87
653.227	23984.67
653.578	24083.42
653.93	24108.28
654.282	23936.08
654.633	23904.89
654.985	23908.96
655.337	23986.25
655.688	24026.02
656.039	24066.47
656.391	23872.35
656.742	24071.67
657.094	23971.56
657.445	24094.72
657.796	24045
658.147	24006.59
658.498	24038.45
658.849	23991.67
659.2	24011.56
659.551	23870.77
659.902	24001.61
660.253	23992.35
660.604	24022.41
660.955	23918.45
661.306	24039.35
661.656	24024.21
662.007	24012.46
662.358	23992.8
662.708	24016.76
663.059	24086.81
663.409	23887.49
663.76	24109.63
664.11	24118
664.461	24139.69
664.811	24188.5
665.161	24153.7
665.511	24057.43
665.862	24150.31
666.212	24205.45
666.562	24252.23
666.912	24138.33
667.262	24241.83
667.612	24177.2
667.962	24045
668.312	24111.44
668.662	24211.55
669.011	24139.69
669.361	24084.1
669.711	24094.95
670.06	24058.79
670.41	24105.11
670.76	23993.03
671.109	24106.24
671.459	24084.78
671.808	24070.54
672.157	24006.81
672.507	24005.23
672.856	23989.19
673.205	24113.02
673.554	24191.44
673.904	24079.35
674.253	24243.64
674.602	24146.24
674.951	23799.59
675.3	23769.53
675.649	24114.15
675.998	24021.5
676.346	24044.33
676.695	24197.32
677.044	23897.21
677.393	24066.02
677.741	24060.6
678.09	24068.96
678.438	23973.59
678.787	24082.74
679.135	23995.97
679.484	23790.55
679.832	23925.01
680.181	23904.22
680.529	23854.05
680.877	23899.7
681.225	23863.54
681.573	23983.99
681.922	23877.1
682.27	23687.27
682.618	23851.79
682.966	23725.24
683.314	23862.18
683.661	23664.67
684.009	23552.59
684.357	23544.9
684.705	23520.95
685.053	23588.74
685.4	23632.81
685.748	23397.56
686.095	23423.1
686.443	23411.12
686.79	23329.54
687.138	23250.22
687.485	23389.43
687.832	23266.49
688.18	23356.66
688.527	23294.06
688.874	23177
689.221	23238.7
689.568	23153.05
689.915	23125.03
690.262	23089.55
690.609	23093.84
690.956	23066.27
691.303	23011.58
691.65	22843.9
691.997	22940.17
692.344	22753.06
692.69	22701.54
693.037	22727.07
693.383	22435.33
693.73	22554.87
694.077	22497.93
694.423	22538.6
694.769	22450.02
695.116	22476.91
695.462	22379.96
695.808	22315.33
696.155	22323.24
696.501	22179.06
696.847	22259.51
697.193	22064.72
697.539	22173.64
697.885	21960.76
698.231	21865.85
698.577	21993.31
698.923	21873.31
699.269	21758.74
699.614	21759.64
699.96	21713.54
700.306	21707.21
700.651	21603.03
700.997	21615.46
701.342	21603.03
701.688	21611.4
702.033	21541.57
702.379	21418.86
702.724	21405.52
703.069	21384.06
703.415	21099.77
703.76	21196.94
704.105	21190.84
704.45	21194
704.795	21029.72
705.14	21009.83
705.485	21034.24
705.83	20876.5
706.175	20867.01
706.52	20855.48
706.865	20802.83
707.209	20849.38
707.554	20651.65
707.899	20784.75
708.243	20675.6
708.588	20565.09
708.932	20509.28
709.277	20509.28
709.621	20632.21
709.966	20484.87
710.31	20512.89
710.654	20254.37
710.998	20250.53
711.342	20312.22
711.687	20296.4
712.031	20290.98
712.375	20202.17
712.719	20164.43
713.063	20174.37
713.407	20270.41
713.75	20093.24
714.094	20079.01
714.438	20047.59
714.782	20163.3
715.125	19903.87
715.469	20045.33
715.812	19885.11
716.156	19988.16
716.499	19923.08
716.843	19874.04
717.186	19819.58
717.53	19880.37
717.873	19820.71
718.216	19670.66
718.559	19644.67
718.902	19549.98
719.246	19613.26
719.589	19547.49
719.932	19493.71
720.275	19569.87
720.617	19520.6
720.96	19435.63
721.303	19466.14
721.646	19545.91
721.989	19360.15
722.331	19476.31
722.674	19395.18
723.016	19487.16
723.359	19301.63
723.701	19363.09
724.044	19302.53
724.386	19261.4
724.729	19276.09
725.071	19231.57
725.413	19262.08
725.755	19249.2
726.097	19209.88
726.439	19051.46
726.782	19107.96
727.124	19148.18
727.465	19005.14
727.807	19002.65
728.149	19044.46
728.491	18968.53
728.833	19075.19
729.175	19004.46
729.516	18960.62
729.858	18958.58
730.199	19011.01
730.541	18890.11
730.882	18881.75
731.224	18970.11
731.565	18851.47
731.906	18891.01
732.248	18925.14
732.589	18820.51
732.93	18753.84
733.271	18796.33
733.612	18850.79
733.953	18790.68
734.294	18730.79
734.635	18734.41
734.976	18706.39
735.317	18686.27
735.658	18724.47
735.999	18651.92
736.339	18665.71
736.68	18701.87
737.021	18618.25
737.361	18641.98
737.702	18590.23
738.042	18580.06
738.383	18549.78
738.723	18557.69
739.063	18553.62
739.404	18653.05
739.744	18585.71
740.084	18545.49
740.424	18600.17
740.764	18530.8
741.104	18568.76
741.444	18482.66
741.784	18482.89
742.124	18425.72
742.464	18453.29
742.804	18437.47
743.143	18429.11
743.483	18380.52
743.823	18334.42
744.162	18379.39
744.502	18357.92
744.841	18281.54
745.181	18435.89
745.52	18311.37
745.86	18382.1
746.199	18297.58
746.538	18325.83
746.877	18365.6
747.216	18273.63
747.556	18245.61
747.895	18273.18
748.234	18243.57
748.573	18156.8
748.911	18259.17
749.25	18267.75
749.589	18265.27
749.928	18185.5
750.267	18169
750.605	18160.41
750.944	18129.9
751.283	18063.92
751.621	18062.11
751.96	18151.15
752.298	18156.57
752.636	18105.5
752.975	17921.1
753.313	17952.06
753.651	18110.02
753.989	17891.72
754.327	17917.25
754.666	17929.23
755.004	17891.04
755.342	17917.71
755.679	17881.1
756.017	17867.54
756.355	17878.16
756.693	17828.67
757.031	17893.98
757.368	17769.69
757.706	17746.41
758.044	17688.33
