Data from cardboard_FLMS001491_019.txt Node
Date: Tue Feb 07 11:39:02 GMT 2017
User: dcchb
Spectrometer: FLMS00149
Trigger mode: 0
Integration Time (sec): 2.000000E-2
Scans to average: 10
Electric dark correction enabled: true
Nonlinearity correction enabled: false
Boxcar width: 0
XAxis mode: Wavelengths
Number of Pixels in Spectrum: 2048
>>>>>Begin Spectral Data<<<<<
341.393	-8.8
341.776	-8.8
342.16	-8.8
342.543	-63.26
342.927	-58.52
343.31	-77.27
343.693	-51.96
344.077	-55.35
344.46	-68.68
344.843	-58.52
345.226	-55.35
345.61	-39.31
345.993	-40.89
346.376	1.14
346.759	11.77
347.142	34.14
347.525	41.37
347.908	57.87
348.291	64.87
348.674	110.07
349.057	126.11
349.44	126.11
349.823	146
350.206	140.35
350.588	192.78
350.971	217.86
351.354	207.92
351.737	227.58
352.119	236.17
352.502	250.63
352.884	267.8
353.267	255.37
353.65	298.09
354.032	288.59
354.414	298.09
354.797	301.7
355.179	329.72
355.562	325.2
355.944	299.44
356.326	344.19
356.709	314.81
357.091	327.01
357.473	330.63
357.855	318.2
358.238	311.87
358.62	339.89
359.002	343.96
359.384	344.19
359.766	327.24
360.148	346.9
360.53	341.7
360.912	344.86
361.294	334.69
361.676	338.54
362.057	343.73
362.439	322.49
362.821	327.24
363.203	319.33
363.584	336.05
363.966	319.33
364.348	303.06
364.729	337.41
365.111	318.42
365.493	322.94
365.874	324.3
366.256	327.24
366.637	311.42
367.019	301.02
367.4	311.19
367.781	304.19
368.163	301.25
368.544	307.35
368.925	314.13
369.306	325.66
369.688	314.36
370.069	275.94
370.45	308.71
370.831	305.77
371.212	317.07
371.593	306.67
371.974	308.48
372.355	296.05
372.736	325.2
373.117	309.84
373.498	325.2
373.879	324.75
374.26	298.09
374.641	305.09
375.021	326.33
375.402	325.88
375.783	324.53
376.163	300.8
376.544	302.83
376.925	306.9
377.305	311.19
377.686	327.46
378.066	316.84
378.447	348.48
378.827	318.65
379.208	324.3
379.588	343.73
379.968	317.29
380.349	321.14
380.729	322.27
381.109	321.59
381.489	309.84
381.87	331.76
382.25	334.69
382.63	327.01
383.01	339.89
383.39	349.84
383.77	337.63
384.15	337.41
384.53	362.94
384.91	347.8
385.29	351.42
385.67	353.23
386.049	352.1
386.429	346.45
386.809	365.2
387.189	344.41
387.568	334.47
387.948	371.08
388.328	369.04
388.707	357.74
389.087	349.84
389.466	364.75
389.846	347.8
390.225	363.62
390.605	381.7
390.984	363.62
391.363	369.95
391.743	367.91
392.122	342.6
392.501	356.16
392.881	362.26
393.26	370.17
393.639	370.4
394.018	379.21
394.397	388.7
394.776	375.37
395.155	398.65
395.534	399.33
395.913	369.27
396.292	392.55
396.671	383.28
397.05	392.32
397.429	384.41
397.808	390.51
398.186	391.19
398.565	385.09
398.944	385.09
399.323	400.23
399.701	411.98
400.08	410.85
400.458	398.65
400.837	421.7
401.215	422.15
401.594	389.83
401.972	405.88
402.351	418.08
402.729	413.79
403.107	415.14
403.486	416.95
403.864	436.61
404.242	432.09
404.62	434.8
404.999	433.45
405.377	431.42
405.755	459.89
406.133	406.56
406.511	444.75
406.889	435.26
407.267	438.65
407.645	455.82
408.023	427.12
408.401	462.15
408.779	465.99
409.156	441.58
409.534	449.95
409.912	456.5
410.29	474.35
410.667	475.71
411.045	487.91
411.422	483.17
411.8	465.99
412.178	493.11
412.555	506.67
412.933	488.14
413.31	510.06
413.687	521.13
414.065	493.11
414.442	510.28
414.819	512.09
415.197	535.59
415.574	513.67
415.951	527.46
416.328	548.47
416.705	528.14
417.082	527.46
417.46	535.37
417.837	538.53
418.214	538.98
418.591	531.53
418.967	535.37
419.344	544.63
419.721	566.78
420.098	537.4
420.475	567.68
420.852	565.2
421.228	574.69
421.605	555.03
421.982	558.42
422.358	570.17
422.735	572.65
423.111	591.41
423.488	600
423.864	583.95
424.241	588.25
424.617	601.13
424.994	599.55
425.37	594.12
425.746	574.24
426.123	611.75
426.499	633.67
426.875	617.85
427.251	648.36
427.627	641.81
428.003	640.68
428.379	650.84
428.756	659.21
429.132	653.56
429.507	671.63
429.883	684.97
430.259	697.62
430.635	672.76
431.011	687.23
431.387	661.01
431.763	683.16
432.138	706.21
432.514	698.07
432.89	698.75
433.265	725.87
433.641	729.26
434.016	739.88
434.392	725.64
434.767	741.24
435.143	757.51
435.518	770.84
435.894	778.98
436.269	764.74
436.644	779.65
437.02	794.12
437.395	788.24
437.77	788.47
438.145	818.3
438.52	811.74
438.895	796.83
439.271	813.33
439.646	837.28
440.021	846.32
440.395	855.81
440.77	863.95
441.145	836.15
441.52	869.6
441.895	845.87
442.27	875.7
442.645	865.53
443.019	883.61
443.394	883.83
443.769	887.45
444.143	885.41
444.518	907.33
444.892	889.48
445.267	909.82
445.641	915.47
446.016	913.44
446.39	929.26
446.764	919.09
447.139	931.52
447.513	933.55
447.887	922.02
448.262	942.36
448.636	949.37
449.01	966.09
449.384	976.71
449.758	958.63
450.132	988.69
450.506	977.62
450.88	1023.49
451.254	990.72
451.628	1021.23
452.002	1024.17
452.376	1024.39
452.75	1018.97
453.123	1049.93
453.497	1037.5
453.871	1050.61
454.244	1069.59
454.618	1073.21
454.992	1103.94
455.365	1124.28
455.739	1127.22
456.112	1134
456.486	1132.87
456.859	1148.23
457.232	1161.11
457.606	1166.31
457.979	1154.79
458.352	1204.28
458.725	1216.93
459.099	1207.67
459.472	1235.24
459.845	1252.86
460.218	1265.97
460.591	1248.79
460.964	1266.65
461.337	1300.54
461.71	1324.95
462.083	1329.02
462.456	1330.6
462.829	1325.4
463.201	1310.94
463.574	1348
463.947	1413.76
464.32	1425.51
464.692	1407.21
465.065	1428.23
465.438	1426.64
465.81	1454.21
466.183	1475.68
466.555	1524.49
466.928	1517.04
467.3	1536.47
467.672	1536.24
468.045	1572.4
468.417	1578.96
468.789	1592.06
469.161	1586.41
469.534	1625.73
469.906	1662.34
470.278	1655.79
470.65	1705.28
471.022	1725.84
471.394	1745.28
471.766	1766.3
472.138	1777.14
472.51	1793.87
472.882	1844.71
473.253	1863.24
473.625	1905.05
473.997	1899.4
474.369	1933.3
474.74	1947.99
475.112	2012.84
475.484	2032.5
475.855	2039.96
476.227	2046.51
476.598	2124.03
476.97	2168.54
477.341	2192.27
477.713	2200.63
478.084	2214.19
478.455	2273.85
478.827	2307.98
479.198	2378.26
479.569	2321.54
479.94	2422.32
480.311	2451.02
480.682	2479.04
481.053	2556.33
481.424	2576.67
481.795	2624.35
482.166	2618.93
482.537	2693.05
482.908	2754.52
483.279	2776.21
483.65	2810.34
484.021	2869.09
484.391	2906.6
484.762	2946.38
485.133	2965.81
485.503	3032.25
485.874	3091.91
486.244	3150.44
486.615	3189.53
486.985	3165.13
487.356	3286.93
487.726	3274.05
488.097	3358.34
488.467	3369.64
488.837	3446.7
489.207	3481.5
489.578	3573.48
489.948	3611.67
490.318	3632.91
490.688	3702.52
491.058	3736.19
491.428	3786.36
491.798	3806.92
492.168	3893.7
492.538	3923.98
492.908	3980.7
493.278	4025.9
493.648	4067.03
494.017	4097.31
494.387	4177.98
494.757	4162.39
495.126	4219.79
495.496	4269.05
495.866	4295.27
496.235	4356.06
496.605	4406
496.974	4434.47
497.344	4461.82
497.713	4506.79
498.082	4569.61
498.452	4628.37
498.821	4690.51
499.19	4668.82
499.559	4703.62
499.928	4767.57
500.298	4836.05
500.667	4886.21
501.036	4885.76
501.405	4919.21
501.774	4943.16
502.143	5046.44
502.512	5048.92
502.88	5077.62
503.249	5139.99
503.618	5156.94
503.987	5225.87
504.356	5249.59
504.724	5335.69
505.093	5322.13
505.462	5372.75
505.83	5415.69
506.199	5545.86
506.567	5561
506.936	5521.22
507.304	5630.15
507.672	5688
508.041	5751.73
508.409	5817.49
508.777	5824.27
509.145	5871.95
509.514	5908.33
509.882	5989.69
510.25	6051.38
510.618	6126.18
510.986	6125.5
511.354	6169.12
511.722	6280.3
512.09	6294.31
512.458	6300.41
512.826	6388.09
513.193	6482.78
513.561	6499.73
513.929	6543.8
514.297	6622.44
514.664	6682.78
515.032	6739.27
515.4	6763.68
515.767	6842.55
516.135	6913.96
516.502	6942.2
516.869	7070.56
517.237	7089.77
517.604	7070.34
517.972	7244.8
518.339	7242.54
518.706	7328.86
519.073	7366.15
519.44	7467.39
519.808	7528.18
520.175	7607.95
520.542	7696.53
520.909	7711.9
521.276	7784.89
521.643	7817.44
522.009	7932.91
522.376	8065.11
522.743	8108.05
523.11	8184.21
523.477	8263.75
523.843	8361.83
524.21	8433.69
524.577	8508.49
524.943	8574.7
525.31	8655.38
525.676	8806.11
526.043	8821.03
526.409	8880.91
526.776	8986.67
527.142	9051.08
527.508	9142.82
527.874	9250.17
528.241	9339.66
528.607	9382.59
528.973	9457.39
529.339	9415.81
529.705	9614.22
530.071	9614.9
530.437	9790.27
530.803	9792.98
531.169	9917.72
531.535	9926.53
531.901	10027.32
532.267	10083.59
532.632	10158.39
532.998	10295.56
533.364	10299.4
533.73	10399.74
534.095	10519.74
534.461	10509.79
534.826	10616.23
535.192	10700.98
535.557	10775.32
535.923	10762.44
536.288	10860.75
536.653	10913.17
537.019	10925.83
537.384	11025.26
537.749	11061.42
538.114	11182.54
538.479	11230.91
538.845	11286.5
539.21	11234.75
539.575	11375.53
539.94	11499.37
540.305	11633.38
540.67	11662.76
541.034	11678.35
541.399	11795.86
541.764	11809.65
542.129	11893.71
542.494	11945.46
542.858	11984.11
543.223	12043.77
543.587	12108.62
543.952	12208.96
544.316	12274.04
544.681	12209.18
545.045	12423.64
545.41	12465.45
545.774	12553.13
546.138	12587.93
546.503	12646.69
546.867	12669.74
547.231	12821.82
547.595	12854.14
547.959	12942.72
548.324	12937.3
548.688	12961.48
549.052	13060.69
549.416	13141.82
549.779	13198.09
550.143	13228.14
550.507	13388.81
550.871	13422.26
551.235	13409.61
551.599	13580.9
551.962	13675.13
552.326	13737.51
552.689	13809.82
553.053	13795.13
553.417	13898.86
553.78	14026.99
554.143	14072.41
554.507	14224.5
554.87	14220.88
555.234	14428.11
555.597	14393.99
555.96	14460.42
556.323	14592.17
556.686	14493.19
557.05	14736.58
557.413	14772.06
557.776	14905.84
558.139	14993.97
558.502	14991.71
558.865	15068.77
559.228	15158.49
559.59	15275.32
559.953	15334.3
560.316	15517.35
560.679	15569.77
561.041	15715.76
561.404	15818.58
561.767	15916.43
562.129	15814.74
562.492	16044.79
562.854	16126.82
563.217	16114.17
563.579	16369.98
563.941	16271.9
564.304	16397.55
564.666	16588.96
565.028	16626.24
565.39	16770.87
565.753	16871.66
566.115	16999.79
566.477	16974.26
566.839	17143.97
567.201	17206.12
567.563	17352.78
567.925	17380.35
568.287	17392.78
568.648	17545.77
569.01	17637.29
569.372	17763.16
569.734	17734.46
570.095	17861.01
570.457	17973.78
570.819	18041.12
571.18	18028.92
571.542	18126.09
571.903	18246.99
572.265	18315.69
572.626	18455.57
572.987	18490.6
573.349	18589.13
573.71	18651.28
574.071	18832.97
574.432	18811.95
574.794	18973.98
575.155	18968.55
575.516	19020.53
575.877	19090.81
576.238	19198.38
576.599	19313.18
576.96	19209
577.32	19338.26
577.681	19398.83
578.042	19501.65
578.403	19619.16
578.763	19607.63
579.124	19685.37
579.485	19758.36
579.845	19893.28
580.206	19930.79
580.566	19928.3
580.927	20025.02
581.287	20040.84
581.648	20056.21
582.008	20153.61
582.368	20193.61
582.728	20248.75
583.089	20280.38
583.449	20293.27
583.809	20290.1
584.169	20321.29
584.529	20413.49
584.889	20568.51
585.249	20427.95
585.609	20492.58
585.969	20553.6
586.329	20559.47
586.688	20730.99
587.048	20660.71
587.408	20599.92
587.768	20769.41
588.127	20698
588.487	20671.79
588.846	21001.04
589.206	20785.91
589.565	20800.15
589.925	20959.01
590.284	20926.24
590.643	21062.29
591.003	21173.24
591.362	21152.45
591.721	21110.87
592.08	21133.47
592.44	21285.56
592.799	21204.2
593.158	21269.29
593.517	21244.88
593.876	21354.25
594.235	21375.95
594.593	21342.73
594.952	21467.25
595.311	21397.87
595.67	21495.72
596.029	21639.22
596.387	21701.36
596.746	21707.47
597.104	21675.83
597.463	21651.65
597.822	21775.49
598.18	21591.31
598.538	21765.09
598.897	21860.91
599.255	21747.69
599.613	22020.23
599.972	21950.4
600.33	22001.7
600.688	21888.25
601.046	22102.48
601.404	22140.67
601.762	22027.23
602.12	22207.11
602.478	22353.78
602.836	22299.31
603.194	22213.22
603.552	22275.13
603.91	22135.48
604.268	22364.17
604.625	22259.77
604.983	22295.7
605.341	22314.68
605.698	22454.11
606.056	22575.01
606.413	22476.03
606.771	22594
607.128	22629.25
607.485	22601.45
607.843	22636.03
608.2	22813.2
608.557	22892.29
608.914	22826.08
609.272	22978.39
609.629	23036.24
609.986	22977.94
610.343	23000.54
610.7	23201.89
611.057	23100.88
611.414	23046.41
611.771	23210.25
612.127	23249.8
612.484	23327.08
612.841	23416.8
613.198	23331.83
613.554	23258.39
613.911	23549.9
614.267	23443.24
614.624	23505.84
614.98	23567.08
615.337	23656.79
615.693	23698.15
616.05	23662.89
616.406	23713.29
616.762	23719.62
617.118	23694.76
617.475	23792.83
617.831	23891.59
618.187	23894.75
618.543	23930.68
618.899	24042.09
619.255	23948.76
619.611	24068.53
619.967	24080.74
620.323	24159.6
620.678	24058.82
621.034	24163.45
621.39	24151.92
621.746	24083
622.101	24423.78
622.457	24229.89
622.812	24368.86
623.168	24342.42
623.523	24460.84
623.879	24462.42
624.234	24311.92
624.589	24549.88
624.945	24429.2
625.3	24435.3
625.655	24539.48
626.01	24482.53
626.365	24485.47
626.72	24461.07
627.075	24471.69
627.43	24515.75
627.785	24506.04
628.14	24485.7
628.495	24564.34
628.85	24636.88
629.205	24570.89
629.559	24751
629.914	24583.1
630.269	24503.78
630.623	24518.69
630.978	24481.4
631.332	24556.43
631.687	24613.83
632.041	24579.25
632.396	24604.79
632.75	24576.09
633.104	24607.5
633.459	24439.37
633.813	24542.87
634.167	24539.71
634.521	24488.41
634.875	24551.46
635.229	24553.72
635.583	24460.84
635.937	24556.43
636.291	24495.19
636.645	24504.68
636.999	24384.46
637.352	24488.64
637.706	24259.49
638.06	24492.93
638.413	24373.38
638.767	24362.54
639.121	24382.2
639.474	24266.04
639.828	24356.89
640.181	24394.63
640.534	24370.9
640.888	24323.44
641.241	24110.79
641.594	24214.97
641.947	24397.34
642.301	24299.49
642.654	24349.88
643.007	24231.47
643.36	24278.92
643.713	24226.5
644.066	24378.58
644.419	24140.17
644.771	24015.65
645.124	23868.77
645.477	23711.48
645.83	23745.15
646.182	23725.27
646.535	23610.01
646.888	23590.58
647.24	23438.49
647.593	23649.11
647.945	23573.18
648.298	23521.43
648.65	23366.41
649.002	23359.17
649.355	23534.08
649.707	23445.27
650.059	23630.58
650.411	23959.16
650.763	23903.34
651.115	24231.24
651.467	24087.74
651.819	24075.31
652.171	24086.39
652.523	24014.3
652.875	24010.46
653.227	23949.67
653.578	24082.54
653.93	24076.22
654.282	23909.44
654.633	23838.71
654.985	24081.19
655.337	24059.95
655.688	23992.15
656.039	24138.14
656.391	23916.67
656.742	23970.91
657.094	24042.09
657.445	24036.9
657.796	24021.53
658.147	23919.84
658.498	23904.92
658.849	24067.86
659.2	23986.73
659.551	24044.13
659.902	24060.85
660.253	23949.21
660.604	24061.75
660.955	23975.88
661.306	24130.68
661.656	24111.02
662.007	24050.23
662.358	24025.6
662.708	24062.88
663.059	24096.33
663.409	23912.15
663.76	24038.48
664.11	24058.36
664.461	24077.35
664.811	24062.21
665.161	24019.04
665.511	24160.96
665.862	24067.63
666.212	24187.17
666.562	24167.06
666.912	24192.6
667.262	24159.15
667.612	24131.36
667.962	24218.81
668.312	24050.68
668.662	24261.75
669.011	24264.23
669.361	24151.47
669.711	24167.97
670.06	24109.21
670.41	24085.71
670.76	24152.37
671.109	24175.88
671.459	24023.11
671.808	24050.68
672.157	24204.12
672.507	24053.17
672.856	24009.55
673.205	24096.33
673.554	24240.05
673.904	23943.57
674.253	24217.68
674.602	24068.08
674.951	23689.56
675.3	23625.38
675.649	24117.12
675.998	24043.9
676.346	24057.69
676.695	24085.71
677.044	23944.02
677.393	24149.44
677.741	24067.4
678.09	23913.06
678.438	23891.82
678.787	23982.66
679.135	23976.78
679.484	23835.09
679.832	23907.18
680.181	23860.18
680.529	23848.65
680.877	23883.23
681.225	23748.54
681.573	23894.75
681.922	23842.1
682.27	23753.06
682.618	23701.31
682.966	23822.66
683.314	23836.22
683.661	23799.84
684.009	23618.38
684.357	23507.64
684.705	23570.24
685.053	23525.95
685.4	23509.45
685.748	23489.11
686.095	23567.08
686.443	23375.22
686.79	23353.3
687.138	23419.06
687.485	23367.76
687.832	23304.94
688.18	23296.8
688.527	23171.16
688.874	23290.48
689.221	23092.06
689.568	23100.2
689.915	23082.57
690.262	23097.94
690.609	23022.46
690.956	22946.98
691.303	22952.86
691.65	22871.96
691.997	22936.13
692.344	22711.96
692.69	22792.18
693.037	22737.72
693.383	22526.88
693.73	22637.84
694.077	22443.94
694.423	22558.07
694.769	22433.32
695.116	22365.53
695.462	22479.2
695.808	22380.44
696.155	22487.33
696.501	22171.86
696.847	22205.31
697.193	22000.57
697.539	22125.76
697.885	21949.04
698.231	21830.63
698.577	21992.43
698.923	21868.59
699.269	21877.63
699.614	21742.49
699.96	21649.84
700.306	21682.61
700.651	21591.08
700.997	21615.72
701.342	21576.4
701.688	21480.81
702.033	21487.13
702.379	21409.62
702.724	21326.91
703.069	21460.69
703.415	21237.65
703.76	21192.23
704.105	21145.45
704.45	21168.27
704.795	21001.72
705.14	20933.93
705.485	20930.76
705.83	20868.39
706.175	20858
706.52	20762.18
706.865	20741.84
707.209	20816.42
707.554	20683.54
707.899	20811.67
708.243	20641.05
708.588	20634.95
708.932	20508.18
709.277	20528.06
709.621	20528.74
709.966	20438.12
710.31	20446.93
710.654	20314.51
710.998	20314.06
711.342	20221.18
711.687	20333.04
712.031	20223.21
712.375	20145.93
712.719	20247.84
713.063	20199.26
713.407	20217.11
713.75	20196.77
714.094	20107.28
714.438	20018.7
714.782	20077
715.125	19936.44
715.469	19984.12
715.812	20008.3
716.156	19733.73
716.499	19837.23
716.843	19772.83
717.186	19760.17
717.53	19877.23
717.873	19844.92
718.216	19663.9
718.559	19688.99
718.902	19554.3
719.246	19657.12
719.589	19576.22
719.932	19469.33
720.275	19500.52
720.617	19483.57
720.96	19449.45
721.303	19488.09
721.646	19465.27
721.989	19469.11
722.331	19413.51
722.674	19365.15
723.016	19399.28
723.359	19411.71
723.701	19375.78
724.044	19266.63
724.386	19203.8
724.729	19262.78
725.071	19270.02
725.413	19101.43
725.755	19218.27
726.097	19149.79
726.439	19073.64
726.782	19102.56
727.124	19236.57
727.465	19094.43
727.807	19092.85
728.149	19083.58
728.491	19054.2
728.833	19053.98
729.175	18972.17
729.516	18960.87
729.858	18963.81
730.199	18945.5
730.541	18961.78
730.882	18976.46
731.224	19002.9
731.565	18925.17
731.906	18909.57
732.248	18840.42
732.589	18867.77
732.93	18808.56
733.271	18834.77
733.612	18796.13
733.953	18707.77
734.294	18787.99
734.635	18619.41
734.976	18823.25
735.317	18843.36
735.658	18752.97
735.999	18742.35
736.339	18650.6
736.68	18680.2
737.021	18670.26
737.361	18498.06
737.702	18759.97
738.042	18584.16
738.383	18568.34
738.723	18590.03
739.063	18573.31
739.404	18700.77
739.744	18532.86
740.084	18440.43
740.424	18591.62
740.764	18503.48
741.104	18637.72
741.444	18514.1
741.784	18367.44
742.124	18454.9
742.464	18410.83
742.804	18416.71
743.143	18408.12
743.483	18394.33
743.823	18363.37
744.162	18311.62
744.502	18354.79
744.841	18329.48
745.181	18416.25
745.52	18324.96
745.86	18445.63
746.199	18255.13
746.538	18315.69
746.877	18351.4
747.216	18342.58
747.556	18314.33
747.895	18376.03
748.234	18296.26
748.573	18300.55
748.911	18253.55
749.25	18283.15
749.589	18240.44
749.928	18222.81
750.267	18202.7
750.605	18083.15
750.944	18096.26
751.283	18004.29
751.621	18087.22
751.96	18040.67
752.298	18102.36
752.636	18160.89
752.975	18026.43
753.313	18086.09
753.651	18051.06
753.989	17939.43
754.327	17934.91
754.666	17998.64
755.004	17913.89
755.342	18021.69
755.679	17891.97
756.017	17783.5
756.355	17817.62
756.693	17778.3
757.031	17795.48
757.368	17741.69
757.706	17724.07
758.044	17667.57
