Data from cardboard_FLMS001491_002.txt Node
Date: Tue Feb 07 11:38:50 GMT 2017
User: dcchb
Spectrometer: FLMS00149
Trigger mode: 0
Integration Time (sec): 2.000000E-2
Scans to average: 10
Electric dark correction enabled: true
Nonlinearity correction enabled: false
Boxcar width: 0
XAxis mode: Wavelengths
Number of Pixels in Spectrum: 2048
>>>>>Begin Spectral Data<<<<<
341.393	-19.58
341.776	-19.58
342.16	-19.58
342.543	-50.99
342.927	-69.97
343.31	-73.81
343.693	-76.75
344.077	-57.09
344.46	-69.07
344.843	-57.54
345.226	-39.69
345.61	-30.42
345.993	-20.93
346.376	-6.24
346.759	26.52
347.142	36.69
347.525	26.75
347.908	66.3
348.291	70.14
348.674	91.83
349.057	113.3
349.44	97.94
349.823	145.84
350.206	147.65
350.588	170.93
350.971	210.25
351.354	204.6
351.737	215.67
352.119	219.51
352.502	226.52
352.884	250.02
353.267	271.72
353.65	266.29
354.032	296.57
354.414	294.09
354.797	295.44
355.179	288.21
355.562	298.83
355.944	303.13
356.326	307.2
356.709	300.42
357.091	309.46
357.473	315.78
357.855	337.7
358.238	328.21
358.62	301.32
359.002	305.61
359.384	334.54
359.766	322.11
360.148	304.48
360.53	308.33
360.912	302.9
361.294	309
361.676	340.41
362.057	320.75
362.439	310.81
362.821	333.18
363.203	292.96
363.584	275.78
363.966	302.9
364.348	309
364.729	296.35
365.111	306.07
365.493	282.79
365.874	283.24
366.256	279.4
366.637	282.11
367.019	291.83
367.4	289.12
367.781	285.95
368.163	294.09
368.544	286.18
368.925	283.24
369.306	306.52
369.688	298.61
370.069	292.28
370.45	286.18
370.831	299.51
371.212	275.56
371.593	295.22
371.974	324.6
372.355	288.66
372.736	281.21
373.117	296.12
373.498	325.27
373.879	303.58
374.26	301.32
374.641	270.13
375.021	293.86
375.402	308.1
375.783	293.41
376.163	306.97
376.544	300.87
376.925	322.34
377.305	308.55
377.686	306.97
378.066	294.31
378.447	322.56
378.827	303.13
379.208	311.26
379.588	295.9
379.968	297.7
380.349	299.74
380.729	303.58
381.109	311.71
381.489	304.03
381.87	316.69
382.25	323.24
382.63	331.38
383.01	317.59
383.39	319.17
383.77	321.66
384.15	325.05
384.53	326.63
384.91	314.43
385.29	343.8
385.67	314.65
386.049	320.98
386.429	323.92
386.809	343.35
387.189	340.41
387.568	321.88
387.948	307.65
388.328	326.63
388.707	339.51
389.087	325.27
389.466	346.52
389.846	328.66
390.225	332.96
390.605	344.93
390.984	328.21
391.363	328.44
391.743	319.4
392.122	343.58
392.501	339.51
392.881	334.54
393.26	337.93
393.639	338.61
394.018	329.12
394.397	332.73
394.776	338.38
395.155	349
395.534	354.2
395.913	356.69
396.292	362.34
396.671	363.92
397.05	339.28
397.429	369.11
397.808	350.58
398.186	359.62
398.565	349.68
398.944	352.62
399.323	366.85
399.701	371.83
400.08	344.48
400.458	355.56
400.837	356.69
401.215	353.52
401.594	341.77
401.972	362.34
402.351	374.99
402.729	371.6
403.107	373.41
403.486	384.03
403.864	378.38
404.242	355.33
404.62	379.74
404.999	376.12
405.377	374.76
405.755	374.54
406.133	400.07
406.511	401.2
406.889	392.62
407.267	369.34
407.645	385.39
408.023	384.48
408.401	407.08
408.779	401.2
409.156	413.63
409.534	414.76
409.912	399.62
410.29	411.83
410.667	399.17
411.045	388.1
411.422	403.24
411.8	402.56
412.178	424.71
412.555	429.68
412.933	426.29
413.31	412.05
413.687	425.61
414.065	428.55
414.442	443.24
414.819	429
415.197	453.18
415.574	436.46
415.951	414.76
416.328	426.06
416.705	470.13
417.082	448.21
417.46	459.28
417.837	473.07
418.214	443.91
418.591	462.22
418.967	444.37
419.344	462.45
419.721	458.15
420.098	466.97
420.475	460.41
420.852	469.68
421.228	465.16
421.605	474.87
421.982	478.04
422.358	484.37
422.735	488.89
423.111	481.88
423.488	494.99
423.864	478.04
424.241	498.15
424.617	485.27
424.994	474.2
425.37	486.17
425.746	482.33
426.123	488.66
426.499	509.9
426.875	498.15
427.251	504.93
427.627	516.91
428.003	516
428.379	527.3
428.756	509.45
429.132	530.24
429.507	544.93
429.883	536.79
430.259	525.72
430.635	540.18
431.011	553.52
431.387	538.38
431.763	585.83
432.138	572.5
432.514	569.34
432.89	581.31
433.265	577.24
433.641	575.89
434.016	569.56
434.392	583.35
434.767	596.23
435.143	622.67
435.518	613.18
435.894	608.88
436.269	621.09
436.644	614.76
437.02	623.8
437.395	619.28
437.77	615.44
438.145	626.51
438.52	628.09
438.895	611.14
439.271	650.24
439.646	658.82
440.021	642.55
440.395	641.65
440.77	650.92
441.145	666.96
441.52	635.55
441.895	677.13
442.27	698.15
442.645	684.81
443.019	676
443.394	687.52
443.769	698.6
444.143	671.93
444.518	709.67
444.892	690.69
445.267	705.83
445.641	709.44
446.016	716.45
446.39	711.7
446.764	703.8
447.139	716.9
447.513	716.45
447.887	722.55
448.262	713.29
448.636	726.62
449.01	730.46
449.384	771.82
449.758	729.56
450.132	732.04
450.506	732.04
450.88	757.8
451.254	739.05
451.628	785.15
452.002	783.79
452.376	790.35
452.75	783.12
453.123	800.52
453.497	779.95
453.871	792.83
454.244	782.21
454.618	803.91
454.992	817.24
455.365	821.98
455.739	839.84
456.112	831.7
456.486	826.96
456.859	870.12
457.232	847.07
457.606	880.51
457.979	864.24
458.352	886.39
458.725	903.79
459.099	893.62
459.472	877.35
459.845	893.17
460.218	908.54
460.591	941.08
460.964	918.03
461.337	949.44
461.71	940.85
462.083	983.11
462.456	957.35
462.829	958.93
463.201	971.58
463.574	1000.96
463.947	998.02
464.32	1016.33
464.692	1022.66
465.065	1025.82
465.438	1047.51
465.81	1055.42
466.183	1080.51
466.555	1057.01
466.928	1094.75
467.3	1085.93
467.672	1096.33
468.045	1126.38
468.417	1142.43
468.789	1148.3
469.161	1135.2
469.534	1147.17
469.906	1181.97
470.278	1202.99
470.65	1210.9
471.022	1210.22
471.394	1210.45
471.766	1224.01
472.138	1262.42
472.51	1257.68
472.882	1297
473.253	1306.72
473.625	1327.28
473.997	1353.27
474.369	1347.62
474.74	1399.6
475.112	1377
475.484	1400.95
475.855	1431.23
476.227	1457.9
476.598	1471.91
476.97	1508.97
477.341	1539.48
477.713	1522.76
478.084	1527.28
478.455	1570.44
478.827	1594.85
479.198	1617.22
479.569	1614.05
479.94	1679.36
480.311	1699.48
480.682	1709.42
481.053	1786.25
481.424	1792.81
481.795	1795.97
482.166	1841.84
482.537	1825.57
482.908	1880.94
483.279	1873.93
483.65	1940.6
484.021	1965
484.391	1957.32
484.762	2005.68
485.133	2032.8
485.503	2052.91
485.874	2094.04
486.244	2125.23
486.615	2165.9
486.985	2174.04
487.356	2195.96
487.726	2222.85
488.097	2289.97
488.467	2263.3
488.837	2320.25
489.207	2355.28
489.578	2397.76
489.948	2435.27
490.318	2483.41
490.688	2466.46
491.058	2479.79
491.428	2562.96
491.798	2562.28
492.168	2623.52
492.538	2614.25
492.908	2632.11
493.278	2715.72
493.648	2717.3
494.017	2719.56
494.387	2767.47
494.757	2802.95
495.126	2802.5
495.496	2861.48
495.866	2872.55
496.235	2891.31
496.605	2945.77
496.974	2914.81
497.344	2979.44
497.713	2992.1
498.082	3038.65
498.452	3068.48
498.821	3105.31
499.19	3111.87
499.559	3158.19
499.928	3148.7
500.298	3206.55
500.667	3239.32
501.036	3232.54
501.405	3308.7
501.774	3275.25
502.143	3336.49
502.512	3321.13
502.88	3378.98
503.249	3398.41
503.618	3404.52
503.987	3429.37
504.356	3475.25
504.724	3524.51
505.093	3550.27
505.462	3571.74
505.83	3582.36
506.199	3606.54
506.567	3667.56
506.936	3687.67
507.304	3729.03
507.672	3723.83
508.041	3729.48
508.409	3789.82
508.777	3830.94
509.145	3853.99
509.514	3838.85
509.882	3939.42
510.25	3959.53
510.618	3983.26
510.986	3990.49
511.354	4064.38
511.722	4084.95
512.09	4137.38
512.458	4132.63
512.826	4176.7
513.193	4248.56
513.561	4230.48
513.929	4300.31
514.297	4344.83
514.664	4378.5
515.032	4423.7
515.4	4461.21
515.767	4465.05
516.135	4512.06
516.502	4532.39
516.869	4596.8
517.237	4619.62
517.604	4682.9
517.972	4685.84
518.339	4709.11
518.706	4769.68
519.073	4797.92
519.44	4823.69
519.808	4894.19
520.175	4902.33
520.542	4984.13
520.909	4988.2
521.276	4985.04
521.643	5108.65
522.009	5164.69
522.376	5228.2
522.743	5245.14
523.11	5348.87
523.477	5384.35
523.843	5421.41
524.21	5480.17
524.577	5551.13
524.943	5542.99
525.31	5585.25
525.676	5661.18
526.043	5692.82
526.409	5734.4
526.776	5801.29
527.142	5859.59
527.508	5921.28
527.874	5938.91
528.241	5951.34
528.607	6003.32
528.973	6081.05
529.339	6122.18
529.705	6170.32
530.071	6288.73
530.437	6310.2
530.803	6328.73
531.169	6371.44
531.535	6377.32
531.901	6426.36
532.267	6474.94
532.632	6578.67
532.998	6585
533.364	6626.35
533.73	6690.08
534.095	6710.42
534.461	6744.99
534.826	6839.45
535.192	6865.21
535.557	6957.19
535.923	6916.51
536.288	6981.37
536.653	7002.84
537.019	7014.59
537.384	7097.98
537.749	7113.12
538.114	7204.87
538.479	7228.6
538.845	7264.98
539.21	7284.64
539.575	7314.69
539.94	7324.41
540.305	7444.18
540.67	7482.83
541.034	7511.07
541.399	7536.38
541.764	7628.81
542.129	7617.06
542.494	7691.63
542.858	7727.34
543.223	7755.36
543.587	7812.31
543.952	7789.71
544.316	7797.62
544.681	7939.09
545.045	7945.86
545.41	7977.5
545.774	7978.41
546.138	8023.6
546.503	8081
546.867	8101.79
547.231	8213.2
547.595	8194.22
547.959	8249.36
548.324	8292.97
548.688	8400.99
549.052	8358.51
549.416	8471.5
549.779	8486.87
550.143	8511.5
550.507	8592.4
550.871	8616.58
551.235	8611.16
551.599	8688.44
551.962	8666.75
552.326	8788.55
552.689	8853.19
553.053	8833.3
553.417	8897.7
553.78	9025.16
554.143	8998.04
554.507	9015.21
554.87	9061.77
555.234	9223.8
555.597	9185.38
555.96	9229.22
556.323	9316
556.686	9357.13
557.05	9417.69
557.413	9481.19
557.776	9503.34
558.139	9609.32
558.502	9657.23
558.865	9699.94
559.228	9689.77
559.59	9791.01
559.953	9828.3
560.316	9877.34
560.679	9973.61
561.041	10044.11
561.404	10092.93
561.767	10123.66
562.129	10096.09
562.492	10228.74
562.854	10251.79
563.217	10317.55
563.579	10351.45
563.941	10397.55
564.304	10479.58
564.666	10650.43
565.028	10665.34
565.39	10673.25
565.753	10742.4
566.115	10780.14
566.477	10890.19
566.839	10910.76
567.201	10957.76
567.563	11055.39
567.925	11129.51
568.287	11145.33
568.648	11208.15
569.01	11301.48
569.372	11381.25
569.734	11252.9
570.095	11528.14
570.457	11517.52
570.819	11508.93
571.18	11556.17
571.542	11696.05
571.903	11698.31
572.265	11742.15
572.626	11828.02
572.987	11825.31
573.349	11848.81
573.71	12008.36
574.071	11976.94
574.432	12060.11
574.794	12136.71
575.155	12142.36
575.516	12148.47
575.877	12123.38
576.238	12238.63
576.599	12304.62
576.96	12366.77
577.32	12403.15
577.681	12497.16
578.042	12517.27
578.403	12511.39
578.763	12524.95
579.124	12538.74
579.485	12654.89
579.845	12619.19
580.206	12705.74
580.566	12736.7
580.927	12853.76
581.287	12751.16
581.648	12819.41
582.008	12885.17
582.368	12871.16
582.728	12964.94
583.089	12933.76
583.449	12963.81
583.809	13045.17
584.169	13093.75
584.529	13014.88
584.889	13123.81
585.249	13072.06
585.609	13013.75
585.969	13193.64
586.329	13155.9
586.688	13216.01
587.048	13219.62
587.408	13166.29
587.768	13300.07
588.127	13254.88
588.487	13231.6
588.846	13310.7
589.206	13286.52
589.565	13271.83
589.925	13412.61
590.284	13363.8
590.643	13493.74
591.003	13527.41
591.362	13533.51
591.721	13465.49
592.08	13566.06
592.44	13632.95
592.799	13572.84
593.158	13535.32
593.517	13574.87
593.876	13661.65
594.235	13667.97
594.593	13702.78
594.952	13729.44
595.311	13667.3
595.67	13754.98
596.029	13831.36
596.387	13888.53
596.746	13862.32
597.104	13804.24
597.463	13817.35
597.822	13947.29
598.18	13857.57
598.538	13942.99
598.897	13961.98
599.255	13916.55
599.613	14125.82
599.972	14048.08
600.33	14060.05
600.688	14021.41
601.046	14119.71
601.404	14201.75
601.762	14180.5
602.12	14232.48
602.478	14253.95
602.836	14305.92
603.194	14267.73
603.552	14269.99
603.91	14236.55
604.268	14341.4
604.625	14292.59
604.983	14330.78
605.341	14297.11
605.698	14430.21
606.056	14442.42
606.413	14437.9
606.771	14561.06
607.128	14518.12
607.485	14459.37
607.843	14463.43
608.2	14516.31
608.557	14684.67
608.914	14539.36
609.272	14683.54
609.629	14710.43
609.986	14711.11
610.343	14767.61
610.7	14892.8
611.057	14879.02
611.414	14858
611.771	14919.47
612.127	14924.66
612.484	14915.62
612.841	14971.89
613.198	14959.47
613.554	15023.42
613.911	15057.99
614.267	15097.99
614.624	15065
614.98	15152.68
615.337	15230.42
615.693	15163.75
616.05	15151.1
616.406	15330.76
616.762	15249.63
617.118	15209.85
617.475	15271.77
617.831	15359.91
618.187	15325.11
618.543	15399.91
618.899	15419.79
619.255	15482.84
619.611	15473.8
619.967	15592.67
620.323	15592.44
620.678	15530.3
621.034	15499.56
621.39	15563.52
621.746	15525.55
622.101	15683.74
622.457	15613.46
622.812	15584.76
623.168	15707.47
623.523	15707.69
623.879	15727.58
624.234	15569.62
624.589	15745.43
624.945	15732.78
625.3	15725.77
625.655	15772.1
626.01	15690.75
626.365	15785.88
626.72	15727.13
627.075	15820.46
627.43	15828.37
627.785	15798.54
628.14	15829.73
628.495	15939.78
628.85	15741.37
629.205	15768.03
629.559	15968.93
629.914	15760.57
630.269	15852.78
630.623	15754.02
630.978	15794.47
631.332	15889.38
631.687	15889.16
632.041	15812.78
632.396	15788.6
632.75	15784.08
633.104	15818.43
633.459	15771.65
633.813	15782.04
634.167	15750.41
634.521	15762.83
634.875	15804.19
635.229	15871.98
635.583	15758.54
635.937	15718.09
636.291	15765.09
636.645	15755.6
636.999	15709.05
637.352	15854.13
637.706	15665.66
638.06	15754.7
638.413	15746.11
638.767	15727.35
639.121	15739.11
639.474	15644.19
639.828	15634.02
640.181	15676.28
640.534	15615.04
640.888	15693.23
641.241	15661.14
641.594	15609.62
641.947	15616.4
642.301	15693.68
642.654	15749.5
643.007	15669.96
643.36	15645.78
643.713	15679.67
644.066	15792.21
644.419	15683.74
644.771	15544.76
645.124	15424.99
645.477	15423.63
645.83	15349.06
646.182	15190.42
646.535	15264.32
646.888	15273.36
647.24	15190.19
647.593	15235.84
647.945	15248.27
648.298	15206.92
648.65	15144.32
649.002	15161.27
649.355	15218.89
649.707	15202.62
650.059	15343.18
650.411	15460.92
650.763	15489.39
651.115	15598.54
651.467	15606
651.819	15524.65
652.171	15555.16
652.523	15502.95
652.875	15535.04
653.227	15497.08
653.578	15649.62
653.93	15635.15
654.282	15542.27
654.633	15443.29
654.985	15502.5
655.337	15534.82
655.688	15589.28
656.039	15719.67
656.391	15446.46
656.742	15489.39
657.094	15494.82
657.445	15617.98
657.796	15553.12
658.147	15544.53
658.498	15523.74
658.849	15542.95
659.2	15620.69
659.551	15545.21
659.902	15594.93
660.253	15535.72
660.604	15634.7
660.955	15459.11
661.306	15615.95
661.656	15591.09
662.007	15620.24
662.358	15564.87
662.708	15602.84
663.059	15607.81
663.409	15495.04
663.76	15591.09
664.11	15678.32
664.461	15551.09
664.811	15673.34
665.161	15663.4
665.511	15578.66
665.862	15631.54
666.212	15642.16
666.562	15720.8
666.912	15615.04
667.262	15704.98
667.612	15588.15
667.962	15707.92
668.312	15574.59
668.662	15749.28
669.011	15710.41
669.361	15738.43
669.711	15595.15
670.06	15689.39
670.41	15582.27
670.76	15558.09
671.109	15654.36
671.459	15622.05
671.808	15554.25
672.157	15670.41
672.507	15555.61
672.856	15526.68
673.205	15592.67
673.554	15524.65
673.904	15553.8
674.253	15687.81
674.602	15672.44
674.951	15385.22
675.3	15359.68
675.649	15541.37
675.998	15645.32
676.346	15643.97
676.695	15571.65
677.044	15480.81
677.393	15580.92
677.741	15563.97
678.09	15594.25
678.438	15517.64
678.787	15577.08
679.135	15501.37
679.484	15519.68
679.832	15515.16
680.181	15387.48
680.529	15591.31
680.877	15389.74
681.225	15351.09
681.573	15529.39
681.922	15552.22
682.27	15356.74
682.618	15398.78
682.966	15381.15
683.314	15360.36
683.661	15378.66
684.009	15335.05
684.357	15288.04
684.705	15314.71
685.053	15234.03
685.4	15279.91
685.748	15128.5
686.095	15159.69
686.443	15151.1
686.79	15082.17
687.138	15248.5
687.485	15203.98
687.832	15173.7
688.18	15109.29
688.527	15045.56
688.874	15013.02
689.221	15148.39
689.568	14999.92
689.915	14940.26
690.262	14982.97
690.609	14969.63
690.956	14905.68
691.303	14886.47
691.65	14808.06
691.997	14771.45
692.344	14772.13
692.69	14755.4
693.037	14772.8
693.383	14681.05
693.73	14687.16
694.077	14591.57
694.423	14585.46
694.769	14613.03
695.116	14566.71
695.462	14566.93
695.808	14484
696.155	14588.63
696.501	14483.32
696.847	14473.83
697.193	14319.48
697.539	14467.27
697.885	14305.02
698.231	14305.47
698.577	14237.45
698.923	14183.67
699.269	14246.49
699.614	14142.31
699.96	14125.14
700.306	14139.83
700.651	14052.37
700.997	14053.95
701.342	14075.87
701.688	13966.5
702.033	14058.92
702.379	13917.68
702.724	13922.66
703.069	13971.92
703.415	13775.54
703.76	13819.83
704.105	13902.32
704.45	13814.86
704.795	13736.22
705.14	13745.71
705.485	13752.49
705.83	13573.29
706.175	13631.82
706.52	13636.34
706.865	13597.47
707.209	13531.93
707.554	13565.38
707.899	13536.23
708.243	13497.81
708.588	13498.94
708.932	13385.5
709.277	13425.04
709.621	13341.88
709.966	13269.11
710.31	13379.85
710.654	13280.64
710.998	13304.14
711.342	13305.05
711.687	13361.32
712.031	13218.95
712.375	13147.54
712.719	13179.85
713.063	13185.5
713.407	13168.55
713.75	13139.85
714.094	13067.99
714.438	13046.97
714.782	13052.62
715.125	13041.78
715.469	13015.34
715.812	12947.09
716.156	12950.03
716.499	12859.86
716.843	12979.4
717.186	12942.57
717.53	13003.58
717.873	12901.21
718.216	12924.94
718.559	12895.11
718.902	12772.63
719.246	12832.29
719.589	12757.26
719.932	12752.74
720.275	12801.56
720.617	12696.02
720.96	12765.85
721.303	12726.53
721.646	12720.43
721.989	12606.98
722.331	12656.25
722.674	12678.4
723.016	12685.63
723.359	12716.59
723.701	12746.19
724.044	12603.37
724.386	12575.57
724.729	12645.18
725.071	12559.08
725.413	12573.54
725.755	12526.99
726.097	12529.7
726.439	12492.41
726.782	12545.52
727.124	12566.31
727.465	12489.47
727.807	12477.72
728.149	12437.72
728.491	12473.66
728.833	12491.73
729.175	12394.56
729.516	12421
729.858	12419.19
730.199	12421.23
730.541	12351.17
730.882	12444.05
731.224	12371.51
731.565	12346.65
731.906	12335.35
732.248	12458.97
732.589	12286.99
732.93	12297.16
733.271	12258.29
733.612	12276.15
733.953	12383.94
734.294	12315.02
734.635	12238.63
734.976	12256.94
735.317	12272.08
735.658	12274.11
735.999	12234.11
736.339	12204.74
736.68	12265.52
737.021	12196.37
737.361	12149.37
737.702	12211.97
738.042	12233.89
738.383	12200.67
738.723	12229.14
739.063	12185.75
739.404	12176.94
739.744	12229.82
740.084	12155.02
740.424	12076.15
740.764	12149.6
741.104	12140.1
741.444	12158.18
741.784	12138.07
742.124	12146.88
742.464	12106.66
742.804	12044.29
743.143	12028.7
743.483	12136.26
743.823	11984.63
744.162	11981.92
744.502	12079.32
744.841	12036.83
745.181	12110.05
745.52	11995.93
745.86	12023.72
746.199	12035.7
746.538	12044.06
746.877	12035.93
747.216	12064.85
747.556	12042.48
747.895	11950.28
748.234	12012.42
748.573	11934.46
748.911	11943.73
749.25	11930.17
749.589	11921.35
749.928	11835.48
750.267	11942.82
750.605	11840.68
750.944	11795.03
751.283	11796.16
751.621	11898.98
751.96	11783.96
752.298	11843.39
752.636	11835.71
752.975	11769.27
753.313	11744.63
753.651	11773.79
753.989	11767.91
754.327	11762.26
754.666	11722.26
755.004	11779.66
755.342	11734.47
755.679	11783.5
756.017	11637.97
756.355	11727.69
756.693	11593.68
757.031	11675.94
757.368	11685.2
757.706	11573.34
758.044	11546.45
758.381	11532.44
758.719	11598.42
759.056	11519.1
759.394	11580.8
759.731	11509.84
760.068	11444.98
760.405	11441.59
