Data from cardboard_FLMS001491_033.txt Node
Date: Tue Feb 07 11:39:20 GMT 2017
User: dcchb
Spectrometer: FLMS00149
Trigger mode: 0
Integration Time (sec): 2.000000E-2
Scans to average: 10
Electric dark correction enabled: true
Nonlinearity correction enabled: false
Boxcar width: 0
XAxis mode: Wavelengths
Number of Pixels in Spectrum: 2048
>>>>>Begin Spectral Data<<<<<
341.393	-14.36
341.776	-14.36
342.16	-14.36
342.543	-55.04
342.927	-56.17
343.31	-88.49
343.693	-64.08
344.077	-48.71
344.46	-67.7
344.843	-31.09
345.226	-23.63
345.61	-20.47
345.993	-39.9
346.376	-15.95
346.759	-15.49
347.142	19.99
347.525	30.15
347.908	59.08
348.291	85.29
348.674	105.41
349.057	115.58
349.44	133.65
349.823	157.16
350.206	182.47
350.588	204.84
350.971	209.58
351.354	223.37
351.737	225.86
352.119	252.07
352.502	238.74
352.884	272.41
353.267	262.01
353.65	279.87
354.032	306.53
354.414	288.45
354.797	333.42
355.179	304.5
355.562	330.49
355.944	334.33
356.326	331.16
356.709	320.09
357.091	329.13
357.473	363.25
357.855	335.68
358.238	353.54
358.62	315.34
359.002	337.27
359.384	351.5
359.766	339.07
360.148	337.72
360.53	323.93
360.912	331.16
361.294	326.64
361.676	334.33
362.057	318.96
362.439	325.51
362.821	320.54
363.203	309.7
363.584	312.41
363.966	324.38
364.348	317.15
364.729	306.76
365.111	320.32
365.493	305.18
365.874	315.34
366.256	298.4
366.637	326.19
367.019	313.99
367.4	304.27
367.781	316.02
368.163	315.57
368.544	304.05
368.925	313.54
369.306	315.57
369.688	292.07
370.069	304.05
370.45	317.6
370.831	304.27
371.212	325.06
371.593	309.7
371.974	295.46
372.355	322.35
372.736	306.53
373.117	329.13
373.498	295.46
373.879	305.63
374.26	324.38
374.641	318.73
375.021	305.63
375.402	296.36
375.783	304.05
376.163	311.05
376.544	321.9
376.925	331.84
377.305	316.93
377.686	327.1
378.066	291.16
378.447	321.67
378.827	344.5
379.208	330.71
379.588	314.67
379.968	341.33
380.349	322.35
380.729	325.29
381.109	323.03
381.489	327.77
381.87	328.68
382.25	332.52
382.63	311.5
383.01	353.99
383.39	343.82
383.77	322.58
384.15	339.98
384.53	344.72
384.91	342.69
385.29	348.11
385.67	339.75
386.049	357.15
386.429	332.97
386.809	341.78
387.189	363.48
387.568	348.11
387.948	363.93
388.328	342.46
388.707	347.21
389.087	367.09
389.466	378.85
389.846	361.45
390.225	360.32
390.605	348.34
390.984	357.83
391.363	345.17
391.743	354.21
392.122	358.51
392.501	362.35
392.881	379.98
393.26	365.74
393.639	361.45
394.018	370.94
394.397	375
394.776	389.69
395.155	374.78
395.534	398.05
395.913	369.81
396.292	377.72
396.671	390.15
397.05	399.41
397.429	393.08
397.808	369.35
398.186	372.97
398.565	376.81
398.944	380.2
399.323	387.21
399.701	397.38
400.08	397.6
400.458	386.53
400.837	415.23
401.215	394.89
401.594	405.29
401.972	388.11
402.351	410.71
402.729	403.25
403.107	390.15
403.486	411.39
403.864	416.59
404.242	433.76
404.62	396.47
404.999	420.43
405.377	427.21
405.755	403.93
406.133	421.56
406.511	435.79
406.889	438.73
407.267	431.05
407.645	424.49
408.023	429.47
408.401	454.32
408.779	445.74
409.156	457.94
409.534	468.56
409.912	443.93
410.29	462.23
410.667	450.48
411.045	476.47
411.422	460.65
411.8	466.08
412.178	481.89
412.555	469.24
412.933	485.74
413.31	484.61
413.687	466.98
414.065	484.15
414.442	482.35
414.819	464.04
415.197	502.46
415.574	506.07
415.951	505.17
416.328	511.27
416.705	490.93
417.082	504.27
417.46	521.89
417.837	533.42
418.214	516.02
418.591	515.79
418.967	539.07
419.344	513.76
419.721	522.57
420.098	526.64
420.475	553.08
420.852	541.33
421.228	535.68
421.605	545.85
421.982	558.95
422.358	538.84
422.735	565.73
423.111	559.18
423.488	575.45
423.864	579.07
424.241	571.16
424.617	570.48
424.994	575.45
425.37	577.94
425.746	574.55
426.123	593.3
426.499	580.65
426.875	592.17
427.251	599.41
427.627	599.18
428.003	615
428.379	615.68
428.756	624.94
429.132	633.75
429.507	644.83
429.883	632.62
430.259	627.2
430.635	644.83
431.011	624.49
431.387	656.35
431.763	652.51
432.138	656.35
432.514	657.71
432.89	647.99
433.265	692.74
433.641	678.27
434.016	676.01
434.392	692.06
434.767	695.9
435.143	713.98
435.518	710.59
435.894	721.66
436.269	697.48
436.644	735.67
437.02	704.94
437.395	718.27
437.77	739.06
438.145	743.36
438.52	761.21
438.895	760.98
439.271	767.31
439.646	795.56
440.021	783.13
440.395	776.58
440.77	765.95
441.145	786.74
441.52	795.11
441.895	803.24
442.27	808.44
442.645	788.33
443.019	813.86
443.394	822
443.769	821.09
444.143	810.7
444.518	816.35
444.892	809.57
445.267	826.97
445.641	842.34
446.016	854.31
446.39	824.26
446.764	856.35
447.139	867.87
447.513	855.9
447.887	877.59
448.262	883.47
448.636	859.29
449.01	881.43
449.384	883.47
449.758	897.93
450.132	908.55
450.506	924.59
450.88	889.79
451.254	902.22
451.628	928.21
452.002	955.55
452.376	956.68
452.75	935.22
453.123	934.31
453.497	995.55
453.871	988.1
454.244	988.77
454.618	983.35
454.992	1004.14
455.365	1009.11
455.739	1044.37
456.112	1057.92
456.486	1037.36
456.859	1058.6
457.232	1046.85
457.606	1078.71
457.979	1060.86
458.352	1080.52
458.725	1104.48
459.099	1116.23
459.472	1142.89
459.845	1141.99
460.218	1149.9
460.591	1171.59
460.964	1151.71
461.337	1187.19
461.71	1184.02
462.083	1200.29
462.456	1194.64
462.829	1208.88
463.201	1214.98
463.574	1231.48
463.947	1270.35
464.32	1269.44
464.692	1280.97
465.065	1316.67
465.438	1294.08
465.81	1305.38
466.183	1321.42
466.555	1356.45
466.928	1359.39
467.3	1368.2
467.672	1402.32
468.045	1415.43
468.417	1453.62
468.789	1419.72
469.161	1483.9
469.534	1479.83
469.906	1503.34
470.278	1505.14
470.65	1535.88
471.022	1525.71
471.394	1581.53
471.766	1554.86
472.138	1605.71
472.51	1631.24
472.882	1669.66
473.253	1685.03
473.625	1716.66
473.997	1716.89
474.369	1745.14
474.74	1730.45
475.112	1778.58
475.484	1774.52
475.855	1872.14
476.227	1869.2
476.598	1921.18
476.97	1904.68
477.341	1960.73
477.713	1961.86
478.084	1968.63
478.455	2007.5
478.827	2053.15
479.198	2142.42
479.569	2129.53
479.94	2183.77
480.311	2195.07
480.682	2214.05
481.053	2289.08
481.424	2318.68
481.795	2355.52
482.166	2395.52
482.537	2432.35
482.908	2466.02
483.279	2479.58
483.65	2507.38
484.021	2576.75
484.391	2623.31
484.762	2621.5
485.133	2654.27
485.503	2706.47
485.874	2761.83
486.244	2796.86
486.615	2822.17
486.985	2866.69
487.356	2934.26
487.726	2946.69
488.097	3011.77
488.467	3002.96
488.837	3089.96
489.207	3110.75
489.578	3204.53
489.948	3196.17
490.318	3279.11
490.688	3277.3
491.058	3361.37
491.428	3365.66
491.798	3390.07
492.168	3475.49
492.538	3486.79
492.908	3504.19
493.278	3544.86
493.648	3658.08
494.017	3615.82
494.387	3664.18
494.757	3699.21
495.126	3774.69
495.496	3805.87
495.866	3818.76
496.235	3909.37
496.605	3943.72
496.974	3917.96
497.344	3990.73
497.713	3984.85
498.082	4056.72
498.452	4127.45
498.821	4107.34
499.19	4131.97
499.559	4157.73
499.928	4202.47
500.298	4283.38
500.667	4331.06
501.036	4309.59
501.405	4385.52
501.774	4376.71
502.143	4425.07
502.512	4470.72
502.88	4531.28
503.249	4556.36
503.618	4597.49
503.987	4610.6
504.356	4673.2
504.724	4697.6
505.093	4753.42
505.462	4804.72
505.83	4801.1
506.199	4868.45
506.567	4922.46
506.936	4902.79
507.304	5001.55
507.672	5039.29
508.041	5039.97
508.409	5147.76
508.777	5188.66
509.145	5205.61
509.514	5239.96
509.882	5325.83
510.25	5339.17
510.618	5384.36
510.986	5435.66
511.354	5494.19
511.722	5563.79
512.09	5601.76
512.458	5587.75
512.826	5667.29
513.193	5712.27
513.561	5657.58
513.929	5777.35
514.297	5870.68
514.664	5880.17
515.032	5951.81
515.4	6013.5
515.767	6116.55
516.135	6104.8
516.502	6101.18
516.869	6231.8
517.237	6314.96
517.604	6279.93
517.972	6358.35
518.339	6442.42
518.706	6507.5
519.073	6499.59
519.44	6577.78
519.808	6650.09
520.175	6666.14
520.542	6799.69
520.909	6871.56
521.276	6905.23
521.643	6962.18
522.009	7017.77
522.376	7128.95
522.743	7143.41
523.11	7244.88
523.477	7341.6
523.843	7421.15
524.21	7468.83
524.577	7547.25
524.943	7615.94
525.31	7649.84
525.676	7746.79
526.043	7845.99
526.409	7855.49
526.776	8007.12
527.142	8051.41
527.508	8075.82
527.874	8163.5
528.241	8237.17
528.607	8245.53
528.973	8410.95
529.339	8377.51
529.705	8504.28
530.071	8616.82
530.437	8651.85
530.803	8773.43
531.169	8846.42
531.535	8809.36
531.901	8845.52
532.267	8983.82
532.632	9064.04
532.998	9104.27
533.364	9198.05
533.73	9244.6
534.095	9293.64
534.461	9379.97
534.826	9440.53
535.192	9475.56
535.557	9562.79
535.923	9609.56
536.288	9673.29
536.653	9709.22
537.019	9760.75
537.384	9830.35
537.749	9897.24
538.114	9893.17
538.479	9989.67
538.845	10059.5
539.21	10000.97
539.575	10180.62
539.94	10214.52
540.305	10277.57
540.67	10309.88
541.034	10439.15
541.399	10435.76
541.764	10491.12
542.129	10529.31
542.494	10629.88
542.858	10696.31
543.223	10697.22
543.587	10785.8
543.952	10850.21
544.316	10934.5
544.681	10922.07
545.045	11042.52
545.41	11082.75
545.774	11174.27
546.138	11176.08
546.503	11263.98
546.867	11333.81
547.231	11469.63
547.595	11430.31
547.959	11491.55
548.324	11531.32
548.688	11619
549.052	11633.92
549.416	11700.36
549.779	11826.45
550.143	11817.19
550.507	11943.29
550.871	12023.51
551.235	12081.59
551.599	12193
551.962	12179.67
552.326	12282.04
552.689	12368.59
553.053	12404.74
553.417	12473.22
553.78	12645.42
554.143	12597.73
554.507	12629.15
554.87	12748.92
555.234	12954.33
555.597	12823.49
555.96	12937.84
556.323	13074.11
556.686	13099.87
557.05	13285.4
557.413	13255.57
557.776	13371.72
558.139	13470.03
558.502	13439.75
558.865	13608.55
559.228	13695.78
559.59	13721.32
559.953	13861.43
560.316	13906.17
560.679	14014.19
561.041	14054.64
561.404	14224.13
561.767	14377.57
562.129	14295.99
562.492	14413.51
562.854	14488.98
563.217	14549.55
563.579	14652.14
563.941	14849.65
564.304	14719.49
564.666	14948.41
565.028	15009.2
565.39	15047.84
565.753	15246.25
566.115	15215.07
566.477	15336.19
566.839	15410.54
567.201	15598.78
567.563	15540.26
567.925	15747.48
568.287	15789.06
568.648	15808.27
569.01	15898.44
569.372	15999.23
569.734	16071.77
570.095	16186.57
570.457	16264.76
570.819	16273.57
571.18	16301.37
571.542	16454.58
571.903	16629.94
572.265	16667.01
572.626	16713.33
572.987	16721.69
573.349	16929.82
573.71	16912.87
574.071	17025.19
574.432	17103.6
574.794	17266.99
575.155	17269.48
575.516	17234.45
575.877	17339.3
576.238	17360.32
576.599	17498.17
576.96	17533.42
577.32	17588.56
577.681	17711.05
578.042	17833.3
578.403	17755.11
578.763	17867.65
579.124	17888.67
579.485	17964.15
579.845	18085.95
580.206	18156.23
580.566	18149.23
580.927	18162.11
581.287	18178.6
581.648	18192.16
582.008	18386.51
582.368	18295.66
582.728	18359.39
583.089	18370.24
583.449	18424.93
583.809	18518.26
584.169	18595.54
584.529	18618.37
584.889	18752.6
585.249	18714.41
585.609	18585.6
585.969	18793.73
586.329	18748.98
586.688	18831.24
587.048	18953.27
587.408	18870.56
587.768	18938.13
588.127	18934.06
588.487	18829.89
588.846	19134.96
589.206	19027.85
589.565	19078.69
589.925	19128.64
590.284	19175.41
590.643	19258.12
591.003	19272.59
591.362	19317.78
591.721	19305.81
592.08	19261.06
592.44	19428.06
592.799	19444.56
593.158	19442.53
593.517	19457.21
593.876	19576.76
594.235	19549.42
594.593	19606.36
594.952	19728.17
595.311	19578.12
595.67	19681.84
596.029	19821.05
596.387	19830.76
596.746	19875.28
597.104	19801.16
597.463	19823.76
597.822	19925.68
598.18	19942.63
598.538	19901.72
598.897	20062.4
599.255	19867.83
599.613	20253.58
599.972	19976.07
600.33	20043.64
600.688	20113.69
601.046	20223.75
601.404	20269.4
601.762	20279.79
602.12	20381.48
602.478	20433.23
602.836	20503.29
603.194	20390.98
603.552	20348.72
603.91	20391.43
604.268	20487.02
604.625	20564.3
604.983	20602.27
605.341	20502.16
605.698	20545.55
606.056	20731.08
606.413	20770.63
606.771	20870.06
607.128	20756.16
607.485	20765.65
607.843	20813.79
608.2	20981.02
608.557	20980.79
608.914	20998.19
609.272	21209.48
609.629	21120.45
609.986	21236.83
610.343	21180.56
610.7	21320.67
611.057	21328.58
611.414	21261.23
611.771	21428.69
612.127	21422.81
612.484	21414
612.841	21518.63
613.198	21435.47
613.554	21482.92
613.911	21633.65
614.267	21526.09
614.624	21701
614.98	21709.81
615.337	21808.11
615.693	21814.67
616.05	21703.93
616.406	21936.02
616.762	21874.1
617.118	21869.81
617.475	21888.11
617.831	21954.1
618.187	22011.5
618.543	22182.34
618.899	22205.84
619.255	22176.24
619.611	22228.89
619.967	22296.01
620.323	22375.78
620.678	22300.76
621.034	22258.27
621.39	22331.72
621.746	22292.39
622.101	22678.37
622.457	22380.08
622.812	22392.28
623.168	22506.85
623.523	22539.17
623.879	22650.12
624.234	22379.85
624.589	22501.65
624.945	22579.17
625.3	22590.47
625.655	22580.52
626.01	22696
626.365	22755.88
626.72	22618.04
627.075	22674.3
627.43	22650.58
627.785	22674.3
628.14	22666.17
628.495	22752.72
628.85	22733.51
629.205	22711.37
629.559	22830.23
629.914	22740.74
630.269	22735.09
630.623	22686.73
630.978	22681.54
631.332	22740.52
631.687	22811.7
632.041	22754.53
632.396	22808.76
632.75	22740.52
633.104	22850.35
633.459	22547.75
633.813	22649.45
634.167	22680.41
634.521	22693.06
634.875	22740.52
635.229	22762.21
635.583	22672.05
635.937	22638.83
636.291	22678.15
636.645	22623.91
636.999	22629.33
637.352	22714.98
637.706	22480.19
638.06	22639.5
638.413	22588.88
638.767	22573.74
639.121	22700.29
639.474	22484.48
639.828	22514.76
640.181	22537.59
640.534	22606.96
640.888	22491.03
641.241	22479.51
641.594	22570.8
641.947	22530.81
642.301	22473.18
642.654	22473.63
643.007	22503.69
643.36	22550.92
643.713	22532.61
644.066	22601.31
644.419	22514.31
644.771	22291.26
645.124	22072.74
645.477	22155.22
645.83	22046.52
646.182	21901.22
646.535	21913.42
646.888	21975.11
647.24	21782.8
647.593	21900.54
647.945	21868.68
648.298	21823.93
648.65	21822.8
649.002	21830.49
649.355	21844.27
649.707	21790.49
650.059	21935.12
650.411	22157.48
650.763	22137.14
651.115	22369.91
651.467	22445.16
651.819	22319.74
652.171	22280.42
652.523	22355.44
652.875	22337.59
653.227	22235.9
653.578	22335.33
653.93	22360.19
654.282	22227.99
654.633	22231.15
654.985	22345.5
655.337	22314.54
655.688	22238.61
656.039	22330.59
656.391	22314.31
656.742	22286.07
657.094	22185.05
657.445	22357.03
657.796	22283.35
658.147	22360.87
658.498	22362.67
658.849	22360.41
659.2	22357.93
659.551	22245.62
659.902	22314.31
660.253	22336.69
660.604	22327.65
660.955	22234.09
661.306	22357.03
661.656	22259.63
662.007	22348.44
662.358	22259.4
662.708	22365.16
663.059	22300.98
663.409	22263.02
663.76	22449.9
664.11	22329.91
664.461	22347.31
664.811	22420.53
665.161	22393.63
665.511	22355.44
665.862	22387.53
666.212	22353.41
666.562	22399.96
666.912	22461.88
667.262	22308.44
667.612	22365.39
667.962	22320.19
668.312	22374.2
668.662	22520.64
669.011	22425.95
669.361	22322.22
669.711	22398.83
670.06	22315.22
670.41	22466.4
670.76	22341.43
671.109	22327.87
671.459	22356.12
671.808	22340.08
672.157	22504.37
672.507	22283.58
672.856	22232.51
673.205	22293.52
673.554	22397.48
673.904	22328.33
674.253	22480.86
674.602	22282.9
674.951	22051.95
675.3	21925.4
675.649	22379.62
675.998	22338.49
676.346	22294.2
676.695	22393.86
677.044	22158.84
677.393	22277.48
677.741	22291.72
678.09	22293.07
678.438	22313.41
678.787	22215.33
679.135	22311.6
679.484	22064.38
679.832	22335.33
680.181	22107.09
680.529	22181.89
680.877	22090.82
681.225	22139.4
681.573	22268.67
681.922	21917.26
682.27	22069.58
682.618	22016.7
682.966	21995.23
683.314	22097.37
683.661	22064.38
684.009	21927.88
684.357	21844.5
684.705	21749.58
685.053	21821.22
685.4	21863.25
685.748	21674.78
686.095	21741.45
686.443	21805.4
686.79	21667.1
687.138	21795.46
687.485	21615.8
687.832	21688.57
688.18	21749.81
688.527	21637.27
688.874	21633.88
689.221	21483.6
689.568	21469.59
689.915	21495.13
690.262	21407.45
690.609	21317.96
690.956	21385.75
691.303	21331.52
691.65	21225.08
691.997	21068.47
692.344	21150.28
692.69	21129.26
693.037	21125.87
693.383	20917.06
693.73	21038.64
694.077	20873
694.423	20913.67
694.769	20848.36
695.116	20771.08
695.462	20817.63
695.808	20656.5
696.155	20796.84
696.501	20592.33
696.847	20585.55
697.193	20506.9
697.539	20552.55
697.885	20411.31
698.231	20366.12
698.577	20336.97
698.923	20231.66
699.269	20194.82
699.614	20151.66
699.96	20185.1
700.306	20134.94
700.651	20113.24
700.997	19946.02
701.342	19903.76
701.688	19933.59
702.033	19869.41
702.379	19966.81
702.724	19834.15
703.069	19925
703.415	19646.59
703.76	19743.53
704.105	19699.92
704.45	19619.7
704.795	19487.5
705.14	19527.5
705.485	19488.4
705.83	19352.81
706.175	19438.01
706.52	19300.38
706.865	19379.25
707.209	19379.25
707.554	19276.65
707.899	19389.87
708.243	19255.41
708.588	19174.51
708.932	19007.06
709.277	18972.71
709.621	19056.77
709.966	18871.47
710.31	18987.4
710.654	18813.84
710.998	19010.67
711.342	18952.37
711.687	18872.15
712.031	18727.29
712.375	18772.94
712.719	18770.68
713.063	18748.53
713.407	18765.03
713.75	18774.97
714.094	18735.65
714.438	18598.48
714.782	18694.52
715.125	18624.24
715.469	18692.49
715.812	18491.59
716.156	18467.18
716.499	18484.36
716.843	18473.74
717.186	18333.63
717.53	18402.55
717.873	18505.83
718.216	18339.96
718.559	18273.74
718.902	18222.44
719.246	18222.67
719.589	18170.69
719.932	18140.86
720.275	18086.4
720.617	18118.27
720.96	18151.94
721.303	18065.16
721.646	18024.48
721.989	17941.77
722.331	18055.44
722.674	18031.72
723.016	18048.66
723.359	18121.43
723.701	18058.38
724.044	17930.02
724.386	17837.37
724.729	17910.14
725.071	17885.96
725.413	17873.3
725.755	17838.95
726.097	17804.6
726.439	17751.72
726.782	17799.86
727.124	17762.57
727.465	17769.58
727.807	17649.35
728.149	17754.43
728.491	17735.23
728.833	17691.61
729.175	17722.12
729.516	17631.95
729.858	17663.82
730.199	17662.23
730.541	17671.5
730.882	17601.67
731.224	17590.37
731.565	17608.22
731.906	17606.42
732.248	17528.9
732.589	17509.24
732.93	17441.45
733.271	17526.87
733.612	17608.45
733.953	17565.96
734.294	17422.01
734.635	17447.55
734.976	17452.75
735.317	17429.47
735.658	17358.96
735.999	17388.34
736.339	17295.46
736.68	17441
737.021	17396.25
737.361	17320.32
737.702	17331.62
738.042	17289.59
738.383	17312.19
738.723	17384.27
739.063	17296.14
739.404	17241.68
739.744	17266.76
740.084	17259.08
740.424	17285.29
740.764	17247.1
741.104	17264.73
741.444	17180.21
741.784	17138.86
742.124	17279.42
742.464	17185.64
742.804	17111.51
743.143	17109.48
743.483	17114.68
743.823	17092.98
744.162	17125.07
744.502	17066.32
744.841	16972.08
745.181	17141.57
745.52	17057.05
745.86	17062.48
746.199	17007.56
746.538	16964.17
746.877	17054.79
747.216	17089.59
747.556	16967.11
747.895	16992.65
748.234	16988.13
748.573	16964.17
748.911	16937.05
749.25	16888.24
749.589	16931.18
749.928	16965.75
750.267	16885.98
750.605	16848.7
750.944	16717.17
751.283	16717.63
751.621	16786.1
751.96	16744.29
752.298	16823.16
752.636	16782.48
752.975	16699.77
753.313	16618.19
753.651	16678.53
753.989	16622.49
754.327	16655.71
754.666	16534.81
755.004	16650.06
755.342	16707
755.679	16568.7
756.017	16435.82
756.355	16574.8
756.693	16483.96
757.031	16511.08
757.368	16497.29
757.706	16454.58
758.044	16468.37
758.381	16404.87
