Data from cardboard_FLMS001491_095.txt Node
Date: Tue Feb 07 11:40:26 GMT 2017
User: dcchb
Spectrometer: FLMS00149
Trigger mode: 0
Integration Time (sec): 2.000000E-2
Scans to average: 10
Electric dark correction enabled: true
Nonlinearity correction enabled: false
Boxcar width: 0
XAxis mode: Wavelengths
Number of Pixels in Spectrum: 2048
>>>>>Begin Spectral Data<<<<<
341.393	-14.76
341.776	-14.76
342.16	-14.76
342.543	-56.11
342.927	-57.02
343.31	-83.46
343.693	-48.2
344.077	-60.86
344.46	-67.87
344.843	-60.18
345.226	-49.79
345.61	-37.81
345.993	-32.84
346.376	14.39
346.759	-2.1
347.142	26.37
347.525	44
347.908	68.63
348.291	75.41
348.674	86.25
349.057	128.06
349.44	119.47
349.823	142.3
350.206	166.25
350.588	186.82
350.971	208.96
351.354	237.44
351.737	235.18
352.119	258.68
352.502	281.73
352.884	261.84
353.267	281.73
353.65	277.66
354.032	313.82
354.414	304.33
354.797	309.53
355.179	318.57
355.562	310.88
355.944	331.9
356.326	347.26
356.709	337.32
357.091	333.25
357.473	329.19
357.855	321.95
358.238	323.99
358.62	359.47
359.002	358.34
359.384	340.94
359.766	330.09
360.148	340.26
360.53	317.21
360.912	322.18
361.294	313.14
361.676	328.51
362.057	339.81
362.439	347.04
362.821	329.41
363.203	340.94
363.584	312.92
363.966	333.71
364.348	349.07
364.729	305.23
365.111	335.06
365.493	315.4
365.874	304.55
366.256	317.21
366.637	317.89
367.019	287.83
367.4	287.15
367.781	326.93
368.163	335.29
368.544	307.72
368.925	311.56
369.306	310.2
369.688	323.54
370.069	318.57
370.45	325.34
370.831	319.02
371.212	323.99
371.593	337.77
371.974	320.6
372.355	311.56
372.736	315.85
373.117	304.55
373.498	317.66
373.879	317.89
374.26	303.88
374.641	323.31
375.021	323.76
375.402	338
375.783	330.54
376.163	332.58
376.544	335.29
376.925	335.51
377.305	307.72
377.686	323.76
378.066	306.81
378.447	322.41
378.827	335.97
379.208	331.67
379.588	350.2
379.968	329.64
380.349	333.71
380.729	346.36
381.109	325.12
381.489	355.4
381.87	342.75
382.25	326.02
382.63	326.02
383.01	337.32
383.39	333.48
383.77	354.04
384.15	336.64
384.53	342.75
384.91	350.65
385.29	361.05
385.67	338.9
386.049	336.42
386.429	363.99
386.809	367.15
387.189	331.22
387.568	361.05
387.948	363.99
388.328	365.57
388.707	367.15
389.087	365.34
389.466	353.37
389.846	364.67
390.225	364.21
390.605	375.96
390.984	369.19
391.363	375.06
391.743	383.87
392.122	393.14
392.501	365.34
392.881	380.71
393.26	379.35
393.639	372.35
394.018	400.6
394.397	376.64
394.776	379.81
395.155	407.38
395.534	391.56
395.913	395.63
396.292	410.31
396.671	392.69
397.05	391.56
397.429	396.76
397.808	427.04
398.186	415.96
398.565	412.8
398.944	386.36
399.323	399.92
399.701	412.57
400.08	405.12
400.458	431.1
400.837	420.03
401.215	416.19
401.594	417.77
401.972	407.83
402.351	425.23
402.729	412.57
403.107	402.4
403.486	419.35
403.864	418
404.242	440.6
404.62	453.93
404.999	451.22
405.377	474.04
405.755	448.73
406.133	453.7
406.511	452.8
406.889	466.58
407.267	452.8
407.645	463.42
408.023	460.71
408.401	474.72
408.779	466.81
409.156	495.51
409.534	471.1
409.912	483.31
410.29	476.3
410.667	486.24
411.045	487.83
411.422	500.26
411.8	500.71
412.178	520.59
412.555	498.67
412.933	520.37
413.31	521.27
413.687	521.95
414.065	523.53
414.442	535.28
414.819	539.12
415.197	528.5
415.574	541.38
415.951	545.68
416.328	527.37
416.705	533.02
417.082	546.58
417.46	555.4
417.837	572.57
418.214	566.92
418.591	572.34
418.967	558.78
419.344	587.94
419.721	578.45
420.098	567.6
420.475	598.56
420.852	590.42
421.228	580.48
421.605	593.59
421.982	608.05
422.358	611.89
422.735	628.16
423.111	606.92
423.488	609.18
423.864	626.13
424.241	622.96
424.617	653.7
424.994	622.96
425.37	641.72
425.746	636.75
426.123	650.08
426.499	649.86
426.875	664.09
427.251	668.61
427.627	674.49
428.003	688.05
428.379	690.31
428.756	669.52
429.132	684.88
429.507	683.53
429.883	692.34
430.259	718.1
430.635	728.27
431.011	728.27
431.387	718.78
431.763	761.94
432.138	755.84
432.514	747.71
432.89	733.24
433.265	768.27
433.641	753.13
434.016	764.43
434.392	745.22
434.767	812.11
435.143	797.42
435.518	798.55
435.894	816.86
436.269	813.47
436.644	828.38
437.02	853.24
437.395	805.33
437.77	848.27
438.145	850.75
438.52	858.89
438.895	860.02
439.271	887.82
439.646	892.79
440.021	876.97
440.395	895.27
440.77	891.66
441.145	891.43
441.52	896.85
441.895	902.05
442.27	921.49
442.645	921.04
443.019	914.93
443.394	936.85
443.769	928.72
444.143	908.15
444.518	935.72
444.892	938.66
445.267	977.76
445.641	953.12
446.016	967.59
446.39	955.16
446.764	980.47
447.139	983.41
447.513	989.73
447.887	965.33
448.262	976.85
448.636	1022.95
449.01	1017.08
449.384	1019.11
449.758	1018.43
450.132	1015.95
450.506	1031.99
450.88	1031.09
451.254	1046.46
451.628	1045.33
452.002	1095.04
452.376	1079.22
452.75	1105.21
453.123	1100.01
453.497	1100.47
453.871	1123.74
454.244	1116.28
454.618	1114.93
454.992	1153.12
455.365	1142.5
455.739	1183.85
456.112	1177.53
456.486	1220.01
456.859	1217.3
457.232	1205.55
457.606	1225.89
457.979	1239.22
458.352	1244.42
458.725	1257.98
459.099	1296.17
459.472	1307.69
459.845	1312.21
460.218	1316.28
460.591	1327.58
460.964	1313.57
461.337	1367.13
461.71	1376.16
462.083	1378.88
462.456	1389.72
462.829	1406.9
463.201	1429.95
463.574	1429.04
463.947	1446.45
464.32	1479.21
464.692	1478.99
465.065	1514.01
465.438	1524.86
465.81	1547.01
466.183	1555.37
466.555	1603.96
466.928	1594.01
467.3	1618.87
467.672	1648.7
468.045	1654.58
468.417	1657.96
468.789	1650.06
469.161	1715.14
469.534	1735.7
469.906	1737.96
470.278	1757.85
470.65	1748.58
471.022	1801.01
471.394	1849.37
471.766	1852.99
472.138	1887.11
472.51	1918.97
472.882	1937.28
473.253	1964.85
473.625	1961.91
473.997	2046.2
474.369	2042.59
474.74	2106.09
475.112	2110.61
475.484	2128.01
475.855	2153.09
476.227	2169.82
476.598	2243.26
476.97	2285.97
477.341	2309.02
477.713	2323.03
478.084	2368.91
478.455	2423.14
478.827	2405.52
479.198	2533.87
479.569	2523.48
479.94	2581.56
480.311	2580.43
480.682	2648.45
481.053	2706.07
481.424	2744.72
481.795	2771.83
482.166	2821.55
482.537	2867.65
482.908	2925.95
483.279	2953.3
483.65	3042.11
484.021	3045.27
484.391	3095.89
484.762	3114.88
485.133	3131.15
485.503	3253.18
485.874	3267.41
486.244	3308.54
486.615	3355.55
486.985	3403
487.356	3448.43
487.726	3467.86
488.097	3558.93
488.467	3610.23
488.837	3670.57
489.207	3692.26
489.578	3833.73
489.948	3848.42
490.318	3857.23
490.688	3891.8
491.058	3905.36
491.428	4013.61
491.798	4059.48
492.168	4142.65
492.538	4134.74
492.908	4205.92
493.278	4332.02
493.648	4293.15
494.017	4315.07
494.387	4384.22
494.757	4408.18
495.126	4516.42
495.496	4509.42
495.866	4554.61
496.235	4642.52
496.605	4673.25
496.974	4716.42
497.344	4768.62
497.713	4776.07
498.082	4862.85
498.452	4920.03
498.821	4899.01
499.19	4948.5
499.559	5025.33
499.928	5075.95
500.298	5103.98
500.667	5137.87
501.036	5200.24
501.405	5226.01
501.774	5262.84
502.143	5356.4
502.512	5338.77
502.88	5469.39
503.249	5442.27
503.618	5502.16
503.987	5517.07
504.356	5594.81
504.724	5633.91
505.093	5687.92
505.462	5686.11
505.83	5799.32
506.199	5828.48
506.567	5924.29
506.936	5931.07
507.304	5982.37
507.672	6069.83
508.041	6031.18
508.409	6195.47
508.777	6238.86
509.145	6302.59
509.514	6301.23
509.882	6377.39
510.25	6449.25
510.618	6406.31
510.986	6464.84
511.354	6543.03
511.722	6712.3
512.09	6773.76
512.458	6722.69
512.826	6786.42
513.193	6820.99
513.561	6882.46
513.929	6962.91
514.297	7038.39
514.664	7107.54
515.032	7158.39
515.4	7167.88
515.767	7258.04
516.135	7314.31
516.502	7371.71
516.869	7521.54
517.237	7566.96
517.604	7498.49
517.972	7680.41
518.339	7775.77
518.706	7765.83
519.073	7850.34
519.44	7974.63
519.808	7990.68
520.175	7999.04
520.542	8148.64
520.909	8236.1
521.276	8289.65
521.643	8398.58
522.009	8451.01
522.376	8517.22
522.743	8600.83
523.11	8714.5
523.477	8873.14
523.843	8868.85
524.21	8934.38
524.577	9051.44
524.943	9070.88
525.31	9227.71
525.676	9223.42
526.043	9319.68
526.409	9386.35
526.776	9571.43
527.142	9568.04
527.508	9673.35
527.874	9792.89
528.241	9844.64
528.607	9914.24
528.973	10015.03
529.339	10031.76
529.705	10140.23
530.071	10285.08
530.437	10315.82
530.803	10429.71
531.169	10476.94
531.535	10462.25
531.901	10622.02
532.267	10648.91
532.632	10763.71
532.998	10860.66
533.364	10957.83
533.73	11010.04
534.095	11167.32
534.461	11164.38
534.826	11272.4
535.192	11226.07
535.557	11397.14
535.923	11451.38
536.288	11447.31
536.653	11634.88
537.019	11621.54
537.384	11598.27
537.749	11772.28
538.114	11808.66
538.479	11957.81
538.845	11972.27
539.21	12008.88
539.575	12054.3
539.94	12129.55
540.305	12303.56
540.67	12269.89
541.034	12273.96
541.399	12447.29
541.764	12508.53
542.129	12652.03
542.494	12584.46
542.858	12763.66
543.223	12688.41
543.587	12872.81
543.952	12848.41
544.316	12985.58
544.681	12974.5
545.045	13140.6
545.41	13156.19
545.774	13242.97
546.138	13305.34
546.503	13341.27
546.867	13389.63
547.231	13527.26
547.595	13583.53
547.959	13671.89
548.324	13674.6
548.688	13725.22
549.052	13892.22
549.416	13891.09
549.779	13913.69
550.143	14047.7
550.507	14201.36
550.871	14161.59
551.235	14304.41
551.599	14362.49
551.962	14341.93
552.326	14424.18
552.689	14644.06
553.053	14542.6
553.417	14703.05
553.78	14799.09
554.143	14896.03
554.507	14950.72
554.87	15079.98
555.234	15197.72
555.597	15167.44
555.96	15172.64
556.323	15429.58
556.686	15418.51
557.05	15510.71
557.413	15566.53
557.776	15644.26
558.139	15825.05
558.502	15848.78
558.865	15890.36
559.228	16043.35
559.59	16180.97
559.953	16291.03
560.316	16439.72
560.679	16441.98
561.041	16634.52
561.404	16664.35
561.767	16867.73
562.129	16745.7
562.492	16992.93
562.854	17019.82
563.217	16995.41
563.579	17121.51
563.941	17290.77
564.304	17405.57
564.666	17466.81
565.028	17611.67
565.39	17629.75
565.753	17770.54
566.115	17928.27
566.477	18014.14
566.839	18080.58
567.201	18168.04
567.563	18179.34
567.925	18398.32
568.287	18527.35
568.648	18488.71
569.01	18601.02
569.372	18852.32
569.734	18792.2
570.095	18908.36
570.457	18914.23
570.819	19032.42
571.18	19028.36
571.542	19323.94
571.903	19334.34
572.265	19489.36
572.626	19407.78
572.987	19605.29
573.349	19655.01
573.71	19739.07
574.071	19836.92
574.432	19991.49
574.794	20068.1
575.155	20137.03
575.516	19975.22
575.877	20074.43
576.238	20229.45
576.599	20297.02
576.96	20370.69
577.32	20449.11
577.681	20537.92
578.042	20667.41
578.403	20705.37
578.763	20714.19
579.124	20765.26
579.485	20970.45
579.845	20976.55
580.206	20967.97
580.566	21017
580.927	21021.98
581.287	21261.07
581.648	21141.97
582.008	21182.88
582.368	21431.91
582.728	21379.25
583.089	21416.32
583.449	21358.92
583.809	21564.11
584.169	21555.75
584.529	21598.01
584.889	21683.2
585.249	21701.05
585.609	21663.09
585.969	21800.26
586.329	21763.88
586.688	21778.79
587.048	21836.87
587.408	21860.82
587.768	21828.73
588.127	22000.48
588.487	21955.51
588.846	22160.02
589.206	22106.69
589.565	22094.49
589.925	22154.83
590.284	22172
590.643	22209.51
591.003	22392.79
591.362	22401.37
591.721	22371.77
592.08	22509.39
592.44	22465.33
592.799	22520.24
593.158	22472.78
593.517	22585.1
593.876	22691.31
594.235	22551.2
594.593	22679.11
594.952	22775.83
595.311	22589.84
595.67	22830.29
596.029	22819.22
596.387	22910.29
596.746	22908.71
597.104	22860.35
597.463	22947.8
597.822	23032.32
598.18	22964.07
598.538	22944.64
598.897	23097.85
599.255	23015.14
599.613	23415.36
599.972	23208.81
600.33	23286.32
600.688	23247.45
601.046	23363.83
601.404	23395.02
601.762	23303.05
602.12	23581
602.478	23545.98
602.836	23670.72
603.194	23558.86
603.552	23575.13
603.91	23544.17
604.268	23719.53
604.625	23668.23
604.983	23762.02
605.341	23737.16
605.698	23980.54
606.056	23931.28
606.413	23928.79
606.771	24048.11
607.128	24064.38
607.485	23987.32
607.843	24098.5
608.2	24241.55
608.557	24294.66
608.914	24187.32
609.272	24303.25
609.629	24343.7
609.986	24446.97
610.343	24385.28
610.7	24643.58
611.057	24572.84
611.414	24515.22
611.771	24595.44
612.127	24818.94
612.484	24775.32
612.841	24847.19
613.198	24669.56
613.554	24721.09
613.911	24980.29
614.267	24873.4
614.624	25010.57
614.98	25073.85
615.337	25113.17
615.693	25108.2
616.05	25136.9
616.406	25310
616.762	25261.86
617.118	25136.22
617.475	25317.91
617.831	25260.51
618.187	25522.65
618.543	25439.49
618.899	25578.24
619.255	25555.19
619.611	25649.2
619.967	25669.08
620.323	25773.04
620.678	25690.1
621.034	25675.41
621.39	25599.26
621.746	25651.01
622.101	25959.02
622.457	25710.21
622.812	25827.95
623.168	25853.03
623.523	25921.96
623.879	26054.61
624.234	25727.84
624.589	26021.39
624.945	25905.91
625.3	26070.43
625.655	26053.93
626.01	25917.44
626.365	26120.82
626.72	25982.98
627.075	26081.5
627.43	26080.15
627.785	25893.03
628.14	26061.17
628.495	26065.91
628.85	26159.69
629.205	25993.14
629.559	26148.62
629.914	26203.31
630.269	26093.03
630.623	26032.92
630.978	26154.5
631.332	26301.84
631.687	26257.54
632.041	26151.56
632.396	26269.97
632.75	25995.18
633.104	26233.82
633.459	26020.49
633.813	26145.91
634.167	26110.2
634.521	26140.26
634.875	26243.76
635.229	26030.88
635.583	25987.95
635.937	26061.17
636.291	25883.32
636.645	26110.88
636.999	25868.4
637.352	26010.09
637.706	25786.14
638.06	25927.84
638.413	25976.2
638.767	25844.67
639.121	26000.6
639.474	25817.56
639.828	25882.86
640.181	25954.73
640.534	25878.8
640.888	25847.84
641.241	25793.15
641.594	25839.02
641.947	25834.05
642.301	25756.54
642.654	25835.41
643.007	25834.96
643.36	25843.77
643.713	25809.87
644.066	25862.07
644.419	25766.03
644.771	25602.65
645.124	25375.76
645.477	25387.51
645.83	25221.64
646.182	25177.57
646.535	25121.3
646.888	25190.68
647.24	25041.98
647.593	25171.92
647.945	25197.68
648.298	24936.45
648.65	24984.36
649.002	25049.44
649.355	24980.52
649.707	25063.9
650.059	25102.55
650.411	25440.62
650.763	25502.99
651.115	25718.58
651.467	25635.19
651.819	25651.68
652.171	25665.24
652.523	25549.77
652.875	25616.88
653.227	25593.15
653.578	25658.92
653.93	25576.43
654.282	25550.9
654.633	25434.97
654.985	25509.77
655.337	25520.16
655.688	25548.41
656.039	25619.82
656.391	25535.08
656.742	25409.88
657.094	25491.46
657.445	25526.49
657.796	25499.15
658.147	25505.7
658.498	25531.24
658.849	25538.69
659.2	25514.51
659.551	25469.09
659.902	25672.47
660.253	25476.32
660.604	25482.2
660.955	25397
661.306	25504.57
661.656	25581.86
662.007	25570.56
662.358	25565.58
662.708	25536.66
663.059	25685.13
663.409	25404.01
663.76	25539.37
664.11	25562.65
664.461	25739.59
664.811	25632.7
665.161	25639.48
665.511	25570.56
665.862	25595.87
666.212	25745.92
666.562	25697.56
666.912	25660.5
667.262	25647.39
667.612	25660.72
667.962	25637
668.312	25495.76
668.662	25764.45
669.011	25628.41
669.361	25573.72
669.711	25543.66
670.06	25509.32
670.41	25517.9
670.76	25496.43
671.109	25715.19
671.459	25667.05
671.808	25463.67
672.157	25619.82
672.507	25520.39
672.856	25563.55
673.205	25556.77
673.554	25696.65
673.904	25404.69
674.253	25614.17
674.602	25596.54
674.951	25207.85
675.3	25062.55
675.649	25607.84
675.998	25530.78
676.346	25577.34
676.695	25698.24
677.044	25311.58
677.393	25408.75
677.741	25556.55
678.09	25554.29
678.438	25354.97
678.787	25444.91
679.135	25493.04
679.484	25368.98
679.832	25479.03
680.181	25369.88
680.529	25349.77
680.877	25288.53
681.225	25219.61
681.573	25413.27
681.922	25201.98
682.27	25218.93
682.618	25231.13
682.966	25258.25
683.314	25138.7
683.661	25120.4
684.009	25034.3
684.357	24960.18
684.705	24952.04
685.053	25079.04
685.4	25005.6
685.748	24770.35
686.095	24870.24
686.443	24784.36
686.79	24794.53
687.138	24804.7
687.485	24823.46
687.832	24705.95
688.18	24767.41
688.527	24693.74
688.874	24586.63
689.221	24551.83
689.568	24525.16
689.915	24481.77
690.262	24519.96
690.609	24301.44
690.956	24376.46
691.303	24274.55
691.65	24188.9
691.997	24273.19
692.344	24062.35
692.69	24161.55
693.037	24123.81
693.383	23840.66
693.73	24063.03
694.077	23879.3
694.423	23918.62
694.769	23882.69
695.116	23749.14
695.462	23805.41
695.808	23699.42
696.155	23710.49
696.501	23545.52
696.847	23614.22
697.193	23286.55
697.539	23517.5
697.885	23361.8
698.231	23218.3
698.577	23192.09
698.923	23234.57
699.269	23117.51
699.614	23145.31
699.96	23028.25
700.306	22996.16
700.651	23058.98
700.997	22988.93
701.342	22854.02
701.688	22865.32
702.033	22859.67
702.379	22801.59
702.724	22735.15
703.069	22768.37
703.415	22486.8
703.76	22519.34
704.105	22477.98
704.45	22590.3
704.795	22354.14
705.14	22251.55
705.485	22294.71
705.83	22221.27
706.175	22280.47
706.52	22076.86
706.865	22105.11
707.209	22065.11
707.554	22053.36
707.899	21989.18
708.243	21911.22
708.588	21850.65
708.932	21761.39
709.277	21852.24
709.621	21875.06
709.966	21740.37
710.31	21659.02
710.654	21538.35
710.998	21552.13
711.342	21670.09
711.687	21440.95
712.031	21395.98
712.375	21390.78
712.719	21422.64
713.063	21423.55
713.407	21439.37
713.75	21284.79
714.094	21357.56
714.438	21219.26
714.782	21218.58
715.125	21266.71
715.469	21245.25
715.812	21161.63
716.156	20985.82
716.499	20996.89
716.843	21164.8
717.186	20994.18
717.53	21055.87
717.873	21021.52
718.216	21035.76
718.559	20967.74
718.902	20786.05
719.246	20792.83
719.589	20847.52
719.932	20763.23
720.275	20767.97
720.617	20736.11
720.96	20690.23
721.303	20723.9
721.646	20706.28
721.989	20616.79
722.331	20715.09
722.674	20636.67
723.016	20681.65
723.359	20559.84
723.701	20622.44
724.044	20545.6
724.386	20403.01
724.729	20533.4
725.071	20476.91
725.413	20423.8
725.755	20430.58
726.097	20382.67
726.439	20303.12
726.782	20381.09
727.124	20366.4
727.465	20316.46
727.807	20284.14
728.149	20324.14
728.491	20295.21
728.833	20263.13
729.175	20264.71
729.516	20189.91
729.858	20159.17
730.199	20218.15
730.541	20132.51
730.882	20081.89
731.224	20154.2
731.565	19990.82
731.906	19984.04
732.248	20062.68
732.589	19978.61
732.93	19947.43
733.271	19892.06
733.612	20132.51
733.953	19960.99
734.294	19845.06
734.635	19877.37
734.976	19953.98
735.317	19817.49
735.658	19839.63
735.999	19785.17
736.339	19733.87
736.68	19871.72
737.021	19765.74
737.361	19768.9
737.702	19924.38
738.042	19773.42
738.383	19728.68
738.723	19842.35
739.063	19691.84
739.404	19759.18
739.744	19734.78
740.084	19648.23
740.424	19648.68
740.764	19657.94
741.104	19701.78
741.444	19570.04
741.784	19544.27
742.124	19649.81
742.464	19622.69
742.804	19487.33
743.143	19528.23
743.483	19496.59
743.823	19515.8
744.162	19466.99
744.502	19508.57
744.841	19450.94
745.181	19456.82
745.52	19422.7
745.86	19400.1
746.199	19447.78
746.538	19453.2
746.877	19445.07
747.216	19411.85
747.556	19461.79
747.895	19355.58
748.234	19253.66
748.573	19275.58
748.911	19320.55
749.25	19317.61
749.589	19248.24
749.928	19287.33
750.267	19222.93
750.605	19235.13
750.944	19185.41
751.283	19163.27
751.621	19196.49
751.96	19121.46
752.298	19215.47
752.636	19158.07
752.975	19145.64
753.313	19191.06
753.651	19222.47
753.989	18980.45
754.327	19069.94
754.666	18930.73
755.004	19067.9
755.342	19145.64
755.679	19029.49
756.017	18835.14
756.355	18960.56
756.693	18874.24
757.031	18873.78
757.368	18785.65
