Data from cardboard_FLMS001491_035.txt Node
Date: Tue Feb 07 11:39:21 GMT 2017
User: dcchb
Spectrometer: FLMS00149
Trigger mode: 0
Integration Time (sec): 2.000000E-2
Scans to average: 10
Electric dark correction enabled: true
Nonlinearity correction enabled: false
Boxcar width: 0
XAxis mode: Wavelengths
Number of Pixels in Spectrum: 2048
>>>>>Begin Spectral Data<<<<<
341.393	-26.09
341.776	-26.09
342.16	-26.09
342.543	-72.19
342.927	-78.74
343.31	-57.72
343.693	-76.71
344.077	-65.86
344.46	-66.31
344.843	-49.14
345.226	-63.15
345.61	-28.8
345.993	-19.76
346.376	3.29
346.759	15.72
347.142	9.62
347.525	41.03
347.908	66.11
348.291	84.42
348.674	91.88
349.057	115.38
349.44	133.68
349.823	132.1
350.206	146.11
350.588	200.12
350.971	204.42
351.354	200.12
351.737	229.05
352.119	219.33
352.502	250.74
352.884	260.91
353.267	290.74
353.65	261.36
354.032	312.89
354.414	292.55
354.797	310.63
355.179	321.25
355.562	311.08
355.944	317.63
356.326	315.37
356.709	330.74
357.091	341.14
357.473	336.84
357.855	315.15
358.238	318.31
358.62	321.47
359.002	335.94
359.384	337.75
359.766	323.96
360.148	330.06
360.53	332.32
360.912	338.65
361.294	330.74
361.676	337.75
362.057	313.11
362.439	339.1
362.821	306.11
363.203	322.83
363.584	314.92
363.966	302.04
364.348	312.21
364.729	322.38
365.111	306.79
365.493	300.23
365.874	315.37
366.256	302.72
366.637	304.98
367.019	306.11
367.4	298.88
367.781	304.75
368.163	295.03
368.544	298.42
368.925	310.18
369.306	306.33
369.688	304.07
370.069	304.75
370.45	300.01
370.831	303.62
371.212	297.97
371.593	295.49
371.974	293.23
372.355	316.95
372.736	308.59
373.117	307.24
373.498	324.86
373.879	303.17
374.26	284.64
374.641	318.31
375.021	309.5
375.402	318.99
375.783	314.02
376.163	321.7
376.544	322.15
376.925	318.31
377.305	314.7
377.686	306.56
378.066	306.79
378.447	325.09
378.827	299.33
379.208	336.39
379.588	330.97
379.968	306.11
380.349	325.54
380.729	339.1
381.109	322.83
381.489	328.25
381.87	314.47
382.25	330.06
382.63	325.99
383.01	338.88
383.39	329.16
383.77	335.94
384.15	335.71
384.53	334.58
384.91	335.94
385.29	320.8
385.67	354.69
386.049	353.79
386.429	324.41
386.809	329.61
387.189	327.8
387.568	333.45
387.948	344.98
388.328	355.37
388.707	336.39
389.087	334.13
389.466	361.25
389.846	372.55
390.225	352.89
390.605	360.34
390.984	356.73
391.363	342.27
391.743	370.74
392.122	375.71
392.501	367.12
392.881	375.26
393.26	366.22
393.639	358.54
394.018	365.09
394.397	372.77
394.776	385.2
395.155	389.95
395.534	381.36
395.913	368.93
396.292	372.55
396.671	375.71
397.05	366.45
397.429	367.58
397.808	373
398.186	373.9
398.565	386.33
398.944	384.75
399.323	375.26
399.701	381.36
400.08	369.83
400.458	360.8
400.837	373
401.215	381.13
401.594	397.4
401.972	392.43
402.351	407.12
402.729	404.86
403.107	399.66
403.486	402.38
403.864	407.8
404.242	411.87
404.62	420.23
404.999	392.21
405.377	419.33
405.755	418.2
406.133	444.41
406.511	425.65
406.889	434.24
407.267	429.04
407.645	410.96
408.023	420.91
408.401	435.82
408.779	405.54
409.156	426.1
409.534	431.75
409.912	460.23
410.29	454.8
410.667	461.36
411.045	456.84
411.422	457.06
411.8	447.8
412.178	461.36
412.555	468.36
412.933	484.41
413.31	491.19
413.687	492.54
414.065	489.38
414.442	488.48
414.819	466.1
415.197	488.02
415.574	489.15
415.951	486.67
416.328	478.98
416.705	491.87
417.082	489.15
417.46	507.91
417.837	509.04
418.214	518.53
418.591	513.79
418.967	503.84
419.344	522.83
419.721	534.8
420.098	510.85
420.475	530.28
420.852	525.76
421.228	530.28
421.605	532.99
421.982	542.71
422.358	553.33
422.735	547.01
423.111	539.55
423.488	546.1
423.864	583.84
424.241	557.63
424.617	555.59
424.994	573.67
425.37	591.98
425.746	583.61
426.123	561.02
426.499	577.74
426.875	563.73
427.251	594.24
427.627	585.2
428.003	586.1
428.379	599.21
428.756	649.83
429.132	597.17
429.507	612.54
429.883	630.17
430.259	625.87
430.635	641.01
431.011	648.7
431.387	662.26
431.763	644.18
432.138	676.04
432.514	666.32
432.89	674.01
433.265	687.79
433.641	685.76
434.016	676.72
434.392	673.1
434.767	658.41
435.143	687.57
435.518	710.84
435.894	704.97
436.269	703.61
436.644	735.48
437.02	751.29
437.395	744.74
437.77	746.55
438.145	727.11
438.52	737.96
438.895	751.29
439.271	755.81
439.646	761.46
440.021	780.67
440.395	778.19
440.77	784.29
441.145	761.24
441.52	809.6
441.895	788.35
442.27	801.01
442.645	815.25
443.019	814.34
443.394	818.64
443.769	797.62
444.143	799.65
444.518	816.6
444.892	826.09
445.267	841.46
445.641	843.95
446.016	829.26
446.39	860.44
446.764	844.85
447.139	861.35
447.513	874
447.887	872.42
448.262	867.9
448.636	853.21
449.01	877.17
449.384	885.53
449.758	901.12
450.132	910.39
450.506	890.95
450.88	907.45
451.254	907.45
451.628	933.44
452.002	942.48
452.376	938.18
452.75	930.95
453.123	985.86
453.497	956.71
453.871	971.18
454.244	986.77
454.618	959.65
454.992	991.29
455.365	1012.53
455.739	988.58
456.112	1022.93
456.486	1051.62
456.859	1051.85
457.232	1064.73
457.606	1092.53
457.979	1068.57
458.352	1091.4
458.725	1096.14
459.099	1091.17
459.472	1115.35
459.845	1147.22
460.218	1130.27
460.591	1160.32
460.964	1170.94
461.337	1173.43
461.71	1215.01
462.083	1201
462.456	1213.2
462.829	1191.28
463.201	1229.25
463.574	1233.54
463.947	1231.73
464.32	1271.51
464.692	1269.47
465.065	1281.9
465.438	1308.79
465.81	1330.49
466.183	1333.88
466.555	1352.86
466.928	1354.22
467.3	1372.75
467.672	1368.68
468.045	1393.08
468.417	1410.94
468.789	1410.94
469.161	1458.39
469.534	1449.81
469.906	1518.73
470.278	1504.04
470.65	1530.48
471.022	1543.36
471.394	1554.21
471.766	1572.52
472.138	1585.85
472.51	1631.5
472.882	1650.48
473.253	1672.85
473.625	1706.97
473.997	1718.5
474.369	1756.47
474.74	1747.2
475.112	1781.55
475.484	1808.89
475.855	1822
476.227	1859.97
476.598	1914.43
476.97	1925.73
477.341	1943.8
477.713	1958.95
478.084	2017.02
478.455	2039.4
478.827	2065.38
479.198	2125.95
479.569	2123.91
479.94	2156
480.311	2176.34
480.682	2243.68
481.053	2281.42
481.424	2330.24
481.795	2320.07
482.166	2397.58
482.537	2400.06
482.908	2450.68
483.279	2466.73
483.65	2512.6
484.021	2572.94
484.391	2583.34
484.762	2631.24
485.133	2644.8
485.503	2653.39
485.874	2740.17
486.244	2781.97
486.615	2791.24
486.985	2856.78
487.356	2865.14
487.726	2973.16
488.097	2998.24
488.467	3013.16
488.837	3048.18
489.207	3093.61
489.578	3122.08
489.948	3193.26
490.318	3264.67
490.688	3275.75
491.058	3331.56
491.428	3374.5
491.798	3421.05
492.168	3450.21
492.538	3519.13
492.908	3530.2
493.278	3565.68
493.648	3587.38
494.017	3619.47
494.387	3648.17
494.757	3696.75
495.126	3790.31
495.496	3793.93
495.866	3779.24
496.235	3819.69
496.605	3902.62
496.974	3949.4
497.344	3952.11
497.713	3995.95
498.082	4005.45
498.452	4062.62
498.821	4093.13
499.19	4128.38
499.559	4227.81
499.928	4219.45
500.298	4235.72
500.667	4290.64
501.036	4284.53
501.405	4356.4
501.774	4419.9
502.143	4453.57
502.512	4471.2
502.88	4521.59
503.249	4543.74
503.618	4599.1
503.987	4634.36
504.356	4693.79
504.724	4675.03
505.093	4688.59
505.462	4773.33
505.83	4832.77
506.199	4808.59
506.567	4922.71
506.936	4946.89
507.304	4995.25
507.672	5073.21
508.041	5063.27
508.409	5108.02
508.777	5165.64
509.145	5230.72
509.514	5203.61
509.882	5266.43
510.25	5346.88
510.618	5360.89
510.986	5425.97
511.354	5457.84
511.722	5529.47
512.09	5635.01
512.458	5606.76
512.826	5648.79
513.193	5687.21
513.561	5731.95
513.929	5797.49
514.297	5834.78
514.664	5930.59
515.032	5959.07
515.4	6018.05
515.767	5997.71
516.135	6129.01
516.502	6129.46
516.869	6226.18
517.237	6229.79
517.604	6225.73
517.972	6398.15
518.339	6410.81
518.706	6507.53
519.073	6533.74
519.44	6578.26
519.808	6613.74
520.175	6686.73
520.542	6779.38
520.909	6850.12
521.276	6872.94
521.643	7001.52
522.009	7048.53
522.376	7105.25
522.743	7152.26
523.11	7235.87
523.477	7347.5
523.843	7416.66
524.21	7478.35
524.577	7601.06
524.943	7575.75
525.31	7589.98
525.676	7776.65
526.043	7805.35
526.409	7916.53
526.776	7990.65
527.142	8059.12
527.508	8086.47
527.874	8183.41
528.241	8222.51
528.607	8326.69
528.973	8442.84
529.339	8470.86
529.705	8537.08
530.071	8581.14
530.437	8646.23
530.803	8703.85
531.169	8775.72
531.535	8860.46
531.901	8895.71
532.267	8910.4
532.632	9019.55
532.998	9084.18
533.364	9205.31
533.73	9192.43
534.095	9297.06
534.461	9378.64
534.826	9397.62
535.192	9475.81
535.557	9549.25
535.923	9644.39
536.288	9646.2
536.653	9710.83
537.019	9708.8
537.384	9798.51
537.749	9880.77
538.114	9937.94
538.479	9929.81
538.845	10062.69
539.21	10081.9
539.575	10152.18
539.94	10202.57
540.305	10337.03
540.67	10291.38
541.034	10418.84
541.399	10456.12
541.764	10466.07
542.129	10574.76
542.494	10603.46
542.858	10683.69
543.223	10780.63
543.587	10824.48
543.952	10807.98
544.316	10984.7
544.681	10910.8
545.045	11004.36
545.41	11042.1
545.774	11104.92
546.138	11119.38
546.503	11198.7
546.867	11257.91
547.231	11410.67
547.595	11438.92
547.959	11581.97
548.324	11567.96
548.688	11597.56
549.052	11686.83
549.416	11740.61
549.779	11800.27
550.143	11892.24
550.507	11964.11
550.871	12005.91
551.235	12039.81
551.599	12139.47
551.962	12233.48
552.326	12200.71
552.689	12379.46
553.053	12402.29
553.417	12440.93
553.78	12569.51
554.143	12596.18
554.507	12668.49
554.87	12824.87
555.234	12931.54
555.597	12850.18
555.96	12946.23
556.323	12963.85
556.686	13161.36
557.05	13223.28
557.413	13339.89
557.776	13259.67
558.139	13477.06
558.502	13526.33
558.865	13476.83
559.228	13651.07
559.59	13781.01
559.953	13818.29
560.316	14004.28
560.679	14008.35
561.041	14131.96
561.404	14123.37
561.767	14244.05
562.129	14285.85
562.492	14406.75
562.854	14423.7
563.217	14567.43
563.579	14654.66
563.941	14714.54
564.304	14814.88
564.666	14912.96
565.028	14960.19
565.39	15098.04
565.753	15198.15
566.115	15296.22
566.477	15267.75
566.839	15420.51
567.201	15522.43
567.563	15532.6
567.925	15635.65
568.287	15672.71
568.648	15774.63
569.01	15938.69
569.372	16058.69
569.734	16056.88
570.095	16218.68
570.457	16300.26
570.819	16311.34
571.18	16363.99
571.542	16462.75
571.903	16580.71
572.265	16656.19
572.626	16768.73
572.987	16784.09
573.349	16827.03
573.71	16994.03
574.071	17031.32
574.432	17116.29
574.794	17154.03
575.155	17232.44
575.516	17212.78
575.877	17357.86
576.238	17483.28
576.599	17521.7
576.96	17506.79
577.32	17515.15
577.681	17623.84
578.042	17669.04
578.403	17775.7
578.763	17903.39
579.124	17868.81
579.485	17933.89
579.845	18043.49
580.206	18101.57
580.566	18048.92
580.927	18125.3
581.287	18234.68
581.648	18209.59
582.008	18269.48
582.368	18295.69
582.728	18426.76
583.089	18384.73
583.449	18453.65
583.809	18517.15
584.169	18645.06
584.529	18596.47
584.889	18745.17
585.249	18668.34
585.609	18560.54
585.969	18773.42
586.329	18742.46
586.688	18895.22
587.048	18845.73
587.408	18852.96
587.768	18952.85
588.127	18989.46
588.487	18907.43
588.846	19149.45
589.206	18954.43
589.565	19060.19
589.925	19215.89
590.284	19117.82
590.643	19289.79
591.003	19163.01
591.362	19277.59
591.721	19315.78
592.08	19322.56
592.44	19392.16
592.799	19411.82
593.158	19379.28
593.517	19461.54
593.876	19435.77
594.235	19449.56
594.593	19537.01
594.952	19606.84
595.311	19552.83
595.67	19636.9
596.029	19773.62
596.387	19808.19
596.746	19832.83
597.104	19879.15
597.463	19811.13
597.822	19904.24
598.18	19797.35
598.538	19914.18
598.897	20031.69
599.255	19853.39
599.613	20129.54
599.972	20080.96
600.33	20123.21
600.688	20048.19
601.046	20190.56
601.404	20272.81
601.762	20256.77
602.12	20326.6
602.478	20325.92
602.836	20437.33
603.194	20392.13
603.552	20418.57
603.91	20409.99
604.268	20585.35
604.625	20465.8
604.983	20606.36
605.341	20510.1
605.698	20559.59
606.056	20758.45
606.413	20682.97
606.771	20850.2
607.128	20760.26
607.485	20856.75
607.843	20876.87
608.2	20861.95
608.557	20972.23
608.914	20963.87
609.272	21016.07
609.629	21049.29
609.986	21246.57
610.343	21192.56
610.7	21251.32
611.057	21322.5
611.414	21202.28
611.771	21299.68
612.127	21359.79
612.484	21479.11
612.841	21544.19
613.198	21354.37
613.554	21453.35
613.911	21651.76
614.267	21695.15
614.624	21628.94
614.98	21663.29
615.337	21692.44
615.693	21755.49
616.05	21746.45
616.406	21927.01
616.762	21778.31
617.118	21823.73
617.475	21863.73
617.831	21941.92
618.187	22066.21
618.543	22053.33
618.899	22179.88
619.255	22223.5
619.611	22164.97
619.967	22338.3
620.323	22165.65
620.678	22293.33
621.034	22310.5
621.39	22216.49
621.746	22333.1
622.101	22442.47
622.457	22357.28
622.812	22383.95
623.168	22454.23
623.523	22560.44
623.879	22669.81
624.234	22500.78
624.589	22610.83
624.945	22657.61
625.3	22685.63
625.655	22625.52
626.01	22596.82
626.365	22717.95
626.72	22689.47
627.075	22541
627.43	22741.68
627.785	22595.01
628.14	22700.1
628.495	22698.74
628.85	22669.59
629.205	22633.88
629.559	22863.25
629.914	22635.01
630.269	22755.01
630.623	22662.81
630.978	22673.43
631.332	22867.1
631.687	22785.29
632.041	22675.69
632.396	22765.86
632.75	22751.17
633.104	22762.92
633.459	22634.79
633.813	22689.47
634.167	22771.73
634.521	22741.45
634.875	22684.95
635.229	22722.02
635.583	22576.71
635.937	22645.41
636.291	22691.06
636.645	22644.05
636.999	22628.91
637.352	22722.69
637.706	22543.94
638.06	22621.91
638.413	22670.49
638.767	22611.06
639.121	22622.81
639.474	22481.8
639.828	22508.01
640.181	22568.57
640.534	22482.93
640.888	22580.78
641.241	22364.28
641.594	22454.45
641.947	22575.13
642.301	22486.32
642.654	22590.27
643.007	22573.09
643.36	22551.17
643.713	22538.07
644.066	22598.18
644.419	22419.42
644.771	22343.27
645.124	22167.68
645.477	22176.04
645.83	21956.39
646.182	21966.78
646.535	21983.05
646.888	21985.09
647.24	21706.9
647.593	21960.68
647.945	21924.97
648.298	21818.99
648.65	21811.98
649.002	21642.5
649.355	21869.38
649.707	21836.16
650.059	21918.65
650.411	22127.68
650.763	22147.57
651.115	22378.07
651.467	22329.26
651.819	22281.35
652.171	22336.94
652.523	22292.87
652.875	22289.48
653.227	22271.86
653.578	22401.8
653.93	22377.17
654.282	22294.68
654.633	22161.58
654.985	22232.31
655.337	22335.59
655.688	22400.89
656.039	22382.82
656.391	22233.67
656.742	22233.67
657.094	22250.16
657.445	22319.31
657.796	22285.64
658.147	22230.73
658.498	22330.39
658.849	22307.11
659.2	22284.74
659.551	22323.16
659.902	22441.57
660.253	22301.69
660.604	22396.37
660.955	22215.59
661.306	22313.21
661.656	22325.42
662.007	22372.65
662.358	22368.13
662.708	22381.69
663.059	22270.95
663.409	22200.45
663.76	22384.17
664.11	22432.76
664.461	22388.69
664.811	22399.76
665.161	22435.02
665.511	22379.2
665.862	22399.54
666.212	22474.34
666.562	22471.63
666.912	22366.32
667.262	22296.49
667.612	22468.91
667.962	22426.43
668.312	22315.02
668.662	22578.06
669.011	22383.95
669.361	22403.15
669.711	22419.65
670.06	22278.64
670.41	22293.55
670.76	22315.92
671.109	22320.9
671.459	22391.18
671.808	22373.32
672.157	22413.32
672.507	22259.2
672.856	22245.42
673.205	22312.31
673.554	22383.95
673.904	22246.77
674.253	22460.33
674.602	22392.08
674.951	22134.91
675.3	21882.04
675.649	22317.73
675.998	22346.21
676.346	22287.68
676.695	22373.78
677.044	22165.87
677.393	22248.36
677.741	22260.78
678.09	22154.8
678.438	22261.01
678.787	22176.49
679.135	22198.87
679.484	22133.33
679.832	22259.65
680.181	22082.26
680.529	22160
680.877	22114.57
681.225	22038.42
681.573	22169.94
681.922	22011.07
682.27	21940.79
682.618	22036.84
682.966	22048.59
683.314	22093.33
683.661	21983.5
684.009	21855.6
684.357	21871.19
684.705	21859.89
685.053	21948.48
685.4	21787.12
685.748	21676.17
686.095	21835.94
686.443	21763.85
686.79	21635.04
687.138	21753.91
687.485	21642.04
687.832	21709.84
688.18	21682.27
688.527	21503.29
688.874	21502.84
689.221	21501.48
689.568	21444.54
689.915	21441.82
690.262	21441.6
690.609	21310.3
690.956	21239.12
691.303	21272.79
691.65	21187.82
691.997	21284.77
692.344	21168.61
692.69	21093.13
693.037	21116.86
693.383	20941.27
693.73	21033.25
694.077	20842.29
694.423	20862.86
694.769	20875.28
695.116	20845.45
695.462	20755.97
695.808	20726.59
696.155	20733.14
696.501	20519.36
696.847	20575.41
697.193	20492.7
697.539	20544.22
697.885	20402.53
698.231	20289.76
698.577	20402.98
698.923	20231.23
699.269	20221.97
699.614	20188.52
699.96	20180.16
700.306	20186.49
700.651	20102.88
700.997	19989.66
701.342	19976.78
701.688	20021.97
702.033	19898.13
702.379	19928.87
702.724	19865.37
703.069	19882.77
703.415	19606.39
703.76	19744.01
704.105	19707.86
704.45	19642.77
704.795	19541.31
705.14	19487.07
705.485	19493.63
705.83	19410.69
706.175	19420.41
706.52	19446.85
706.865	19376.79
707.209	19402.33
707.554	19103.35
707.899	19253.18
708.243	19250.02
708.588	19132.05
708.932	19051.83
709.277	19019.29
709.621	18996.01
709.966	18935.67
710.31	18931.83
710.654	18765.74
710.998	18838.28
711.342	18928.67
711.687	18788.33
712.031	18829.69
712.375	18699.52
712.719	18720.31
713.063	18740.88
713.407	18721.89
713.75	18739.3
714.094	18693.19
714.438	18633.76
714.782	18560.54
715.125	18545.18
715.469	18621.33
715.812	18521.22
716.156	18426.54
716.499	18379.08
716.843	18402.58
717.186	18292.53
717.53	18407.78
717.873	18341.57
718.216	18369.14
718.559	18211.4
718.902	18165.07
719.246	18243.26
719.589	18214.79
719.932	18111.74
720.275	18085.3
720.617	18166.66
720.96	18021.12
721.303	18075.58
721.646	18168.46
721.989	17993.33
722.331	18140.44
722.674	17957.4
723.016	18122.81
723.359	18055.7
723.701	18088.01
724.044	17986.09
724.386	17909.94
724.729	18007.11
725.071	17861.13
725.413	17937.73
725.755	17875.59
726.097	17810.51
726.439	17711.07
726.782	17758.08
727.124	17778.42
727.465	17842.82
727.807	17683.05
728.149	17752.2
728.491	17721.47
728.833	17768.93
729.175	17697.74
729.516	17639.66
729.858	17642.38
730.199	17678.31
730.541	17562.38
730.882	17608.48
731.224	17643.05
731.565	17485.54
731.906	17576.39
732.248	17562.15
732.589	17413.68
732.93	17420.46
733.271	17584.75
733.612	17422.95
733.953	17546.11
734.294	17435.15
734.635	17462.72
734.976	17495.94
735.317	17323.51
735.658	17417.52
735.999	17469.72
736.339	17394.92
736.68	17424.08
737.021	17340.24
737.361	17172.56
737.702	17379.56
738.042	17234.93
738.383	17260.24
738.723	17365.09
739.063	17253.01
739.404	17308.6
739.744	17254.36
740.084	17252.55
740.424	17204.65
740.764	17243.06
741.104	17261.37
741.444	17125.55
741.784	17164.87
742.124	17141.37
742.464	17218.21
742.804	17082.16
743.143	17111.09
743.483	17133.69
743.823	17061.37
744.162	17028.15
744.502	17048.94
744.841	17040.13
745.181	17084.2
745.52	17097.08
745.86	17092.11
746.199	17042.84
746.538	17007.14
746.877	17174.82
747.216	16985.44
747.556	17050.53
747.895	17020.7
748.234	16989.06
748.573	16894.82
748.911	16923.98
749.25	16923.52
749.589	16907.93
749.928	16954.71
750.267	16843.98
750.605	16791.55
750.944	16787.03
751.283	16779.35
751.621	16780.48
751.96	16772.79
752.298	16800.59
752.636	16843.53
752.975	16669.75
753.313	16641.05
753.651	16777.77
753.989	16681.27
754.327	16626.13
754.666	16522.18
755.004	16693.93
755.342	16721.04
755.679	16605.34
756.017	16609.18
756.355	16560.14
756.693	16476.98
757.031	16646.02
757.368	16465.23
757.706	16482.86
758.044	16352.47
