Data from cardboard_FLMS001491_022.txt Node
Date: Tue Feb 07 11:39:10 GMT 2017
User: dcchb
Spectrometer: FLMS00149
Trigger mode: 0
Integration Time (sec): 2.000000E-2
Scans to average: 10
Electric dark correction enabled: true
Nonlinearity correction enabled: false
Boxcar width: 0
XAxis mode: Wavelengths
Number of Pixels in Spectrum: 2048
>>>>>Begin Spectral Data<<<<<
341.393	-25.25
341.776	-25.25
342.16	-25.25
342.543	-46.72
342.927	-51.47
343.31	-71.13
343.693	-70.68
344.077	-62.77
344.46	-56.21
344.843	-53.05
345.226	-44.01
345.61	-25.71
345.993	-21.41
346.376	-8.3
346.759	1.64
347.142	40.06
347.525	51.81
347.908	62.43
348.291	75.08
348.674	90.22
349.057	92.03
349.44	134.52
349.823	128.19
350.206	179.94
350.588	176.32
350.971	182.65
351.354	235.08
351.737	215.87
352.119	237.56
352.502	257
352.884	276.89
353.267	279.15
353.65	281.63
354.032	288.41
354.414	310.78
354.797	292.7
355.179	303.33
355.562	308.52
355.944	299.03
356.326	290.22
356.709	298.35
357.091	323.89
357.473	343.1
357.855	312.82
358.238	349.2
358.62	330.9
359.002	322.76
359.384	327.28
359.766	334.28
360.148	344
360.53	324.12
360.912	322.31
361.294	321.63
361.676	318.92
362.057	315.98
362.439	334.06
362.821	318.01
363.203	315.53
363.584	318.47
363.966	309.43
364.348	308.07
364.729	290.9
365.111	293.38
365.493	292.25
365.874	309.43
366.256	318.01
366.637	307.62
367.019	287.73
367.4	293.16
367.781	316.88
368.163	303.33
368.544	291.8
368.925	308.52
369.306	339.93
369.688	311.46
370.069	282.99
370.45	302.2
370.831	301.52
371.212	284.12
371.593	301.29
371.974	281.18
372.355	267.85
372.736	287.05
373.117	291.8
373.498	280.73
373.879	314.4
374.26	312.59
374.641	318.69
375.021	291.8
375.402	284.12
375.783	311.69
376.163	308.3
376.544	313.72
376.925	304.91
377.305	324.12
377.686	329.77
378.066	294.29
378.447	298.35
378.827	324.57
379.208	316.66
379.588	310.1
379.968	338.8
380.349	282.76
380.729	295.87
381.109	301.52
381.489	339.48
381.87	323.66
382.25	317.34
382.63	319.82
383.01	318.92
383.39	323.44
383.77	329.77
384.15	322.76
384.53	323.21
384.91	325.47
385.29	341.52
385.67	322.53
386.049	331.8
386.429	324.57
386.809	345.13
387.189	330.44
387.568	333.16
387.948	318.01
388.328	344.45
388.707	335.19
389.087	325.92
389.466	312.36
389.846	332.7
390.225	324.12
390.605	327.05
390.984	349.88
391.363	341.74
391.743	356.21
392.122	340.61
392.501	339.93
392.881	343.55
393.26	359.37
393.639	349.88
394.018	352.14
394.397	337
394.776	360.27
395.155	350.1
395.534	364.57
395.913	360.05
396.292	357.34
396.671	355.98
397.05	363.44
397.429	367.05
397.808	334.74
398.186	359.37
398.565	363.21
398.944	342.65
399.323	366.37
399.701	373.15
400.08	381.97
400.458	356.21
400.837	354.17
401.215	374.51
401.594	353.49
401.972	350.56
402.351	377.67
402.729	381.97
403.107	365.92
403.486	381.06
403.864	365.02
404.242	367.5
404.62	385.36
404.999	372.25
405.377	361.63
405.755	384.23
406.133	376.32
406.511	397.56
406.889	397.33
407.267	394.17
407.645	381.97
408.023	403.89
408.401	389.88
408.779	410.89
409.156	409.76
409.534	411.8
409.912	396.2
410.29	405.7
410.667	397.11
411.045	415.19
411.422	402.98
411.8	433.94
412.178	406.83
412.555	419.03
412.933	420.38
413.31	426.03
413.687	425.58
414.065	424.45
414.442	420.61
414.819	442.53
415.197	426.49
415.574	436.2
415.951	434.4
416.328	463.77
416.705	451.12
417.082	449.99
417.46	466.71
417.837	459.25
418.214	472.36
418.591	453.15
418.967	474.17
419.344	449.99
419.721	467.61
420.098	439.37
420.475	464.68
420.852	457.45
421.228	470.78
421.605	462.42
421.982	477.33
422.358	477.56
422.735	482.98
423.111	491.79
423.488	504.45
423.864	469.2
424.241	503.77
424.617	483.21
424.994	500.61
425.37	512.13
425.746	514.85
426.123	505.13
426.499	513.49
426.875	511
427.251	525.01
427.627	523.88
428.003	517.78
428.379	523.21
428.756	524.34
429.132	536.09
429.507	537.44
429.883	540.38
430.259	555.3
430.635	545.8
431.011	527.05
431.387	560.27
431.763	555.52
432.138	568.63
432.514	575.86
432.89	558.01
433.265	569.53
433.641	589.87
434.016	580.15
434.392	588.74
434.767	600.49
435.143	605.69
435.518	607.27
435.894	598.23
436.269	616.31
436.644	607.72
437.02	628.51
437.395	622.86
437.77	615.63
438.145	640.04
438.52	639.59
438.895	641.4
439.271	648.63
439.646	638.91
440.021	654.5
440.395	633.49
440.77	654.5
441.145	647.27
441.52	668.74
441.895	671.9
442.27	686.82
442.645	675.29
443.019	662.19
443.394	670.77
443.769	698.12
444.143	677.78
444.518	693.37
444.892	675.52
445.267	671.45
445.641	725.46
446.016	683.88
446.39	711.9
446.764	703.54
447.139	717.55
447.513	714.39
447.887	719.13
448.262	718
448.636	725.46
449.01	734.5
449.384	734.73
449.758	744.22
450.132	732.69
450.506	749.87
450.88	743.99
451.254	761.62
451.628	755.74
452.002	781.05
452.376	794.16
452.75	785.35
453.123	769.08
453.497	793.03
453.871	805.23
454.244	794.61
454.618	803.2
454.992	823.09
455.365	797.32
455.739	848.85
456.112	851.56
456.486	839.58
456.859	850.66
457.232	851.33
457.606	862.63
457.979	847.04
458.352	875.29
458.725	880.03
459.099	898.56
459.472	898.34
459.845	911.9
460.218	920.94
460.591	939.47
460.964	938.79
461.337	930.65
461.71	946.02
462.083	948.05
462.456	975.4
462.829	964.1
463.201	966.81
463.574	993.25
463.947	990.54
464.32	1011.33
464.692	1022.85
465.065	1017.66
465.438	1046.81
465.81	1030.76
466.183	1062.85
466.555	1081.84
466.928	1062.18
467.3	1075.06
467.672	1077.77
468.045	1132.68
468.417	1106.02
468.789	1127.03
469.161	1128.16
469.534	1176.52
469.906	1168.84
470.278	1206.8
470.65	1186.69
471.022	1230.08
471.394	1246.58
471.766	1257.42
472.138	1234.83
472.51	1261.04
472.882	1288.61
473.253	1296.52
473.625	1295.84
473.997	1332.9
474.369	1341.26
474.74	1379.46
475.112	1369.96
475.484	1410.41
475.855	1423.07
476.227	1430.3
476.598	1459.45
476.97	1487.7
477.341	1488.6
477.713	1518.89
478.084	1535.38
478.455	1575.83
478.827	1576.06
479.198	1590.52
479.569	1626
479.94	1655.15
480.311	1671.42
480.682	1705.55
481.053	1715.49
481.424	1770.86
481.795	1770.63
482.166	1792.33
482.537	1808.6
482.908	1867.35
483.279	1842.95
483.65	1927.01
484.021	1932.21
484.391	1972.89
484.762	1938.99
485.133	2040
485.503	2022.38
485.874	2031.19
486.244	2075.03
486.615	2120
486.985	2148.7
487.356	2171.07
487.726	2162.94
488.097	2220.34
488.467	2231.64
488.837	2278.64
489.207	2308.7
489.578	2355.47
489.948	2365.42
490.318	2422.37
490.688	2397.73
491.058	2477.05
491.428	2472.53
491.798	2525.41
492.168	2542.81
492.538	2569.93
492.908	2629.59
493.278	2636.37
493.648	2672.53
494.017	2706.2
494.387	2725.41
494.757	2749.14
495.126	2795.69
495.496	2788.23
495.866	2791.17
496.235	2828.46
496.605	2887.44
496.974	2894.67
497.344	2910.26
497.713	2936.25
498.082	2959.3
498.452	2962.24
498.821	3019.19
499.19	3072.29
499.559	3091.27
499.928	3096.47
500.298	3160.2
500.667	3173.76
501.036	3135.79
501.405	3227.77
501.774	3194.77
502.143	3290.82
502.512	3267.99
502.88	3326.07
503.249	3327.2
503.618	3351.15
503.987	3379.63
504.356	3418.27
504.724	3441.77
505.093	3473.64
505.462	3487.65
505.83	3514.31
506.199	3532.84
506.567	3574.88
506.936	3588.66
507.304	3634.54
507.672	3669.11
508.041	3702.33
508.409	3709.34
508.777	3761.31
509.145	3821.2
509.514	3808.77
509.882	3840.41
510.25	3882.67
510.618	3829.33
510.986	3949.33
511.354	3971.48
511.722	4006.5
512.09	4045.6
512.458	4052.83
512.826	4086.28
513.193	4168.31
513.561	4175.77
513.929	4197.01
514.297	4262.77
514.664	4262.32
515.032	4300.06
515.4	4326.5
515.767	4358.81
516.135	4434.29
516.502	4439.26
516.869	4486.94
517.237	4558.81
517.604	4534.85
517.972	4568.3
518.339	4639.26
518.706	4665.24
519.073	4690.78
519.44	4794.96
519.808	4786.6
520.175	4807.39
520.542	4868.4
520.909	4926.48
521.276	4978
521.643	5009.87
522.009	5003.54
522.376	5087.61
522.743	5095.97
523.11	5178.9
523.477	5231.78
523.843	5299.35
524.21	5329.41
524.577	5339.58
524.943	5410.99
525.31	5448.95
525.676	5503.19
526.043	5528.72
526.409	5590.64
526.776	5613.02
527.142	5663.86
527.508	5726.01
527.874	5810.07
528.241	5869.05
528.607	5822.28
528.973	5891.88
529.339	5951.54
529.705	5960.8
530.071	6038.77
530.437	6090.74
530.803	6142.72
531.169	6216.62
531.535	6216.16
531.901	6274.02
532.267	6282.6
532.632	6352.88
532.998	6355.37
533.364	6398.08
533.73	6472.43
534.095	6516.04
534.461	6627.68
534.826	6658.64
535.192	6653.21
535.557	6729.37
535.923	6744.06
536.288	6810.05
536.653	6835.81
537.019	6840.78
537.384	6849.59
537.749	6923.26
538.114	6923.04
538.479	7008.46
538.845	7001.45
539.21	7038.97
539.575	7105.41
539.94	7130.26
540.305	7210.49
540.67	7244.16
541.034	7209.58
541.399	7318.28
541.764	7308.34
542.129	7388.34
542.494	7404.38
542.858	7449.58
543.223	7530.71
543.587	7524.6
543.952	7554.89
544.316	7619.97
544.681	7617.94
545.045	7716.24
545.41	7717.82
545.774	7753.98
546.138	7829.23
546.503	7889.11
546.867	7898.83
547.231	7948.32
547.595	7978.15
547.959	7986.97
548.324	8044.59
548.688	8147.41
549.052	8192.84
549.416	8171.14
549.779	8134.31
550.143	8250.24
550.507	8285.04
550.871	8341.08
551.235	8358.93
551.599	8417.69
551.962	8483.68
552.326	8452.26
552.689	8563.9
553.053	8527.06
553.417	8631.24
553.78	8724.12
554.143	8710.56
554.507	8796.44
554.87	8808.86
555.234	8938.58
555.597	8850.22
555.96	8953.27
556.323	9045.02
556.686	9022.64
557.05	9165.92
557.413	9178.8
557.776	9252.92
558.139	9230.32
558.502	9272.36
558.865	9355.29
559.228	9406.36
559.59	9475.97
559.953	9473.25
560.316	9560.03
560.679	9627.37
561.041	9711.67
561.404	9727.03
561.767	9841.15
562.129	9840.48
562.492	9893.58
562.854	9933.35
563.217	10004.31
563.579	10031.21
563.941	10104.2
564.304	10243.85
564.666	10295.38
565.028	10265.1
565.39	10319.56
565.753	10396.62
566.115	10447.24
566.477	10579.89
566.839	10590.51
567.201	10613.56
567.563	10577.86
567.925	10776.95
568.287	10894.46
568.648	10841.58
569.01	10924.06
569.372	10987.79
569.734	10941.92
570.095	11059.43
570.457	11093.1
570.819	11102.36
571.18	11191.17
571.542	11207.9
571.903	11253.77
572.265	11306.65
572.626	11397.27
572.987	11416.03
573.349	11501.67
573.71	11522.69
574.071	11619.86
574.432	11589.58
574.794	11733.31
575.155	11712.52
575.516	11803.14
575.877	11779.18
576.238	11819.41
576.599	11868.67
576.96	11931.49
577.32	11950.02
577.681	12003.58
578.042	12049.46
578.403	12045.16
578.763	12113.86
579.124	12172.84
579.485	12194.31
579.845	12272.5
580.206	12295.33
580.566	12241.77
580.927	12343.46
581.287	12424.14
581.648	12385.27
582.008	12366.06
582.368	12410.58
582.728	12541.42
583.089	12438.83
583.449	12480.63
583.809	12562.44
584.169	12573.29
584.529	12566.28
584.889	12719.95
585.249	12626.39
585.609	12585.49
585.969	12688.76
586.329	12687.18
586.688	12766.5
587.048	12778.7
587.408	12746.16
587.768	12761.53
588.127	12738.03
588.487	12795.88
588.846	12860.06
589.206	12806.73
589.565	12886.95
589.925	12950.45
590.284	12926.5
590.643	12903.67
591.003	13009.66
591.362	12967.17
591.721	13013.95
592.08	12996.78
592.44	13090.79
592.799	13163.1
593.158	13077.68
593.517	13114.29
593.876	13152.48
594.235	13117.9
594.593	13173.5
594.952	13189.54
595.311	13113.38
595.67	13212.14
596.029	13283.1
596.387	13324.23
596.746	13311.12
597.104	13364.45
597.463	13234.96
597.822	13406.48
598.18	13344.11
598.538	13341.85
598.897	13455.75
599.255	13341.85
599.613	13591.34
599.972	13466.82
600.33	13615.07
600.688	13457.56
601.046	13565.58
601.404	13623.88
601.762	13603.31
602.12	13595.41
602.478	13725.12
602.836	13696.19
603.194	13662.3
603.552	13714.5
603.91	13677.66
604.268	13790.43
604.625	13717.44
604.983	13840.82
605.341	13756.98
605.698	13737.32
606.056	13862.52
606.413	13915.17
606.771	14011.67
607.128	14007.6
607.485	13879.24
607.843	13974.83
608.2	14074.26
608.557	14142.74
608.914	14082.85
609.272	14159.23
609.629	14194.03
609.986	14168.5
610.343	14112.91
610.7	14284.88
611.057	14233.13
611.414	14256.86
611.771	14307.7
612.127	14349.06
612.484	14367.14
612.841	14354.26
613.198	14373.69
613.554	14421.15
613.911	14464.08
614.267	14472.22
614.624	14490.75
614.98	14541.82
615.337	14676.73
615.693	14655.49
616.05	14618.88
616.406	14658.43
616.762	14700.91
617.118	14600.58
617.475	14645.55
617.831	14732.78
618.187	14715.6
618.543	14797.63
618.899	14814.81
619.255	14859.78
619.611	14799.67
619.967	14904.07
620.323	14885.31
620.678	14954.01
621.034	14894.58
621.39	14909.95
621.746	14876.73
622.101	15080.56
622.457	14873.11
622.812	14970.74
623.168	14990.4
623.523	15005.31
623.879	15087.57
624.234	15023.39
624.589	15077.17
624.945	15121.47
625.3	15093.44
625.655	15137.29
626.01	15188.36
626.365	15158.08
626.72	15169.83
627.075	15106.78
627.43	15137.74
627.785	15095.25
628.14	15140.9
628.495	15164.86
628.85	15118.53
629.205	15107
629.559	15253.67
629.914	15141.81
630.269	15178.41
630.623	15188.58
630.978	15098.42
631.332	15191.97
631.687	15217.28
632.041	15099.55
632.396	15225.64
632.75	15144.29
633.104	15141.13
633.459	15169.6
633.813	15103.61
634.167	15118.53
634.521	15145.65
634.875	15259.77
635.229	15229.71
635.583	15035.82
635.937	15196.49
636.291	15156.49
636.645	15148.13
636.999	15120.34
637.352	15139.55
637.706	15041.92
638.06	15086.89
638.413	15101.81
638.767	15049.38
639.121	15062.94
639.474	15045.54
639.828	15075.82
640.181	15085.31
640.534	15158.53
640.888	15078.3
641.241	14988.36
641.594	14962.6
641.947	15062.94
642.301	15093.22
642.654	15050.51
643.007	15033.56
643.36	15053.45
643.713	15026.78
644.066	15041.69
644.419	15013.9
644.771	14900.91
645.124	14817.75
645.477	14754.24
645.83	14658.88
646.182	14678.99
646.535	14560.58
646.888	14666.11
647.24	14578.2
647.593	14634.7
647.945	14520.35
648.298	14640.35
648.65	14541.14
649.002	14533.46
649.355	14596.73
649.707	14548.6
650.059	14657.52
650.411	14876.5
650.763	14825.2
651.115	14967.57
651.467	14952.43
651.819	14958.99
652.171	14981.81
652.523	14871.98
652.875	14936.61
653.227	14838.54
653.578	14990.4
653.93	14976.61
654.282	14920.34
654.633	14820.23
654.985	14929.16
655.337	14925.54
655.688	14915.82
656.039	14988.59
656.391	14803.96
656.742	14878.08
657.094	14918.08
657.445	15045.08
657.796	14937.52
658.147	14898.42
658.498	14946.78
658.849	14917.4
659.2	14889.83
659.551	14823.4
659.902	14951.98
660.253	14960.34
660.604	15032.88
660.955	14864.07
661.306	14933.68
661.656	14948.82
662.007	14964.41
662.358	14907.69
662.708	14938.19
663.059	14892.32
663.409	14820.46
663.76	14906.78
664.11	14947.23
664.461	14940.68
664.811	14935.48
665.161	14955.14
665.511	14896.39
665.862	14947.91
666.212	15028.36
666.562	14972.32
666.912	15000.57
667.262	14928.25
667.612	14923.51
667.962	14952.66
668.312	14984.97
668.662	15050.96
669.011	14910.62
669.361	14956.73
669.711	14944.97
670.06	14994.01
670.41	14908.14
670.76	14956.05
671.109	14994.24
671.459	14901.36
671.808	14937.52
672.157	14928.7
672.507	14810.51
672.856	14930.74
673.205	14932.32
673.554	14961.02
673.904	14958.53
674.253	14995.14
674.602	14955.14
674.951	14742.27
675.3	14688.71
675.649	14946.33
675.998	14903.62
676.346	14905.2
676.695	14979.78
677.044	14810.51
677.393	14891.42
677.741	14946.56
678.09	14846.22
678.438	14849.84
678.787	14934.81
679.135	14882.15
679.484	14775.04
679.832	14916.95
680.181	14791.76
680.529	14880.34
680.877	14751.98
681.225	14839.67
681.573	14888.7
681.922	14714.47
682.27	14768.71
682.618	14764.41
682.966	14700.01
683.314	14782.49
683.661	14729.39
684.009	14679.22
684.357	14618.2
684.705	14637.19
685.053	14613.46
685.4	14628.82
685.748	14609.16
686.095	14636.28
686.443	14550.86
686.79	14482.84
687.138	14589.05
687.485	14551.99
687.832	14481.26
688.18	14536.85
688.527	14434.71
688.874	14536.85
689.221	14405.55
689.568	14372.33
689.915	14356.06
690.262	14400.81
690.609	14389.06
690.956	14307.93
691.303	14217.08
691.65	14196.52
691.997	14145.22
692.344	14196.97
692.69	14142.51
693.037	14098.67
693.383	14071.78
693.73	14171.44
694.077	14046.24
694.423	14007.37
694.769	13927.37
695.116	13962.63
695.462	13978.9
695.808	13878.56
696.155	13993.81
696.501	13905
696.847	13895.28
697.193	13786.13
697.539	13849.41
697.885	13721.73
698.231	13716.98
698.577	13686.48
698.923	13661.62
699.269	13591.34
699.614	13565.58
699.96	13484.9
700.306	13585.24
700.651	13546.14
700.997	13437.67
701.342	13532.13
701.688	13410.55
702.033	13347.05
702.379	13476.54
702.724	13267.73
703.069	13407.39
703.415	13185.92
703.76	13270.44
704.105	13224.57
704.45	13121.29
704.795	13109.77
705.14	13131.24
705.485	13187.73
705.83	12974.86
706.175	13081.29
706.52	13007.4
706.865	13004.69
707.209	12909.55
707.554	12951.81
707.899	12914.07
708.243	12878.14
708.588	12919.49
708.932	12846.72
709.277	12837.01
709.621	12833.17
709.966	12737.57
710.31	12733.96
710.654	12683.11
710.998	12656.22
711.342	12688.76
711.687	12627.52
712.031	12576.67
712.375	12720.63
712.719	12599.95
713.063	12590.23
713.407	12635.66
713.75	12619.39
714.094	12498.48
714.438	12446.96
714.782	12546.39
715.125	12409.45
715.469	12399.28
715.812	12401.99
716.156	12343.23
716.499	12360.64
716.843	12389.56
717.186	12285.16
717.53	12368.09
717.873	12395.89
718.216	12315.89
718.559	12306.85
718.902	12222.79
719.246	12315.44
719.589	12260.75
719.932	12176.01
720.275	12123.81
720.617	12249.9
720.96	12207.42
721.303	12137.82
721.646	12220.53
721.989	12088.78
722.331	12099.63
722.674	12117.03
723.016	12140.75
723.359	12082.9
723.701	12103.24
724.044	12053.98
724.386	12048.55
724.729	12085.16
725.071	11934.66
725.413	12032.51
725.755	12076.35
726.097	11984.37
726.439	11953.41
726.782	11986.86
727.124	12014.43
727.465	11942.79
727.807	11907.31
728.149	11858.95
728.491	11900.31
728.833	11907.31
729.175	11885.62
729.516	11872.74
729.858	11844.26
730.199	11819.63
730.541	11840.42
730.882	11828.67
731.224	11875
731.565	11736.02
731.906	11810.59
732.248	11811.5
732.589	11734.21
732.93	11707.32
733.271	11761.56
733.612	11754.55
733.953	11786.19
734.294	11671.39
734.635	11792.74
734.976	11818.05
735.317	11722.91
735.658	11686.3
735.999	11740.09
736.339	11665.51
736.68	11688.56
737.021	11737.37
737.361	11637.72
737.702	11653.31
738.042	11636.81
738.383	11627.32
738.723	11702.8
739.063	11622.12
739.404	11693.99
739.744	11638.62
740.084	11604.05
740.424	11620.09
740.764	11559.98
741.104	11672.29
741.444	11562.69
741.784	11506.65
742.124	11612.41
742.464	11567.66
742.804	11520.88
743.143	11541.9
743.483	11564.95
743.823	11440.89
744.162	11435.01
744.502	11508.23
744.841	11496.7
745.181	11544.84
745.52	11519.75
745.86	11435.91
746.199	11445.18
746.538	11443.37
746.877	11505.29
747.216	11419.64
747.556	11485.18
747.895	11387.33
748.234	11421.9
748.573	11416.03
748.911	11418.74
749.25	11397.04
749.589	11400.89
749.928	11339.19
750.267	11381.9
750.605	11289.48
750.944	11337.84
751.283	11275.47
751.621	11351.17
751.96	11252.19
752.298	11320.44
752.636	11292.19
752.975	11224.17
753.313	11198.41
753.651	11336.26
753.989	11226.65
754.327	11235.02
754.666	11119.31
755.004	11184.4
755.342	11187.33
755.679	11087.9
756.017	11112.76
756.355	11224.17
756.693	11027.79
757.031	11132.42
757.368	11061.23
757.706	11068.69
758.044	10983.27
758.381	11014.68
758.719	10969.71
759.056	10971.07
759.394	11032.99
759.731	10904.18
760.068	10900.56
760.405	10922.48
