Data from cardboard_FLMS001491_046.txt Node
Date: Tue Feb 07 11:39:30 GMT 2017
User: dcchb
Spectrometer: FLMS00149
Trigger mode: 0
Integration Time (sec): 2.000000E-2
Scans to average: 10
Electric dark correction enabled: true
Nonlinearity correction enabled: false
Boxcar width: 0
XAxis mode: Wavelengths
Number of Pixels in Spectrum: 2048
>>>>>Begin Spectral Data<<<<<
341.393	0.08
341.776	0.08
342.16	0.08
342.543	-60.25
342.927	-70.65
343.31	-60.48
343.693	-68.84
344.077	-57.77
344.46	-57.31
344.843	-70.87
345.226	-39.69
345.61	-56.41
345.993	-22.51
346.376	-13.02
346.759	26.98
347.142	35.11
347.525	30.37
347.908	64.94
348.291	87.09
348.674	91.38
349.057	111.04
349.44	134.32
349.823	143.81
350.206	156.01
350.588	160.31
350.971	192.62
351.354	215.67
351.737	212.73
352.119	225.39
352.502	260.42
352.884	251.15
353.267	276.24
353.65	277.82
354.032	296.8
354.414	292.28
354.797	307.65
355.179	311.04
355.562	311.04
355.944	319.4
356.326	340.19
356.709	324.82
357.091	328.89
357.473	325.27
357.855	325.05
358.238	308.55
358.62	329.57
359.002	329.12
359.384	338.38
359.766	324.82
360.148	327.99
360.53	334.54
360.912	331.6
361.294	310.81
361.676	310.13
362.057	313.3
362.439	323.01
362.821	325.05
363.203	322.56
363.584	322.79
363.966	302.45
364.348	303.13
364.729	302
365.111	283.02
365.493	293.64
365.874	292.28
366.256	296.57
366.637	299.51
367.019	306.52
367.4	297.7
367.781	302.22
368.163	278.95
368.544	289.34
368.925	290.7
369.306	299.51
369.688	303.58
370.069	310.36
370.45	298.83
370.831	291.83
371.212	307.65
371.593	292.05
371.974	283.47
372.355	289.57
372.736	294.09
373.117	294.99
373.498	309.91
373.879	304.03
374.26	292.51
374.641	312.17
375.021	288.66
375.402	300.19
375.783	295.67
376.163	303.58
376.544	327.99
376.925	315.56
377.305	309.23
377.686	294.77
378.066	300.19
378.447	321.43
378.827	321.88
379.208	297.7
379.588	312.62
379.968	293.64
380.349	300.19
380.729	312.62
381.109	319.62
381.489	300.64
381.87	308.55
382.25	314.88
382.63	302.9
383.01	304.03
383.39	325.27
383.77	309
384.15	360.3
384.53	314.88
384.91	326.4
385.29	336.57
385.67	329.57
386.049	342.67
386.429	318.04
386.809	328.89
387.189	328.89
387.568	325.5
387.948	308.78
388.328	315.1
388.707	322.34
389.087	352.84
389.466	333.64
389.846	336.12
390.225	349.23
390.605	347.19
390.984	319.85
391.363	325.73
391.743	352.39
392.122	342.22
392.501	352.62
392.881	337.48
393.26	338.61
393.639	348.1
394.018	346.29
394.397	352.84
394.776	338.83
395.155	348.55
395.534	354.88
395.913	355.78
396.292	368.89
396.671	358.49
397.05	349.23
397.429	344.93
397.808	369.11
398.186	371.15
398.565	366.4
398.944	355.1
399.323	366.85
399.701	366.4
400.08	361.66
400.458	340.87
400.837	370.24
401.215	360.08
401.594	365.95
401.972	352.84
402.351	358.04
402.729	372.96
403.107	380.64
403.486	374.99
403.864	346.74
404.242	372.5
404.62	374.09
404.999	389
405.377	399.17
405.755	381.32
406.133	382.9
406.511	395.1
406.889	368.44
407.267	389
407.645	398.72
408.023	397.14
408.401	386.52
408.779	415.44
409.156	401.88
409.534	414.54
409.912	405.05
410.29	406.4
410.667	408.66
411.045	413.63
411.422	428.55
411.8	427.19
412.178	415.67
412.555	406.63
412.933	422.45
413.31	414.09
413.687	444.59
414.065	438.72
414.442	436.23
414.819	443.24
415.197	441.2
415.574	432.16
415.951	419.28
416.328	437.59
416.705	429
417.082	445.5
417.46	440.75
417.837	455.44
418.214	456.34
418.591	478.04
418.967	438.27
419.344	462.22
419.721	450.92
420.098	457.25
420.475	444.37
420.852	489.11
421.228	482.33
421.605	468.77
421.982	473.07
422.358	516.46
422.735	485.27
423.111	479.39
423.488	497.7
423.864	491.6
424.241	505.16
424.617	489.79
424.994	503.8
425.37	501.09
425.746	502.44
426.123	499.05
426.499	507.87
426.875	536.57
427.251	532.27
427.627	519.62
428.003	516.46
428.379	509.68
428.756	513.52
429.132	525.72
429.507	532.5
429.883	535.89
430.259	529.79
430.635	550.58
431.011	558.26
431.387	536.79
431.763	561.88
432.138	559.84
432.514	569.79
432.89	564.14
433.265	567.98
433.641	589.22
434.016	572.95
434.392	593.06
434.767	584.25
435.143	588.09
435.518	594.87
435.894	592.39
436.269	623.35
436.644	603.23
437.02	604.81
437.395	622.44
437.77	622.44
438.145	598.94
438.52	649.79
438.895	626.73
439.271	648.66
439.646	635.55
440.021	653.4
440.395	654.53
440.77	631.71
441.145	641.65
441.52	661.08
441.895	653.4
442.27	695.21
442.645	662.67
443.019	699.5
443.394	668.09
443.769	673.74
444.143	687.3
444.518	682.33
444.892	695.66
445.267	724.13
445.641	679.61
446.016	720.07
446.39	694.53
446.764	724.59
447.139	725.49
447.513	727.98
447.887	725.94
448.262	725.26
448.636	729.78
449.01	737.69
449.384	721.65
449.758	736.34
450.132	758.71
450.506	752.16
450.88	774.75
451.254	766.84
451.628	781.31
452.002	781.53
452.376	788.99
452.75	797.8
453.123	796.45
453.497	806.84
453.871	794.87
454.244	783.57
454.618	816.33
454.992	826.28
455.365	827.41
455.739	838.25
456.112	838.71
456.486	833.06
456.859	845.49
457.232	866.73
457.606	875.77
457.979	867.41
458.352	886.84
458.725	864.24
459.099	898.37
459.472	902.43
459.845	914.41
460.218	906.95
460.591	915.54
460.964	957.8
461.337	943.56
461.71	942.43
462.083	958.25
462.456	973.62
462.829	986.05
463.201	1000.28
463.574	976.1
463.947	1006.16
464.32	993.96
464.692	1025.14
465.065	1039.83
465.438	1038.02
465.81	1064.46
466.183	1054.07
466.555	1075.76
466.928	1071.69
467.3	1091.13
467.672	1101.98
468.045	1116.67
468.417	1107.63
468.789	1118.93
469.161	1125.25
469.534	1155.08
469.906	1188.3
470.278	1186.72
470.65	1203.22
471.022	1209.54
471.394	1235.53
471.766	1240.28
472.138	1258.81
472.51	1256.77
472.882	1257.9
473.253	1292.71
473.625	1298.13
473.997	1317.34
474.369	1357.79
474.74	1351.01
475.112	1370.67
475.484	1397.79
475.855	1395.98
476.227	1412.48
476.598	1486.6
476.97	1441.85
477.341	1486.83
477.713	1520.27
478.084	1520.5
478.455	1546.03
478.827	1576.99
479.198	1628.74
479.569	1602.08
479.94	1654.05
480.311	1654.05
480.682	1687.5
481.053	1739.93
481.424	1773.37
481.795	1782.64
482.166	1798.46
482.537	1814.5
482.908	1870.54
483.279	1889.07
483.65	1932.24
484.021	1958.9
484.391	1951.67
484.762	2005.46
485.133	2022.18
485.503	2038.9
485.874	2057.43
486.244	2097.88
486.615	2121.84
486.985	2114.83
487.356	2194.83
487.726	2181.04
488.097	2222.85
488.467	2223.08
488.837	2280.93
489.207	2310.31
489.578	2361.38
489.948	2364.32
490.318	2415.84
490.688	2458.55
491.058	2458.78
491.428	2489.96
491.798	2487.7
492.168	2553.69
492.538	2594.37
492.908	2604.08
493.278	2639.79
493.648	2657.42
494.017	2689.96
494.387	2700.13
494.757	2767.92
495.126	2763.18
495.496	2772.89
495.866	2809.28
496.235	2811.08
496.605	2858.31
496.974	2870.74
497.344	2909.84
497.713	2938.54
498.082	2985.32
498.452	2999.33
498.821	3015.37
499.19	3055.6
499.559	3087.69
499.928	3104.64
500.298	3136.5
500.667	3128.36
501.036	3168.81
501.405	3204.52
501.774	3197.74
502.143	3231.86
502.512	3240.68
502.88	3310.73
503.249	3288.36
503.618	3358.41
503.987	3383.5
504.356	3365.65
504.724	3419.43
505.093	3473.21
505.462	3440.9
505.83	3500.11
506.199	3535.36
506.567	3616.49
506.936	3601.12
507.304	3632.08
507.672	3662.81
508.041	3656.94
508.409	3713.21
508.777	3789.14
509.145	3816.26
509.514	3806.54
509.882	3789.82
510.25	3851.73
510.618	3851.96
510.986	3884.95
511.354	3962.24
511.722	4006.76
512.09	4022.8
512.458	4026.87
512.826	4051.73
513.193	4155.46
513.561	4155.91
513.929	4175.79
514.297	4221.44
514.664	4228.67
515.032	4247.66
515.4	4334.66
515.767	4350.7
516.135	4372.4
516.502	4372.85
516.869	4416.69
517.237	4460.53
517.604	4453.3
517.972	4526.97
518.339	4626.86
518.706	4613.75
519.073	4641.32
519.44	4690.13
519.808	4771.94
520.175	4820.97
520.542	4864.82
520.909	4824.36
521.276	4840.18
521.643	4953.17
522.009	5014.19
522.376	5033.4
522.743	5110.68
523.11	5169.89
523.477	5161.53
523.843	5222.77
524.21	5262.09
524.577	5310.68
524.943	5353.39
525.31	5426.16
525.676	5468.19
526.043	5484.46
526.409	5538.24
526.776	5620.5
527.142	5610.11
527.508	5676.09
527.874	5747.05
528.241	5775.3
528.607	5757.67
528.973	5832.93
529.339	5924
529.705	5944.34
530.071	5927.84
530.437	6015.75
530.803	6098.46
531.169	6145.91
531.535	6113.37
531.901	6142.07
532.267	6248.28
532.632	6291.67
532.998	6318.79
533.364	6368.05
533.73	6399.01
534.095	6430.88
534.461	6458.45
534.826	6513.59
535.192	6544.77
535.557	6690.3
535.923	6628.84
536.288	6706.35
536.653	6696.41
537.019	6705.67
537.384	6792
537.749	6863.41
538.114	6903.18
538.479	6876.97
538.845	6956.06
539.21	6963.07
539.575	7018.88
539.94	7029.5
540.305	7076.96
540.67	7047.13
541.034	7121.93
541.399	7155.83
541.764	7245.09
542.129	7216.39
542.494	7310.85
542.858	7327.35
543.223	7364.18
543.587	7394.47
543.952	7483.5
544.316	7450.28
544.681	7505.88
545.045	7521.02
545.41	7579.55
545.774	7620.22
546.138	7612.77
546.503	7709.49
546.867	7746.55
547.231	7785.19
547.595	7822.48
547.959	7878.75
548.324	7846.88
548.688	7847.11
549.052	8017.5
549.416	7956.49
549.779	8037.16
550.143	8066.09
550.507	8137.95
550.871	8166.42
551.235	8186.31
551.599	8231.05
551.962	8290.04
552.326	8324.84
552.689	8408
553.053	8410.94
553.417	8431.73
553.78	8513.08
554.143	8565.06
554.507	8559.41
554.87	8596.47
555.234	8665.17
555.597	8633.76
555.96	8742.91
556.323	8794.43
556.686	8874.43
557.05	8923.92
557.413	8887.53
557.776	8977.02
558.139	9107.64
558.502	9070.58
558.865	9172.95
559.228	9145.38
559.59	9243.46
559.953	9250.46
560.316	9315.55
560.679	9339.5
561.041	9423.57
561.404	9530.23
561.767	9547.4
562.129	9607.29
562.492	9650.45
562.854	9707.85
563.217	9707.85
563.579	9791.92
563.941	9875.76
564.304	9868.98
564.666	9929.77
565.028	10044.11
565.39	9967.96
565.753	10166.37
566.115	10194.17
566.477	10180.38
566.839	10251.11
567.201	10389.42
567.563	10320.27
567.925	10404.33
568.287	10450.88
568.648	10500.15
569.01	10603.42
569.372	10574.04
569.734	10622.4
570.095	10727.94
570.457	10752.12
570.819	10784.21
571.18	10818.78
571.542	10899.01
571.903	10960.7
572.265	10990.98
572.626	11070.3
572.987	11106.23
573.349	11084.31
573.71	11166.8
574.071	11192.78
574.432	11283.18
574.794	11347.13
575.155	11317.98
575.516	11331.31
575.877	11424.19
576.238	11520.46
576.599	11488.37
576.96	11536.96
577.32	11553.68
577.681	11515.71
578.042	11644.98
578.403	11703.05
578.763	11693.11
579.124	11755.03
579.485	11779.89
579.845	11837.51
580.206	11748.25
580.566	11901.92
580.927	11865.76
581.287	11907.12
581.648	11960.9
582.008	12022.37
582.368	11914.57
582.728	12071.41
583.089	12077.73
583.449	12065.3
583.809	12041.8
584.169	12127
584.529	12192.31
584.889	12233.89
585.249	12194.11
585.609	12187.79
585.969	12261.23
586.329	12239.76
586.688	12305.75
587.048	12375.8
587.408	12387.33
587.768	12253.77
588.127	12275.69
588.487	12399.08
588.846	12412.87
589.206	12313.43
589.565	12351.85
589.925	12541.68
590.284	12490.6
590.643	12454.9
591.003	12497.84
591.362	12635.23
591.721	12554.78
592.08	12519.76
592.44	12608.79
592.799	12580.77
593.158	12630.26
593.517	12658.96
593.876	12733.76
594.235	12613.31
594.593	12755.68
594.952	12751.39
595.311	12710.26
595.67	12780.09
596.029	12817.83
596.387	12828.9
596.746	12894.43
597.104	12844.49
597.463	12820.54
597.822	12896.69
598.18	12855.57
598.538	12892.18
598.897	12916.58
599.255	12847.43
599.613	12985.28
599.972	12966.98
600.33	13023.02
600.688	12988.67
601.046	13008.56
601.404	13096.92
601.762	13084.49
602.12	13140.08
602.478	13131.26
602.836	13194.99
603.194	13126.97
603.552	13205.84
603.91	13116.8
604.268	13221.88
604.625	13185.05
604.983	13222.56
605.341	13201.55
605.698	13321.09
606.056	13282
606.413	13306.85
606.771	13432.73
607.128	13411.03
607.485	13425.04
607.843	13372.84
608.2	13484.02
608.557	13429.34
608.914	13418.26
609.272	13539.16
609.629	13562.89
609.986	13605.83
610.343	13521.31
610.7	13716.79
611.057	13672.27
611.414	13693.51
611.771	13670.91
612.127	13705.71
612.484	13763.56
612.841	13788.42
613.198	13725.6
613.554	13775.77
613.911	13925.59
614.267	13906.39
614.624	14001.3
614.98	13905.26
615.337	14025.48
615.693	13945.93
616.05	13956.33
616.406	14006.95
616.762	14030.9
617.118	13999.94
617.475	14015.08
617.831	14053.27
618.187	14181.86
618.543	14141.63
618.899	14287.84
619.255	14237.68
619.611	14160.62
619.967	14333.49
620.323	14311.8
620.678	14338.46
621.034	14267.96
621.39	14246.26
621.746	14301.63
622.101	14460.04
622.457	14387.28
622.812	14378.24
623.168	14400.16
623.523	14479.25
623.879	14528.29
624.234	14361.06
624.589	14485.35
624.945	14487.39
625.3	14528.74
625.655	14509.08
626.01	14555.63
626.365	14545.47
626.72	14576.65
627.075	14552.47
627.43	14503.43
627.785	14471.34
628.14	14494.84
628.495	14529.42
628.85	14538.23
629.205	14558.57
629.559	14719.25
629.914	14548.18
630.269	14563.54
630.623	14602.19
630.978	14553.37
631.332	14523.09
631.687	14537.33
632.041	14701.62
632.396	14668.17
632.75	14583.2
633.104	14539.59
633.459	14613.94
633.813	14490.33
634.167	14541.4
634.521	14572.81
634.875	14525.58
635.229	14587.5
635.583	14554.5
635.937	14478.8
636.291	14575.52
636.645	14559.02
636.999	14504.79
637.352	14479.48
637.706	14478.12
638.06	14521.51
638.413	14493.94
638.767	14503.21
639.121	14426.82
639.474	14400.16
639.828	14529.19
640.181	14474.05
640.534	14454.39
640.888	14493.26
641.241	14425.69
641.594	14374.85
641.947	14475.41
642.301	14372.81
642.654	14398.58
643.007	14381.85
643.36	14351.35
643.713	14343.66
644.066	14448.52
644.419	14352.48
644.771	14255.08
645.124	14092.82
645.477	14149.54
645.83	13979.6
646.182	13961.53
646.535	13955.42
646.888	13945.48
647.24	13898.02
647.593	13951.36
647.945	14024.57
648.298	13961.98
648.65	13846.5
649.002	13851.25
649.355	13976.44
649.707	13859.16
650.059	13948.87
650.411	14147.51
650.763	14198.36
651.115	14405.58
651.467	14223.44
651.819	14275.87
652.171	14314.28
652.523	14139.6
652.875	14264.34
653.227	14157.23
653.578	14252.37
653.93	14172.82
654.282	14154.74
654.633	14191.8
654.985	14147.51
655.337	14265.7
655.688	14272.48
656.039	14322.87
656.391	14160.39
656.742	14231.57
657.094	14247.62
657.445	14281.97
657.796	14229.09
658.147	14217.56
658.498	14175.53
658.849	14311.57
659.2	14151.8
659.551	14257.79
659.902	14315.87
660.253	14224.34
660.604	14213.95
660.955	14240.16
661.306	14302.08
661.656	14205.36
662.007	14274.51
662.358	14189.77
662.708	14291.46
663.059	14213.04
663.409	14104.12
663.76	14337.56
664.11	14295.08
664.461	14303.89
664.811	14255.08
665.161	14314.51
665.511	14243.33
665.862	14275.87
666.212	14340.95
666.562	14358.13
666.912	14265.47
667.262	14295.98
667.612	14286.71
667.962	14282.65
668.312	14240.39
668.662	14367.62
669.011	14349.76
669.361	14214.63
669.711	14310.89
670.06	14285.81
670.41	14254.63
670.76	14285.13
671.109	14222.99
671.459	14325.81
671.808	14308.41
672.157	14246.72
672.507	14201.75
672.856	14228.64
673.205	14217.34
673.554	14229.99
673.904	14252.82
674.253	14284.23
674.602	14225.93
674.951	14079.26
675.3	14062.31
675.649	14265.25
675.998	14207.39
676.346	14237.22
676.695	14248.75
677.044	14204.68
677.393	14208.52
677.741	14262.76
678.09	14170.56
678.438	14167.62
678.787	14235.42
679.135	14217.56
679.484	14191.8
679.832	14220.73
680.181	14118.58
680.529	14178.69
680.877	14144.57
681.225	14141.18
681.573	14203.1
681.922	14142.76
682.27	14062.31
682.618	14054.18
682.966	14041.52
683.314	14133.72
683.661	14076.1
684.009	14077.23
684.357	13966.27
684.705	13991.36
685.053	13994.29
685.4	13983.67
685.748	13969.43
686.095	13932.37
686.443	13862.32
686.79	13899.61
687.138	13936.89
687.485	13862.77
687.832	13819.16
688.18	13853.96
688.527	13762.43
688.874	13837.69
689.221	13805.15
689.568	13749.1
689.915	13750.68
690.262	13722.21
690.609	13651.03
690.956	13607.64
691.303	13660.74
691.65	13557.02
691.997	13625.94
692.344	13517.92
692.69	13539.16
693.037	13580.74
693.383	13369.68
693.73	13456.23
694.077	13393.18
694.423	13344.82
694.769	13345.04
695.116	13316.57
695.462	13339.17
695.808	13337.14
696.155	13338.72
696.501	13234.77
696.847	13308.89
697.193	13070.48
697.539	13220.98
697.885	13116.58
698.231	13040.42
698.577	13159.96
698.923	12945.06
699.269	13025.96
699.614	12987.77
699.96	12969.01
700.306	13009.01
700.651	12923.81
700.997	12835.23
701.342	12832.74
701.688	12858.28
702.033	12752.97
702.379	12807.21
702.724	12736.02
703.069	12822.35
703.415	12626.65
703.76	12679.3
704.105	12673.42
704.45	12603.14
704.795	12537.16
705.14	12584.16
705.485	12588.68
705.83	12544.39
706.175	12527.89
706.52	12517.72
706.865	12399.98
707.209	12430.72
707.554	12326.77
707.899	12450.83
708.243	12347.33
708.588	12360.66
708.932	12276.6
709.277	12239.54
709.621	12303.26
709.966	12211.29
710.31	12244.28
710.654	12167
710.998	12124.51
711.342	12196.37
711.687	12064.4
712.031	12065.98
712.375	11988.02
712.719	12108.24
713.063	12092.2
713.407	12130.61
713.75	12035.93
714.094	12067.79
714.438	11978.98
714.782	11923.61
715.125	11936.49
715.469	11915.7
715.812	11919.77
716.156	11909.6
716.499	11896.72
716.843	11917.06
717.186	11879.77
717.53	11897.17
717.873	11832.09
718.216	11829.38
718.559	11718.87
718.902	11729.27
719.246	11744.18
719.589	11729.49
719.932	11718.87
720.275	11713
720.617	11698.08
720.96	11648.59
721.303	11736.05
721.646	11615.82
721.989	11567.24
722.331	11739.44
722.674	11607.46
723.016	11633.9
723.359	11639.1
723.701	11663.05
724.044	11593.23
724.386	11515.49
724.729	11596.39
725.071	11557.97
725.413	11582.38
725.755	11580.8
726.097	11520.69
726.439	11477.75
726.782	11534.24
727.124	11581.25
727.465	11502.83
727.807	11502.83
728.149	11452.44
728.491	11347.58
728.833	11483.4
729.175	11382.16
729.516	11399.33
729.858	11354.36
730.199	11360.69
730.541	11359.33
730.882	11360.46
731.224	11375.83
731.565	11267.36
731.906	11371.99
732.248	11325.44
732.589	11295.38
732.93	11266.46
733.271	11286.57
733.612	11290.18
733.953	11368.83
734.294	11235.27
734.635	11270.52
734.976	11298.32
735.317	11168.15
735.658	11203.18
735.999	11253.12
736.339	11134.93
736.68	11117.53
737.021	11216.06
737.361	11122.05
737.702	11132.45
738.042	11241.82
738.383	11162.73
738.723	11189.4
739.063	11115.72
739.404	11116.18
739.744	11147.36
740.084	11080.7
740.424	11141.03
740.764	11090.19
741.104	11191.2
741.444	11150.98
741.784	11077.76
742.124	11119.34
742.464	11087.48
742.804	11001.38
743.143	11073.01
743.483	11133.13
743.823	10948.05
744.162	11002.73
744.502	11023.3
744.841	10983.3
745.181	11040.47
745.52	11003.41
745.86	11001.15
746.199	11013.81
746.538	10999.8
746.877	11010.19
747.216	11026.46
747.556	11024.43
747.895	11048.61
748.234	10962.96
748.573	10957.54
748.911	10917.54
749.25	10943.53
749.589	10893.13
749.928	10929.06
750.267	10931.1
750.605	10866.24
750.944	10885
751.283	10814.49
751.621	10937.65
751.96	10869.18
752.298	10864.21
752.636	10837.31
752.975	10762.51
753.313	10820.59
753.651	10814.04
753.989	10729.97
754.327	10772.91
754.666	10714.61
755.004	10742.4
755.342	10812.23
755.679	10715.28
756.017	10672.57
756.355	10686.58
756.693	10628.28
757.031	10653.36
757.368	10602.29
757.706	10622.63
758.044	10535.85
758.381	10660.6
758.719	10602.07
759.056	10546.02
759.394	10560.03
759.731	10477.78
760.068	10458.79
760.405	10440.71
