Data from cardboard_FLMS001491_026.txt Node
Date: Tue Feb 07 11:39:11 GMT 2017
User: dcchb
Spectrometer: FLMS00149
Trigger mode: 0
Integration Time (sec): 2.000000E-2
Scans to average: 10
Electric dark correction enabled: true
Nonlinearity correction enabled: false
Boxcar width: 0
XAxis mode: Wavelengths
Number of Pixels in Spectrum: 2048
>>>>>Begin Spectral Data<<<<<
341.393	-16.5
341.776	-16.5
342.16	-16.5
342.543	-48.81
342.927	-77.74
343.31	-73.44
343.693	-71.64
344.077	-68.92
344.46	-52.88
344.843	-56.95
345.226	-42.71
345.61	-31.86
345.993	-29.15
346.376	1.13
346.759	27.8
347.142	34.58
347.525	23.5
347.908	51.52
348.291	76.16
348.674	91.07
349.057	121.8
349.44	121.8
349.823	126.1
350.206	172.65
350.588	173.33
350.971	205.19
351.354	220.33
351.737	235.25
352.119	233.67
352.502	271.18
352.884	250.84
353.267	260.33
353.65	281.35
354.032	289.26
354.414	305.53
354.797	304.4
355.179	318.86
355.562	308.47
355.944	315.92
356.326	344.4
356.709	325.64
357.091	316.83
357.473	325.87
357.855	331.52
358.238	351.18
358.62	334.45
359.002	356.83
359.384	340.1
359.766	334.91
360.148	327.9
360.53	328.35
360.912	329.48
361.294	327.68
361.676	312.99
362.057	329.48
362.439	322.93
362.821	309.82
363.203	327.45
363.584	315.02
363.966	291.52
364.348	308.24
364.729	299.2
365.111	309.37
365.493	335.13
365.874	325.64
366.256	313.89
366.637	297.17
367.019	305.75
367.4	304.4
367.781	311.86
368.163	268.69
368.544	286.32
368.925	290.39
369.306	299.88
369.688	293.78
370.069	320.22
370.45	303.49
370.831	297.39
371.212	306.66
371.593	310.95
371.974	325.42
372.355	309.14
372.736	296.94
373.117	308.92
373.498	311.4
373.879	305.98
374.26	308.24
374.641	336.04
375.021	298.52
375.402	303.49
375.783	307.56
376.163	305.08
376.544	317.96
376.925	302.59
377.305	315.92
377.686	313.89
378.066	308.24
378.447	304.85
378.827	316.6
379.208	328.8
379.588	315.7
379.968	316.83
380.349	298.07
380.729	315.02
381.109	314.79
381.489	318.64
381.87	335.13
382.25	326.09
382.63	308.24
383.01	317.73
383.39	337.17
383.77	334
384.15	314.79
384.53	325.87
384.91	318.41
385.29	328.8
385.67	324.29
386.049	338.3
386.429	325.87
386.809	337.17
387.189	317.51
387.568	328.13
387.948	340.1
388.328	344.4
388.707	342.82
389.087	344.4
389.466	332.19
389.846	320.9
390.225	346.21
390.605	331.06
390.984	344.62
391.363	357.05
391.743	333.55
392.122	364.06
392.501	344.85
392.881	366.32
393.26	378.75
393.639	366.32
394.018	342.14
394.397	334.23
394.776	345.3
395.155	368.8
395.534	376.26
395.913	340.1
396.292	352.53
396.671	362.02
397.05	376.94
397.429	374.23
397.808	378.07
398.186	367
398.565	366.77
398.944	377.84
399.323	368.35
399.701	361.35
400.08	383.27
400.458	356.83
400.837	393.89
401.215	373.78
401.594	373.78
401.972	370.61
402.351	370.61
402.729	363.38
403.107	384.17
403.486	388.92
403.864	390.72
404.242	393.66
404.62	385.75
404.999	395.47
405.377	374.23
405.755	420.1
406.133	365.19
406.511	406.09
406.889	408.12
407.267	414.45
407.645	392.08
408.023	405.64
408.401	391.18
408.779	414.9
409.156	413.32
409.534	411.51
409.912	407.67
410.29	423.49
410.667	408.8
411.045	421.46
411.422	416.94
411.8	430.27
412.178	426.2
412.555	409.71
412.933	417.39
413.31	443.38
413.687	418.29
414.065	426.88
414.442	430.5
414.819	433.89
415.197	434.79
415.574	459.87
415.951	439.99
416.328	433.43
416.705	448.8
417.082	448.35
417.46	463.49
417.837	446.77
418.214	447.22
418.591	473.21
418.967	448.58
419.344	455.58
419.721	474.11
420.098	476.37
420.475	465.52
420.852	477.5
421.228	485.41
421.605	450.84
421.982	470.27
422.358	491.06
422.735	479.99
423.111	501.68
423.488	472.3
423.864	505.98
424.241	527.9
424.617	496.48
424.994	497.16
425.37	498.97
425.746	504.39
426.123	517.95
426.499	510.72
426.875	517.95
427.251	515.92
427.627	518.4
428.003	539.87
428.379	525.64
428.756	535.35
429.132	544.17
429.507	540.32
429.883	545.07
430.259	553.43
430.635	528.35
431.011	550.49
431.387	531.06
431.763	570.38
432.138	569.02
432.514	569.7
432.89	566.76
433.265	560.89
433.641	576.93
434.016	588.46
434.392	590.94
434.767	597.72
435.143	620.32
435.518	596.14
435.894	612.64
436.269	605.18
436.644	613.77
437.02	619.19
437.395	630.49
437.77	638.63
438.145	645.41
438.52	628.68
438.895	633.66
439.271	646.08
439.646	650.38
440.021	638.85
440.395	666.88
440.77	632.3
441.145	656.48
441.52	644.73
441.895	671.85
442.27	670.94
442.645	670.72
443.019	689.02
443.394	673.43
443.769	704.61
444.143	687.21
444.518	694.22
444.892	690.38
445.267	721.34
445.641	703.48
446.016	694.9
446.39	723.82
446.764	720.21
447.139	707.55
447.513	735.35
447.887	738.29
448.262	698.74
448.636	741
449.01	731.51
449.384	731.05
449.758	735.57
450.132	740.32
450.506	737.83
450.88	755.23
451.254	753.65
451.628	776.48
452.002	760.43
452.376	788.45
452.75	776.25
453.123	784.61
453.497	801.33
453.871	788.68
454.244	813.31
454.618	817.15
454.992	829.13
455.365	827.32
455.739	843.37
456.112	817.38
456.486	811.73
456.859	875.91
457.232	850.37
457.606	876.81
457.979	886.08
458.352	870.03
458.725	910.03
459.099	888.11
459.472	884.95
459.845	921.56
460.218	891.28
460.591	907.77
460.964	944.16
461.337	946.87
461.71	969.47
462.083	950.48
462.456	985.28
462.829	980.09
463.201	977.15
463.574	985.51
463.947	1013.98
464.32	1005.85
464.692	1013.31
465.065	1029.8
465.438	1048.33
465.81	1032.97
466.183	1074.32
466.555	1045.85
466.928	1084.72
467.3	1048.56
467.672	1100.31
468.045	1117.26
468.417	1113.42
468.789	1144.83
469.161	1154.55
469.534	1161.33
469.906	1191.83
470.278	1170.36
470.65	1208.78
471.022	1179.18
471.394	1224.15
471.766	1241.55
472.138	1225.96
472.51	1216.24
472.882	1258.27
473.253	1321.77
473.625	1313.19
473.997	1350.47
474.369	1348.67
474.74	1339.17
475.112	1398.38
475.484	1385.95
475.855	1406.97
476.227	1442.45
476.598	1458.04
476.97	1491.94
477.341	1517.25
477.713	1519.73
478.084	1546.4
478.455	1557.25
478.827	1566.29
479.198	1611.48
479.569	1645.38
479.94	1660.52
480.311	1656.91
480.682	1694.87
481.053	1720.86
481.424	1782.33
481.795	1778.03
482.166	1816.68
482.537	1800.63
482.908	1830.01
483.279	1879.5
483.65	1899.61
484.021	1943.68
484.391	1959.72
484.762	1984.13
485.133	1974.86
485.503	2016.22
485.874	2097.12
486.244	2086.27
486.615	2157.68
486.985	2134.41
487.356	2136.67
487.726	2190
488.097	2264.35
488.467	2245.36
488.837	2326.72
489.207	2324.01
489.578	2365.14
489.948	2369.88
490.318	2433.61
490.688	2426.15
491.058	2483.32
491.428	2473.38
491.798	2535.75
492.168	2581.18
492.538	2579.82
492.908	2605.81
493.278	2650.1
493.648	2666.82
494.017	2655.98
494.387	2700.95
494.757	2748.18
495.126	2766.48
495.496	2774.62
495.866	2843.32
496.235	2851
496.605	2862.75
496.974	2864.56
497.344	2936.65
497.713	2979.13
498.082	2995.18
498.452	2995.18
498.821	3031.56
499.19	3014.38
499.559	3078.56
499.928	3118.56
500.298	3117.21
500.667	3176.41
501.036	3183.87
501.405	3197.66
501.774	3232.01
502.143	3239.46
502.512	3250.54
502.88	3328.5
503.249	3333.7
503.618	3403.98
503.987	3392.45
504.356	3411.66
504.724	3397.2
505.093	3488.04
505.462	3486.46
505.83	3523.52
506.199	3568.95
506.567	3590.41
506.936	3592.9
507.304	3650.07
507.672	3655.05
508.041	3696.17
508.409	3769.84
508.777	3725.55
509.145	3794.7
509.514	3829.28
509.882	3845.55
510.25	3862.27
510.618	3914.7
510.986	3950.63
511.354	3950.18
511.722	4043.28
512.09	4055.49
512.458	4064.53
512.826	4077.86
513.193	4136.39
513.561	4196.5
513.929	4174.81
514.297	4239.21
514.664	4314.24
515.032	4323.5
515.4	4382.71
515.767	4389.72
516.135	4406.21
516.502	4394.23
516.869	4506.32
517.237	4485.08
517.604	4532.76
517.972	4574.79
518.339	4628.13
518.706	4621.57
519.073	4695.47
519.44	4713.55
519.808	4759.65
520.175	4822.7
520.542	4866.99
520.909	4906.54
521.276	4940.21
521.643	4957.38
522.009	5020.88
522.376	5095.91
522.743	5118.51
523.11	5198.28
523.477	5240.09
523.843	5276.92
524.21	5309.92
524.577	5332.74
524.943	5363.25
525.31	5427.2
525.676	5538.84
526.043	5592.17
526.409	5591.72
526.776	5653.18
527.142	5669.68
527.508	5713.07
527.874	5755.78
528.241	5817.25
528.607	5910.35
528.973	5922.78
529.339	5930.01
529.705	6030.35
530.071	6104.02
530.437	6117.81
530.803	6134.08
531.169	6186.96
531.535	6164.58
531.901	6240.29
532.267	6290.68
532.632	6366.61
532.998	6380.62
533.364	6430.57
533.73	6452.49
534.095	6554.86
534.461	6583.1
534.826	6635.08
535.192	6601.41
535.557	6685.93
535.923	6731.35
536.288	6830.1
536.653	6827.39
537.019	6815.64
537.384	6907.39
537.749	6930.89
538.114	6975.86
538.479	6980.16
538.845	7049.31
539.21	7051.57
539.575	7089.53
539.94	7148.96
540.305	7239.13
540.67	7149.87
541.034	7302.86
541.399	7298.34
541.764	7362.74
542.129	7311.45
542.494	7387.38
542.858	7479.35
543.223	7522.74
543.587	7566.81
543.952	7519.58
544.316	7660.14
544.681	7626.69
545.045	7672.57
545.41	7777.2
545.774	7770.87
546.138	7768.84
546.503	7846.35
546.867	7909.17
547.231	7979.9
547.595	7988.72
547.959	8020.13
548.324	8040.24
548.688	8071.2
549.052	8136.74
549.416	8173.57
549.779	8194.81
550.143	8240.01
550.507	8315.04
550.871	8334.47
551.235	8381.25
551.599	8464.18
551.962	8462.83
552.326	8517.52
552.689	8529.04
553.053	8520.91
553.417	8583.05
553.78	8722.71
554.143	8739.88
554.507	8809.03
554.87	8811.29
555.234	8902.59
555.597	8930.16
555.96	8972.42
556.323	8985.53
556.686	9037.05
557.05	9071.17
557.413	9136.26
557.776	9266.65
558.139	9278.85
558.502	9266.87
558.865	9339.19
559.228	9375.57
559.59	9447.21
559.953	9542.57
560.316	9612.4
560.679	9611.05
561.041	9718.61
561.404	9764.49
561.767	9816.24
562.129	9798.16
562.492	9940.3
562.854	9962.9
563.217	9985.05
563.579	10086.74
563.941	10110.47
564.304	10190.01
564.666	10348.65
565.028	10225.72
565.39	10256.45
565.753	10375.55
566.115	10482.89
566.477	10521.08
566.839	10612.15
567.201	10700.51
567.563	10672.94
567.925	10764.69
568.287	10800.85
568.648	10812.37
569.01	10948.41
569.372	10935.31
569.734	10957.23
570.095	11088.3
570.457	11104.11
570.819	11176.2
571.18	11181.17
571.542	11247.39
571.903	11245.81
572.265	11365.12
572.626	11394.95
572.987	11415.07
573.349	11516.76
573.71	11513.82
574.071	11517.21
574.432	11607.83
574.794	11737.54
575.155	11718.11
575.516	11792.91
575.877	11797.66
576.238	11833.14
576.599	11912.46
576.96	11898.44
577.32	11900.7
577.681	12086.01
578.042	12089.17
578.403	12086.01
578.763	12105.9
579.124	12115.84
579.485	12187.48
579.845	12321.71
580.206	12281.48
580.566	12257.3
580.927	12365.78
581.287	12313.8
581.648	12360.13
582.008	12465.89
582.368	12490.52
582.728	12485.77
583.089	12546.56
583.449	12608.03
583.809	12498.88
584.169	12589.5
584.529	12538.43
584.889	12685.54
585.249	12627.92
585.609	12604.19
585.969	12704.52
586.329	12709.5
586.688	12691.42
587.048	12710.4
587.408	12693.45
587.768	12734.58
588.127	12838.53
588.487	12765.77
588.846	12896.38
589.206	12866.55
589.565	12807.8
589.925	12908.59
590.284	12900.23
590.643	12972.99
591.003	12895.48
591.362	13049.37
591.721	13048.02
592.08	13021.35
592.44	13076.04
592.799	13133.89
593.158	13118.07
593.517	13149.03
593.876	13183.61
594.235	13177.05
594.593	13161.01
594.952	13195.36
595.311	13172.08
595.67	13155.81
596.029	13257.5
596.387	13271.29
596.746	13364.85
597.104	13325.07
597.463	13339.99
597.822	13356.71
598.18	13321.68
598.538	13371.4
598.897	13424.96
599.255	13330.04
599.613	13561.9
599.972	13498.4
600.33	13545.18
600.688	13511.28
601.046	13599.87
601.404	13536.82
601.762	13581.34
602.12	13682.8
602.478	13714.89
602.836	13697.49
603.194	13708.34
603.552	13757.83
603.91	13586.54
604.268	13878.05
604.625	13801.67
604.983	13845.96
605.341	13707.89
605.698	13813.2
606.056	13853.65
606.413	13899.75
606.771	13980.42
607.128	14089.57
607.485	13983.81
607.843	13995.11
608.2	14145.84
608.557	14120.08
608.914	14107.65
609.272	14163.7
609.629	14128.22
609.986	14300.64
610.343	14171.6
610.7	14264.26
611.057	14343.58
611.414	14351.49
611.771	14264.94
612.127	14348.55
612.484	14351.94
612.841	14384.03
613.198	14459.73
613.554	14375.67
613.911	14483.46
614.267	14443.91
614.624	14493.86
614.98	14530.01
615.337	14605.49
615.693	14629.67
616.05	14617.02
616.406	14678.48
616.762	14636.23
617.118	14660.86
617.475	14680.97
617.831	14654.76
618.187	14759.39
618.543	14760.97
618.899	14941.3
619.255	14892.94
619.611	14861.08
619.967	14940.4
620.323	14888.87
620.678	14887.29
621.034	14943.56
621.39	14847.52
621.746	14897.01
622.101	15051.13
622.457	14899.5
622.812	14917.8
623.168	15076.21
623.523	15021.07
623.879	15028.76
624.234	14981.75
624.589	15101.52
624.945	15090.45
625.3	15141.3
625.655	15131.58
626.01	15072.37
626.365	15168.64
626.72	15113.5
627.075	15131.81
627.43	15104.69
627.785	15112.15
628.14	15180.84
628.495	15180.84
628.85	15058.36
629.205	15153.5
629.559	15222.2
629.914	15183.1
630.269	15169.54
630.623	15155.53
630.978	15110.56
631.332	15278.92
631.687	15182.43
632.041	15130.68
632.396	15164.57
632.75	15178.36
633.104	15165.93
633.459	15097
633.813	15151.92
634.167	15117.34
634.521	15184.91
634.875	15204.57
635.229	15245.7
635.583	15140.17
635.937	15137.23
636.291	15153.05
636.645	15179.04
636.999	15155.76
637.352	15099.72
637.706	14979.72
638.06	15129.09
638.413	15122.31
638.767	15073.5
639.121	15100.39
639.474	15000.74
639.828	15069.43
640.181	15080.06
640.534	15130.22
640.888	15099.04
641.241	15019.72
641.594	14969.55
641.947	15070.79
642.301	14993.96
642.654	15104.69
643.007	15055.2
643.36	15113.95
643.713	14978.82
644.066	15083.22
644.419	14972.49
644.771	14995.09
645.124	14780.85
645.477	14654.76
645.83	14710.35
646.182	14632.61
646.535	14587.19
646.888	14669.44
647.24	14553.97
647.593	14613.18
647.945	14620.41
648.298	14561.88
648.65	14542.89
649.002	14475.55
649.355	14610.69
649.707	14611.59
650.059	14707.64
650.411	14884.35
650.763	14875.99
651.115	14964.13
651.467	14908.53
651.819	15003.22
652.171	14979.72
652.523	14872.15
652.875	14934.97
653.227	14900.63
653.578	14967.97
653.93	15066.95
654.282	14919.83
654.633	14762.1
654.985	14919.16
655.337	14927.97
655.688	14882.32
656.039	14943.34
656.391	14805.49
656.742	14917.57
657.094	14931.36
657.445	14993.28
657.796	14819.95
658.147	14890.46
658.498	14937.69
658.849	14937.46
659.2	14965.48
659.551	14909.44
659.902	14971.81
660.253	14938.82
660.604	14917.35
660.955	14927.74
661.306	14940.4
661.656	14870.8
662.007	14946.95
662.358	14937.01
662.708	14919.61
663.059	14939.04
663.409	14792.15
663.76	14967.74
664.11	14927.74
664.461	14875.77
664.811	15032.37
665.161	15004.35
665.511	15024.46
665.862	14992.15
666.212	14996.44
666.562	15068.3
666.912	15018.59
667.262	14977.23
667.612	14890.23
667.962	14991.92
668.312	14899.5
668.662	14992.15
669.011	15023.33
669.361	15005.03
669.711	14961.87
670.06	14965.03
670.41	14909.21
670.76	14872.83
671.109	15046.38
671.459	14867.86
671.808	14902.43
672.157	14975.65
672.507	14903.34
672.856	14962.77
673.205	14935.43
673.554	14989.66
673.904	14910.79
674.253	15067.4
674.602	14983.11
674.951	14672.61
675.3	14606.4
675.649	14916.9
675.998	14897.46
676.346	14925.71
676.695	14935.65
677.044	14800.06
677.393	14902.43
677.741	14964.35
678.09	14812.49
678.438	14871.7
678.787	14877.12
679.135	14931.13
679.484	14784.7
679.832	14864.69
680.181	14811.81
680.529	14842.55
680.877	14808.88
681.225	14798.93
681.573	14862.66
681.922	14829.21
682.27	14779.27
682.618	14830.12
682.966	14723.91
683.314	14749.89
683.661	14700.18
684.009	14726.39
684.357	14684.36
684.705	14674.42
685.053	14661.76
685.4	14690.69
685.748	14676.22
686.095	14591.48
686.443	14487.08
686.79	14553.29
687.138	14610.24
687.485	14570.01
687.832	14465.83
688.18	14455.89
688.527	14437.59
688.874	14462.44
689.221	14385.61
689.568	14333.41
689.915	14359.4
690.262	14340.19
690.609	14237.59
690.956	14247.53
691.303	14268.55
691.65	14176.8
691.997	14193.75
692.344	14119.63
692.69	14153.07
693.037	14170.7
693.383	14055.9
693.73	14161.44
694.077	14027.2
694.423	14024.26
694.769	13982.46
695.116	13906.53
695.462	13985.17
695.808	13904.27
696.155	13984.04
696.501	13798.51
696.847	13786.76
697.193	13803.03
697.539	13823.59
697.885	13751.5
698.231	13661.79
698.577	13598.29
698.923	13581.11
699.269	13542.24
699.614	13552.41
699.96	13503.37
700.306	13494.33
700.651	13434.9
700.997	13429.93
701.342	13400.78
701.688	13433.77
702.033	13323.72
702.379	13368.91
702.724	13294.34
703.069	13442.81
703.415	13217.96
703.76	13292.31
704.105	13250.95
704.45	13203.04
704.795	13112.42
705.14	13099.77
705.485	13091.86
705.83	13051.41
706.175	13087.57
706.52	13032.2
706.865	12938.42
707.209	13028.81
707.554	12904.75
707.899	12924.18
708.243	12871.75
708.588	12913.11
708.932	12795.37
709.277	12802.38
709.621	12817.97
709.966	12754.47
710.31	12754.47
710.654	12687.12
710.998	12644.41
711.342	12754.92
711.687	12647.8
712.031	12553.12
712.375	12643.06
712.719	12622.49
713.063	12668.37
713.407	12679.21
713.75	12491.2
714.094	12517.41
714.438	12503.85
714.782	12473.57
715.125	12439.67
715.469	12497.75
715.812	12408.26
716.156	12347.25
716.499	12406.68
716.843	12378.88
717.186	12293.91
717.53	12359
717.873	12344.76
718.216	12317.87
718.559	12235.16
718.902	12320.81
719.246	12347.92
719.589	12200.13
719.932	12217.53
720.275	12178.89
720.617	12204.2
720.96	12171.66
721.303	12139.79
721.646	12173.92
721.989	12022.06
722.331	12216.4
722.674	12084.43
723.016	12144.77
723.359	12131.66
723.701	12116.74
724.044	12024.99
724.386	12093.92
724.729	12086.24
725.071	11997.88
725.413	12079.68
725.755	12022.51
726.097	11980.02
726.439	11926.69
726.782	12043.53
727.124	11980.7
727.465	11921.49
727.807	11921.72
728.149	11900.93
728.491	11943.64
728.833	11874.04
729.175	11845.79
729.516	11898.67
729.858	11844.66
730.199	11900.93
730.541	11862.74
730.882	11823.87
731.224	11860.03
731.565	11672.24
731.906	11726.25
732.248	11765.11
732.589	11764.44
732.93	11829.75
733.271	11772.12
733.612	11750.65
733.953	11726.7
734.294	11745.68
734.635	11733.02
734.976	11704.1
735.317	11729.41
735.658	11726.25
735.999	11719.24
736.339	11694.16
736.68	11716.98
737.021	11660.71
737.361	11650.99
737.702	11632.01
738.042	11598.34
738.383	11603.99
738.723	11654.38
739.063	11643.08
739.404	11619.36
739.744	11628.85
740.084	11607.15
740.424	11634.27
740.764	11632.24
741.104	11667.94
741.444	11613.03
741.784	11555.85
742.124	11648.73
742.464	11549.3
742.804	11528.51
743.143	11491
743.483	11528.74
743.823	11463.88
744.162	11498
744.502	11489.87
744.841	11408.97
745.181	11533.03
745.52	11465.69
745.86	11369.42
746.199	11451
746.538	11490.55
746.877	11541.17
747.216	11488.51
747.556	11399.47
747.895	11392.92
748.234	11389.98
748.573	11394.95
748.911	11302.53
749.25	11406.03
749.589	11317.67
749.928	11354.05
750.267	11339.81
750.605	11411
750.944	11300.04
751.283	11247.84
751.621	11300.04
751.96	11266.82
752.298	11234.51
752.636	11289.65
752.975	11265.69
753.313	11229.08
753.651	11291.45
753.989	11229.76
754.327	11235.18
754.666	11159.25
755.004	11128.29
755.342	11178.69
755.679	11163.32
756.017	11111.35
756.355	11194.06
756.693	11058.24
757.031	11108.18
757.368	11013.72
757.706	11066.83
758.044	11022.54
758.381	11043.78
758.719	10966.49
759.056	10937.57
759.394	10938.92
759.731	10868.41
760.068	10855.53
760.405	10907.74
