Data from cardboard_FLMS001491_082.txt Node
Date: Tue Feb 07 11:40:15 GMT 2017
User: dcchb
Spectrometer: FLMS00149
Trigger mode: 0
Integration Time (sec): 2.000000E-2
Scans to average: 10
Electric dark correction enabled: true
Nonlinearity correction enabled: false
Boxcar width: 0
XAxis mode: Wavelengths
Number of Pixels in Spectrum: 2048
>>>>>Begin Spectral Data<<<<<
341.393	-20.01
341.776	-20.01
342.16	-20.01
342.543	-67.92
342.927	-84.19
343.31	-59.79
343.693	-89.39
344.077	-62.5
344.46	-66.34
344.843	-59.11
345.226	-26.12
345.61	-51.65
345.993	-14.36
346.376	-19.79
346.759	16.14
347.142	17.5
347.525	40.1
347.908	66.09
348.291	92.3
348.674	107.44
349.057	109.47
349.44	123.94
349.823	129.81
350.206	168.91
350.588	193.54
350.971	216.82
351.354	211.84
351.737	241.45
352.119	239.19
352.502	278.74
352.884	273.54
353.267	262.92
353.65	290.71
354.032	301.56
354.414	289.58
354.797	304.5
355.179	327.1
355.562	314.67
355.944	319.19
356.326	345.4
356.709	320.54
357.091	338.4
357.473	335.23
357.855	316.7
358.238	350.37
358.62	348.11
359.002	334.78
359.384	349.92
359.766	345.63
360.148	337.94
360.53	333.65
360.912	350.6
361.294	318.96
361.676	335.91
362.057	325.06
362.439	316.7
362.821	353.76
363.203	344.04
363.584	319.19
363.966	324.61
364.348	313.31
364.729	319.19
365.111	323.48
365.493	332.29
365.874	321.45
366.256	311.96
366.637	305.63
367.019	311.96
367.4	298.62
367.781	313.99
368.163	308.79
368.544	300.88
368.925	310.37
369.306	320.77
369.688	332.07
370.069	304.95
370.45	323.71
370.831	327.1
371.212	310.15
371.593	324.38
371.974	338.17
372.355	306.08
372.736	320.77
373.117	314.44
373.498	318.28
373.879	312.18
374.26	315.8
374.641	311.5
375.021	321.22
375.402	318.96
375.783	331.84
376.163	311.05
376.544	325.74
376.925	319.86
377.305	335.68
377.686	321.45
378.066	326.64
378.447	328.9
378.827	324.61
379.208	337.49
379.588	327.77
379.968	352.63
380.349	335.01
380.729	349.24
381.109	338.85
381.489	330.03
381.87	351.95
382.25	357.83
382.63	368.22
383.01	337.04
383.39	370.94
383.77	351.5
384.15	365.51
384.53	366.19
384.91	362.8
385.29	357.15
385.67	347.66
386.049	359.86
386.429	361.9
386.809	346.53
387.189	354.21
387.568	351.95
387.948	368
388.328	370.94
388.707	381.11
389.087	356.25
389.466	391.95
389.846	386.3
390.225	383.59
390.605	372.29
390.984	388.79
391.363	384.04
391.743	406.64
392.122	386.3
392.501	394.89
392.881	396.02
393.26	386.3
393.639	376.59
394.018	405.74
394.397	400.99
394.776	386.53
395.155	410.94
395.534	402.8
395.913	402.12
396.292	398.73
396.671	412.52
397.05	405.51
397.429	412.07
397.808	411.84
398.186	422.69
398.565	423.14
398.944	440.31
399.323	443.48
399.701	425.62
400.08	425.17
400.458	416.81
400.837	434.66
401.215	445.74
401.594	436.47
401.972	440.31
402.351	449.35
402.729	428.11
403.107	448.67
403.486	459.75
403.864	455.45
404.242	449.35
404.62	460.88
404.999	463.36
405.377	459.3
405.755	487.32
406.133	479.63
406.511	464.49
406.889	484.15
407.267	505.17
407.645	496.58
408.023	495.45
408.401	488.67
408.779	500.65
409.156	523.7
409.534	526.64
409.912	518.05
410.29	523.93
410.667	525.06
411.045	518.05
411.422	544.72
411.8	548.11
412.178	529.35
412.555	551.95
412.933	546.07
413.31	565.06
413.687	553.53
414.065	565.96
414.442	582
414.819	586.75
415.197	572.51
415.574	583.59
415.951	592.85
416.328	606.86
416.705	600.31
417.082	596.92
417.46	572.29
417.837	610.93
418.214	601.66
418.591	620.65
418.967	620.65
419.344	615
419.721	624.94
420.098	600.08
420.475	626.3
420.852	642.12
421.228	654.54
421.605	660.65
421.982	654.09
422.358	672.85
422.735	654.09
423.111	669.91
423.488	664.94
423.864	701.1
424.241	677.14
424.617	671.49
424.994	708.55
425.37	718.5
425.746	716.01
426.123	687.54
426.499	720.98
426.875	705.39
427.251	708.78
427.627	757.59
428.003	758.95
428.379	749.91
428.756	764.6
429.132	769.12
429.507	765.73
429.883	782.68
430.259	795.56
430.635	804.15
431.011	798.27
431.387	807.99
431.763	852.51
432.138	812.51
432.514	844.6
432.89	848.89
433.265	868.78
433.641	861.09
434.016	829.91
434.392	884.6
434.767	894.09
435.143	907.19
435.518	908.32
435.894	896.12
436.269	920.3
436.644	941.32
437.02	930.7
437.395	943.8
437.77	930.02
438.145	949.45
438.52	979.51
438.895	939.51
439.271	1002.56
439.646	982.22
440.021	987.87
440.395	1023.8
440.77	1008.21
441.145	1009.56
441.52	1040.52
441.895	1019.28
442.27	1005.04
442.645	1037.59
443.019	1040.3
443.394	1061.54
443.769	1074.87
444.143	1057.7
444.518	1068.77
444.892	1071.03
445.267	1075.78
445.641	1080.97
446.016	1078.71
446.39	1111.48
446.764	1124.36
447.139	1124.36
447.513	1130.46
447.887	1106.74
448.262	1124.82
448.636	1114.87
449.01	1173.85
449.384	1172.27
449.758	1147.41
450.132	1181.54
450.506	1166.4
450.88	1219.05
451.254	1219.05
451.628	1203.46
452.002	1214.08
452.376	1232.16
452.75	1247.3
453.123	1308.99
453.497	1280.29
453.871	1282.1
454.244	1287.52
454.618	1310.12
454.992	1338.14
455.365	1280.74
455.739	1355.32
456.112	1386.5
456.486	1359.84
456.859	1375.43
457.232	1395.32
457.606	1403.23
457.979	1421.3
458.352	1430.8
458.725	1483.22
459.099	1467.18
459.472	1514.41
459.845	1519.38
460.218	1554.18
460.591	1569.1
460.964	1543.79
461.337	1581.3
461.71	1610
462.083	1629.66
462.456	1620.85
462.829	1630.11
463.201	1653.16
463.574	1673.95
463.947	1719.15
464.32	1724.57
464.692	1753.95
465.065	1736.55
465.438	1787.17
465.81	1805.48
466.183	1811.12
466.555	1858.13
466.928	1843.89
467.3	1878.92
467.672	1882.31
468.045	1938.8
468.417	1936.32
468.789	1966.83
469.161	1974.96
469.534	1987.17
469.906	2051.57
470.278	2084.79
470.65	2067.39
471.022	2097.22
471.394	2160.27
471.766	2152.36
472.138	2217.22
472.51	2237.55
472.882	2263.77
473.253	2335.4
473.625	2365.69
473.997	2406.14
474.369	2414.72
474.74	2432.8
475.112	2475.29
475.484	2517.32
475.855	2572.69
476.227	2577.43
476.598	2674.15
476.97	2637.54
477.341	2735.17
477.713	2756.18
478.084	2757.09
478.455	2862.17
478.827	2860.14
479.198	2951.21
479.569	2955.28
479.94	3049.74
480.311	3047.7
480.682	3154.59
481.053	3211.31
481.424	3209.05
481.795	3283.18
482.166	3345.32
482.537	3367.24
482.908	3425.09
483.279	3491.31
483.65	3546.9
484.021	3600.46
484.391	3675.26
484.762	3700.11
485.133	3754.12
485.503	3788.7
485.874	3892.43
486.244	3923.61
486.615	3988.02
486.985	4091.97
487.356	4140.1
487.726	4174.68
488.097	4235.02
488.467	4291.96
488.837	4322.92
489.207	4392.3
489.578	4453.54
489.948	4530.6
490.318	4598.4
490.688	4624.84
491.058	4717.04
491.428	4783.93
491.798	4832.06
492.168	4896.02
492.538	4948.44
492.908	5061.43
493.278	5082.23
493.648	5084.48
494.017	5214.43
494.387	5225.5
494.757	5275.67
495.126	5322.44
495.496	5384.14
495.866	5422.56
496.235	5463.46
496.605	5554.98
496.974	5592.49
497.344	5650.8
497.713	5703.9
498.082	5780.29
498.452	5824.35
498.821	5818.48
499.19	5883.33
499.559	5975.53
499.928	6059.6
500.298	6064.8
500.667	6184.12
501.036	6127.85
501.405	6223.44
501.774	6283.55
502.143	6318.58
502.512	6430.44
502.88	6416.88
503.249	6444
503.618	6556.99
503.987	6580.94
504.356	6643.77
504.724	6687.15
505.093	6694.84
505.462	6743.42
505.83	6919.24
506.199	6909.75
506.567	7017.99
506.936	7045.34
507.304	7109.29
507.672	7173.24
508.041	7230.64
508.409	7299.34
508.777	7359.91
509.145	7423.86
509.514	7469.96
509.882	7554.93
510.25	7607.36
510.618	7704.08
510.986	7730.74
511.354	7851.19
511.722	7894.35
512.09	7979.78
512.458	8001.92
512.826	8117.17
513.193	8155.59
513.561	8218.64
513.929	8295.02
514.297	8384.96
514.664	8512.87
515.032	8555.13
515.4	8573.88
515.767	8603.71
516.135	8697.05
516.502	8700.89
516.869	8839.87
517.237	8893.88
517.604	8961.22
517.972	9075.57
518.339	9179.29
518.706	9199.63
519.073	9305.39
519.44	9324.6
519.808	9438.72
520.175	9517.81
520.542	9704.7
520.909	9704.02
521.276	9767.75
521.643	9907.63
522.009	10015.65
522.376	10136.78
522.743	10184.01
523.11	10266.95
523.477	10348.08
523.843	10432.59
524.21	10631.91
524.577	10607.05
524.943	10766.82
525.31	10854.5
525.676	10998
526.043	11098.56
526.409	11142.4
526.776	11278.45
527.142	11350.76
527.508	11461.94
527.874	11595.95
528.241	11633.92
528.607	11750.98
528.973	11821.03
529.339	11942.16
529.705	12031.19
530.071	12115.94
530.437	12207.69
530.803	12345.09
531.169	12420.79
531.535	12494.69
531.901	12555.02
532.267	12694.45
532.632	12765.64
532.998	12790.72
533.364	12980.1
533.73	13061.68
534.095	13190.49
534.461	13179.19
534.826	13276.59
535.192	13312.07
535.557	13494.66
535.923	13500.76
536.288	13651.27
536.653	13743.47
537.019	13654.66
537.384	13836.35
537.749	13879.73
538.114	13983.91
538.479	14065.72
538.845	14146.62
539.21	14161.53
539.575	14289.67
539.94	14422.77
540.305	14458.48
540.67	14536.21
541.034	14626.15
541.399	14652.59
541.764	14794.96
542.129	14823.21
542.494	14932.59
542.858	15055.97
543.223	15091.45
543.587	15102.3
543.952	15204.9
544.316	15267.95
544.681	15310.43
545.045	15421.16
545.41	15524.21
545.774	15588.39
546.138	15625
546.503	15725.79
546.867	15794.03
547.231	15949.74
547.595	15952.22
547.959	16040.58
548.324	16196.06
548.688	16141.6
549.052	16299.11
549.416	16408.71
549.779	16443.96
550.143	16600.57
550.507	16591.75
550.871	16767.57
551.235	16794.23
551.599	16956.49
551.962	16977.73
552.326	17116.03
552.689	17196.03
553.053	17215.47
553.417	17182.25
553.78	17510.82
554.143	17483.71
554.507	17619.75
554.87	17648.67
555.234	17889.8
555.597	17770.25
555.96	17899.29
556.323	18036.91
556.686	18151.26
557.05	18290.47
557.413	18363.46
557.776	18451.82
558.139	18572.49
558.502	18603.23
558.865	18657.01
559.228	18918.02
559.59	18937.68
559.953	19093.61
560.316	19269.42
560.679	19307.39
561.041	19405.01
561.404	19600.94
561.767	19689.98
562.129	19719.35
562.492	19968.61
562.854	19903.98
563.217	20056.07
563.579	20172.45
563.941	20201.6
564.304	20386
564.666	20609.95
565.028	20621.93
565.39	20648.14
565.753	20865.31
566.115	20924.07
566.477	21190.05
566.839	21266.66
567.201	21321.12
567.563	21411.74
567.925	21651.73
568.287	21677.72
568.648	21653.09
569.01	21816.25
569.372	21970.14
569.734	21877.94
570.095	22176.69
570.457	22322.68
570.819	22287.87
571.18	22341.88
571.542	22520.41
571.903	22640.86
572.265	22671.37
572.626	22871.59
572.987	22860.29
573.349	22991.36
573.71	23063.67
574.071	23230.67
574.432	23295.08
574.794	23518.8
575.155	23491.46
575.516	23447.17
575.877	23578.46
576.238	23667.5
576.599	23804.44
576.96	23817.1
577.32	23885.35
577.681	24043.31
578.042	24087.6
578.403	24100.03
578.763	24202.63
579.124	24306.8
579.485	24416.18
579.845	24417.76
580.206	24603.97
580.566	24572.33
580.927	24614.59
581.287	24805.1
581.648	24673.12
582.008	24874.02
582.368	24816.85
582.728	24967.35
583.089	24804.19
583.449	24896.17
583.809	24983.62
584.169	25222.49
584.529	24985.66
584.889	25215.93
585.249	25173.45
585.609	25144.3
585.969	25321.92
586.329	25300
586.688	25379.77
587.048	25445.98
587.408	25462.93
587.768	25431.97
588.127	25448.92
588.487	25396.04
588.846	25688.46
589.206	25512.87
589.565	25574.34
589.925	25742.92
590.284	25607.34
590.643	25798.06
591.003	25827.67
591.362	25950.6
591.721	25988.34
592.08	25942.92
592.44	26013.65
592.799	26071.5
593.158	26102.92
593.517	26041.67
593.876	26179.3
594.235	26042.58
594.593	26112.18
594.952	26128.68
595.311	26279.63
595.67	26239.86
596.029	26530.02
596.387	26482.34
596.746	26472.17
597.104	26424.71
597.463	26514.2
597.822	26670.13
598.18	26608.89
598.538	26608.89
598.897	26674.65
599.255	26662.45
599.613	26876
599.972	26834.42
600.33	26789
600.688	26713.29
601.046	27047.3
601.404	27007.98
601.762	27043.46
602.12	27106.28
602.478	27055.88
602.836	27233.51
603.194	27112.61
603.552	27152.83
603.91	27205.49
604.268	27247.74
604.625	27144.02
604.983	27398.47
605.341	27201.64
605.698	27419.72
606.056	27464.69
606.413	27388.31
606.771	27683.66
607.128	27690.22
607.485	27647.51
607.843	27594.85
608.2	27881.17
608.557	27887.5
608.914	27840.04
609.272	28055.41
609.629	28080.26
609.986	28101.96
610.343	28180.37
610.7	28172.92
611.057	28214.72
611.414	28232.58
611.771	28278.45
612.127	28374.72
612.484	28361.39
612.841	28409.07
613.198	28414.04
613.554	28323.65
613.911	28668.27
614.267	28584.43
614.624	28649.97
614.98	28622.85
615.337	28775.84
615.693	28737.42
616.05	28705.78
616.406	29010.64
616.762	28948.94
617.118	28847.7
617.475	28939
617.831	29046.57
618.187	29077.75
618.543	29114.59
618.899	29257.63
619.255	29181.7
619.611	29193
619.967	29386.67
620.323	29427.35
620.678	29311.64
621.034	29273.68
621.39	29422.6
621.746	29382.83
622.101	29704.85
622.457	29480.23
622.812	29567.68
623.168	29589.38
623.523	29657.17
623.879	29725.87
624.234	29466.89
624.589	29663.73
624.945	29637.51
625.3	29639.55
625.655	29707.57
626.01	29723.39
626.365	29798.64
626.72	29819.65
627.075	29738.75
627.43	29759.32
627.785	29723.61
628.14	29778.3
628.495	29710.5
628.85	29794.8
629.205	29638.64
629.559	29808.58
629.914	29711.63
630.269	29852.42
630.623	29647.91
630.978	29622.82
631.332	29789.6
631.687	29849.94
632.041	29711.18
632.396	29809.94
632.75	29731.75
633.104	29790.28
633.459	29644.74
633.813	29695.36
634.167	29722.93
634.521	29737.85
634.875	29861.69
635.229	29638.42
635.583	29503.05
635.937	29599.32
636.291	29632.09
636.645	29794.57
636.999	29538.08
637.352	29610.39
637.706	29435.48
638.06	29615.82
638.413	29470.06
638.767	29382.83
639.121	29556.16
639.474	29298.99
639.828	29315.94
640.181	29411.08
640.534	29437.52
640.888	29350.51
641.241	29259.44
641.594	29385.09
641.947	29447.69
642.301	29357.29
642.654	29430.51
643.007	29363.17
643.36	29349.38
643.713	29348.03
644.066	29482.94
644.419	29208.6
644.771	28977.87
645.124	28793.24
645.477	28760.92
645.83	28582.17
646.182	28510.54
646.535	28443.64
646.888	28594.38
647.24	28447.26
647.593	28561.38
647.945	28549.63
648.298	28310.31
648.65	28239.36
649.002	28350.54
649.355	28345.79
649.707	28358
650.059	28484.32
650.411	28847.7
650.763	28870.07
651.115	29211.08
651.467	29036.62
651.819	28998.88
652.171	28979.68
652.523	28981.71
652.875	29016.06
653.227	28916.85
653.578	29065.1
653.93	29066.91
654.282	28843.86
654.633	28884.54
654.985	28776.07
655.337	29069.17
655.688	28908.94
656.039	28994.36
656.391	28792.56
656.742	28927.7
657.094	29010.86
657.445	29035.27
657.796	28940.58
658.147	28953.91
658.498	28893.58
658.849	29015.61
659.2	28953.24
659.551	28935.16
659.902	29109.62
660.253	28967.02
660.604	28987.13
660.955	28911.66
661.306	28889.28
661.656	28901.49
662.007	28937.19
662.358	28931.32
662.708	29024.42
663.059	28989.17
663.409	28737.2
663.76	28929.73
664.11	29015.16
664.461	29005.89
664.811	28969.28
665.161	28983.97
665.511	29020.35
665.862	28999.79
666.212	29048.83
666.562	29100.12
666.912	29080.01
667.262	29044.08
667.612	28970.41
667.962	29121.59
668.312	28992.56
668.662	29159.78
669.011	28936.51
669.361	29075.49
669.711	28998.21
670.06	28995.72
670.41	29005.66
670.76	28882.73
671.109	29002.73
671.459	29009.05
671.808	28926.8
672.157	29012.67
672.507	28797.99
672.856	28826.23
673.205	28779.23
673.554	29056.96
673.904	28837.31
674.253	29077.75
674.602	28796.18
674.951	28490.65
675.3	28394.15
675.649	28933.35
675.998	28766.12
676.346	28739.91
676.695	28804.77
677.044	28501.5
677.393	28766.35
677.741	28782.39
678.09	28728.38
678.438	28737.87
678.787	28830.08
679.135	28795.73
679.484	28583.3
679.832	28750.3
680.181	28520.25
680.529	28645.67
680.877	28488.39
681.225	28616.07
681.573	28704.88
681.922	28444.1
682.27	28379.24
682.618	28430.76
682.966	28319.35
683.314	28462.63
683.661	28433.7
684.009	28288.39
684.357	28208.62
684.705	28127.72
685.053	28252.92
685.4	28258.79
685.748	27902.87
686.095	28048.85
686.443	27991.23
686.79	27939.03
687.138	28021.73
687.485	27894.51
687.832	27854.28
688.18	27874.85
688.527	27809.99
688.874	27808.86
689.221	27755.98
689.568	27745.13
689.915	27674.63
690.262	27623.78
690.609	27468.98
690.956	27370.68
691.303	27447.51
691.65	27339.49
691.997	27309.44
692.344	27168.88
692.69	27150.12
693.037	27094.3
693.383	27077.35
693.73	27104.47
694.077	26909.45
694.423	26911.71
694.769	26847.08
695.116	26890.92
695.462	26798.49
695.808	26598.04
696.155	26628.33
696.501	26565.73
696.847	26528.89
697.193	26295.9
697.539	26495
697.885	26223.14
698.231	26096.36
698.577	26247.09
698.923	26215.23
699.269	26057.72
699.614	25986.76
699.96	25895.92
700.306	26038.96
700.651	25786.31
700.997	25697.95
701.342	25739.76
701.688	25739.76
702.033	25526.66
702.379	25625.64
702.724	25464.06
703.069	25527.56
703.415	25261.58
703.76	25196.5
704.105	25329.38
704.45	25261.13
704.795	24974.81
705.14	24980.68
705.485	25065.65
705.83	24978.43
706.175	24950.4
706.52	24870.86
706.865	24791.76
707.209	24784.31
707.554	24655.27
707.899	24687.36
708.243	24610.53
708.588	24588.6
708.932	24475.16
709.277	24503.64
709.621	24528.95
709.966	24286.47
710.31	24289.86
710.654	24142.51
710.998	24283.3
711.342	24235.17
711.687	24204.66
712.031	23996.98
712.375	23937.1
712.719	24050.99
713.063	23975.06
713.407	24096.41
713.75	23917.89
714.094	23998.79
714.438	23912.92
714.782	23958.34
715.125	23736.2
715.469	23788.63
715.812	23793.82
716.156	23569.65
716.499	23717.89
716.843	23685.35
717.186	23541.4
717.53	23652.81
717.873	23579.82
718.216	23439.26
718.559	23399.94
718.902	23305.93
719.246	23421.86
719.589	23279.49
719.932	23190.45
720.275	23260.28
720.617	23194.52
720.96	23121.3
721.303	23325.14
721.646	23213.95
721.989	23012.15
722.331	23117.68
722.674	23131.92
723.016	23167.63
723.359	23022.09
723.701	23079.72
724.044	22926.5
724.386	22728.31
724.729	22856.45
725.071	22850.35
725.413	22812.15
725.755	22848.09
726.097	22708.2
726.439	22696.23
726.782	22647.64
727.124	22823.45
727.465	22751.59
727.807	22725.83
728.149	22711.14
728.491	22706.62
728.833	22752.04
729.175	22576.45
729.516	22567.64
729.858	22486.97
730.199	22517.47
730.541	22461.66
730.882	22380.98
731.224	22517.47
731.565	22366.06
731.906	22378.49
732.248	22488.32
732.589	22312.28
732.93	22316.8
733.271	22388.66
733.612	22417.59
733.953	22458.27
734.294	22260.76
734.635	22205.84
734.976	22314.54
735.317	22223.47
735.658	22206.52
735.999	22187.99
736.339	22140.76
736.68	22207.2
737.021	22097.6
737.361	22106.18
737.702	22169.46
738.042	22121.55
738.383	22136.01
738.723	22155.22
739.063	21949.8
739.404	22098.5
739.744	22056.92
740.084	22016.92
740.424	22056.47
740.764	21912.74
741.104	22017.37
741.444	21978.96
741.784	21965.85
742.124	21957.04
742.464	22046.3
742.804	21939.41
743.143	21832.29
743.483	21866.87
743.823	21858.73
744.162	21807.89
744.502	21843.82
744.841	21778.51
745.181	21885.63
745.52	21727.21
745.86	21781.45
746.199	21751.39
746.538	21762.01
746.877	21758.4
747.216	21741.9
747.556	21691.28
747.895	21732.18
748.234	21718.17
748.573	21654.44
748.911	21661.45
749.25	21720.66
749.589	21665.07
749.928	21659.42
750.267	21686.31
750.605	21620.1
750.944	21629.59
751.283	21576.93
751.621	21589.81
751.96	21470.95
752.298	21457.61
752.636	21556.37
752.975	21445.64
753.313	21306.66
753.651	21517.05
753.989	21440.21
754.327	21300.56
754.666	21323.15
755.004	21421
755.342	21370.61
755.679	21314.79
756.017	21212.2
756.355	21301.69
756.693	21219.88
757.031	21226.21
757.368	21092.88
