Data from cardboard_FLMS001491_084.txt Node
Date: Tue Feb 07 11:40:16 GMT 2017
User: dcchb
Spectrometer: FLMS00149
Trigger mode: 0
Integration Time (sec): 2.000000E-2
Scans to average: 10
Electric dark correction enabled: true
Nonlinearity correction enabled: false
Boxcar width: 0
XAxis mode: Wavelengths
Number of Pixels in Spectrum: 2048
>>>>>Begin Spectral Data<<<<<
341.393	-12.51
341.776	-12.51
342.16	-12.51
342.543	-36.02
342.927	-55
343.31	-79.4
343.693	-84.6
344.077	-70.14
344.46	-53.64
344.843	-53.64
345.226	-32.85
345.61	-21.55
345.993	-3.25
346.376	-8.22
346.759	-0.54
347.142	26.81
347.525	40.14
347.908	43.08
348.291	87.82
348.674	109.74
349.057	100.25
349.44	134.37
349.823	145.9
350.206	159.23
350.588	210.08
350.971	214.15
351.354	222.73
351.737	229.06
352.119	243.75
352.502	278.55
352.884	285.56
353.267	273.58
353.65	280.81
354.032	306.35
354.414	324.65
354.797	302.96
355.179	332.79
355.562	321.04
355.944	333.47
356.326	332.34
356.709	322.17
357.091	323.97
357.473	344.09
357.855	318.1
358.238	354.26
358.62	361.71
359.002	359.91
359.384	344.31
359.766	347.25
360.148	326.23
360.53	333.69
360.912	344.09
361.294	336.18
361.676	326.23
362.057	313.13
362.439	365.1
362.821	339.34
363.203	357.42
363.584	327.82
363.966	320.36
364.348	336.4
364.729	333.47
365.111	315.16
365.493	327.14
365.874	350.19
366.256	320.81
366.637	312.68
367.019	322.17
367.4	317.87
367.781	319
368.163	301.38
368.544	303.86
368.925	317.42
369.306	315.39
369.688	332.11
370.069	322.84
370.45	328.72
370.831	333.47
371.212	323.52
371.593	339.79
371.974	314.26
372.355	337.08
372.736	335.5
373.117	309.74
373.498	294.37
373.879	293.92
374.26	319
374.641	296.63
375.021	311.77
375.402	327.14
375.783	359
376.163	335.73
376.544	325.78
376.925	326.23
377.305	338.66
377.686	319.45
378.066	327.82
378.447	329.85
378.827	339.12
379.208	343.41
379.588	342.73
379.968	324.65
380.349	343.64
380.729	341.15
381.109	347.7
381.489	353.8
381.87	348.15
382.25	351.54
382.63	359
383.01	357.42
383.39	350.41
383.77	352
384.15	352
384.53	362.84
384.91	362.84
385.29	374.82
385.67	368.04
386.049	370.08
386.429	369.4
386.809	357.65
387.189	358.1
387.568	372.56
387.948	363.52
388.328	384.99
388.707	377.08
389.087	375.27
389.466	370.98
389.846	369.85
390.225	389.28
390.605	397.42
390.984	386.12
391.363	397.87
391.743	380.24
392.122	386.12
392.501	404.42
392.881	406.91
393.26	386.35
393.639	410.53
394.018	378.44
394.397	403.07
394.776	411.66
395.155	409.85
395.534	404.2
395.913	410.3
396.292	418.89
396.671	417.76
397.05	424.76
397.429	416.63
397.808	427.02
398.186	410.3
398.565	426.57
398.944	440.36
399.323	439.68
399.701	443.75
400.08	426.12
400.458	436.97
400.837	448.94
401.215	454.14
401.594	437.64
401.972	450.75
402.351	441.03
402.729	437.87
403.107	448.49
403.486	444.42
403.864	435.38
404.242	465.89
404.62	489.39
404.999	468.15
405.377	477.19
405.755	489.85
406.133	505.44
406.511	484.42
406.889	489.85
407.267	481.48
407.645	493.46
408.023	492.11
408.401	490.98
408.779	497.98
409.156	512.67
409.534	500.69
409.912	530.3
410.29	519.68
410.667	526.91
411.045	531.65
411.422	538.21
411.8	540.24
412.178	558.32
412.555	551.99
412.933	555.61
413.31	547.47
413.687	567.13
414.065	578.88
414.442	556.96
414.819	578.88
415.197	578.43
415.574	625.89
415.951	575.27
416.328	601.03
416.705	571.65
417.082	601.03
417.46	611.2
417.837	629.28
418.214	620.69
418.591	603.52
418.967	612.33
419.344	636.28
419.721	629.96
420.098	636.96
420.475	629.96
420.852	644.19
421.228	646.68
421.605	666.56
421.982	648.26
422.358	683.06
422.735	627.7
423.111	670.18
423.488	678.77
423.864	671.76
424.241	681.48
424.617	684.19
424.994	674.25
425.37	729.84
425.746	709.73
426.123	702.5
426.499	730.97
426.875	727.58
427.251	729.61
427.627	736.85
428.003	749.05
428.379	774.36
428.756	752.89
429.132	758.54
429.507	764.41
429.883	792.66
430.259	800.8
430.635	795.6
431.011	780.91
431.387	826.33
431.763	795.6
432.138	829.95
432.514	821.14
432.89	827.46
433.265	859.78
433.641	841.02
434.016	857.07
434.392	889.61
434.767	896.84
435.143	896.39
435.518	891.19
435.894	925.54
436.269	908.59
436.644	937.29
437.02	933.45
437.395	913.34
437.77	939.1
438.145	958.08
438.52	980
438.895	955.37
439.271	957.63
439.646	990.85
440.021	1001.47
440.395	990.85
440.77	1026.55
441.145	1018.42
441.52	1030.85
441.895	1018.19
442.27	1028.81
442.645	1041.7
443.019	1055.93
443.394	1023.62
443.769	1051.86
444.143	1061.36
444.518	1076.95
444.892	1041.7
445.267	1079.43
445.641	1102.49
446.016	1101.36
446.39	1111.52
446.764	1117.85
447.139	1128.47
447.513	1100
447.887	1118.53
448.262	1128.02
448.636	1147.68
449.01	1148.36
449.384	1161.24
449.758	1175.25
450.132	1187.91
450.506	1180
450.88	1197.62
451.254	1190.17
451.628	1195.59
452.002	1266.1
452.376	1253.22
452.75	1234.23
453.123	1244.85
453.497	1263.16
453.871	1278.3
454.244	1311.52
454.618	1344.06
454.992	1329.6
455.365	1339.54
455.739	1377.28
456.112	1361.91
456.486	1365.76
456.859	1409.82
457.232	1386.09
457.606	1399.88
457.979	1434
458.352	1475.81
458.725	1455.92
459.099	1449.14
459.472	1507.22
459.845	1535.92
460.218	1504.73
460.591	1541.8
460.964	1525.07
461.337	1580.44
461.71	1603.94
462.083	1606.88
462.456	1621.34
462.829	1629.25
463.201	1662.02
463.574	1679.42
463.947	1711.28
464.32	1757.38
464.692	1749.02
465.065	1766.2
465.438	1766.42
465.81	1817.49
466.183	1793.99
466.555	1827.89
466.928	1860.66
467.3	1886.19
467.672	1903.82
468.045	1909.92
468.417	1951.95
468.789	1961.67
469.161	1996.7
469.534	2026.75
469.906	2043.93
470.278	2059.97
470.65	2105.4
471.022	2115.57
471.394	2143.59
471.766	2208.9
472.138	2224.72
472.51	2249.8
472.882	2277.37
473.253	2293.41
473.625	2329.35
473.997	2393.75
474.369	2378.84
474.74	2471.26
475.112	2497.25
475.484	2520.98
475.855	2565.72
476.227	2592.39
476.598	2649.56
476.97	2644.82
477.341	2759.16
477.713	2773.85
478.084	2806.62
478.455	2849.56
478.827	2904.25
479.198	2948.31
479.569	2977.01
479.94	3041.64
480.311	3093.39
480.682	3125.26
481.053	3226.27
481.424	3291.13
481.795	3277.12
482.166	3311.24
482.537	3387.85
482.908	3465.13
483.279	3522.99
483.65	3573.38
484.021	3591.23
484.391	3649.31
484.762	3698.58
485.133	3758.91
485.503	3806.82
485.874	3909.87
486.244	3929.76
486.615	4016.98
486.985	4036.65
487.356	4143.76
487.726	4181.05
488.097	4256.53
488.467	4292.68
488.837	4383.98
489.207	4423.98
489.578	4514.37
489.948	4496.07
490.318	4603.64
490.688	4635.73
491.058	4702.16
491.428	4775.61
491.798	4819
492.168	4928.15
492.538	4963.63
492.908	5021.25
493.278	5068.71
493.648	5165.2
494.017	5178.31
494.387	5221.02
494.757	5320
495.126	5343.28
495.496	5365.42
495.866	5426.21
496.235	5431.41
496.605	5548.92
496.974	5606.1
497.344	5656.49
497.713	5733.32
498.082	5732.19
498.452	5856.71
498.821	5859.87
499.19	5897.16
499.559	5976.93
499.928	6014.9
500.298	6080.66
500.667	6125.86
501.036	6197.04
501.405	6275.46
501.774	6242.01
502.143	6315
502.512	6349.58
502.88	6482.23
503.249	6472.97
503.618	6521.1
503.987	6533.08
504.356	6645.62
504.724	6725.16
505.093	6735.56
505.462	6809.68
505.83	6905.04
506.199	6914.99
506.567	7017.13
506.936	7017.58
507.304	7176.68
507.672	7185.26
508.041	7251.7
508.409	7294.64
508.777	7359.04
509.145	7385.94
509.514	7427.06
509.882	7495.76
510.25	7563.11
510.618	7685.14
510.986	7740.95
511.354	7825.47
511.722	7876.54
512.09	7996.32
512.458	7960.38
512.826	8056.43
513.193	8156.08
513.561	8209.87
513.929	8314.72
514.297	8324.22
514.664	8461.16
515.032	8511.78
515.4	8632
515.767	8741.38
516.135	8763.07
516.502	8754.94
516.869	8882.17
517.237	8922.17
517.604	8904.99
517.972	9110.86
518.339	9137.75
518.706	9155.38
519.073	9254.14
519.44	9414.13
519.808	9442.15
520.175	9500.23
520.542	9666.33
520.909	9756.04
521.276	9751.75
521.643	9919.65
522.009	9978.64
522.376	10115.81
522.743	10202.13
523.11	10307.89
523.477	10432.18
523.843	10466.08
524.21	10598.05
524.577	10738.16
524.943	10779.52
525.31	10856.58
525.676	10967.31
526.043	11002.11
526.409	11086.18
526.776	11286.85
527.142	11340.18
527.508	11504.47
527.874	11573.62
528.241	11645.48
528.607	11798.93
528.973	11862.88
529.339	11912.6
529.705	12143.1
530.071	12162.99
530.437	12254.28
530.803	12347.16
531.169	12410.21
531.535	12428.06
531.901	12539.7
532.267	12710.09
532.632	12774.72
532.998	12888.84
533.364	12950.99
533.73	12962.74
534.095	13141.94
534.461	13216.74
534.826	13315.72
535.192	13323.86
535.557	13491.31
535.923	13493.12
536.288	13544.64
536.653	13702.83
537.019	13743.73
537.384	13804.3
537.749	13924.75
538.114	14050.62
538.479	14066.44
538.845	14151.18
539.21	14109.83
539.575	14391.63
539.94	14312.76
540.305	14444.96
540.67	14497.16
541.034	14552.07
541.399	14747.55
541.764	14772.86
542.129	14914.33
542.494	14875.46
542.858	15048.11
543.223	14976.92
543.587	15123.81
543.952	15170.82
544.316	15286.07
544.681	15360.87
545.045	15511.6
545.41	15456.01
545.774	15590.47
546.138	15671.82
546.503	15727.86
546.867	15829.56
547.231	15959.27
547.595	15964.02
547.959	16082.43
548.324	16145.71
548.688	16176.89
549.052	16313.38
549.416	16448.52
549.779	16391.35
550.143	16421.86
550.507	16621.4
550.871	16821.17
551.235	16700.72
551.599	16881.05
551.962	16990.43
552.326	16987.94
552.689	17162.63
553.053	17215.73
553.417	17151.1
553.78	17504.09
554.143	17366.46
554.507	17535.5
554.87	17640.13
555.234	17937.52
555.597	17804.87
555.96	17876.28
556.323	18026.79
556.686	18101.59
557.05	18268.36
557.413	18370.51
557.776	18383.39
558.139	18484.4
558.502	18708.8
558.865	18767.78
559.228	18858.63
559.59	19017.95
559.953	19055.91
560.316	19259.3
560.679	19296.58
561.041	19456.8
561.404	19587.2
561.767	19799.85
562.129	19759.62
562.492	19857.7
562.854	19957.36
563.217	20085.04
563.579	20129.56
563.941	20298.36
564.304	20403.22
564.666	20590.33
565.028	20644.57
565.39	20697.45
565.753	20838.01
566.115	21028.97
566.477	21043.2
566.839	21138.57
567.201	21415.4
567.563	21404.55
567.925	21616.3
568.287	21553.92
568.648	21642.51
569.01	21859.23
569.372	22000.47
569.734	21965.67
570.095	22176.96
570.457	22245.88
570.819	22344.41
571.18	22444.97
571.542	22643.16
571.903	22584.86
572.265	22718.87
572.626	22900.78
572.987	22878.41
573.349	22985.07
573.71	23155.01
574.071	23176.93
574.432	23270.26
574.794	23433.42
575.155	23517.94
575.516	23423.25
575.877	23675.68
576.238	23640.2
576.599	23831.83
576.96	23797.03
577.32	23900.3
577.681	23940.98
578.042	24078.83
578.403	24134.42
578.763	24231.59
579.124	24453.96
579.485	24462.55
579.845	24527.63
580.206	24517.24
580.566	24566.5
580.927	24660.74
581.287	24773.05
581.648	24654.41
582.008	24807.17
582.368	24864.8
582.728	24849.43
583.089	24848.75
583.449	24963.1
583.809	25059.6
584.169	25111.35
584.529	25082.65
584.889	25298.01
585.249	25189.08
585.609	25121.29
585.969	25365.35
586.329	25344.33
586.688	25303.66
587.048	25478.12
587.408	25413.03
587.768	25448.74
588.127	25447.38
588.487	25464.1
588.846	25575.51
589.206	25535.06
589.565	25624.33
589.925	25842.4
590.284	25674.72
590.643	25721.5
591.003	25851.89
591.362	25998.1
591.721	25896.18
592.08	25916.52
592.44	26055.05
592.799	26000.81
593.158	26108.16
593.517	26062.28
593.876	26029.51
594.235	26053.24
594.593	26144.54
594.952	26264.31
595.311	26227.47
595.67	26316.06
596.029	26591.76
596.387	26509.05
596.746	26555.83
597.104	26503.17
597.463	26417.53
597.822	26614.58
598.18	26584.98
598.538	26569.16
598.897	26705.2
599.255	26667.46
599.613	26852.77
599.972	26832.2
600.33	26952.43
600.688	26831.98
601.046	26963.73
601.404	27206.43
601.762	26994.23
602.12	27167.34
602.478	27167.11
602.836	27173.66
603.194	27122.14
603.552	27221.12
603.91	27109.48
604.268	27248.01
604.625	27186.32
604.983	27449.59
605.341	27260.44
605.698	27445.97
606.056	27509.25
606.413	27512.19
606.771	27596.7
607.128	27746.3
607.485	27539.3
607.843	27604.16
608.2	27856.58
608.557	27893.42
608.914	27750.6
609.272	28021.78
609.629	28013.19
609.986	28233.07
610.343	28029.91
610.7	28328.21
611.057	28264.48
611.414	28190.59
611.771	28293.41
612.127	28380.41
612.484	28270.36
612.841	28513.29
613.198	28357.36
613.554	28407.53
613.911	28651.37
614.267	28640.07
614.624	28597.81
614.98	28704.92
615.337	28833.06
615.693	28853.62
616.05	28742.21
616.406	29045.25
616.762	28940.17
617.118	28865.37
617.475	28944.24
617.831	29100.84
618.187	29195.98
618.543	29087.96
618.899	29228.3
619.255	29220.16
619.611	29309.43
619.967	29298.81
620.323	29488.63
620.678	29229.2
621.034	29337.9
621.39	29354.85
621.746	29278.02
622.101	29805.46
622.457	29496.99
622.812	29601.17
623.168	29652.47
623.523	29675.52
623.879	29776.99
624.234	29524.34
624.589	29591.68
624.945	29691.56
625.3	29626.93
625.655	29815.4
626.01	29708.74
626.365	29798.91
626.72	29742.86
627.075	29750.32
627.43	29682.75
627.785	29637.1
628.14	29871.22
628.495	29863.76
628.85	29756.65
629.205	29638.46
629.559	29944.89
629.914	29819.47
630.269	29823.09
630.623	29713.94
630.978	29702.41
631.332	29722.98
631.687	29791.67
632.041	29817.66
632.396	29929.3
632.75	29638.91
633.104	29780.83
633.459	29778.57
633.813	29677.78
634.167	29715.97
634.521	29735.86
634.875	29853.59
635.229	29586.48
635.583	29677.78
635.937	29623.77
636.291	29590.32
636.645	29636.42
636.999	29555.75
637.352	29700.15
637.706	29473.04
638.06	29508.97
638.413	29385.81
638.767	29432.81
639.121	29458.35
639.474	29372.25
639.828	29506.03
640.181	29457.9
640.534	29445.47
640.888	29510.78
641.241	29240.95
641.594	29369.54
641.947	29331.8
642.301	29291.12
642.654	29425.58
643.007	29374.74
643.36	29426.26
643.713	29384.23
644.066	29450.21
644.419	29193.05
644.771	29139.71
645.124	28855.2
645.477	28745.15
645.83	28592.84
646.182	28510.58
646.535	28503.57
646.888	28466.51
647.24	28351.26
647.593	28478.26
647.945	28526.17
648.298	28329.57
648.65	28269.68
649.002	28270.81
649.355	28429
649.707	28327.76
650.059	28498.6
650.411	28709.22
650.763	28747.63
651.115	29057.68
651.467	29049.77
651.819	29095.2
652.171	28947.85
652.523	28979.04
652.875	28996.89
653.227	28906.73
653.578	29055.87
653.93	29099.49
654.282	28927.74
654.633	28815.65
654.985	28930.45
655.337	28988.98
655.688	28828.54
656.039	29012.49
656.391	28794.86
656.742	28896.33
657.094	28953.28
657.445	28931.36
657.796	28980.4
658.147	28967.29
658.498	28832.6
658.849	28991.7
659.2	28982.88
659.551	28833.51
659.902	28964.58
660.253	28972.94
660.604	28895.2
660.955	28791.02
661.306	28918.02
661.656	28856.56
662.007	28944.92
662.358	28810.68
662.708	28862.89
663.059	28938.14
663.409	28840.96
663.76	29049.32
664.11	29030.79
664.461	29035.54
664.811	29008.42
665.161	29120.51
665.511	28957.35
665.862	28997.57
666.212	29075.53
666.562	29039.15
666.912	28963
667.262	29021.98
667.612	29066.72
667.962	29045.03
668.312	28875.77
668.662	29112.37
669.011	28990.57
669.361	28978.81
669.711	29010
670.06	28941.75
670.41	28898.14
670.76	28829.89
671.109	28959.61
671.459	28806.16
671.808	28841.64
672.157	29018.14
672.507	28731.59
672.856	28860.4
673.205	28870.12
673.554	28924.8
673.904	28774.53
674.253	28986.72
674.602	28838.25
674.951	28585.15
675.3	28420.86
675.649	28709.89
675.998	28878.03
676.346	28800.06
676.695	28897.01
677.044	28716.45
677.393	28679.16
677.741	28776.11
678.09	28763.68
678.438	28751.93
678.787	28718.93
679.135	28892.04
679.484	28574.08
679.832	28772.27
680.181	28642.33
680.529	28760.97
680.877	28528.66
681.225	28521.43
681.573	28706.51
681.922	28640.52
682.27	28354.2
682.618	28457.47
682.966	28335.89
683.314	28356.23
683.661	28331.37
684.009	28207.08
684.357	28264.93
684.705	28167.54
685.053	28194.65
685.4	28255.67
685.748	28059.97
686.095	27930.93
686.443	27908.56
686.79	27861.33
687.138	28025.17
687.485	28047.09
687.832	27826.75
688.18	27870.59
688.527	27822.91
688.874	27856.13
689.221	27674.89
689.568	27661.33
689.915	27576.59
690.262	27726.64
690.609	27566.65
690.956	27441.23
691.303	27323.04
691.65	27340.67
691.997	27314.45
692.344	27050.73
692.69	27193.1
693.037	27186.32
693.383	26994.46
693.73	27062.03
694.077	26846.67
694.423	26896.61
694.769	26786.78
695.116	26767.8
695.462	26835.14
695.808	26733.22
696.155	26722.83
696.501	26472.89
696.847	26450.29
697.193	26277.42
697.539	26446.9
697.885	26319
698.231	26155.39
698.577	26289.62
698.923	26066.12
699.269	26018.21
699.614	25917.65
699.96	25905.45
700.306	25940.7
700.651	25857.09
700.997	25798.33
701.342	25733.02
701.688	25700.26
702.033	25612.58
702.379	25559.47
702.724	25510.43
703.069	25537.77
703.415	25242.42
703.76	25265.92
704.105	25432.24
704.45	25249.42
704.795	25080.61
705.14	24924.23
705.485	25091.46
705.83	24928.53
706.175	24988.18
706.52	24874.06
706.865	24896.21
707.209	24775.31
707.554	24582.09
707.899	24731.24
708.243	24629.78
708.588	24617.57
708.932	24341.2
709.277	24419.16
709.621	24473.85
709.966	24265.94
710.31	24307.98
710.654	24243.57
710.998	24340.29
711.342	24286.73
711.687	24077.25
712.031	23980.53
712.375	24101.43
712.719	24105.95
713.063	23991.83
713.407	24132.39
713.75	23908.67
714.094	23925.16
714.438	23817.37
714.782	23870.93
715.125	23745.28
715.469	23775.11
715.812	23696.47
716.156	23552.52
716.499	23597.94
716.843	23705.51
717.186	23566.75
717.53	23620.31
717.873	23603.36
718.216	23543.48
718.559	23440.43
718.902	23277.04
719.246	23275.24
719.589	23202.02
719.932	23281.56
720.275	23164.73
720.617	23255.8
720.96	23096.03
721.303	23076.6
721.646	23191.85
721.989	22998.18
722.331	23087.44
722.674	23056.03
723.016	23101.45
723.359	23042.02
723.701	23107.78
724.044	22967.45
724.386	22762.25
724.729	22947.79
725.071	22959.09
725.413	22910.05
725.755	22903.95
726.097	22685.42
726.439	22713.44
726.782	22750.73
727.124	22872.76
727.465	22685.87
727.807	22783.27
728.149	22672.77
728.491	22692.88
728.833	22607.68
729.175	22574.01
729.516	22456.5
729.858	22522.26
730.199	22564.52
730.541	22525.65
730.882	22520.23
731.224	22537.85
731.565	22443.84
731.906	22376.73
732.248	22460.79
732.589	22348.93
732.93	22347.8
733.271	22399.78
733.612	22301.48
733.953	22439.55
734.294	22313.9
734.635	22288.82
734.976	22298.09
735.317	22162.5
735.658	22125.21
735.999	22171.31
736.339	22120.24
736.68	22249.95
737.021	22180.57
737.361	22144.42
737.702	22181.93
738.042	22163.4
738.383	22081.37
738.723	22139.9
739.063	22031.43
739.404	22031.2
739.744	22032.1
740.084	22002.05
740.424	22119.11
740.764	22075.72
741.104	22071.65
741.444	21939.23
741.784	21831.66
742.124	21919.79
742.464	21900.36
742.804	21986.23
743.143	21857.42
743.483	21947.59
743.823	21885.22
744.162	21857.87
744.502	21834.14
744.841	21732.9
745.181	21884.31
745.52	21911.2
745.86	21830.08
746.199	21882.73
746.538	21760.7
746.877	21835.73
747.216	21861.71
747.556	21795.5
747.895	21736.52
748.234	21643.41
748.573	21691.1
748.911	21582.62
749.25	21663.53
749.589	21564.55
749.928	21671.21
750.267	21700.59
750.605	21593.47
750.944	21556.64
751.283	21592.79
751.621	21513.02
751.96	21498.56
752.298	21481.38
752.636	21532.23
752.975	21445.91
753.313	21400.48
753.651	21551.66
753.989	21445.68
754.327	21427.83
754.666	21310.77
755.004	21328.62
755.342	21312.58
755.679	21329.98
756.017	21339.92
756.355	21304.44
756.693	21183.77
757.031	21324.1
757.368	21083.2
