Data from cardboard_FLMS001491_055.txt Node
Date: Tue Feb 07 11:39:44 GMT 2017
User: dcchb
Spectrometer: FLMS00149
Trigger mode: 0
Integration Time (sec): 2.000000E-2
Scans to average: 10
Electric dark correction enabled: true
Nonlinearity correction enabled: false
Boxcar width: 0
XAxis mode: Wavelengths
Number of Pixels in Spectrum: 2048
>>>>>Begin Spectral Data<<<<<
341.393	-10.93
341.776	-10.93
342.16	-10.93
342.543	-53.19
342.927	-60.2
343.31	-70.14
343.693	-65.39
344.077	-59.97
344.46	-45.96
344.843	-60.65
345.226	-34.66
345.61	-36.69
345.993	-19.52
346.376	-9.8
346.759	5.79
347.142	35.39
347.525	26.36
347.908	66.35
348.291	76.52
348.674	103.87
349.057	88.5
349.44	119.23
349.823	131.44
350.206	160.81
350.588	170.31
350.971	168.95
351.354	231.77
351.737	254.6
352.119	226.12
352.502	249.85
352.884	250.3
353.267	273.81
353.65	278.1
354.032	310.87
354.414	321.94
354.797	298.44
355.179	308.83
355.562	325.78
355.944	315.16
356.326	308.83
356.709	335.05
357.091	309.96
357.473	330.53
357.855	331.21
358.238	347.25
358.62	329.62
359.002	334.14
359.384	324.65
359.766	344.54
360.148	331.66
360.53	343.41
360.912	348.61
361.294	326.69
361.676	314.03
362.057	327.14
362.439	326.46
362.821	321.71
363.203	305.67
363.584	314.48
363.966	306.35
364.348	305.22
364.729	314.26
365.111	303.18
365.493	305.9
365.874	289.85
366.256	294.14
366.637	305.44
367.019	307.93
367.4	291.43
367.781	306.57
368.163	325.56
368.544	302.28
368.925	288.27
369.306	329.17
369.688	297.99
370.069	289.85
370.45	285.56
370.831	300.92
371.212	308.38
371.593	287.37
371.974	288.72
372.355	312.45
372.736	310.19
373.117	297.76
373.498	304.77
373.879	312.22
374.26	294.37
374.641	279
375.021	303.86
375.402	305.67
375.783	314.26
376.163	323.07
376.544	309.29
376.925	295.27
377.305	333.01
377.686	301.15
378.066	307.7
378.447	328.95
378.827	325.78
379.208	309.51
379.588	305.22
379.968	324.2
380.349	293.92
380.729	326.46
381.109	321.71
381.489	329.17
381.87	336.86
382.25	334.37
382.63	338.44
383.01	324.65
383.39	322.17
383.77	321.94
384.15	360.36
384.53	349.74
384.91	325.1
385.29	337.31
385.67	327.82
386.049	330.08
386.429	310.87
386.809	332.34
387.189	355.61
387.568	343.18
387.948	337.53
388.328	356.97
388.707	343.41
389.087	329.17
389.466	343.41
389.846	345.89
390.225	348.15
390.605	340.47
390.984	343.41
391.363	337.31
391.743	340.92
392.122	338.89
392.501	344.09
392.881	378.44
393.26	366.23
393.639	376.18
394.018	358.78
394.397	381.15
394.776	366.46
395.155	362.17
395.534	342.96
395.913	362.84
396.292	374.59
396.671	375.72
397.05	354.71
397.429	379.57
397.808	406.01
398.186	375.5
398.565	362.62
398.944	369.62
399.323	385.44
399.701	370.75
400.08	385.67
400.458	374.82
400.837	386.12
401.215	379.34
401.594	397.19
401.972	391.54
402.351	379.11
402.729	383.41
403.107	400.36
403.486	427.02
403.864	378.66
404.242	420.02
404.62	428.83
404.999	420.24
405.377	401.94
405.755	425.44
406.133	414.59
406.511	443.07
406.889	417.53
407.267	393.13
407.645	434.03
408.023	434.48
408.401	430.64
408.779	410.3
409.156	435.38
409.534	441.71
409.912	441.94
410.29	453.01
410.667	448.27
411.045	449.62
411.422	461.82
411.8	454.37
412.178	458.21
412.555	470.86
412.933	471.09
413.31	476.06
413.687	467.02
414.065	455.5
414.442	491.2
414.819	497.76
415.197	460.47
415.574	482.16
415.951	473.8
416.328	477.64
416.705	509.51
417.082	492.56
417.46	488.26
417.837	506.57
418.214	493.69
418.591	507.25
418.967	510.18
419.344	521.71
419.721	504.76
420.098	497.98
420.475	510.86
420.852	526.23
421.228	533.01
421.605	518.77
421.982	544.53
422.358	522.84
422.735	528.26
423.111	538.88
423.488	545.21
423.864	550.64
424.241	541.14
424.617	541.14
424.994	542.27
425.37	546.79
425.746	571.2
426.123	581.14
426.499	543.18
426.875	584.08
427.251	566
427.627	579.11
428.003	572.1
428.379	598.09
428.756	579.56
429.132	606.9
429.507	600.13
429.883	590.18
430.259	607.81
430.635	589.73
431.011	620.69
431.387	620.01
431.763	612.78
432.138	634.02
432.514	639.22
432.89	634.7
433.265	663.4
433.641	660.69
434.016	668.82
434.392	648.71
434.767	688.48
435.143	683.29
435.518	700.01
435.894	688.71
436.269	681.48
436.644	691.2
437.02	703.85
437.395	703.85
437.77	714.02
438.145	699.11
438.52	713.34
438.895	732.33
439.271	749.73
439.646	736.85
440.021	741.82
440.395	738.88
440.77	742.95
441.145	763.74
441.52	766.22
441.895	765.54
442.27	756.05
442.645	747.01
443.019	766.9
443.394	780.69
443.769	794.02
444.143	767.8
444.518	806.45
444.892	806.67
445.267	803.06
445.641	801.7
446.016	826.56
446.39	792.66
446.764	806.9
447.139	823.4
447.513	817.75
447.887	824.53
448.262	837.63
448.636	832.66
449.01	843.73
449.384	873.56
449.758	854.58
450.132	879.21
450.506	874.24
450.88	875.82
451.254	870.17
451.628	876.28
452.002	892.32
452.376	918.08
452.75	901.36
453.123	917.18
453.497	923.05
453.871	918.76
454.244	959.66
454.618	963.28
454.992	951.3
455.365	960.12
455.739	987.46
456.112	962.83
456.486	980.68
456.859	980.45
457.232	1007.8
457.606	1024.97
457.979	1028.14
458.352	1034.01
458.725	1047.57
459.099	1043.28
459.472	1077.18
459.845	1068.81
460.218	1071.98
460.591	1061.36
460.964	1098.19
461.337	1128.25
461.71	1146.78
462.083	1126.67
462.456	1152.65
462.829	1177.51
463.201	1177.06
463.574	1150.39
463.947	1188.58
464.32	1215.25
464.692	1225.65
465.065	1234.69
465.438	1235.59
465.81	1263.38
466.183	1264.06
466.555	1277.4
466.928	1283.72
467.3	1299.32
467.672	1287.11
468.045	1344.74
468.417	1340.44
468.789	1365.08
469.161	1386.77
469.534	1409.14
469.906	1419.76
470.278	1431.97
470.65	1449.14
471.022	1454.11
471.394	1473.77
471.766	1509.71
472.138	1511.29
472.51	1549.25
472.882	1565.98
473.253	1582.92
473.625	1582.02
473.997	1641.45
474.369	1623.6
474.74	1664.05
475.112	1676.03
475.484	1725.75
475.855	1721.9
476.227	1742.47
476.598	1803.03
476.97	1805.52
477.341	1820.21
477.713	1800.77
478.084	1874.44
478.455	1902.46
478.827	1935.23
479.198	2022.23
479.569	1977.72
479.94	2018.62
480.311	2037.83
480.682	2143.36
481.053	2148.56
481.424	2185.17
481.795	2205.96
482.166	2207.99
482.537	2250.48
482.908	2305.84
483.279	2307.2
483.65	2382
484.021	2374.32
484.391	2426.74
484.762	2458.83
485.133	2491.83
485.503	2520.3
485.874	2560.53
486.244	2603.69
486.615	2666.74
486.985	2686.4
487.356	2754.42
487.726	2727.53
488.097	2803.01
488.467	2812.95
488.837	2894.3
489.207	2947.18
489.578	2952.83
489.948	2967.52
490.318	3035.77
490.688	3046.61
491.058	3071.25
491.428	3108.53
491.798	3215.88
492.168	3236.44
492.538	3248.64
492.908	3298.13
493.278	3301.75
493.648	3384.46
494.017	3431.01
494.387	3456.1
494.757	3471.69
495.126	3510.78
495.496	3522.53
495.866	3591.69
496.235	3598.24
496.605	3639.59
496.974	3665.58
497.344	3713.94
497.713	3759.82
498.082	3798.01
498.452	3835.52
498.821	3833.94
499.19	3875.07
499.559	3948.06
499.928	3974.05
500.298	3962.75
500.667	4033.93
501.036	4059.7
501.405	4096.98
501.774	4132.69
502.143	4180.37
502.512	4179.69
502.88	4197.54
503.249	4253.36
503.618	4274.38
503.987	4271.89
504.356	4383.08
504.724	4378.78
505.093	4390.31
505.462	4452
505.83	4486.35
506.199	4519.8
506.567	4604.31
506.936	4600.25
507.304	4688.61
507.672	4682.05
508.041	4765.67
508.409	4758.43
508.777	4850.18
509.145	4882.5
509.514	4895.83
509.882	4965.21
510.25	5024.64
510.618	4973.12
510.986	5107.58
511.354	5130.63
511.722	5244.52
512.09	5196.16
512.458	5224.41
512.826	5282.26
513.193	5360
513.561	5400
513.929	5403.39
514.297	5527
514.664	5537.62
515.032	5582.37
515.4	5616.49
515.767	5695.81
516.135	5731.06
516.502	5713.21
516.869	5800.67
517.237	5885.86
517.604	5899.65
517.972	5943.71
518.339	5994.79
518.706	6061.45
519.073	6094.9
519.44	6127.66
519.808	6194.1
520.175	6297.38
520.542	6346.87
520.909	6399.3
521.276	6454.43
521.643	6519.07
522.009	6578.95
522.376	6579.18
522.743	6676.35
523.11	6818.94
523.477	6813.52
523.843	6894.88
524.21	6964.93
524.577	7081.54
524.943	7098.26
525.31	7113.85
525.676	7292.38
526.043	7297.8
526.409	7374.86
526.776	7455.76
527.142	7504.35
527.508	7559.26
527.874	7662.54
528.241	7728.3
528.607	7771.24
528.973	7839.48
529.339	7869.54
529.705	7965.58
530.071	8069.31
530.437	8093.94
530.803	8077.22
531.169	8206.48
531.535	8264.1
531.901	8298.45
532.267	8365.12
532.632	8432.01
532.998	8568.5
533.364	8574.61
533.73	8685.34
534.095	8760.36
534.461	8759.91
534.826	8816.41
535.192	8894.37
535.557	8959
535.923	9068.15
536.288	9080.81
536.653	9116.29
537.019	9153.57
537.384	9156.74
537.749	9239.67
538.114	9339.78
538.479	9398.09
538.845	9410.06
539.21	9451.87
539.575	9501.59
539.94	9541.36
540.305	9654.58
540.67	9614.13
541.034	9741.13
541.399	9790.39
541.764	9894.8
542.129	9924.63
542.494	9981.8
542.858	9994
543.223	10034.45
543.587	10175.92
543.952	10166.2
544.316	10222.47
544.681	10236.71
545.045	10301.79
545.41	10387.21
545.774	10452.75
546.138	10434.67
546.503	10522.8
546.867	10488
547.231	10702.68
547.595	10726.64
547.959	10847.54
548.324	10792.85
548.688	10950.36
549.052	10961.66
549.416	10954.66
549.779	11043.47
550.143	11036.24
550.507	11214.99
550.871	11237.59
551.235	11317.81
551.599	11351.03
551.962	11452.5
552.326	11449.33
552.689	11590.57
553.053	11572.72
553.417	11658.82
553.78	11803.67
554.143	11808.64
554.507	11821.3
554.87	11903.11
555.234	12039.6
555.597	12004.35
555.96	12125.7
556.323	12216.54
556.686	12310.78
557.05	12339.93
557.413	12404.79
557.776	12499.25
558.139	12630.77
558.502	12639.81
558.865	12643.65
559.228	12783.53
559.59	12836.87
559.953	12930.65
560.316	13109.4
560.679	13111.66
561.041	13139.68
561.404	13296.29
561.767	13386.68
562.129	13429.84
562.492	13538.54
562.854	13570.41
563.217	13583.96
563.579	13626.9
563.941	13762.27
564.304	13822.83
564.666	13919.78
565.028	14009.72
565.39	14018.98
565.753	14168.81
566.115	14287.45
566.477	14354.57
566.839	14396.82
567.201	14504.17
567.563	14446.32
567.925	14647.89
568.287	14761.79
568.648	14723.37
569.01	14911.16
569.372	14970.82
569.734	14953.65
570.095	15099.86
570.457	15180.31
570.819	15261.89
571.18	15249.91
571.542	15330.13
571.903	15403.8
572.265	15499.17
572.626	15501.2
572.987	15633.4
573.349	15727.19
573.71	15828.88
574.071	15842.21
574.432	15821.42
574.794	16047.85
575.155	16024.8
575.516	16083.33
575.877	16158.59
576.238	16255.53
576.599	16256.44
576.96	16228.64
577.32	16403.1
577.681	16441.97
578.042	16514.28
578.403	16435.19
578.763	16594.06
579.124	16736.42
579.485	16752.47
579.845	16718.8
580.206	16742.53
580.566	16841.96
580.927	16957.89
581.287	16901.17
581.648	16976.42
582.008	17001.28
582.368	17041.28
582.728	17068.39
583.089	17119.24
583.449	17158.33
583.809	17167.6
584.169	17227.03
584.529	17155.85
584.889	17428.38
585.249	17390.64
585.609	17269.97
585.969	17391.77
586.329	17339.8
586.688	17467.93
587.048	17448.04
587.408	17405.33
587.768	17488.95
588.127	17481.94
588.487	17423.86
588.846	17676.51
589.206	17615.5
589.565	17544.31
589.925	17788.6
590.284	17721.71
590.643	17731.88
591.003	17847.36
591.362	17909.27
591.721	17878.32
592.08	17946.11
592.44	17925.77
592.799	18001.48
593.158	17941.82
593.517	17917.18
593.876	18040.34
594.235	18039.21
594.593	18084.19
594.952	18030.18
595.311	18064.3
595.67	18166.22
596.029	18249.6
596.387	18224.29
596.746	18332.77
597.104	18189.27
597.463	18314.01
597.822	18374.35
598.18	18339.55
598.538	18382.03
598.897	18474.23
599.255	18395.14
599.613	18623.83
599.972	18438.3
600.33	18573.89
600.688	18487.56
601.046	18617.28
601.404	18723.72
601.762	18677.16
602.12	18864.05
602.478	18704.06
602.836	18883.49
603.194	18749.25
603.552	18841.45
603.91	18926.88
604.268	19025.63
604.625	18905.18
604.983	18964.84
605.341	18928.68
605.698	19041.9
606.056	19019.53
606.413	19206.19
606.771	19220.43
607.128	19164.38
607.485	19176.13
607.843	19179.98
608.2	19312.85
608.557	19418.16
608.914	19322.57
609.272	19419.97
609.629	19551.04
609.986	19571.15
610.343	19543.81
610.7	19654.54
611.057	19608.21
611.414	19600.98
611.771	19598.72
612.127	19736.8
612.484	19811.15
612.841	19797.13
613.198	19728.66
613.554	19866.51
613.911	19934.08
614.267	19907.87
614.624	20035.77
614.98	20007.07
615.337	20135.88
615.693	20037.81
616.05	20119.16
616.406	20242.55
616.762	20127.3
617.118	20090.46
617.475	20297.91
617.831	20309.66
618.187	20334.07
618.543	20373.84
618.899	20486.38
619.255	20464.91
619.611	20544.01
619.967	20591.01
620.323	20564.57
620.678	20595.31
621.034	20545.59
621.39	20659.71
621.746	20555.08
622.101	20910.55
622.457	20680.95
622.812	20791.23
623.168	20869.87
623.523	20725.7
623.879	20825.81
624.234	20687.05
624.589	20747.62
624.945	20840.05
625.3	20911.46
625.655	20762.76
626.01	20847.5
626.365	20965.47
626.72	20913.04
627.075	20919.14
627.43	20897.9
627.785	20925.92
628.14	20942.19
628.495	20936.31
628.85	21032.58
629.205	20855.41
629.559	21056.76
629.914	21045.69
630.269	21026.03
630.623	20933.15
630.978	20863.32
631.332	21078.01
631.687	21134.27
632.041	21092.24
632.396	21049.31
632.75	21017.22
633.104	21136.53
633.459	21039.81
633.813	20962.08
634.167	20938.57
634.521	20954.84
634.875	20970.66
635.229	20953.94
635.583	20855.41
635.937	20944.68
636.291	20925.24
636.645	20967.27
636.999	20932.47
637.352	20956.65
637.706	20816.32
638.06	20999.14
638.413	20869.87
638.767	20896.09
639.121	21015.63
639.474	20833.49
639.828	20785.36
640.181	20776.32
640.534	20891.34
640.888	20681.63
641.241	20721.86
641.594	20722.31
641.947	20909.87
642.301	20900.38
642.654	20863.32
643.007	20854.28
643.36	20844.79
643.713	20760.5
644.066	20812.48
644.419	20707.17
644.771	20583.1
645.124	20536.32
645.477	20424.46
645.83	20203.23
646.182	20302.43
646.535	20259.72
646.888	20203.68
647.24	20037.81
647.593	20243.22
647.945	20211.81
648.298	20130.23
648.65	19993.97
649.002	19937.92
649.355	20118.93
649.707	20180.85
650.059	20203.45
650.411	20616.1
650.763	20498.13
651.115	20699.26
651.467	20605.48
651.819	20661.52
652.171	20608.19
652.523	20561.63
652.875	20617
653.227	20509.21
653.578	20709.88
653.93	20638.47
654.282	20637.56
654.633	20608.86
654.985	20630.79
655.337	20589.66
655.688	20612.93
656.039	20730.67
656.391	20453.61
656.742	20499.49
657.094	20559.15
657.445	20694.96
657.796	20755.53
658.147	20663.1
658.498	20727.73
658.849	20579.04
659.2	20564.35
659.551	20569.32
659.902	20712.59
660.253	20577.23
660.604	20653.84
660.955	20535.19
661.306	20718.24
661.656	20691.35
662.007	20694.74
662.358	20650.22
662.708	20617.9
663.059	20722.76
663.409	20581.75
663.76	20719.14
664.11	20759.82
664.461	20735.87
664.811	20806.15
665.161	20687.51
665.511	20683.67
665.862	20730.9
666.212	20815.19
666.562	20776.77
666.912	20695.42
667.262	20680.5
667.612	20706.26
667.962	20859.03
668.312	20710.56
668.662	20713.49
669.011	20778.8
669.361	20669.88
669.711	20765.7
670.06	20742.87
670.41	20643.89
670.76	20618.36
671.109	20824.23
671.459	20744.45
671.808	20663.1
672.157	20649.99
672.507	20643.89
672.856	20606.15
673.205	20704.46
673.554	20723.44
673.904	20639.82
674.253	20779.71
674.602	20735.19
674.951	20448.42
675.3	20348.98
675.649	20630.11
675.998	20573.84
676.346	20668.07
676.695	20734.74
677.044	20504.46
677.393	20645.7
677.741	20751.01
678.09	20613.16
678.438	20426.72
678.787	20577.23
679.135	20542.2
679.484	20494.07
679.832	20639.37
680.181	20417.91
680.529	20579.04
680.877	20544.91
681.225	20432.15
681.573	20701.74
681.922	20464.46
682.27	20446.16
682.618	20403.9
682.966	20386.05
683.314	20493.39
683.661	20378.14
684.009	20295.2
684.357	20272.38
684.705	20315.31
685.053	20361.41
685.4	20278.48
685.748	20174.3
686.095	20174.3
686.443	20199.16
686.79	20088.2
687.138	20185.37
687.485	20019.28
687.832	20132.95
688.18	20153.28
688.527	19947.19
688.874	19942.44
689.221	19985.38
689.568	19891.14
689.915	19885.27
690.262	19840.98
690.609	19768.44
690.956	19785.61
691.303	19748.77
691.65	19716.68
691.997	19603.24
692.344	19587.87
692.69	19601.21
693.037	19577.71
693.383	19451.83
693.73	19463.58
694.077	19378.84
694.423	19412.29
694.769	19354.43
695.116	19318.96
695.462	19326.19
695.808	19294.55
696.155	19320.99
696.501	19110.37
696.847	19098.17
697.193	19027.44
697.539	19097.72
697.885	18938.63
698.231	18912.41
698.577	18935.46
698.923	18881.9
699.269	18769.14
699.614	18844.17
699.96	18641.46
700.306	18634.45
700.651	18579.77
700.997	18657.28
701.342	18566.21
701.688	18601.23
702.033	18445.98
702.379	18511.52
702.724	18412.54
703.069	18552.2
703.415	18224.97
703.76	18326.21
704.105	18316.27
704.45	18282.82
704.795	18203.73
705.14	18063.85
705.485	18077.41
705.83	18076.73
706.175	18128.93
706.52	18002.15
706.865	17937.75
707.209	17897.98
707.554	17895.26
707.899	17963.51
708.243	17832.44
708.588	17773.69
708.932	17697.75
709.277	17618.89
709.621	17699.79
709.966	17601.49
710.31	17700.69
710.654	17525.1
710.998	17587.48
711.342	17535.95
711.687	17573.92
712.031	17382.74
712.375	17425.22
712.719	17450.3
713.063	17326.47
713.407	17517.87
713.75	17416.63
714.094	17328.27
714.438	17339.12
714.782	17337.54
715.125	17193.14
715.469	17255.73
715.812	17176.64
716.156	17061.39
716.499	17151.33
716.843	17149.75
717.186	17027.26
717.53	17124.21
717.873	17112.91
718.216	17134.83
718.559	17031.11
718.902	16875.4
719.246	16987.27
719.589	16807.83
719.932	16819.59
720.275	16853.26
720.617	16835.18
720.96	16854.39
721.303	16832.47
721.646	16876.08
721.989	16686.48
722.331	16785.69
722.674	16787.95
723.016	16728.51
723.359	16705.24
723.701	16771
724.044	16718.35
724.386	16650.32
724.729	16720.38
725.071	16732.36
725.413	16646.26
725.755	16627.05
726.097	16594.06
726.439	16498.46
726.782	16547.73
727.124	16582.3
727.465	16448.75
727.807	16496.2
728.149	16497.11
728.491	16447.17
728.833	16482.42
729.175	16384.57
729.516	16453.27
729.858	16436.55
730.199	16366.72
730.541	16379.37
730.882	16313.38
731.224	16364.23
731.565	16381.86
731.906	16387.73
732.248	16346.38
732.589	16275.42
732.93	16203.11
733.271	16221.41
733.612	16226.61
733.953	16374.85
734.294	16295.98
734.635	16102.32
734.976	16225.7
735.317	16174.18
735.658	16241.75
735.999	16113.39
736.339	16145.93
736.68	16230.67
737.021	16080.85
737.361	16065.48
737.702	16129.66
738.042	16164.91
738.383	16121.07
738.723	16139.15
739.063	16084.01
739.404	16070.91
739.744	16088.98
740.084	15996.78
740.424	15997.23
740.764	16022.54
741.104	16076.55
741.444	15958.14
741.784	15938.25
742.124	16021.41
742.464	16055.76
742.804	15940.29
743.143	15908.65
743.483	15920.4
743.823	15871.59
744.162	15841.76
744.502	15951.81
744.841	15896.67
745.181	15962.89
745.52	15858.71
745.86	15871.81
746.199	15856.45
746.538	15719.95
746.877	15846.5
747.216	15759.73
747.556	15831.59
747.895	15827.52
748.234	15748.43
748.573	15732.38
748.911	15783
749.25	15730.12
749.589	15767.41
749.928	15823.91
750.267	15750.91
750.605	15679.95
750.944	15786.62
751.283	15647.19
751.621	15682.89
751.96	15699.84
752.298	15570.58
752.636	15600.18
752.975	15507.08
753.313	15498.04
753.651	15623.46
753.989	15511.6
754.327	15539.17
754.666	15610.58
755.004	15544.59
755.342	15583.46
755.679	15421.2
756.017	15348.21
756.355	15427.31
756.693	15416.91
757.031	15388.89
757.368	15396.57
757.706	15421.2
758.044	15245.62
758.381	15299.85
758.719	15265.5
