Data from cardboard_FLMS001491_034.txt Node
Date: Tue Feb 07 11:39:21 GMT 2017
User: dcchb
Spectrometer: FLMS00149
Trigger mode: 0
Integration Time (sec): 2.000000E-2
Scans to average: 10
Electric dark correction enabled: true
Nonlinearity correction enabled: false
Boxcar width: 0
XAxis mode: Wavelengths
Number of Pixels in Spectrum: 2048
>>>>>Begin Spectral Data<<<<<
341.393	-18.26
341.776	-18.26
342.16	-18.26
342.543	-66.62
342.927	-62.78
343.31	-55.32
343.693	-55.32
344.077	-70.46
344.46	-53.74
344.843	-39.05
345.226	-47.41
345.61	-59.17
345.993	-13.06
346.376	-7.64
346.759	16.31
347.142	15.86
347.525	35.07
347.908	75.52
348.291	76.2
348.674	90.89
349.057	91.34
349.44	118.23
349.823	160.49
350.206	155.52
350.588	178.57
350.971	204.56
351.354	215.18
351.737	217.66
352.119	261.5
352.502	263.76
352.884	249.08
353.267	285.01
353.65	272.8
354.032	275.52
354.414	304.67
354.797	302.18
355.179	322.52
355.562	330.2
355.944	310.54
356.326	336.98
356.709	335.4
357.091	332.24
357.473	336.53
357.855	335.63
358.238	350.09
358.62	336.98
359.002	332.24
359.384	341.73
359.766	350.99
360.148	323.2
360.53	322.97
360.912	317.77
361.294	315.97
361.676	338.34
362.057	335.17
362.439	322.29
362.821	314.16
363.203	309.41
363.584	325.68
363.966	314.61
364.348	322.29
364.729	321.16
365.111	304.67
365.493	309.41
365.874	296.31
366.256	298.34
366.637	320.49
367.019	293.59
367.4	302.86
367.781	305.57
368.163	303.09
368.544	326.14
368.925	316.42
369.306	300.6
369.688	317.1
370.069	287.27
370.45	316.42
370.831	291.33
371.212	327.72
371.593	302.18
371.974	311.9
372.355	303.54
372.736	306.93
373.117	315.29
373.498	304.89
373.879	320.03
374.26	307.15
374.641	302.18
375.021	310.54
375.402	319.81
375.783	329.75
376.163	318.45
376.544	297.21
376.925	327.72
377.305	324.33
377.686	317.32
378.066	325.23
378.447	331.33
378.827	290.43
379.208	318
379.588	320.94
379.968	322.29
380.349	314.61
380.729	320.94
381.109	356.19
381.489	325.46
381.87	320.71
382.25	337.89
382.63	339.24
383.01	307.6
383.39	309.41
383.77	357.32
384.15	306.7
384.53	359.81
384.91	324.33
385.29	340.37
385.67	329.75
386.049	339.92
386.429	352.58
386.809	328.62
387.189	326.36
387.568	346.93
387.948	343.31
388.328	348.06
388.707	348.51
389.087	338.79
389.466	344.21
389.846	343.76
390.225	370.65
390.605	358
390.984	356.64
391.363	353.71
391.743	346.02
392.122	377.21
392.501	359.13
392.881	351.22
393.26	363.2
393.639	371.56
394.018	358.45
394.397	360.26
394.776	373.14
395.155	383.76
395.534	366.36
395.913	368.85
396.292	372.01
396.671	378.11
397.05	372.91
397.429	369.98
397.808	384.67
398.186	362.07
398.565	385.57
398.944	366.13
399.323	401.84
399.701	373.82
400.08	389.18
400.458	378.79
400.837	388.96
401.215	390.09
401.594	412.01
401.972	395.96
402.351	406.59
402.729	422.18
403.107	409.07
403.486	387.6
403.864	398.22
404.242	397.32
404.62	411.11
404.999	410.65
405.377	398
405.755	420.37
406.133	409.52
406.511	407.04
406.889	405.46
407.267	429.18
407.645	408.85
408.023	424.21
408.401	430.09
408.779	456.3
409.156	447.94
409.534	428.73
409.912	452.91
410.29	466.47
410.667	452.46
411.045	450.2
411.422	442.74
411.8	461.73
412.178	451.33
412.555	474.83
412.933	473.93
413.31	475.96
413.687	496.75
414.065	485.45
414.442	500.37
414.819	494.72
415.197	478.45
415.574	500.82
415.951	489.3
416.328	504.44
416.705	502.85
417.082	490.2
417.46	495.85
417.837	519.12
418.214	515.74
418.591	516.86
418.967	494.94
419.344	535.4
419.721	517.54
420.098	532.91
420.475	523.42
420.852	542.18
421.228	538.11
421.605	526.13
421.982	544.21
422.358	566.81
422.735	559.35
423.111	550.99
423.488	561.84
423.864	551.21
424.241	555.28
424.617	555.96
424.994	560.48
425.37	567.03
425.746	561.16
426.123	570.65
426.499	581.27
426.875	584.89
427.251	594.38
427.627	596.18
428.003	612.46
428.379	614.04
428.756	645.9
429.132	630.08
429.507	632.34
429.883	631.21
430.259	643.19
430.635	631.89
431.011	642.74
431.387	654.26
431.763	677.31
432.138	647.48
432.514	683.41
432.89	676.86
433.265	669.4
433.641	696.3
434.016	694.71
434.392	702.85
434.767	723.64
435.143	703.75
435.518	702.85
435.894	693.13
436.269	732.9
436.644	728.61
437.02	727.93
437.395	722.51
437.77	735.84
438.145	728.16
438.52	764.54
438.895	751.89
439.271	768.84
439.646	780.13
440.021	784.65
440.395	780.59
440.77	786.46
441.145	780.36
441.52	822.17
441.895	786.46
442.27	785.11
442.645	782.62
443.019	801.38
443.394	817.42
443.769	849.51
444.143	820.81
444.518	837.99
444.892	824.2
445.267	829.63
445.641	841.83
446.016	852.22
446.39	865.56
446.764	870.75
447.139	871.43
447.513	874.37
447.887	849.29
448.262	881.83
448.636	869.85
449.01	886.12
449.384	896.74
449.758	922.73
450.132	905.56
450.506	917.53
450.88	912.11
451.254	930.41
451.628	942.84
452.002	943.07
452.376	954.82
452.75	945.55
453.123	972.9
453.497	983.07
453.871	959.57
454.244	989.62
454.618	982.62
454.992	994.59
455.365	982.62
455.739	1021.48
456.112	1019.22
456.486	1038.43
456.859	1078.21
457.232	1044.08
457.606	1061.94
457.979	1060.13
458.352	1069.62
458.725	1114.82
459.099	1092.89
459.472	1117.08
459.845	1137.41
460.218	1140.8
460.591	1146
460.964	1151.88
461.337	1173.12
461.71	1203.17
462.083	1210.63
462.456	1224.19
462.829	1207.47
463.201	1231.65
463.574	1217.19
463.947	1250.4
464.32	1264.64
464.692	1280.46
465.065	1304.41
465.438	1315.94
465.81	1339.89
466.183	1341.7
466.555	1364.98
466.928	1360.23
467.3	1359.1
467.672	1383.73
468.045	1371.53
468.417	1423.06
468.789	1453.34
469.161	1452.43
469.534	1456.28
469.906	1510.06
470.278	1517.97
470.65	1541.47
471.022	1538.98
471.394	1566.1
471.766	1627.57
472.138	1567.23
472.51	1608.81
472.882	1656.27
473.253	1684.07
473.625	1665.08
473.997	1739.21
474.369	1750.5
474.74	1732.88
475.112	1786.44
475.484	1825.08
475.855	1839.09
476.227	1864.63
476.598	1882.93
476.97	1894
477.341	1950.05
477.713	1993.21
478.084	1994.11
478.455	2040.44
478.827	2067.33
479.198	2100.1
479.569	2096.26
479.94	2145.07
480.311	2188.91
480.682	2244.5
481.053	2247.21
481.424	2315.01
481.795	2344.39
482.166	2360.66
482.537	2416.48
482.908	2436.36
483.279	2476.36
483.65	2528.56
484.021	2562.01
484.391	2584.16
484.762	2615.79
485.133	2639.52
485.503	2665.51
485.874	2745.05
486.244	2784.15
486.615	2827.76
486.985	2860.76
487.356	2900.31
487.726	2907.08
488.097	2992.28
488.467	3039.06
488.837	3087.64
489.207	3073.63
489.578	3143.69
489.948	3194.76
490.318	3230.47
490.688	3251.93
491.058	3335.1
491.428	3375.09
491.798	3413.06
492.168	3453.28
492.538	3460.74
492.908	3565.37
493.278	3555.66
493.648	3598.82
494.017	3673.84
494.387	3711.36
494.757	3693.28
495.126	3771.92
495.496	3764.24
495.866	3850.34
496.235	3867.29
496.605	3874.97
496.974	3909.09
497.344	3960.39
497.713	4013.5
498.082	4006.04
498.452	4101.4
498.821	4155.41
499.19	4114.28
499.559	4196.77
499.928	4190.67
500.298	4245.81
500.667	4280.61
501.036	4347.72
501.405	4334.39
501.774	4384.56
502.143	4484.22
502.512	4462.75
502.88	4505.91
503.249	4542.07
503.618	4611.22
503.987	4606.93
504.356	4656.87
504.724	4681.73
505.093	4713.36
505.462	4786.13
505.83	4822.06
506.199	4829.75
506.567	4976.41
506.936	4911.78
507.304	5008.72
507.672	5029.74
508.041	5058.67
508.409	5130.08
508.777	5144.77
509.145	5188.61
509.514	5261.15
509.882	5319.9
510.25	5314.93
510.618	5372.33
510.986	5416.85
511.354	5477.19
511.722	5525.77
512.09	5542.04
512.458	5551.31
512.826	5695.49
513.193	5717.86
513.561	5800.79
513.929	5845.31
514.297	5848.93
514.664	5941.36
515.032	5949.72
515.4	6024.52
515.767	6066.55
516.135	6119.88
516.502	6165.3
516.869	6241.23
517.237	6234
517.604	6290.27
517.972	6373.66
518.339	6408.91
518.706	6520.77
519.073	6523.26
519.44	6572.75
519.808	6686.42
520.175	6721.45
520.542	6766.64
520.909	6825.17
521.276	6874.66
521.643	6972.29
522.009	7030.37
522.376	7073.98
522.743	7161.66
523.11	7224.94
523.477	7292.51
523.843	7371.37
524.21	7444.82
524.577	7499.96
524.943	7573.18
525.31	7694.3
525.676	7791.48
526.043	7840.51
526.409	7876.67
526.776	7991.47
527.142	8060.62
527.508	8130.45
527.874	8144.91
528.241	8222.2
528.607	8317.34
528.973	8400.5
529.339	8393.27
529.705	8495.86
530.071	8589.42
530.437	8640.49
530.803	8697.89
531.169	8781.73
531.535	8818.79
531.901	8908.96
532.267	8974.72
532.632	8974.5
532.998	9107.6
533.364	9123.19
533.73	9209.97
534.095	9343.07
534.461	9324.54
534.826	9451.55
535.192	9519.57
535.557	9586.23
535.923	9640.01
536.288	9681.6
536.653	9699.22
537.019	9730.86
537.384	9807.24
537.749	9902.38
538.114	9893.79
538.479	9993.23
538.845	10063.28
539.21	10045.43
539.575	10115.93
539.94	10264.86
540.305	10268.92
540.67	10312.09
541.034	10384.85
541.399	10393.44
541.764	10501.69
542.129	10596.6
542.494	10619.88
542.858	10708.01
543.223	10689.48
543.587	10804.5
543.952	10809.02
544.316	10915.01
544.681	10912.52
545.045	11065.74
545.41	11025.06
545.774	11185.28
546.138	11245.85
546.503	11296.02
546.867	11358.61
547.231	11317.26
547.595	11418.95
547.959	11550.25
548.324	11527.87
548.688	11567.87
549.052	11635.89
549.416	11702.79
549.779	11811.26
550.143	11806.29
550.507	11929.9
550.871	11957.24
551.235	11988.43
551.599	12157.01
551.962	12315.2
552.326	12281.08
552.689	12328.08
553.053	12364.24
553.417	12414.63
553.78	12605.81
554.143	12553.38
554.507	12697.56
554.87	12779.82
555.234	12799.48
555.597	12828.86
555.96	13002.41
556.323	13038.12
556.686	13073.6
557.05	13186.59
557.413	13316.98
557.776	13345.68
558.139	13422.74
558.502	13440.14
558.865	13625.67
559.228	13651.43
559.59	13670.19
559.953	13781.6
560.316	13945.89
560.679	13998.77
561.041	14051.65
561.404	14241.02
561.767	14325.54
562.129	14349.04
562.492	14369.61
562.854	14500.23
563.217	14497.29
563.579	14654.12
563.941	14698.86
564.304	14817.05
564.666	14888.69
565.028	14986.31
565.39	15118.51
565.753	15138.85
566.115	15322.13
566.477	15381.33
566.839	15359.64
567.201	15494.1
567.563	15521.67
567.925	15770.25
568.287	15822.45
568.648	15869.23
569.01	15903.8
569.372	16060.86
569.734	16111.94
570.095	16151.71
570.457	16247.75
570.819	16352.61
571.18	16396.22
571.542	16527.97
571.903	16596.22
572.265	16575.88
572.626	16716.66
572.987	16693.61
573.349	16835.53
573.71	17005.24
574.071	17014.51
574.432	17042.76
574.794	17289.98
575.155	17252.02
575.516	17182.42
575.877	17369.98
576.238	17431.9
576.599	17508.06
576.96	17498.34
577.32	17525.91
577.681	17617.43
578.042	17802.96
578.403	17772.68
578.763	17785.79
579.124	17876.41
579.485	17946.92
579.845	18042.73
580.206	18040.25
580.566	18154.14
580.927	18146.46
581.287	18231.88
581.648	18237.3
582.008	18302.16
582.368	18331.31
582.728	18360.46
583.089	18404.98
583.449	18468.48
583.809	18500.12
584.169	18559.78
584.529	18488.14
584.889	18746.89
585.249	18613.56
585.609	18541.7
585.969	18808.81
586.329	18704.86
586.688	18856.5
587.048	18864.18
587.408	18913.44
587.768	18833.45
588.127	18917.51
588.487	18976.72
588.846	19076.15
589.206	19032.99
589.565	19102.59
589.925	19105.53
590.284	19180.78
590.643	19265.07
591.003	19278.18
591.362	19324.73
591.721	19310.5
592.08	19319.76
592.44	19338.29
592.799	19392.75
593.158	19489.02
593.517	19506.87
593.876	19604.27
594.235	19386.43
594.593	19481.56
594.952	19648.79
595.311	19554.78
595.67	19607.89
596.029	19822.57
596.387	19848.79
596.746	19938.28
597.104	19766.75
597.463	19875.68
597.822	19888.56
598.18	19825.74
598.538	19902.34
598.897	20040.87
599.255	19887.43
599.613	20154.99
599.972	20051.27
600.33	20201.77
600.688	20172.85
601.046	20220.53
601.404	20260.53
601.762	20209
602.12	20408.77
602.478	20388.88
602.836	20424.82
603.194	20368.77
603.552	20421.65
603.91	20350.69
604.268	20502.55
604.625	20402.9
604.983	20613.74
605.341	20565.38
605.698	20655.09
606.056	20715.88
606.413	20736.45
606.771	20907.29
607.128	20842.43
607.485	20788.42
607.843	20853.51
608.2	20919.27
608.557	21063.44
608.914	20993.39
609.272	21059.15
609.629	21113.39
609.986	21171.46
610.343	21188.41
610.7	21296.66
611.057	21329.65
611.414	21301.63
611.771	21366.49
612.127	21471.34
612.484	21365.36
612.841	21498.46
613.198	21499.36
613.554	21424.79
613.911	21725.35
614.267	21608.06
614.624	21649.42
614.98	21642.64
615.337	21782.75
615.693	21782.29
616.05	21765.57
616.406	21999.46
616.762	21932.57
617.118	21951.1
617.475	21879.69
617.831	22080.14
618.187	21995.62
618.543	22143.64
618.899	22183.19
619.255	22256.18
619.611	22178.89
619.967	22286.01
620.323	22315.61
620.678	22185
621.034	22239.23
621.39	22405.78
621.746	22199.01
622.101	22512.9
622.457	22466.12
622.812	22424.54
623.168	22459.56
623.523	22499.56
623.879	22596.28
624.234	22463.18
624.589	22468.15
624.945	22563.52
625.3	22688.94
625.655	22596.51
626.01	22665.66
626.365	22726
626.72	22651.88
627.075	22703.63
627.43	22684.87
627.785	22676.51
628.14	22602.39
628.495	22724.87
628.85	22759.67
629.205	22699.11
629.559	22832.21
629.914	22646.23
630.269	22681.93
630.623	22613.01
630.978	22584.99
631.332	22855.71
631.687	22852.1
632.041	22805.09
632.396	22806.67
632.75	22699.11
633.104	22782.72
633.459	22781.14
633.813	22765.77
634.167	22684.87
634.521	22729.39
634.875	22819.1
635.229	22639.22
635.583	22600.58
635.937	22674.47
636.291	22629.5
636.645	22730.07
636.999	22626.57
637.352	22773.23
637.706	22548.38
638.06	22670.86
638.413	22576.85
638.767	22582.5
639.121	22663.85
639.474	22448.04
639.828	22559.68
640.181	22588.37
640.534	22535.95
640.888	22493.91
641.241	22385.89
641.594	22544.08
641.947	22565.78
642.301	22564.87
642.654	22547.02
643.007	22445.33
643.36	22496.4
643.713	22410.98
644.066	22629.96
644.419	22340.7
644.771	22279.46
645.124	22111.78
645.477	22055.28
645.83	21999.69
646.182	21917.66
646.535	21901.39
646.888	21873.37
647.24	21884.44
647.593	22014.83
647.945	21982.97
648.298	21808.73
648.65	21695.74
649.002	21697.78
649.355	21782.75
649.707	21800.83
650.059	22000.14
650.411	22282.39
650.763	22218.22
651.115	22501.15
651.467	22292.56
651.819	22440.58
652.171	22313.13
652.523	22273.58
652.875	22326.69
653.227	22163.08
653.578	22446.68
653.93	22402.17
654.282	22290.08
654.633	22143.19
654.985	22268.84
655.337	22301.6
655.688	22234.03
656.039	22379.57
656.391	22148.39
656.742	22219.35
657.094	22331.21
657.445	22243.07
657.796	22270.87
658.147	22343.41
658.498	22299.57
658.849	22333.92
659.2	22305.9
659.551	22249.17
659.902	22349.06
660.253	22326.91
660.604	22360.36
660.955	22238.33
661.306	22296.63
661.656	22322.39
662.007	22345.9
662.358	22352.9
662.708	22307.93
663.059	22334.37
663.409	22157.43
663.76	22412.33
664.11	22352.22
664.461	22418.44
664.811	22379.79
665.161	22334.82
665.511	22379.79
665.862	22298.89
666.212	22464.76
666.562	22412.11
666.912	22476.51
667.262	22278.78
667.612	22501.6
667.962	22368.72
668.312	22320.13
668.662	22521.26
669.011	22450.75
669.361	22377.08
669.711	22371.21
670.06	22315.39
670.41	22327.82
670.76	22258.44
671.109	22408.94
671.459	22363.07
671.808	22367.36
672.157	22317.2
672.507	22264.99
672.856	22340.25
673.205	22243.53
673.554	22320.59
673.904	22414.82
674.253	22459.56
674.602	22277.65
674.951	22076.75
675.3	21977.54
675.649	22227.25
675.998	22292.34
676.346	22243.98
676.695	22427.02
677.044	22115.39
677.393	22319.23
677.741	22214.15
678.09	22274.94
678.438	22274.26
678.787	22204.43
679.135	22265.45
679.484	22131.21
679.832	22320.59
680.181	22039.46
680.529	22174.15
680.877	22102.29
681.225	22128.95
681.573	22291.66
681.922	21987.49
682.27	21982.97
682.618	22056.64
682.966	21930.77
683.314	22049.63
683.661	21928.73
684.009	21940.71
684.357	21779.13
684.705	21801.95
685.053	21837.66
685.4	21884.44
685.748	21802.63
686.095	21719.7
686.443	21578.68
686.79	21694.16
687.138	21608.97
687.485	21708.62
687.832	21678.34
688.18	21686.03
688.527	21538.69
688.874	21483.55
689.221	21530.55
689.568	21439.25
689.915	21337.56
690.262	21462.75
690.609	21349.09
690.956	21362.19
691.303	21245.36
691.65	21223.67
691.997	21193.61
692.344	21073.39
692.69	21015.31
693.037	21110.67
693.383	20813.51
693.73	20986.38
694.077	20922.88
694.423	20856.67
694.769	20764.47
695.116	20780.96
695.462	20760.85
695.808	20727.18
696.155	20814.18
696.501	20522.21
696.847	20555.21
697.193	20533.97
697.539	20552.5
697.885	20397.02
698.231	20382.78
698.577	20383.24
698.923	20324.25
699.269	20229.57
699.614	20209
699.96	20174.88
700.306	20191.83
700.651	20024.83
700.997	19988.9
701.342	19989.8
701.688	19893.76
702.033	19865.28
702.379	19916.58
702.724	19776.47
703.069	19780.09
703.415	19781.67
703.76	19669.13
704.105	19684.72
704.45	19603.14
704.795	19487.21
705.14	19543.26
705.485	19405.41
705.83	19413.77
706.175	19338.74
706.52	19344.84
706.865	19308.24
707.209	19283.15
707.554	19287.67
707.899	19257.39
708.243	19116.83
708.588	19072.99
708.932	19088.13
709.277	19055.13
709.621	19088.81
709.966	19009.03
710.31	18936.04
710.654	18862.82
710.998	18867.79
711.342	18857.85
711.687	18800.68
712.031	18882.03
712.375	18663.51
712.719	18800.23
713.063	18743.05
713.407	18836.61
713.75	18629.16
714.094	18748.7
714.438	18612.89
714.782	18741.47
715.125	18619.67
715.469	18576.28
715.812	18423.74
716.156	18357.3
716.499	18417.64
716.843	18437.98
717.186	18339.22
717.53	18471.2
717.873	18322.27
718.216	18376.73
718.559	18305.55
718.902	18175.16
719.246	18230.07
719.589	18150.53
719.932	18100.58
720.275	18000.25
720.617	18070.53
720.96	18020.59
721.303	18080.02
721.646	18232.78
721.989	17924.77
722.331	18070.98
722.674	18018.1
723.016	18063.52
723.359	18055.84
723.701	18055.61
724.044	17900.81
724.386	17935.39
724.729	17950.98
725.071	17860.36
725.413	17957.76
725.755	17878.22
726.097	17936.29
726.439	17770.42
726.782	17747.82
727.124	17814.49
727.465	17755.73
727.807	17733.81
728.149	17689.75
728.491	17739.46
728.833	17801.61
729.175	17648.17
729.516	17682.52
729.858	17569.52
730.199	17552.35
730.541	17545.12
730.882	17736.07
731.224	17700.59
731.565	17425.8
731.906	17595.96
732.248	17595.51
732.589	17455.4
732.93	17450.43
733.271	17573.59
733.612	17449.75
733.953	17533.14
734.294	17500.6
734.635	17428.28
734.976	17517.32
735.317	17453.82
735.658	17442.97
735.999	17428.96
736.339	17395.97
736.68	17477.32
737.021	17399.13
737.361	17235.75
737.702	17321.39
738.042	17324.56
738.383	17343.77
738.723	17360.26
739.063	17245.01
739.404	17337.67
739.744	17210.89
740.084	17140.38
740.424	17281.62
740.764	17290.89
741.104	17278.23
741.444	17210.66
741.784	17134.96
742.124	17190.1
742.464	17149.65
742.804	17170.66
743.143	17103.32
743.483	17182.87
743.823	17012.25
744.162	17016.77
744.502	17133.38
744.841	16994.4
745.181	17051.57
745.52	17060.16
745.86	17046.15
746.199	17041.63
746.538	17058.8
746.877	17031.01
747.216	17007.05
747.556	17008.41
747.895	17012.7
748.234	16951.69
748.573	16901.07
748.911	16890.22
749.25	16968.41
749.589	16878.92
749.928	16915.98
750.267	16905.59
750.605	16846.38
750.944	16806.83
751.283	16795.08
751.621	16767.96
751.96	16773.84
752.298	16753.5
752.636	16729.77
752.975	16699.94
753.313	16637.8
753.651	16705.82
753.989	16657.46
754.327	16690.22
754.666	16558.7
755.004	16706.5
755.342	16563.22
755.679	16542.88
756.017	16530.68
756.355	16558.93
756.693	16454.07
757.031	16542.66
757.368	16445.94
757.706	16535.43
758.044	16483
