Data from cardboard_FLMS001491_070.txt Node
Date: Tue Feb 07 11:39:58 GMT 2017
User: dcchb
Spectrometer: FLMS00149
Trigger mode: 0
Integration Time (sec): 2.000000E-2
Scans to average: 10
Electric dark correction enabled: true
Nonlinearity correction enabled: false
Boxcar width: 0
XAxis mode: Wavelengths
Number of Pixels in Spectrum: 2048
>>>>>Begin Spectral Data<<<<<
341.393	-7.34
341.776	-7.34
342.16	-7.34
342.543	-75.14
342.927	-73.11
343.31	-71.98
343.693	-78.98
344.077	-50.73
344.46	-49.15
344.843	-57.06
345.226	-20
345.61	-22.94
345.993	-37.63
346.376	-7.12
346.759	10.73
347.142	8.93
347.525	46.44
347.908	63.39
348.291	64.07
348.674	99.32
349.057	102.71
349.44	113.1
349.823	134.12
350.206	181.35
350.588	198.75
350.971	230.39
351.354	230.16
351.737	224.06
352.119	255.47
352.502	267.68
352.884	287.56
353.267	283.95
353.65	312.65
354.032	300.9
354.414	314.46
354.797	318.3
355.179	314.23
355.562	344.28
355.944	341.35
356.326	348.58
356.709	364.17
357.091	348.35
357.473	364.62
357.855	360.33
358.238	363.72
358.62	359.65
359.002	349.48
359.384	351.06
359.766	340.67
360.148	348.8
360.53	364.85
360.912	341.57
361.294	349.03
361.676	351.52
362.057	351.74
362.439	343.61
362.821	331.4
363.203	311.07
363.584	348.13
363.966	332.08
364.348	314
364.729	322.59
365.111	321.23
365.493	337.28
365.874	337.73
366.256	328.24
366.637	325.75
367.019	317.17
367.4	321.23
367.781	338.41
368.163	332.53
368.544	295.7
368.925	310.61
369.306	337.96
369.688	325.53
370.069	331.4
370.45	332.76
370.831	310.39
371.212	312.87
371.593	325.3
371.974	317.17
372.355	320.56
372.736	336.83
373.117	314.23
373.498	319.88
373.879	308.81
374.26	317.39
374.641	321.01
375.021	325.98
375.402	334.57
375.783	338.64
376.163	320.33
376.544	310.39
376.925	341.35
377.305	323.27
377.686	327.56
378.066	342.02
378.447	322.59
378.827	321.91
379.208	342.25
379.588	351.52
379.968	344.06
380.349	348.8
380.729	351.06
381.109	358.07
381.489	342.7
381.87	345.41
382.25	358.3
382.63	365.98
383.01	347.67
383.39	356.94
383.77	361.91
384.15	391.74
384.53	365.75
384.91	363.95
385.29	348.35
385.67	370.72
386.049	371.85
386.429	361.69
386.809	357.62
387.189	363.04
387.568	358.52
387.948	358.3
388.328	398.07
388.707	379.31
389.087	359.65
389.466	384.06
389.846	363.49
390.225	386.09
390.605	391.06
390.984	380.67
391.363	408.01
391.743	393.55
392.122	403.94
392.501	394.68
392.881	401.01
393.26	401.01
393.639	402.59
394.018	405.75
394.397	404.62
394.776	405.53
395.155	417.05
395.534	399.65
395.913	403.49
396.292	429.03
396.671	410.05
397.05	436.49
397.429	441.46
397.808	409.82
398.186	406.2
398.565	400.55
398.944	416.83
399.323	408.01
399.701	446.2
400.08	423.6
400.458	429.48
400.837	449.37
401.215	439.42
401.594	435.36
401.972	443.49
402.351	439.88
402.729	445.53
403.107	470.61
403.486	440.1
403.864	454.56
404.242	442.14
404.62	474.22
404.999	479.42
405.377	444.17
405.755	470.61
406.133	480.55
406.511	493.89
406.889	476.94
407.267	497.28
407.645	499.76
408.023	494.79
408.401	483.94
408.779	484.62
409.156	502.47
409.534	497.5
409.912	505.18
410.29	525.07
410.667	510.16
411.045	508.12
411.422	539.08
411.8	537.05
412.178	528.23
412.555	535.47
412.933	540.21
413.31	549.03
413.687	546.54
414.065	549.93
414.442	562.81
414.819	562.58
415.197	558.52
415.574	580.66
415.951	569.36
416.328	584.05
416.705	593.54
417.082	564.17
417.46	589.25
417.837	592.41
418.214	601.68
418.591	582.02
418.967	600.55
419.344	616.59
419.721	631.73
420.098	616.14
420.475	605.75
420.852	636.25
421.228	634.45
421.605	641.68
421.982	641.9
422.358	624.73
422.735	658.17
423.111	648.68
423.488	655.24
423.864	648.68
424.241	650.72
424.617	682.58
424.994	685.74
425.37	683.94
425.746	678.06
426.123	674.45
426.499	687.78
426.875	692.3
427.251	713.54
427.627	705.41
428.003	710.38
428.379	717.38
428.756	732.07
429.132	730.72
429.507	730.04
429.883	740.43
430.259	773.88
430.635	756.7
431.011	765.74
431.387	762.8
431.763	774.78
432.138	803.03
432.514	774.78
432.89	811.84
433.265	812.52
433.641	814.55
434.016	828.79
434.392	855.46
434.767	851.16
435.143	850.26
435.518	853.88
435.894	829.24
436.269	869.02
436.644	897.72
437.02	889.36
437.395	878.96
437.77	905.17
438.145	899.98
438.52	932.07
438.895	923.25
439.271	924.16
439.646	926.19
440.021	965.29
440.395	946.08
440.77	956.02
441.145	944.95
441.52	985.62
441.895	944.95
442.27	996.7
442.645	1000.09
443.019	985.62
443.394	993.08
443.769	993.08
444.143	970.93
444.518	996.7
444.892	1018.62
445.267	995.12
445.641	1036.24
446.016	1031.5
446.39	1026.53
446.764	1076.24
447.139	1038.05
447.513	1045.51
447.887	1073.76
448.262	1057.49
448.636	1061.33
449.01	1090.93
449.384	1071.05
449.758	1097.49
450.132	1112.4
450.506	1112.85
450.88	1123.47
451.254	1134.32
451.628	1124.38
452.002	1147.65
452.376	1153.98
452.75	1141.55
453.123	1186.52
453.497	1173.87
453.871	1200.08
454.244	1210.48
454.618	1204.15
454.992	1234.43
455.365	1224.49
455.739	1245.5
456.112	1260.19
456.486	1278.05
456.859	1277.14
457.232	1310.14
457.606	1326.41
457.979	1348.55
458.352	1340.64
458.725	1365.95
459.099	1400.75
459.472	1414.77
459.845	1393.52
460.218	1391.71
460.591	1425.16
460.964	1453.86
461.337	1478.27
461.71	1497.25
462.083	1478.49
462.456	1484.14
462.829	1510.36
463.201	1529.34
463.574	1524.37
463.947	1577.92
464.32	1589.45
464.692	1622.67
465.065	1598.04
465.438	1626.74
465.81	1640.97
466.183	1691.14
466.555	1722.55
466.928	1704.93
467.3	1721.2
467.672	1748.99
468.045	1775.21
468.417	1790.57
468.789	1785.15
469.161	1838.71
469.534	1852.27
469.906	1912.83
470.278	1922.77
470.65	1926.62
471.022	1966.84
471.394	1995.99
471.766	2017.01
472.138	2047.97
472.51	2063.56
472.882	2118.02
473.253	2116.67
473.625	2149.21
473.997	2205.25
474.369	2213.16
474.74	2229.43
475.112	2265.82
475.484	2303.78
475.855	2324.12
476.227	2342.65
476.598	2435.76
476.97	2464.45
477.341	2486.83
477.713	2531.57
478.084	2568.63
478.455	2654.73
478.827	2649.99
479.198	2709.65
479.569	2718.91
479.94	2778.57
480.311	2774.73
480.682	2885.01
481.053	2916.65
481.424	2979.7
481.795	3013.82
482.166	3055.63
482.537	3120.03
482.908	3176.53
483.279	3186.7
483.65	3282.29
484.021	3305.79
484.391	3348.95
484.762	3400.48
485.133	3426.46
485.503	3516.18
485.874	3536.52
486.244	3598.66
486.615	3646.57
486.985	3686.12
487.356	3773.8
487.726	3832.55
488.097	3968.82
488.467	3908.94
488.837	4017.63
489.207	4065.09
489.578	4125.65
489.948	4146.22
490.318	4199.32
490.688	4230.06
491.058	4270.96
491.428	4389.38
491.798	4409.71
492.168	4456.27
492.538	4526.77
492.908	4594.79
493.278	4662.82
493.648	4690.39
494.017	4745.07
494.387	4814.22
494.757	4842.02
495.126	4886.54
495.496	4965.41
495.866	4973.99
496.235	5017.83
496.605	5127.89
496.974	5141.67
497.344	5222.35
497.713	5280.43
498.082	5321.1
498.452	5347.09
498.821	5437.03
499.19	5470.03
499.559	5529.91
499.928	5562
500.298	5595.22
500.667	5653.52
501.036	5691.26
501.405	5760.64
501.774	5757.48
502.143	5784.82
502.512	5904.82
502.88	5964.25
503.249	6014.19
503.618	6067.3
503.987	6078.82
504.356	6085.83
504.724	6212.38
505.093	6223.9
505.462	6286.05
505.83	6316.78
506.199	6386.16
506.567	6468.87
506.936	6510.22
507.304	6601.97
507.672	6623.67
508.041	6673.84
508.409	6775.3
508.777	6825.24
509.145	6909.99
509.514	6952.47
509.882	6994.96
510.25	7041.96
510.618	7087.16
510.986	7136.65
511.354	7292.12
511.722	7340.03
512.09	7378.9
512.458	7357.66
512.826	7506.13
513.193	7640.36
513.561	7619.12
513.929	7658.44
514.297	7840.13
514.664	7858.44
515.032	7936.4
515.4	8018.89
515.767	8140.46
516.135	8165.1
516.502	8134.14
516.869	8352.66
517.237	8397.18
517.604	8381.14
517.972	8496.16
518.339	8555.14
518.706	8586.78
519.073	8724.4
519.44	8794.46
519.808	8841.46
520.175	8983.61
520.542	9081.68
520.909	9152.41
521.276	9164.62
521.643	9297.5
522.009	9405.74
522.376	9478.06
522.743	9642.8
523.11	9738.39
523.477	9782
523.843	9872.62
524.21	10043.92
524.577	10132.95
524.943	10185.61
525.31	10208.66
525.676	10290.01
526.043	10417.47
526.409	10576.56
526.776	10730
527.142	10718.25
527.508	10780.85
527.874	10906.49
528.241	11009.09
528.607	11085.47
528.973	11225.35
529.339	11278.01
529.705	11458.34
530.071	11546.93
530.437	11606.14
530.803	11726.58
531.169	11814.27
531.535	11821.27
531.901	11889.52
532.267	12066.46
532.632	12144.88
532.998	12171.54
533.364	12373.57
533.73	12400.69
534.095	12529.73
534.461	12630.52
534.826	12736.05
535.192	12781.7
535.557	12894.01
535.923	12903.73
536.288	12975.59
536.653	13118.64
537.019	13084.51
537.384	13240.22
537.749	13283.61
538.114	13410.38
538.479	13435.92
538.845	13590.72
539.21	13607.89
539.575	13682.24
539.94	13809.02
540.305	13878.39
540.67	13891.95
541.034	14070.93
541.399	14173.3
541.764	14144.15
542.129	14233.41
542.494	14378.94
542.858	14366.06
543.223	14493.29
543.587	14597.02
543.952	14610.58
544.316	14758.37
544.681	14747.97
545.045	14812.15
545.41	14960.17
545.774	14973.96
546.138	15112.71
546.503	15221.63
546.867	15275.19
547.231	15387.96
547.595	15614.39
547.959	15538.46
548.324	15667.05
548.688	15683.54
549.052	15860.49
549.416	15961.28
549.779	15881.5
550.143	15994.72
550.507	16225
550.871	16221.38
551.235	16282.4
551.599	16472.9
551.962	16477.65
552.326	16579.56
552.689	16654.82
553.053	16745.21
553.417	16740.46
553.78	16983.4
554.143	17031.3
554.507	17221.81
554.87	17227.68
555.234	17391.52
555.597	17431.29
555.96	17498.86
556.323	17581.57
556.686	17701.12
557.05	17900.66
557.413	17896.37
557.776	17986.76
558.139	18180.2
558.502	18193.98
558.865	18274.66
559.228	18501.77
559.59	18559.17
559.953	18571.6
560.316	18884.59
560.679	18945.15
561.041	19087.75
561.404	19250.91
561.767	19288.42
562.129	19268.53
562.492	19461.07
562.854	19520.5
563.217	19616.55
563.579	19712.59
563.941	19874.62
564.304	19976.08
564.666	20207.72
565.028	20284.55
565.39	20245
565.753	20485.68
566.115	20609.29
566.477	20637.76
566.839	20852.22
567.201	20977.64
567.563	21006.79
567.925	21259.44
568.287	21186.67
568.648	21312.77
569.01	21501.69
569.372	21628.92
569.734	21512.32
570.095	21729.49
570.457	21898.97
570.819	22029.82
571.18	22002.02
571.542	22084.96
571.903	22180.32
572.265	22264.84
572.626	22421.22
572.987	22533.53
573.349	22648.78
573.71	22768.1
574.071	22825.73
574.432	22924.03
574.794	23188.88
575.155	23080.41
575.516	23068.43
575.877	23274.76
576.238	23199.5
576.599	23468.65
576.96	23440.63
577.32	23549.32
577.681	23674.97
578.042	23748.87
578.403	23797.45
578.763	23823.89
579.124	23847.85
579.485	24034.74
579.845	24195.86
580.206	24068.18
580.566	24259.14
580.927	24230.89
581.287	24451.45
581.648	24280.15
582.008	24574.38
582.368	24577.32
582.728	24668.16
583.089	24580.26
583.449	24605.57
583.809	24702.06
584.169	24737.99
584.529	24846.47
584.889	25018.44
585.249	24937.08
585.609	24880.36
585.969	25004.88
586.329	25000.36
586.688	25088.27
587.048	25181.6
587.408	25097.53
587.768	25123.29
588.127	25160.58
588.487	25275.83
588.846	25507.69
589.206	25319.9
589.565	25393.34
589.925	25516.96
590.284	25543.85
590.643	25680.79
591.003	25664.3
591.362	25753.56
591.721	25753.79
592.08	25803.5
592.44	26017.73
592.799	25850.05
593.158	25784.29
593.517	25996.94
593.876	25903.84
594.235	25990.16
594.593	26012.76
594.952	26082.37
595.311	26079.2
595.67	26278.74
596.029	26421.11
596.387	26258.41
596.746	26465.86
597.104	26276.48
597.463	26366.2
597.822	26572.52
598.18	26349.7
598.538	26349.02
598.897	26579.08
599.255	26419.08
599.613	26836.47
599.972	26763.03
600.33	26799.41
600.688	26664.5
601.046	26809.8
601.404	26915.79
601.762	26866.07
602.12	27076.46
602.478	27103.36
602.836	27135.9
603.194	27014.77
603.552	27074.2
603.91	27026.3
604.268	27134.31
604.625	26964.6
604.983	27272.84
605.341	27182.22
605.698	27373.18
606.056	27399.39
606.413	27368.66
606.771	27582.21
607.128	27429
607.485	27475.55
607.843	27531.82
608.2	27688.88
608.557	27739.95
608.914	27701.08
609.272	27810.91
609.629	27943.11
609.986	28078.24
610.343	27971.58
610.7	28080.96
611.057	28038.25
611.414	28176.55
611.771	28300.39
612.127	28375.41
612.484	28355.53
612.841	28492.47
613.198	28379.25
613.554	28449.31
613.911	28518.01
614.267	28633.03
614.624	28567.5
614.98	28632.58
615.337	28796.64
615.693	28674.16
616.05	28714.61
616.406	28892.69
616.762	28817.43
617.118	28891.78
617.475	28997.32
617.831	28985.57
618.187	29055.62
618.543	29156.63
618.899	29382.39
619.255	29223.3
619.611	29282.96
619.967	29370.41
620.323	29520.01
620.678	29308.04
621.034	29357.99
621.39	29291.55
621.746	29461.49
622.101	29769.27
622.457	29593.46
622.812	29550.97
623.168	29595.94
623.523	29695.83
623.879	29789.61
624.234	29644.98
624.589	29684.98
624.945	29727.01
625.3	29710.07
625.655	29774.02
626.01	29685.66
626.365	29861.93
626.72	29874.81
627.075	29857.63
627.43	29778.77
627.785	29798.65
628.14	29826.67
628.495	29947.8
628.85	29925.2
629.205	29806.33
629.559	30035.93
629.914	29714.36
630.269	29873.45
630.623	29952.55
630.978	29748.03
631.332	29969.95
631.687	30007.23
632.041	29819.89
632.396	30004.52
632.75	29879.1
633.104	29942.6
633.459	29830.52
633.813	29769.27
634.167	29781.7
634.521	29802.04
634.875	29945.99
635.229	29825.09
635.583	29650.86
635.937	29744.87
636.291	29644.31
636.645	29701.7
636.999	29673.68
637.352	29843.17
637.706	29502.16
638.06	29587.13
638.413	29640.46
638.767	29593.91
639.121	29701.48
639.474	29435.95
639.828	29492.9
640.181	29495.83
640.534	29593.01
640.888	29545.55
641.241	29491.99
641.594	29534.93
641.947	29614.02
642.301	29547.13
642.654	29411.54
643.007	29576.06
643.36	29365.67
643.713	29468.49
644.066	29587.36
644.419	29226.92
644.771	29134.26
645.124	28790.99
645.477	28868.05
645.83	28829.64
646.182	28695.86
646.535	28567.27
646.888	28682.07
647.24	28528.18
647.593	28751
647.945	28685.23
648.298	28488.86
648.65	28449.08
649.002	28447.73
649.355	28613.6
649.707	28460.38
650.059	28672.13
650.411	28938.79
650.763	28981.27
651.115	29256.29
651.467	29344.2
651.819	29205.45
652.171	29180.59
652.523	29200.7
652.875	29187.37
653.227	29029.63
653.578	29252
653.93	29146.92
654.282	29205.22
654.633	29136.97
654.985	29115.96
655.337	29175.39
655.688	29204.54
656.039	29208.16
656.391	28959.58
656.742	29147.37
657.094	28933.36
657.445	29190.08
657.796	29106.24
658.147	29025.34
658.498	29027.15
658.849	29184.43
659.2	29029.63
659.551	29058.56
659.902	29132.45
660.253	29008.16
660.604	29141.72
660.955	29007.49
661.306	29081.38
661.656	29055.17
662.007	29129.74
662.358	29121.61
662.708	29160.93
663.059	29043.19
663.409	28953.48
663.76	29079.8
664.11	29160.02
664.461	29123.87
664.811	29248.38
665.161	29178.33
665.511	29041.38
665.862	29141.49
666.212	29308.27
666.562	29251.55
666.912	29196.63
667.262	29244.09
667.612	29105.11
667.962	29254.49
668.312	29138.1
668.662	29438.89
669.011	29235.73
669.361	29165
669.711	29155.96
670.06	29106.47
670.41	29063.08
670.76	29051.55
671.109	29246.12
671.459	29061.04
671.808	29105.79
672.157	29106.01
672.507	28965
672.856	29012.23
673.205	29001.38
673.554	29157.31
673.904	29051.1
674.253	29143.98
674.602	28993.47
674.951	28761.16
675.3	28651.34
675.649	29049.97
675.998	28985.57
676.346	29072.34
676.695	29092.68
677.044	28923.65
677.393	28950.09
677.741	29091.1
678.09	28944.44
678.438	28893.14
678.787	28927.04
679.135	28984.21
679.484	28889.97
679.832	28889.97
680.181	28720.26
680.529	28847.94
680.877	28736.08
681.225	28755.52
681.573	29054.94
681.922	28720.26
682.27	28615.86
682.618	28732.92
682.966	28485.47
683.314	28620.15
683.661	28549.42
684.009	28451.34
684.357	28389.42
684.705	28403.21
685.053	28448.18
685.4	28384.45
685.748	28174.51
686.095	28185.81
686.443	28159.6
686.79	28122.09
687.138	28334.06
687.485	28291.12
687.832	28110.79
688.18	28172.71
688.527	27875.99
688.874	28060.62
689.221	27911.47
689.568	27875.76
689.915	27880.28
690.262	27761.19
690.609	27674.41
690.956	27658.14
691.303	27681.87
691.65	27532.04
691.997	27487.75
692.344	27380.64
692.69	27378.15
693.037	27401.65
693.383	27128.21
693.73	27340.41
694.077	27098.16
694.423	27123.69
694.769	27140.87
695.116	26967.77
695.462	26979.97
695.808	26867.43
696.155	26875.79
696.501	26702.46
696.847	26712.4
697.193	26582.01
697.539	26612.07
697.885	26435.12
698.231	26442.36
698.577	26380.44
698.923	26437.84
699.269	26240.1
699.614	26228.35
699.96	26171.18
700.306	26234.9
700.651	25975.48
700.997	25892.31
701.342	25970.96
701.688	25896.83
702.033	25788.59
702.379	25848.92
702.724	25701.58
703.069	25888.47
703.415	25383.17
703.76	25491.87
704.105	25559.44
704.45	25450.97
704.795	25343.4
705.14	25337.98
705.485	25236.51
705.83	25117.87
706.175	25185.44
706.52	25170.3
706.865	25104.09
707.209	25091.88
707.554	24979.12
707.899	24948.16
708.243	24817.99
708.588	24866.13
708.932	24694.83
709.277	24674.04
709.621	24711.33
709.966	24528.51
710.31	24540.71
710.654	24507.72
710.998	24485.8
711.342	24487.38
711.687	24439.02
712.031	24315.63
712.375	24258.46
712.719	24360.83
713.063	24283.77
713.407	24381.17
713.75	24173.04
714.094	24182.08
714.438	24005.36
714.782	24097.33
715.125	24049.88
715.469	23960.84
715.812	23932.82
716.156	23862.76
716.499	23793.84
716.843	23952.93
717.186	23697.12
717.53	23809.88
717.873	23846.94
718.216	23799.71
718.559	23735.08
718.902	23527.4
719.246	23618.7
719.589	23571.02
719.932	23471.59
720.275	23413.06
720.617	23410.57
720.96	23354.08
721.303	23340.52
721.646	23363.79
721.989	23310.69
722.331	23256
722.674	23302.1
723.016	23294.87
723.359	23271.14
723.701	23228.2
724.044	23036.8
724.386	23110.47
724.729	23066.63
725.071	23135.32
725.413	23041.77
725.755	23107.08
726.097	23117.7
726.439	22816.01
726.782	22940.53
727.124	23110.69
727.465	22936.46
727.807	22903.69
728.149	22840.42
728.491	22930.81
728.833	22945.05
729.175	22910.25
729.516	22744.6
729.858	22827.31
730.199	22771.04
730.541	22787.99
730.882	22678.84
731.224	22810.36
731.565	22719.29
731.906	22700.53
732.248	22716.35
732.589	22626.18
732.93	22575.56
733.271	22532.4
733.612	22608.11
733.953	22706.41
734.294	22434.78
734.635	22474.1
734.976	22536.02
735.317	22487.66
735.658	22345.06
735.999	22496.24
736.339	22489.47
736.68	22522.91
737.021	22373.99
737.361	22298.28
737.702	22445.85
738.042	22418.28
738.383	22392.29
738.723	22360.88
739.063	22256.48
739.404	22300.32
739.744	22224.84
740.084	22204.95
740.424	22186.2
740.764	22198.63
741.104	22280.43
741.444	22146.42
741.784	22129.93
742.124	22229.13
742.464	22168.34
742.804	22139.42
743.143	22068.23
743.483	22038.63
743.823	22093.32
744.162	22022.58
744.502	22141
744.841	21946.43
745.181	22169.93
745.52	21979.42
745.86	22064.39
746.199	22121.79
746.538	21896.71
746.877	21985.98
747.216	21945.07
747.556	21985.3
747.895	22007.67
748.234	21837.05
748.573	21855.13
748.911	21918.86
749.25	21849.71
749.589	21727.9
749.928	21854.45
750.267	21986.65
750.605	21669.37
750.944	21736.26
751.283	21627.79
751.621	21630.5
751.96	21634.8
752.298	21644.97
752.636	21733.55
752.975	21579.66
753.313	21547.8
753.651	21610.84
753.989	21507.12
754.327	21522.71
754.666	21378.76
755.004	21522.03
755.342	21575.82
755.679	21459.66
756.017	21216.5
756.355	21435.93
756.693	21266.67
757.031	21245.2
757.368	21184.19
