Data from cardboard_FLMS001491_001.txt Node
Date: Tue Feb 07 11:38:50 GMT 2017
User: dcchb
Spectrometer: FLMS00149
Trigger mode: 0
Integration Time (sec): 2.000000E-2
Scans to average: 10
Electric dark correction enabled: true
Nonlinearity correction enabled: false
Boxcar width: 0
XAxis mode: Wavelengths
Number of Pixels in Spectrum: 2048
>>>>>Begin Spectral Data<<<<<
341.393	0.35
341.776	0.35
342.16	0.35
342.543	-53.2
342.927	-62.24
343.31	-82.58
343.693	-54.33
344.077	-69.25
344.46	-63.37
344.843	-62.02
345.226	-33.09
345.61	-40.32
345.993	-14.34
346.376	-20.66
346.759	14.59
347.142	33.12
347.525	47.13
347.908	67.92
348.291	65.89
348.674	100.01
349.057	111.31
349.44	126.68
349.823	157.64
350.206	169.16
350.588	184.53
350.971	199.67
351.354	218.43
351.737	224.75
352.119	239.44
352.502	253
352.884	273.79
353.267	260.91
353.65	291.64
354.032	297.97
354.414	304.98
354.797	276.05
355.179	327.58
355.562	313.34
355.944	316.05
356.326	309.27
356.709	310.85
357.091	330.51
357.473	309.27
357.855	326.67
358.238	322.6
358.62	327.8
359.002	338.65
359.384	353.56
359.766	327.8
360.148	328.25
360.53	342.27
360.912	334.81
361.294	323.51
361.676	320.34
362.057	347.91
362.439	315.37
362.821	330.29
363.203	322.15
363.584	309.5
363.966	286.45
364.348	320.34
364.729	339.78
365.111	315.83
365.493	300.68
365.874	299.33
366.256	295.26
366.637	318.54
367.019	308.37
367.4	305.43
367.781	289.61
368.163	317.86
368.544	294.36
368.925	309.27
369.306	299.55
369.688	315.37
370.069	305.43
370.45	285.32
370.831	300.23
371.212	292.1
371.593	297.07
371.974	321.93
372.355	310.18
372.736	313.34
373.117	300.23
373.498	315.15
373.879	287.35
374.26	302.72
374.641	307.69
375.021	308.59
375.402	291.64
375.783	280.12
376.163	312.44
376.544	288.48
376.925	303.62
377.305	299.55
377.686	323.06
378.066	284.19
378.447	332.55
378.827	325.32
379.208	319.89
379.588	308.59
379.968	304.75
380.349	324.19
380.729	327.35
381.109	317.41
381.489	307.92
381.87	330.51
382.25	330.29
382.63	300.91
383.01	305.43
383.39	344.98
383.77	315.37
384.15	329.16
384.53	335.71
384.91	332.77
385.29	329.61
385.67	342.49
386.049	315.37
386.429	338.65
386.809	321.93
387.189	340.91
387.568	350.4
387.948	337.75
388.328	317.63
388.707	336.62
389.087	319.89
389.466	339.1
389.846	353.11
390.225	336.39
390.605	336.16
390.984	347.01
391.363	364.19
391.743	348.82
392.122	362.6
392.501	340.68
392.881	349.72
393.26	339.78
393.639	350.85
394.018	347.69
394.397	347.01
394.776	363.96
395.155	340.23
395.534	341.59
395.913	361.25
396.292	372.09
396.671	354.24
397.05	369.16
397.429	350.17
397.808	374.13
398.186	347.91
398.565	360.57
398.944	351.53
399.323	363.73
399.701	376.39
400.08	362.15
400.458	368.25
400.837	368.48
401.215	382.04
401.594	368.25
401.972	388.59
402.351	370.96
402.729	392.89
403.107	367.58
403.486	381.36
403.864	377.97
404.242	372.55
404.62	381.81
404.999	388.37
405.377	399.89
405.755	379.55
406.133	385.65
406.511	406.9
406.889	397.4
407.267	395.14
407.645	420.46
408.023	401.47
408.401	417.07
408.779	401.92
409.156	401.7
409.534	400.12
409.912	415.94
410.29	431.53
410.667	411.64
411.045	408.93
411.422	417.97
411.8	422.71
412.178	412.77
412.555	404.18
412.933	429.04
413.31	432.66
413.687	439.66
414.065	430.85
414.442	454.8
414.819	462.71
415.197	441.02
415.574	443.51
415.951	447.12
416.328	449.83
416.705	460
417.082	463.84
417.46	438.76
417.837	474.46
418.214	453.45
418.591	444.86
418.967	442.83
419.344	476.72
419.721	465.2
420.098	460.45
420.475	484.86
420.852	483.96
421.228	457.06
421.605	471.98
421.982	500.23
422.358	482.37
422.735	504.97
423.111	501.36
423.488	484.86
423.864	507.23
424.241	496.61
424.617	500.68
424.994	499.77
425.37	490.96
425.746	493.45
426.123	512.2
426.499	503.62
426.875	536.38
427.251	528.93
427.627	519.21
428.003	532.09
428.379	550.62
428.756	542.03
429.132	529.6
429.507	537.29
429.883	543.16
430.259	559.21
430.635	559.21
431.011	537.51
431.387	560.79
431.763	563.5
432.138	561.47
432.514	553.11
432.89	562.82
433.265	595.14
433.641	580.68
434.016	605.76
434.392	610.51
434.767	626.55
435.143	596.72
435.518	613.9
435.894	607.34
436.269	615.48
436.644	608.02
437.02	623.16
437.395	623.61
437.77	632.65
438.145	637.17
438.52	657.06
438.895	629.94
439.271	662.48
439.646	648.02
440.021	656.61
440.395	661.8
440.77	669.94
441.145	676.95
441.52	670.62
441.895	684.85
442.27	674.01
442.645	693.89
443.019	686.44
443.394	698.41
443.769	696.38
444.143	676.49
444.518	712.2
444.892	695.7
445.267	702.03
445.641	700.67
446.016	725.76
446.39	719.66
446.764	708.36
447.139	711.52
447.513	722.37
447.887	717.85
448.262	731.41
448.636	726.66
449.01	737.96
449.384	734.57
449.758	767.34
450.132	750.39
450.506	755.59
450.88	743.84
451.254	756.94
451.628	755.36
452.002	761.91
452.376	813.67
452.75	772.76
453.123	805.3
453.497	788.13
453.871	809.37
454.244	805.3
454.618	826.77
454.992	807.34
455.365	834.68
455.739	852.99
456.112	850.27
456.486	847.56
456.859	849.14
457.232	875.81
457.606	857.05
457.979	859.77
458.352	885.75
458.725	898.41
459.099	928.01
459.472	893.89
459.845	934.57
460.218	917.62
460.591	936.83
460.964	915.13
461.337	940.67
461.71	975.69
462.083	959.65
462.456	975.02
462.829	976.15
463.201	982.93
463.574	981.8
463.947	1016.15
464.32	1024.73
464.692	1032.64
465.065	1036.26
465.438	1071.96
465.81	1056.82
466.183	1064.28
466.555	1069.03
466.928	1089.14
467.3	1133.2
467.672	1102.02
468.045	1132.75
468.417	1140.89
468.789	1155.35
469.161	1144.96
469.534	1176.59
469.906	1167.1
470.278	1171.85
470.65	1213.2
471.022	1212.3
471.394	1252.75
471.766	1236.25
472.138	1264.95
472.51	1292.97
472.882	1306.08
473.253	1308.34
473.625	1317.38
473.997	1336.82
474.369	1338.85
474.74	1391.5
475.112	1400.99
475.484	1417.26
475.855	1414.33
476.227	1452.07
476.598	1492.52
476.97	1478.51
477.341	1509.24
477.713	1508.34
478.084	1532.29
478.455	1584.04
478.827	1583.81
479.198	1614.55
479.569	1633.98
479.94	1656.13
480.311	1693.87
480.682	1724.38
481.053	1757.14
481.424	1797.14
481.795	1793.98
482.166	1815.22
482.537	1850.25
482.908	1895.67
483.279	1893.86
483.65	1932.05
484.021	1991.26
484.391	2011.37
484.762	2009.34
485.133	2057.93
485.503	2058.6
485.874	2090.92
486.244	2122.56
486.615	2140.41
486.985	2180.41
487.356	2205.72
487.726	2228.54
488.097	2300.63
488.467	2284.59
488.837	2343.12
489.207	2350.57
489.578	2381.76
489.948	2432.61
490.318	2479.84
490.688	2468.08
491.058	2528.87
491.428	2495.88
491.798	2579.95
492.168	2599.61
492.538	2604.35
492.908	2626.05
493.278	2698.59
493.648	2704.01
494.017	2793.05
494.387	2765.25
494.757	2781.97
495.126	2839.83
495.496	2849.77
495.866	2856.1
496.235	2878.7
496.605	2919.15
496.974	2957.56
497.344	3023.55
497.713	2982.2
498.082	3049.09
498.452	3077.11
498.821	3094.74
499.19	3050.44
499.559	3102.64
499.928	3161.4
500.298	3174.96
500.667	3254.73
501.036	3242.08
501.405	3288.18
501.774	3284.33
502.143	3331.79
502.512	3351.68
502.88	3408.63
503.249	3388.74
503.618	3394.84
503.987	3416.53
504.356	3498.79
504.724	3516.64
505.093	3527.49
505.462	3541.95
505.83	3534.72
506.199	3630.54
506.567	3694.27
506.936	3694.95
507.304	3720.71
507.672	3759.8
508.041	3748.5
508.409	3860.14
508.777	3833.47
509.145	3852
509.514	3910.31
509.882	3915.28
510.25	3952.79
510.618	3998.89
510.986	4007.71
511.354	4067.36
511.722	4112.79
512.09	4077.53
512.458	4132.67
512.826	4236.63
513.193	4212.67
513.561	4280.47
513.929	4320.01
514.297	4308.71
514.664	4414.47
515.032	4403.4
515.4	4450.41
515.767	4486.79
516.135	4521.36
516.502	4494.7
516.869	4583.51
517.237	4632.77
517.604	4646.33
517.972	4719.55
518.339	4751.64
518.706	4771.53
519.073	4737.4
519.44	4852.2
519.808	4915.7
520.175	4900.56
520.542	4998.64
520.909	5019.66
521.276	5019.2
521.643	5119.54
522.009	5192.98
522.376	5236.37
522.743	5275.69
523.11	5329.93
523.477	5405.86
523.843	5451.74
524.21	5508.23
524.577	5529.93
524.943	5529.47
525.31	5575.35
525.676	5658.06
526.043	5708.9
526.409	5762.69
526.776	5811.05
527.142	5824.83
527.508	5871.39
527.874	5966.98
528.241	5992.74
528.607	6065.96
528.973	6039.29
529.339	6138.95
529.705	6198.61
530.071	6288.55
530.437	6247.87
530.803	6372.61
531.169	6378.26
531.535	6397.25
531.901	6471.14
532.267	6478.37
532.632	6549.33
532.998	6570.8
533.364	6653.74
533.73	6619.84
534.095	6733.51
534.461	6731.93
534.826	6802.89
535.192	6862.09
535.557	6939.83
535.923	6992.03
536.288	6973.28
536.653	7023.9
537.019	7016.44
537.384	7083.56
537.749	7134.18
538.114	7197
538.479	7206.27
538.845	7265.92
539.21	7266.15
539.575	7375.53
539.94	7374.4
540.305	7433.83
540.67	7424.79
541.034	7493.04
541.399	7604.45
541.764	7580.49
542.129	7633.37
542.494	7667.72
542.858	7725.12
543.223	7768.74
543.587	7833.14
543.952	7799.47
544.316	7868.39
544.681	7923.08
545.045	7955.62
545.41	8013.93
545.774	8002.18
546.138	8095.06
546.503	8120.37
546.867	8137.09
547.231	8215.05
547.595	8254.6
547.959	8289.17
548.324	8303.64
548.688	8358.33
549.052	8365.33
549.416	8467.02
549.779	8423.63
550.143	8495.95
550.507	8554.03
550.871	8600.58
551.235	8658.2
551.599	8708.15
551.962	8746.34
552.326	8783.4
552.689	8855.94
553.053	8876.05
553.417	8855.94
553.78	8959.44
554.143	9045.54
554.507	9105.2
554.87	9096.16
555.234	9197.4
555.597	9142.49
555.96	9145.88
556.323	9357.17
556.686	9313.1
557.05	9443.72
557.413	9471.29
557.776	9499.76
558.139	9559.65
558.502	9640.33
558.865	9646.2
559.228	9754.9
559.59	9831.73
559.953	9878.06
560.316	9940.66
560.679	9925.29
561.041	10025.17
561.404	10090.03
561.767	10142.69
562.129	10082.57
562.492	10287.99
562.854	10319.18
563.217	10333.41
563.579	10405.05
563.941	10509.23
564.304	10500.42
564.666	10558.27
565.028	10636.68
565.39	10665.84
565.753	10730.24
566.115	10850.24
566.477	10889.78
566.839	10913.29
567.201	11085.03
567.563	11045.49
567.925	11115.32
568.287	11174.52
568.648	11211.58
569.01	11277.8
569.372	11317.57
569.734	11366.61
570.095	11411.35
570.457	11528.41
570.819	11550.33
571.18	11598.47
571.542	11604.34
571.903	11732.47
572.265	11766.82
572.626	11847.95
572.987	11809.53
573.349	11899.93
573.71	11958.91
574.071	11992.81
574.432	12051.11
574.794	12126.36
575.155	12104.44
575.516	12079.13
575.877	12202.74
576.238	12276.41
576.599	12303.76
576.96	12280.71
577.32	12322.74
577.681	12439.12
578.042	12455.17
578.403	12520.7
578.763	12532.9
579.124	12600.47
579.485	12695.84
579.845	12641.15
580.206	12686.12
580.566	12738.78
580.927	12779.23
581.287	12785.55
581.648	12857.42
582.008	12939.67
582.368	12833.46
582.728	12916.17
583.089	13020.8
583.449	12956.62
583.809	12939.9
584.169	13058.09
584.529	13063.29
584.889	13173.34
585.249	13114.58
585.609	13101.93
585.969	13214.24
586.329	13119.33
586.688	13212.21
587.048	13224.86
587.408	13193.68
587.768	13264.19
588.127	13253.34
588.487	13223.73
588.846	13379.44
589.206	13274.35
589.565	13369.95
589.925	13450.17
590.284	13403.62
590.643	13469.6
591.003	13579.66
591.362	13476.16
591.721	13526.78
592.08	13540.34
592.44	13516.61
592.799	13547.12
593.158	13593.89
593.517	13619.43
593.876	13641.58
594.235	13695.81
594.593	13705.98
594.952	13761.8
595.311	13658.75
595.67	13734.91
596.029	13915.69
596.387	13881.12
596.746	13904.85
597.104	13792.53
597.463	13921.79
597.822	13926.31
598.18	13884.06
598.538	13936.71
598.897	14098.06
599.255	13950.72
599.613	14131.96
599.972	14011.06
600.33	14183.93
600.688	14011.06
601.046	14082.69
601.404	14163.6
601.762	14160.21
602.12	14300.99
602.478	14183.93
602.836	14230.71
603.194	14219.41
603.552	14233.88
603.91	14264.38
604.268	14300.77
604.625	14241.56
604.983	14347.09
605.341	14312.97
605.698	14435.68
606.056	14372.4
606.413	14444.95
606.771	14496.47
607.128	14579.4
607.485	14525.85
607.843	14558.16
608.2	14634.32
608.557	14665.28
608.914	14670.25
609.272	14705.28
609.629	14668.22
609.986	14827.76
610.343	14737.37
610.7	14785.73
611.057	14910.24
611.414	14804.48
611.771	14882.67
612.127	14910.47
612.484	15008.55
612.841	14972.39
613.198	14953.86
613.554	15119.96
613.911	15136.9
614.267	15137.81
614.624	15083.35
614.98	15110.69
615.337	15242.66
615.693	15180.07
616.05	15193.17
616.406	15338.71
616.762	15249.44
617.118	15290.12
617.475	15302.55
617.831	15328.31
618.187	15426.16
618.543	15371.02
618.899	15525.37
619.255	15512.26
619.611	15406.05
619.967	15442.66
620.323	15505.93
620.678	15573.28
621.034	15469.55
621.39	15572.37
621.746	15499.38
622.101	15731.69
622.457	15549.55
622.812	15658.92
623.168	15629.55
623.523	15677.91
623.879	15655.99
624.234	15696.66
624.589	15788.86
624.945	15782.99
625.3	15755.65
625.655	15728.75
626.01	15856.43
626.365	15863.89
626.72	15824.34
627.075	15841.74
627.43	15764.91
627.785	15750.22
628.14	15878.58
628.495	15914.74
628.85	15857.11
629.205	15725.82
629.559	15836.77
629.914	15786.83
630.269	15805.14
630.623	15803.55
630.978	15846.04
631.332	15873.16
631.687	15845.81
632.041	15801.07
632.396	15860.28
632.75	15808.53
633.104	15893.27
633.459	15799.49
633.813	15844.46
634.167	15802.88
634.521	15857.11
634.875	15792.93
635.229	15821.18
635.583	15741.18
635.937	15760.84
636.291	15787.51
636.645	15828.19
636.999	15800.39
637.352	15736.44
637.706	15726.95
638.06	15825.47
638.413	15788.86
638.767	15757.9
639.121	15745.02
639.474	15689.88
639.828	15593.16
640.181	15768.98
640.534	15749.09
640.888	15661.64
641.241	15668.19
641.594	15758.58
641.947	15719.94
642.301	15671.81
642.654	15759.71
643.007	15712.03
643.36	15674.52
643.713	15663.9
644.066	15737.79
644.419	15657.79
644.771	15497.35
645.124	15297.8
645.477	15436.11
645.83	15279.05
646.182	15211.93
646.535	15218.48
646.888	15260.74
647.24	15178.03
647.593	15278.6
647.945	15222.33
648.298	15183.46
648.65	15180.97
649.002	15098.04
649.355	15198.82
649.707	15182.55
650.059	15221.87
650.411	15448.08
650.763	15499.61
651.115	15620.96
651.467	15659.38
651.819	15669.32
652.171	15535.09
652.523	15505.93
652.875	15563.33
653.227	15509.1
653.578	15638.59
653.93	15595.2
654.282	15543.9
654.633	15543.9
654.985	15559.49
655.337	15577.57
655.688	15552.26
656.039	15701.41
656.391	15426.61
656.742	15491.7
657.094	15528.76
657.445	15599.04
657.796	15655.31
658.147	15565.59
658.498	15581.86
658.849	15620.06
659.2	15608.53
659.551	15476.56
659.902	15606.95
660.253	15582.77
660.604	15629.77
660.955	15601.3
661.306	15697.57
661.656	15536.67
662.007	15601.52
662.358	15525.82
662.708	15555.42
663.059	15516.33
663.409	15420.51
663.76	15644.01
664.11	15600.62
664.461	15592.94
664.811	15604.69
665.161	15611.69
665.511	15667.06
665.862	15562.88
666.212	15722.65
666.562	15663.9
666.912	15606.95
667.262	15641.75
667.612	15651.24
667.962	15620.51
668.312	15631.81
668.662	15700.28
669.011	15652.6
669.361	15622.32
669.711	15722.88
670.06	15623.67
670.41	15587.74
670.76	15595.42
671.109	15659.38
671.459	15657.57
671.808	15545.26
672.157	15647.4
672.507	15544.13
672.856	15543
673.205	15561.75
673.554	15625.7
673.904	15613.5
674.253	15699.15
674.602	15622.09
674.951	15414.86
675.3	15322.21
675.649	15614.18
675.998	15596.55
676.346	15604.01
676.695	15651.69
677.044	15546.84
677.393	15581.19
677.741	15619.15
678.09	15585.03
678.438	15491.7
678.787	15525.14
679.135	15592.71
679.484	15526.95
679.832	15566.5
680.181	15444.24
680.529	15539.15
680.877	15435.88
681.225	15434.52
681.573	15554.07
681.922	15408.08
682.27	15492.6
682.618	15396.56
682.966	15438.37
683.314	15431.36
683.661	15402.21
684.009	15317.92
684.357	15224.59
684.705	15273.85
685.053	15300.74
685.4	15227.3
685.748	15273.17
686.095	15260.29
686.443	15110.24
686.79	15160.41
687.138	15204.25
687.485	15183.23
687.832	15152.05
688.18	15173.51
688.527	15042.44
688.874	15053.52
689.221	15048.32
689.568	15025.04
689.915	15000.64
690.262	14929.23
690.609	14877.02
690.956	14845.61
691.303	14875.44
691.65	14768.33
691.997	14813.07
692.344	14740.08
692.69	14675.45
693.037	14679.97
693.383	14710.47
693.73	14649.91
694.077	14651.95
694.423	14547.32
694.769	14604.04
695.116	14550.48
695.462	14611.95
695.808	14532.17
696.155	14573.98
696.501	14430.03
696.847	14500.54
697.193	14410.82
697.539	14399.3
697.885	14352.07
698.231	14263.93
698.577	14330.15
698.923	14199.53
699.269	14240.43
699.614	14129.02
699.96	14135.57
700.306	14201.56
700.651	14032.98
700.997	14004.5
701.342	13952.98
701.688	13941.91
702.033	13911.17
702.379	14041.11
702.724	13989.14
703.069	13945.52
703.415	13889.48
703.76	13859.65
704.105	13799.76
704.45	13795.92
704.795	13770.16
705.14	13670.73
705.485	13696.72
705.83	13722.25
706.175	13730.39
706.52	13607.23
706.865	13596.61
707.209	13570.39
707.554	13587.34
707.899	13551.41
708.243	13501.47
708.588	13527
708.932	13374.69
709.277	13430.96
709.621	13437.74
709.966	13271.64
710.31	13350.51
710.654	13258.54
710.998	13273.22
711.342	13290.4
711.687	13253.79
712.031	13236.84
712.375	13128.37
712.719	13143.06
713.063	13154.36
713.407	13216.05
713.75	13156.39
714.094	13126.11
714.438	13036.62
714.782	13062.83
715.125	13098.54
715.469	13105.32
715.812	12977.19
716.156	12937.87
716.499	12965.21
716.843	12994.59
717.186	12819
717.53	12977.41
717.873	12973.8
718.216	12985.32
718.559	12895.83
718.902	12830.98
719.246	12819.9
719.589	12821.26
719.932	12675.73
720.275	12809.73
720.617	12787.81
720.96	12727.93
721.303	12771.09
721.646	12724.09
721.989	12695.39
722.331	12750.53
722.674	12768.15
723.016	12736.06
723.359	12736.74
723.701	12714.14
724.044	12643.41
724.386	12555.96
724.729	12580.14
725.071	12587.82
725.413	12607.25
725.755	12510.08
726.097	12579.91
726.439	12454.04
726.782	12492.91
727.124	12649.74
727.465	12428.5
727.807	12406.81
728.149	12550.31
728.491	12431.66
728.833	12458.78
729.175	12472.57
729.516	12479.35
729.858	12392.34
730.199	12398.22
730.541	12415.17
730.882	12395.06
731.224	12432.12
731.565	12350.54
731.906	12380.37
732.248	12409.52
732.589	12336.53
732.93	12319.13
733.271	12290.43
733.612	12377.43
733.953	12331.1
734.294	12256.53
734.635	12248.62
734.976	12167.26
735.317	12230.09
735.658	12267.38
735.999	12228.51
736.339	12213.59
736.68	12185.57
737.021	12193.93
737.361	12105.12
737.702	12300.14
738.042	12282.74
738.383	12192.8
738.723	12163.88
739.063	12155.29
739.404	12198.45
739.744	12167.94
740.084	12142.18
740.424	12214.72
740.764	12183.99
741.104	12264.44
741.444	12136.53
741.784	12063.99
742.124	12108.74
742.464	12071
742.804	12095.85
743.143	12065.57
743.483	12072.8
743.823	12107.15
744.162	12073.93
744.502	12012.69
744.841	12054.5
745.181	12071
745.52	11991
745.86	12022.41
746.199	11977.89
746.538	11975.86
746.877	12085.91
747.216	12016.53
747.556	12085.69
747.895	12034.16
748.234	11979.7
748.573	11931.79
748.911	11896.76
749.25	11920.49
749.589	11998.23
749.928	11914.84
750.267	11958
750.605	11925.01
750.944	11907.16
751.283	11893.6
751.621	11909.19
751.96	11821.29
752.298	11853.15
752.636	11862.19
752.975	11817.67
753.313	11736.32
753.651	11812.25
753.989	11774.05
754.327	11706.71
754.666	11721.17
755.004	11791.46
755.342	11800.72
755.679	11718.46
756.017	11679.14
756.355	11724.11
756.693	11640.5
757.031	11621.52
757.368	11588.97
757.706	11692.93
758.044	11565.02
758.381	11590.78
758.719	11585.13
759.056	11549.2
759.394	11466.94
759.731	11472.14
760.068	11540.61
