Data from cardboard_FLMS001491_049.txt Node
Date: Tue Feb 07 11:39:31 GMT 2017
User: dcchb
Spectrometer: FLMS00149
Trigger mode: 0
Integration Time (sec): 2.000000E-2
Scans to average: 10
Electric dark correction enabled: true
Nonlinearity correction enabled: false
Boxcar width: 0
XAxis mode: Wavelengths
Number of Pixels in Spectrum: 2048
>>>>>Begin Spectral Data<<<<<
341.393	-10.52
341.776	-10.52
342.16	-10.52
342.543	-60.92
342.927	-61.14
343.31	-56.62
343.693	-71.09
344.077	-75.38
344.46	-59.11
344.843	-53.46
345.226	-16.17
345.61	-34.7
345.993	-18.88
346.376	-15.95
346.759	17.05
347.142	34.22
347.525	28.35
347.908	52.3
348.291	76.71
348.674	82.36
349.057	110.38
349.44	129.81
349.823	145.86
350.206	174.11
350.588	195.8
350.971	209.81
351.354	226.53
351.737	236.48
352.119	241
352.502	228.34
352.884	253.2
353.267	264.72
353.65	285.97
354.032	288.68
354.414	298.4
354.797	295.23
355.179	315.57
355.562	311.5
355.944	321.67
356.326	330.71
356.709	309.92
357.091	316.93
357.473	347.21
357.855	315.57
358.238	330.49
358.62	331.16
359.002	327.1
359.384	313.31
359.766	310.37
360.148	342.46
360.53	337.49
360.912	335.23
361.294	331.16
361.676	303.37
362.057	324.16
362.439	312.86
362.821	317.83
363.203	323.71
363.584	309.24
363.966	296.36
364.348	313.76
364.729	307.44
365.111	314.67
365.493	315.12
365.874	313.31
366.256	313.76
366.637	293.65
367.019	290.26
367.4	322.35
367.781	270.15
368.163	287.77
368.544	288.23
368.925	317.83
369.306	315.34
369.688	292.29
370.069	325.51
370.45	296.14
370.831	309.7
371.212	299.53
371.593	294.55
371.974	296.81
372.355	292.52
372.736	286.87
373.117	309.47
373.498	294.33
373.879	293.65
374.26	280.54
374.641	288.68
375.021	318.73
375.402	310.37
375.783	308.57
376.163	295.46
376.544	316.02
376.925	330.03
377.305	274.44
377.686	306.31
378.066	313.54
378.447	317.6
378.827	305.18
379.208	304.72
379.588	307.44
379.968	325.06
380.349	312.86
380.729	306.98
381.109	336.14
381.489	323.93
381.87	316.7
382.25	323.03
382.63	343.82
383.01	313.76
383.39	297.94
383.77	340.2
384.15	317.6
384.53	320.99
384.91	328.23
385.29	302.46
385.67	334.55
386.049	328.68
386.429	337.72
386.809	338.17
387.189	322.8
387.568	331.84
387.948	333.65
388.328	317.15
388.707	334.33
389.087	335.68
389.466	333.65
389.846	345.4
390.225	325.06
390.605	351.95
390.984	332.07
391.363	339.07
391.743	346.3
392.122	339.3
392.501	339.07
392.881	384.04
393.26	339.98
393.639	336.81
394.018	341.56
394.397	332.97
394.776	337.49
395.155	349.24
395.534	340.2
395.913	354.67
396.292	334.33
396.671	372.97
397.05	358.96
397.429	362.58
397.808	353.54
398.186	350.37
398.565	343.59
398.944	366.19
399.323	352.63
399.701	369.58
400.08	368.45
400.458	374.1
400.837	354.67
401.215	381.56
401.594	353.08
401.972	365.51
402.351	372.74
402.729	357.15
403.107	397.83
403.486	379.52
403.864	376.81
404.242	388.11
404.62	401.67
404.999	410.03
405.377	384.72
405.755	381.11
406.133	387.66
406.511	384.5
406.889	401.22
407.267	403.93
407.645	417.94
408.023	391.5
408.401	388.56
408.779	407.32
409.156	386.76
409.534	406.19
409.912	428.56
410.29	419.3
410.667	405.51
411.045	432.4
411.422	420.43
411.8	414.78
412.178	417.26
412.555	422.69
412.933	417.04
413.31	433.53
413.687	425.85
414.065	422.23
414.442	416.36
414.819	424.95
415.197	433.99
415.574	432.4
415.951	440.54
416.328	450.26
416.705	453.65
417.082	452.52
417.46	441.67
417.837	444.61
418.214	448.22
418.591	453.65
418.967	469.24
419.344	465.62
419.721	473.31
420.098	473.76
420.475	473.76
420.852	446.41
421.228	463.59
421.605	463.14
421.982	473.53
422.358	485.51
422.735	477.15
423.111	509.69
423.488	503.81
423.864	493.19
424.241	490.48
424.617	492.97
424.994	516.92
425.37	473.31
425.746	531.84
426.123	511.05
426.499	516.24
426.875	497.26
427.251	504.94
427.627	524.38
428.003	524.83
428.379	524.15
428.756	525.06
429.132	534.77
429.507	540.2
429.883	530.71
430.259	558.5
430.635	540.2
431.011	549.01
431.387	563.47
431.763	549.24
432.138	578.16
432.514	563.25
432.89	566.19
433.265	588.11
433.641	596.47
434.016	575.22
434.392	574.32
434.767	591.04
435.143	604.38
435.518	600.76
435.894	584.72
436.269	610.48
436.644	613.87
437.02	607.54
437.395	610.48
437.77	624.72
438.145	625.17
438.52	618.39
438.895	632.17
439.271	629.23
439.646	647.54
440.021	664.26
440.395	654.09
440.77	650.93
441.145	659.52
441.52	666.07
441.895	685.73
442.27	693.19
442.645	691.15
443.019	649.8
443.394	697.03
443.769	663.58
444.143	675.11
444.518	720.53
444.892	703.13
445.267	699.74
445.641	681.89
446.016	706.75
446.39	726.18
446.764	731.83
447.139	700.65
447.513	721.21
447.887	739.97
448.262	714.88
448.636	717.14
449.01	716.92
449.384	723.24
449.758	748.55
450.132	757.37
450.506	751.72
450.88	742.68
451.254	762.56
451.628	753.07
452.002	762.34
452.376	779.06
452.75	789
453.123	792.85
453.497	792.85
453.871	802.34
454.244	790.81
454.618	785.16
454.992	812.73
455.365	796.91
455.739	836.91
456.112	843.69
456.486	855.67
456.859	845.05
457.232	895.22
457.606	854.31
457.979	881.88
458.352	891.37
458.725	897.02
459.099	896.57
459.472	889.57
459.845	899.28
460.218	909
460.591	913.52
460.964	913.97
461.337	955.1
461.71	929.79
462.083	943.35
462.456	974.54
462.829	975.21
463.201	972.05
463.574	974.54
463.947	1009.79
464.32	1008.43
464.692	1017.7
465.065	1036.23
465.438	1034.42
465.81	1052.5
466.183	1034.2
466.555	1095.21
466.928	1054.08
467.3	1093.4
467.672	1096.34
468.045	1113.97
468.417	1107.41
468.789	1132.5
469.161	1147.19
469.534	1157.81
469.906	1182.67
470.278	1189.9
470.65	1199.39
471.022	1217.69
471.394	1242.55
471.766	1233.29
472.138	1251.14
472.51	1249.33
472.882	1286.39
473.253	1302.66
473.625	1318.93
473.997	1336.33
474.369	1359.61
474.74	1356.9
475.112	1392.6
475.484	1400.06
475.855	1416.56
476.227	1455.88
476.598	1446.61
476.97	1485.48
477.341	1498.82
477.713	1528.65
478.084	1519.38
478.455	1583.79
478.827	1605.71
479.198	1617.23
479.569	1636.21
479.94	1650
480.311	1677.57
480.682	1703.33
481.053	1695.87
481.424	1783.78
481.795	1744.91
482.166	1784.01
482.537	1856.55
482.908	1836.66
483.279	1863.55
483.65	1909.65
484.021	1964.57
484.391	1962.76
484.762	1982.19
485.133	1990.56
485.503	2013.83
485.874	2070.1
486.244	2087.95
486.615	2145.35
486.985	2129.76
487.356	2215.18
487.726	2189.19
488.097	2271.45
488.467	2258.12
488.837	2309.19
489.207	2328.17
489.578	2393.93
489.948	2383.09
490.318	2430.09
490.688	2396.19
491.058	2456.31
491.428	2522.29
491.798	2533.82
492.168	2556.64
492.538	2584.44
492.908	2638.67
493.278	2607.04
493.648	2680.93
494.017	2713.7
494.387	2683.42
494.757	2786.69
495.126	2776.3
495.496	2816.75
495.866	2829.63
496.235	2822.62
496.605	2852.68
496.974	2868.27
497.344	2938.33
497.713	2905.33
498.082	2952.79
498.452	3001.15
498.821	3033.01
499.19	3103.97
499.559	3048.83
499.928	3112.33
500.298	3121.15
500.667	3164.31
501.036	3163.18
501.405	3211.31
501.774	3170.19
502.143	3226.45
502.512	3292.89
502.88	3302.38
503.249	3280.01
503.618	3329.05
503.987	3339.45
504.356	3384.87
504.724	3423.29
505.093	3414.25
505.462	3457.86
505.83	3520.46
506.199	3542.38
506.567	3540.12
506.936	3570.63
507.304	3617.18
507.672	3596.84
508.041	3703.5
508.409	3687.46
508.777	3717.52
509.145	3791.19
509.514	3765.42
509.882	3819.43
510.25	3803.61
510.618	3894.69
510.986	3943.05
511.354	3949.83
511.722	4009.71
512.09	4011.07
512.458	4071.63
512.826	4092.65
513.193	4077.28
513.561	4157.73
513.929	4185.53
514.297	4203.83
514.664	4243.83
515.032	4288.12
515.4	4330.83
515.767	4326.31
516.135	4406.08
516.502	4387.78
516.869	4455.35
517.237	4472.52
517.604	4468.68
517.972	4546.42
518.339	4581.67
518.706	4656.47
519.073	4657.15
519.44	4679.3
519.808	4770.14
520.175	4793.65
520.542	4869.12
520.909	4903.02
521.276	4870.03
521.643	4953.19
522.009	4951.38
522.376	5038.38
522.743	5060.76
523.11	5152.28
523.477	5182.56
523.843	5204.48
524.21	5264.82
524.577	5305.5
524.943	5337.36
525.31	5400.86
525.676	5445.61
526.043	5466.62
526.409	5545.26
526.776	5577.81
527.142	5619.16
527.508	5671.59
527.874	5714.75
528.241	5733.96
528.607	5755.2
528.973	5840.62
529.339	5838.82
529.705	5907.06
530.071	6023.22
530.437	6051.47
530.803	6092.82
531.169	6147.28
531.535	6125.36
531.901	6222.99
532.267	6225.7
532.632	6272.7
532.998	6344.11
533.364	6405.58
533.73	6363.1
534.095	6448.06
534.461	6468.18
534.826	6544.56
535.192	6578.91
535.557	6594.73
535.923	6631.56
536.288	6694.39
536.653	6686.25
537.019	6728.96
537.384	6821.39
537.749	6830.88
538.114	6824.55
538.479	6859.13
538.845	6980.48
539.21	6977.54
539.575	6976.64
539.94	7054.15
540.305	7118.1
540.67	7117.88
541.034	7141.83
541.399	7175.73
541.764	7219.12
542.129	7244.88
542.494	7305.22
542.858	7319.23
543.223	7351.77
543.587	7438.32
543.952	7426.34
544.316	7469.73
544.681	7458.43
545.045	7539.34
545.41	7553.57
545.774	7584.76
546.138	7647.36
546.503	7711.08
546.867	7633.12
547.231	7775.26
547.595	7796.73
547.959	7877.18
548.324	7845.54
548.688	7930.74
549.052	7975.26
549.416	7976.39
549.779	8005.54
550.143	8057.51
550.507	8102.94
550.871	8123.28
551.235	8192.43
551.599	8217.74
551.962	8223.84
552.326	8294.8
552.689	8345.64
553.053	8362.59
553.417	8361.91
553.78	8517.84
554.143	8467.9
554.507	8577.95
554.87	8576.37
555.234	8730.49
555.597	8652.53
555.96	8674.45
556.323	8752.41
556.686	8864.95
557.05	8866.98
557.413	8942.69
557.776	8996.02
558.139	8972.29
558.502	9045.06
558.865	9143.36
559.228	9222
559.59	9191.04
559.953	9226.07
560.316	9365.28
560.679	9352.4
561.041	9487.53
561.404	9529.79
561.767	9528.66
562.129	9525.5
562.492	9700.41
562.854	9624.7
563.217	9735.66
563.579	9733.4
563.941	9821.54
564.304	9889.1
564.666	10031.25
565.028	9986.5
565.39	10064.24
565.753	10075.54
566.115	10155.54
566.477	10261.98
566.839	10238.7
567.201	10404.35
567.563	10380.16
567.925	10492.7
568.287	10410.9
568.648	10480.95
569.01	10578.35
569.372	10635.07
569.734	10594.85
570.095	10700.61
570.457	10798.01
570.819	10802.98
571.18	10822.64
571.542	10866.93
571.903	10979.7
572.265	11006.36
572.626	10993.93
572.987	11083.42
573.349	11092.24
573.71	11158
574.071	11231.22
574.432	11274.83
574.794	11354.6
575.155	11368.84
575.516	11339.46
575.877	11365
576.238	11437.09
576.599	11507.37
576.96	11554.6
577.32	11537.65
577.681	11694.48
578.042	11702.84
578.403	11639.11
578.763	11717.76
579.124	11739.68
579.485	11768.83
579.845	11876.62
580.206	11847.02
580.566	11789.85
580.927	11907.13
581.287	11954.81
581.648	11850.41
582.008	11976.96
582.368	12043.85
582.728	12022.61
583.089	11990.29
583.449	12105.77
583.809	12129.72
584.169	12141.93
584.529	12134.92
584.889	12251.53
585.249	12229.38
585.609	12174.02
585.969	12320.9
586.329	12247.01
586.688	12310.28
587.048	12333.79
587.408	12332.66
587.768	12366.78
588.127	12333.79
588.487	12251.53
588.846	12438.64
589.206	12335.59
589.565	12442.03
589.925	12515.93
590.284	12408.13
590.643	12485.87
591.003	12516.38
591.362	12558.64
591.721	12493.56
592.08	12595.02
592.44	12581.46
592.799	12607.23
593.158	12539.88
593.517	12664.62
593.876	12664.17
594.235	12686.09
594.593	12688.13
594.952	12651.07
595.311	12676.83
595.67	12727.67
596.029	12802.7
596.387	12880.66
596.746	12882.7
597.104	12851.06
597.463	12832.76
597.822	12865.98
598.18	12820.1
598.538	12812.64
598.897	13036.37
599.255	12872.3
599.613	13123.6
599.972	12927.89
600.33	13030.72
600.688	12939.42
601.046	13054.9
601.404	13110.94
601.762	13042.24
602.12	13162.69
602.478	13079.75
602.836	13154.78
603.194	13145.97
603.552	13139.19
603.91	13075.46
604.268	13211.73
604.625	13171.5
604.983	13289.92
605.341	13219.86
605.698	13353.65
606.056	13424.83
606.413	13335.79
606.771	13397.94
607.128	13374.21
607.485	13290.82
607.843	13422.8
608.2	13491.27
608.557	13522.91
608.914	13497.37
609.272	13506.18
609.629	13591.15
609.986	13574.43
610.343	13522.68
610.7	13666.41
611.057	13688.55
611.414	13612.85
611.771	13705.95
612.127	13738.04
612.484	13738.95
612.841	13729.91
613.198	13798.83
613.554	13789.79
613.911	13852.39
614.267	13832.05
614.624	13943.91
614.98	13938.94
615.337	14030.46
615.693	13969.22
616.05	13999.96
616.406	14076.11
616.762	14042.89
617.118	14034.76
617.475	14043.35
617.831	14178.26
618.187	14140.29
618.543	14149.78
618.899	14257.35
619.255	14199.95
619.611	14256.45
619.967	14327.86
620.323	14326.73
620.678	14267.52
621.034	14260.97
621.39	14283.57
621.746	14205.6
622.101	14504.12
622.457	14366.95
622.812	14290.8
623.168	14473.16
623.523	14452.83
623.879	14543.22
624.234	14464.58
624.589	14419.38
624.945	14478.59
625.3	14493.28
625.655	14537.57
626.01	14484.69
626.365	14564.24
626.72	14450.57
627.075	14520.62
627.43	14592.94
627.785	14507.51
628.14	14524.46
628.495	14545.71
628.85	14597.91
629.205	14510.9
629.559	14611.01
629.914	14496.67
630.269	14561.52
630.623	14505.48
630.978	14537.57
631.332	14587.96
631.687	14630.67
632.041	14564.91
632.396	14515.2
632.75	14601.97
633.104	14640.17
633.459	14618.02
633.813	14517.23
634.167	14518.36
634.521	14538.47
634.875	14644.69
635.229	14609.88
635.583	14530.56
635.937	14584.57
636.291	14580.96
636.645	14470
636.999	14439.27
637.352	14519.94
637.706	14417.12
638.06	14495.76
638.413	14477.91
638.767	14466.61
639.121	14521.75
639.474	14385.94
639.828	14346.39
640.181	14470
640.534	14508.64
640.888	14397.01
641.241	14368.08
641.594	14319.27
641.947	14489.66
642.301	14404.01
642.654	14394.97
643.007	14421.87
643.36	14416.89
643.713	14398.14
644.066	14379.16
644.419	14305.49
644.771	14288.08
645.124	14155.43
645.477	14099.84
645.83	13980.52
646.182	14007.64
646.535	13928.32
646.888	13982.56
647.24	13912.95
647.593	14018.94
647.945	13976.68
648.298	13917.93
648.65	13866.17
649.002	13827.98
649.355	13990.01
649.707	13889.23
650.059	14008.32
650.411	14165.6
650.763	14164.92
651.115	14289.89
651.467	14321.76
651.819	14314.3
652.171	14220.29
652.523	14200.86
652.875	14236.33
653.227	14246.28
653.578	14288.99
653.93	14246.73
654.282	14270.46
654.633	14151.59
654.985	14204.47
655.337	14234.75
655.688	14238.59
656.039	14168.54
656.391	14158.14
656.742	14253.06
657.094	14260.97
657.445	14274.75
657.796	14261.64
658.147	14233.85
658.498	14221.87
658.849	14277.92
659.2	14287.18
659.551	14168.77
659.902	14363.79
660.253	14241.08
660.604	14270.91
660.955	14225.26
661.306	14282.44
661.656	14236.79
662.007	14261.42
662.358	14218.71
662.708	14176.9
663.059	14251.25
663.409	14115.43
663.76	14268.2
664.11	14199.5
664.461	14229.56
664.811	14299.84
665.161	14266.16
665.511	14141.42
665.862	14321.76
666.212	14285.6
666.562	14294.64
666.912	14290.12
667.262	14202.66
667.612	14233.62
667.962	14236.33
668.312	14164.02
668.662	14368.08
669.011	14265.03
669.361	14283.57
669.711	14255.32
670.06	14340.74
670.41	14255.09
670.76	14212.61
671.109	14271.36
671.459	14270.68
671.808	14299.38
672.157	14192.27
672.507	14200.63
672.856	14232.04
673.205	14195.66
673.554	14293.06
673.904	14241.31
674.253	14319.5
674.602	14250.8
674.951	14045.83
675.3	14084.93
675.649	14305.03
675.998	14201.31
676.346	14197.24
676.695	14383
677.044	14213.51
677.393	14197.69
677.741	14279.95
678.09	14177.58
678.438	14145.72
678.787	14290.8
679.135	14258.26
679.484	14101.65
679.832	14250.35
680.181	14139.16
680.529	14186.17
680.877	14171.93
681.225	14137.58
681.573	14234.75
681.922	14020.3
682.27	14100.52
682.618	14169.67
682.966	14093.51
683.314	14117.47
683.661	14075.43
684.009	14025.04
684.357	13947.3
684.705	13927.19
685.053	13983.69
685.4	14047.87
685.748	13912.05
686.095	13954.31
686.443	13880.19
686.79	13842.45
687.138	13887.64
687.485	13906.17
687.832	13858.72
688.18	13832.73
688.527	13858.72
688.874	13838.83
689.221	13758.38
689.568	13779.62
689.915	13689.91
690.262	13723.35
690.609	13729.68
690.956	13630.93
691.303	13629.12
691.65	13626.41
691.997	13569.01
692.344	13532.17
692.69	13505.28
693.037	13498.5
693.383	13453.3
693.73	13472.96
694.077	13374.44
694.423	13454.89
694.769	13379.63
695.116	13280.2
695.462	13340.99
695.808	13260.77
696.155	13359.97
696.501	13202.69
696.847	13262.58
697.193	13124.95
697.539	13205.63
697.885	13033.43
698.231	13099.42
698.577	13120.21
698.923	13052.86
699.269	13061
699.614	13046.76
699.96	12976.93
700.306	12952.3
700.651	12994.79
700.997	12895.13
701.342	12914.56
701.688	12853.55
702.033	12837.28
702.379	12818.74
702.724	12780.33
703.069	12844.73
703.415	12596.6
703.76	12656.49
704.105	12671.63
704.45	12690.61
704.795	12595.7
705.14	12556.6
705.485	12577.17
705.83	12555.7
706.175	12517.96
706.52	12532.88
706.865	12465.53
707.209	12372.65
707.554	12445.65
707.899	12470.73
708.243	12345.31
708.588	12343.05
708.932	12219.44
709.277	12234.81
709.621	12362.94
709.966	12145.99
710.31	12282.49
710.654	12091.08
710.998	12163.39
711.342	12131.53
711.687	12173.56
712.031	12029.84
712.375	12023.29
712.719	12118.2
713.063	12095.37
713.407	12101.02
713.75	12018.31
714.094	12051.53
714.438	11957.75
714.782	11988.03
715.125	11908.71
715.469	12034.58
715.812	11916.62
716.156	11819.22
716.499	11883.4
716.843	11852.89
717.186	11766.34
717.53	11916.17
717.873	11904.87
718.216	11742.16
718.559	11876.85
718.902	11774.03
719.246	11782.39
719.589	11747.59
719.932	11694.25
720.275	11723.18
720.617	11731.99
720.96	11655.61
721.303	11699
721.646	11701.26
721.989	11647.48
722.331	11706.23
722.674	11635.27
723.016	11657.87
723.359	11633.47
723.701	11650.64
724.044	11491.77
724.386	11555.73
724.729	11609.96
725.071	11598.44
725.413	11507.82
725.755	11550.08
726.097	11510.08
726.439	11440.25
726.782	11595.95
727.124	11579.68
727.465	11464.2
727.807	11434.6
728.149	11398.67
728.491	11454.26
728.833	11447.03
729.175	11430.53
729.516	11396.18
729.858	11341.5
730.199	11338.78
730.541	11354.15
730.882	11353.7
731.224	11371.33
731.565	11272.12
731.906	11361.83
732.248	11270.99
732.589	11273.25
732.93	11272.34
733.271	11301.95
733.612	11273.47
733.953	11325
734.294	11225.11
734.635	11250.2
734.976	11270.09
735.317	11205
735.658	11280.71
735.999	11225.34
736.339	11240.03
736.68	11209.3
737.021	11223.76
737.361	11202.97
737.702	11228.05
738.042	11161.16
738.383	11134.5
738.723	11186.47
739.063	11180.37
739.404	11251.1
739.744	11151.67
740.084	11163.65
740.424	11166.58
740.764	11146.02
741.104	11147.83
741.444	11038.45
741.784	11104.21
742.124	11142.4
742.464	11007.72
742.804	11049.75
743.143	11099.02
743.483	11076.64
743.823	11016.76
744.162	11009.75
744.502	11048.85
744.841	11000.26
745.181	11037.55
745.52	11025.8
745.86	11007.27
746.199	10923.88
746.538	10974.27
746.877	11065.8
747.216	10946.93
747.556	10932.92
747.895	10998
748.234	10924.56
748.573	10942.41
748.911	10936.31
749.25	11027.15
749.589	10873.71
749.928	10978.12
750.267	10892.47
750.605	10919.36
750.944	10903.32
751.283	10882.3
751.621	10891.56
751.96	10796.65
752.298	10846.82
752.636	10845.92
752.975	10788.74
753.313	10768.63
753.651	10865.35
753.989	10752.13
754.327	10752.81
754.666	10751.23
755.004	10779.48
755.342	10769.31
755.679	10744.22
756.017	10698.35
756.355	10698.57
756.693	10657.22
757.031	10609.76
757.368	10590.55
757.706	10635.53
758.044	10576.77
758.381	10699.03
758.719	10525.47
759.056	10597.33
759.394	10659.03
759.731	10488.41
760.068	10426.72
760.405	10525.92
