Data from cardboard_FLMS001491_012.txt Node
Date: Tue Feb 07 11:39:00 GMT 2017
User: dcchb
Spectrometer: FLMS00149
Trigger mode: 0
Integration Time (sec): 2.000000E-2
Scans to average: 10
Electric dark correction enabled: true
Nonlinearity correction enabled: false
Boxcar width: 0
XAxis mode: Wavelengths
Number of Pixels in Spectrum: 2048
>>>>>Begin Spectral Data<<<<<
341.393	1.6
341.776	1.6
342.16	1.6
342.543	-65.07
342.927	-71.17
343.31	-79.31
343.693	-75.46
344.077	-72.53
344.46	-57.61
344.843	-57.84
345.226	-56.93
345.61	-30.04
345.993	-11.51
346.376	-26.88
346.759	16.06
347.142	43.18
347.525	67.13
347.908	41.37
348.291	91.54
348.674	115.94
349.057	92.89
349.44	132.89
349.823	144.42
350.206	161.82
350.588	197.3
350.971	205.21
351.354	220.8
351.737	254.24
352.119	247.92
352.502	275.94
352.884	271.42
353.267	264.64
353.65	282.94
354.032	283.62
354.414	312.32
354.797	320.01
355.179	308.03
355.562	312.1
355.944	343.28
356.326	327.46
356.709	323.85
357.091	339.21
357.473	349.16
357.855	326.79
358.238	342.83
358.62	319.55
359.002	332.66
359.384	343.96
359.766	325.43
360.148	331.53
360.53	325.43
360.912	312.1
361.294	342.83
361.676	322.04
362.057	329.05
362.439	322.94
362.821	334.92
363.203	323.85
363.584	330.63
363.966	319.1
364.348	314.58
364.729	305.32
365.111	307.12
365.493	315.26
365.874	326.11
366.256	349.84
366.637	304.86
367.019	301.48
367.4	308.03
367.781	315.94
368.163	306.67
368.544	301.48
368.925	298.99
369.306	316.39
369.688	309.38
370.069	321.36
370.45	308.71
370.831	305.77
371.212	299.22
371.593	297.86
371.974	331.08
372.355	331.53
372.736	330.85
373.117	316.62
373.498	320.46
373.879	307.35
374.26	334.69
374.641	320.01
375.021	301.25
375.402	309.16
375.783	332.66
376.163	313.68
376.544	317.75
376.925	334.47
377.305	334.02
377.686	318.2
378.066	333.56
378.447	359.78
378.827	321.14
379.208	315.26
379.588	345.54
379.968	316.62
380.349	329.27
380.729	321.36
381.109	320.23
381.489	350.97
381.87	349.38
382.25	331.53
382.63	345.54
383.01	327.01
383.39	351.64
383.77	319.55
384.15	353.68
384.53	363.85
384.91	361.36
385.29	346.45
385.67	358.65
386.049	362.72
386.429	341.93
386.809	348.25
387.189	330.4
387.568	354.81
387.948	353
388.328	351.42
388.707	355.94
389.087	357.52
389.466	381.25
389.846	364.07
390.225	388.48
390.605	352.32
390.984	376.28
391.363	371.08
391.743	365.65
392.122	376.05
392.501	382.6
392.881	367.24
393.26	368.82
393.639	374.47
394.018	369.72
394.397	374.47
394.776	386.67
395.155	395.71
395.534	379.21
395.913	387.8
396.292	395.03
396.671	374.24
397.05	380.12
397.429	400.68
397.808	408.82
398.186	390.74
398.565	393.22
398.944	394.81
399.323	401.59
399.701	406.33
400.08	399.1
400.458	414.47
400.837	392.32
401.215	420.79
401.594	395.71
401.972	390.74
402.351	447.91
402.729	443.84
403.107	426.44
403.486	422.6
403.864	437.97
404.242	433.45
404.62	426.67
404.999	436.39
405.377	416.05
405.755	440.23
406.133	447.01
406.511	434.35
406.889	452.43
407.267	438.65
407.645	460.34
408.023	459.44
408.401	455.14
408.779	456.5
409.156	444.07
409.534	469.38
409.912	469.15
410.29	472.77
410.667	487.01
411.045	487.23
411.422	481.13
411.8	487.46
412.178	491.98
412.555	506.22
412.933	495.59
413.31	498.08
413.687	490.85
414.065	513.67
414.442	507.12
414.819	509.83
415.197	517.74
415.574	507.12
415.951	506.22
416.328	526.55
416.705	525.65
417.082	529.72
417.46	533.56
417.837	546.44
418.214	537.18
418.591	533.79
418.967	538.98
419.344	550.28
419.721	555.93
420.098	561.58
420.475	549.15
420.852	578.53
421.228	568.81
421.605	568.59
421.982	579.66
422.358	584.63
422.735	592.77
423.111	571.98
423.488	608.59
423.864	608.59
424.241	614.46
424.617	617.4
424.994	610.39
425.37	593.22
425.746	600.22
426.123	614.46
426.499	623.73
426.875	633.67
427.251	638.19
427.627	634.8
428.003	637.06
428.379	667.34
428.756	647.68
429.132	657.85
429.507	661.47
429.883	687.23
430.259	670.73
430.635	693.1
431.011	715.48
431.387	715.7
431.763	713.44
432.138	725.64
432.514	708.02
432.89	699.66
433.265	723.84
433.641	741.01
434.016	734.23
434.392	768.13
434.767	759.32
435.143	768.58
435.518	765.19
435.894	759.32
436.269	778.75
436.644	790.95
437.02	792.76
437.395	777.17
437.77	789.37
438.145	810.39
438.52	829.37
438.895	815.13
439.271	831.63
439.646	837.96
440.021	840.9
440.395	861.01
440.77	851.74
441.145	884.51
441.52	858.07
441.895	856.71
442.27	857.39
442.645	887
443.019	888.58
443.394	891.97
443.769	894.45
444.143	904.17
444.518	908.01
444.892	912.31
445.267	926.32
445.641	920.67
446.016	956.37
446.39	927.22
446.764	927
447.139	930.39
447.513	927.22
447.887	945.3
448.262	979.65
448.636	963.38
449.01	988.91
449.384	967.22
449.758	999.31
450.132	985.52
450.506	974.68
450.88	1002.7
451.254	986.2
451.628	1014.68
452.002	1007.9
452.376	1026.43
452.75	1025.98
453.123	1062.59
453.497	1065.97
453.871	1052.87
454.244	1072.53
454.618	1105.3
454.992	1098.52
455.365	1085.64
455.739	1109.82
456.112	1127.67
456.486	1122.02
456.859	1170.83
457.232	1154.33
457.606	1164.73
457.979	1204.05
458.352	1185.52
458.725	1232.07
459.099	1242.92
459.472	1237.5
459.845	1239.3
460.218	1256.93
460.591	1263.48
460.964	1265.29
461.337	1324.05
461.71	1306.19
462.083	1327.89
462.456	1310.94
462.829	1341.67
463.201	1357.49
463.574	1369.24
463.947	1381.9
464.32	1404.72
464.692	1407.43
465.065	1426.64
465.438	1457.38
465.81	1487.88
466.183	1474.33
466.555	1519.3
466.928	1509.8
467.3	1533.76
467.672	1564.94
468.045	1573.98
468.417	1569.01
468.789	1557.94
469.161	1614.43
469.534	1651.04
469.906	1667.77
470.278	1683.13
470.65	1691.95
471.022	1689.01
471.394	1752.74
471.766	1738.05
472.138	1784.6
472.51	1815.11
472.882	1844.94
473.253	1852.39
473.625	1928.1
473.997	1911.15
474.369	1915.9
474.74	1943.24
475.112	1964.26
475.484	2013.52
475.855	2040.86
476.227	2053.97
476.598	2108.21
476.97	2145.95
477.341	2173.52
477.713	2239.05
478.084	2235.66
478.455	2283.12
478.827	2298.71
479.198	2351.36
479.569	2370.8
479.94	2400.63
480.311	2455.54
480.682	2512.26
481.053	2575.77
481.424	2567.4
481.795	2609.89
482.166	2678.36
482.537	2686.5
482.908	2753.84
483.279	2789.55
483.65	2841.75
484.021	2879.71
484.391	2901.18
484.762	2935.98
485.133	2971.69
485.503	3005.13
485.874	3054.4
486.244	3135.3
486.615	3177.33
486.985	3201.06
487.356	3280.15
487.726	3337.55
488.097	3359.47
488.467	3382.98
488.837	3466.36
489.207	3513.59
489.578	3561.5
489.948	3600.6
490.318	3651.67
490.688	3639.69
491.058	3747.26
491.428	3770.08
491.798	3801.5
492.168	3875.62
492.538	3910.65
492.908	4020.7
493.278	4006.69
493.648	4029.51
494.017	4064.77
494.387	4149.28
494.757	4161.03
495.126	4212.78
495.496	4213.24
495.866	4327.13
496.235	4348.37
496.605	4416.17
496.974	4443.97
497.344	4453.46
497.713	4514.47
498.082	4522.61
498.452	4668.82
498.821	4664.07
499.19	4655.26
499.559	4695.71
499.928	4784.75
500.298	4791.53
500.667	4886.89
501.036	4869.72
501.405	4909.94
501.774	4991.3
502.143	5027.23
502.512	5048.92
502.88	5084.85
503.249	5079.65
503.618	5148.35
503.987	5184.96
504.356	5241.23
504.724	5329.82
505.093	5304.28
505.462	5334.56
505.83	5386.54
506.199	5499.3
506.567	5567.33
506.936	5611.39
507.304	5657.72
507.672	5656.36
508.041	5789.01
508.409	5828.11
508.777	5820.2
509.145	5842.8
509.514	5915.56
509.882	6024.49
510.25	6011.16
510.618	6054.54
510.986	6111.72
511.354	6215.67
511.722	6282.11
512.09	6357.81
512.458	6343.35
512.826	6462.22
513.193	6439.84
513.561	6527.3
513.929	6576.11
514.297	6641.65
514.664	6696.56
515.032	6737.92
515.4	6779.5
515.767	6831.25
516.135	6950.11
516.502	6921.19
516.869	7037.12
517.237	7094.29
517.604	7090
517.972	7230.78
518.339	7238.69
518.706	7373.83
519.073	7352.82
519.44	7423.55
519.808	7550.1
520.175	7536.09
520.542	7676.2
520.909	7724.56
521.276	7841.16
521.643	7876.19
522.009	7937.66
522.376	8052.23
522.743	8040.48
523.11	8175.84
523.477	8284.77
523.843	8387.82
524.21	8412.45
524.577	8500.58
524.943	8555.27
525.31	8648.15
525.676	8745.55
526.043	8817.41
526.409	8862.15
526.776	9026.9
527.142	9027.8
527.508	9059.44
527.874	9169.26
528.241	9313.22
528.607	9354.12
528.973	9456.26
529.339	9504.17
529.705	9603.38
530.071	9763.37
530.437	9761.79
530.803	9840.21
531.169	9880.66
531.535	10000.66
531.901	10058.05
532.267	10079.3
532.632	10197.26
532.998	10258.73
533.364	10268.22
533.73	10390.93
534.095	10473.19
534.461	10560.19
534.826	10697.59
535.192	10671.82
535.557	10750.92
535.923	10774.19
536.288	10823.23
536.653	10879.05
537.019	10944.59
537.384	11039.27
537.749	11129.21
538.114	11196.1
538.479	11202.21
538.845	11255.54
539.21	11313.61
539.575	11363.78
539.94	11463.89
540.305	11587.05
540.67	11541.63
541.034	11662.31
541.399	11733.26
541.764	11759.25
542.129	11880.38
542.494	11934.39
542.858	11973.48
543.223	12069.75
543.587	12098.45
543.952	12214.38
544.316	12276.53
544.681	12226.13
545.045	12383.64
545.41	12432.91
545.774	12471.55
546.138	12532.57
546.503	12657.31
546.867	12628.38
547.231	12752
547.595	12896.85
547.959	12876.29
548.324	12910.64
548.688	12985.44
549.052	13098.65
549.416	13191.53
549.779	13202.38
550.143	13342.04
550.507	13368.93
550.871	13424.07
551.235	13455.25
551.599	13570.96
551.962	13670.84
552.326	13743.83
552.689	13859.08
553.053	13752.42
553.417	13937.05
553.78	14124.61
554.143	14002.81
554.507	14132.07
554.87	14269.7
555.234	14425.85
555.597	14381.78
555.96	14446.64
556.323	14566.64
556.686	14544.04
557.05	14708.55
557.413	14788.33
557.776	14818.38
558.139	14974.08
558.502	15045.95
558.865	15015.21
559.228	15209.56
559.59	15320.52
559.953	15380.63
560.316	15532.26
560.679	15521.41
561.041	15685.93
561.404	15715.31
561.767	15865.36
562.129	15868.75
562.492	16041.63
562.854	16135.41
563.217	16183.32
563.579	16186.26
563.941	16280.72
564.304	16491.33
564.666	16615.85
565.028	16637.32
565.39	16734.94
565.753	16797.99
566.115	16866.01
566.477	16995.95
566.839	17046.35
567.201	17194.36
567.563	17300.35
567.925	17329.28
568.287	17387.35
568.648	17523.62
569.01	17647.91
569.372	17740.34
569.734	17722.26
570.095	17892.88
570.457	17894.46
570.819	17975.13
571.18	18118.18
571.542	18202.7
571.903	18248.57
572.265	18362.92
572.626	18364.73
572.987	18460.77
573.349	18587.77
573.71	18711.16
574.071	18785.73
574.432	18814.89
574.794	19025.95
575.155	18954.09
575.516	18989.8
575.877	19157.25
576.238	19143.69
576.599	19203.35
576.96	19401.31
577.32	19319.96
577.681	19424.14
578.042	19484.47
578.403	19554.08
578.763	19644.24
579.124	19720.63
579.485	19720.85
579.845	19868.19
580.206	19913.61
580.566	19866.16
580.927	19930.79
581.287	20039.71
581.648	20083.55
582.008	20150.67
582.368	20082.2
582.728	20220.05
583.089	20259.82
583.449	20301.18
583.809	20306.37
584.169	20383.21
584.529	20352.47
584.889	20503.66
585.249	20543.43
585.609	20395.41
585.969	20533.03
586.329	20594.95
586.688	20629.75
587.048	20654.84
587.408	20630.66
587.768	20657.1
588.127	20727.38
588.487	20676.98
588.846	20815.74
589.206	20789.3
589.565	20820.48
589.925	20983.87
590.284	21037.43
590.643	21028.39
591.003	21082.85
591.362	21133.92
591.721	21085.79
592.08	21131.44
592.44	21275.39
592.799	21202.17
593.158	21218.44
593.517	21287.82
593.876	21334.37
594.235	21370.53
594.593	21306.57
594.952	21382.5
595.311	21516.06
595.67	21516.28
596.029	21628.82
596.387	21588.6
596.746	21606.45
597.104	21531.43
597.463	21692.1
597.822	21720.35
598.18	21599.22
598.538	21740.69
598.897	21994.69
599.255	21772.55
599.613	22011.41
599.972	21867.91
600.33	21958.53
600.688	21852.55
601.046	21974.58
601.404	22124.63
601.762	22083.05
602.12	22194.68
602.478	22182.93
602.836	22244.85
603.194	22168.7
603.552	22192.2
603.91	22237.4
604.268	22348.81
604.625	22270.16
604.983	22451.85
605.341	22321.46
605.698	22473.32
606.056	22584.96
606.413	22474.45
606.771	22661.79
607.128	22674.67
607.485	22621.57
607.843	22650.72
608.2	22847.32
608.557	22887.1
608.914	22728.23
609.272	22916.93
609.629	22948.34
609.986	23019.3
610.343	22920.77
610.7	23125.96
611.057	23058.39
611.414	23141.1
611.771	23226.07
612.127	23175.9
612.484	23248.22
612.841	23322.34
613.198	23361.66
613.554	23315.56
613.911	23518.94
614.267	23452.96
614.624	23504.25
614.98	23584.93
615.337	23662.67
615.693	23608.88
616.05	23586.51
616.406	23785.15
616.762	23689.33
617.118	23764.14
617.475	23863.34
617.831	23831.93
618.187	23821.76
618.543	23894.75
618.899	24068.53
619.255	23998.93
619.611	23928.42
619.967	24131.58
620.323	24245.93
620.678	24073.73
621.034	24169.55
621.39	24153.73
621.746	24175.42
622.101	24372.48
622.457	24155.76
622.812	24315.53
623.168	24438.47
623.523	24391.24
623.879	24443.67
624.234	24277.12
624.589	24430.78
624.945	24493.16
625.3	24489.09
625.655	24417
626.01	24501.97
626.365	24544
626.72	24460.84
627.075	24485.02
627.43	24626.71
627.785	24477.56
628.14	24460.39
628.495	24639.82
628.85	24563.21
629.205	24456.09
629.559	24687.5
629.914	24470.11
630.269	24474.85
630.623	24467.39
630.978	24494.06
631.332	24637.78
631.687	24740.15
632.041	24485.47
632.396	24685.47
632.75	24562.08
633.104	24584.45
633.459	24510.56
633.813	24482.08
634.167	24445.93
634.521	24460.61
634.875	24565.24
635.229	24518.47
635.583	24484.57
635.937	24558.01
636.291	24485.02
636.645	24586.03
636.999	24435.53
637.352	24587.84
637.706	24354.4
638.06	24428.75
638.413	24405.93
638.767	24432.14
639.121	24335.19
639.474	24262.88
639.828	24354.4
640.181	24316.21
640.534	24315.98
640.888	24341.75
641.241	24323.67
641.594	24399.6
641.947	24358.24
642.301	24210.45
642.654	24299.26
643.007	24236.66
643.36	24346.72
643.713	24219.72
644.066	24329.54
644.419	24128.65
644.771	24002.32
645.124	23836.22
645.477	23860.18
645.83	23668.32
646.182	23674.42
646.535	23583.35
646.888	23555.78
647.24	23470.58
647.593	23629.9
647.945	23501.54
648.298	23524.37
648.65	23452.28
649.002	23266.75
649.355	23634.87
649.707	23459.28
650.059	23676.68
650.411	23826.51
650.763	23903.79
651.115	24123.22
651.467	24113.05
651.819	24056.33
652.171	24091.13
652.523	24093.17
652.875	24064.01
653.227	24027.63
653.578	24144.69
653.93	24151.92
654.282	23948.31
654.633	23898.82
654.985	24008.65
655.337	24034.41
655.688	24027.63
656.039	24024.02
656.391	23774.08
656.742	24036.44
657.094	23910.35
657.445	24122.32
657.796	24054.3
658.147	24035.77
658.498	24038.7
658.849	24018.59
659.2	23975.2
659.551	24054.52
659.902	24113.96
660.253	23961.64
660.604	24073.28
660.955	23934.75
661.306	24129.32
661.656	24045.48
662.007	24065.37
662.358	24052.49
662.708	24101.3
663.059	24005.71
663.409	23849.1
663.76	24095.88
664.11	24024.02
664.461	24193.73
664.811	24143.56
665.161	24057.23
665.511	24005.71
665.862	24131.81
666.212	24221.98
666.562	24200.28
666.912	24120.74
667.262	24084.58
667.612	24045.71
667.962	24121.19
668.312	24014.3
668.662	24197.8
669.011	24093.62
669.361	24211.81
669.711	24109.44
670.06	23993.28
670.41	24096.56
670.76	23992.83
671.109	24092.71
671.459	24074.18
671.808	24147.63
672.157	24083.9
672.507	24000.74
672.856	23972.27
673.205	24042.09
673.554	24159.15
673.904	24018.82
674.253	24143.11
674.602	24069.44
674.951	23834.64
675.3	23614.99
675.649	23984.69
675.998	23959.16
676.346	24024.69
676.695	24177.23
677.044	24027.63
677.393	23976.78
677.741	23994.64
678.09	24038.48
678.438	23837.81
678.787	23985.6
679.135	23937.92
679.484	23899.05
679.832	23956.45
680.181	23849.78
680.529	23873.51
680.877	23860.63
681.225	23824.47
681.573	23964.81
681.922	23719.62
682.27	23699.28
682.618	23729.56
682.966	23771.14
683.314	23783.8
683.661	23644.14
684.009	23577.25
684.357	23507.42
684.705	23587.19
685.053	23677.81
685.4	23488.89
685.748	23472.17
686.095	23419.51
686.443	23290.48
686.79	23342.68
687.138	23396.91
687.485	23344.49
687.832	23351.04
688.18	23359.85
688.527	23219.52
688.874	23261.55
689.221	23157.6
689.568	23102.46
689.915	23088.45
690.262	23156.02
690.609	23045.51
690.956	22930.26
691.303	22951.5
691.65	22896.81
691.997	22854.55
692.344	22678.51
692.69	22688.23
693.037	22700.66
693.383	22555.81
693.73	22599.65
694.077	22500.44
694.423	22656.14
694.769	22433.55
695.116	22371.86
695.462	22394
695.808	22343.61
696.155	22336.6
696.501	22248.24
696.847	22177.06
697.193	22108.13
697.539	22127.57
697.885	21928.93
698.231	21972.09
698.577	21915.6
698.923	21937.06
699.269	21766
699.614	21713.79
699.96	21728.03
700.306	21760.35
700.651	21594.47
700.997	21547.47
701.342	21560.35
701.688	21464.99
702.033	21420.24
702.379	21513.12
702.724	21334.59
703.069	21277.87
703.415	21124.66
703.76	21121.49
704.105	21172.34
704.45	21086.01
704.795	21029.97
705.14	20887.37
705.485	20958.79
705.83	20902.29
706.175	20942.06
706.52	20828.62
706.865	20837.21
707.209	20777.32
707.554	20596.53
707.899	20724.44
708.243	20642.41
708.588	20582.52
708.932	20495.29
709.277	20553.6
709.621	20446.03
709.966	20456.88
710.31	20498.01
710.654	20267.28
710.998	20220.5
711.342	20392.25
711.687	20333.04
712.031	20295.07
712.375	20140.05
712.719	20235.41
713.063	20074.97
713.407	20180.73
713.75	20157.45
714.094	20023.67
714.438	20031.35
714.782	20086.72
715.125	19952.03
715.469	19987.29
715.812	19922.65
716.156	19747.97
716.499	19793.17
716.843	19868.87
717.186	19734.86
717.53	19833.84
717.873	19828.87
718.216	19782.09
718.559	19660.29
718.902	19567.64
719.246	19637.01
719.589	19612.38
719.932	19554.53
720.275	19498.94
720.617	19423.01
720.96	19478.15
721.303	19548.43
721.646	19529.9
721.989	19372.16
722.331	19514.98
722.674	19393.85
723.016	19337.36
723.359	19353.86
723.701	19321.54
724.044	19311.6
724.386	19234.99
724.729	19354.31
725.071	19293.74
725.413	19170.13
725.755	19155.22
726.097	19175.33
726.439	19065.5
726.782	19157.25
727.124	19098.95
727.465	19063.69
727.807	19008.33
728.149	19019.4
728.491	19045.62
728.833	19082.45
729.175	19044.03
729.516	18906.64
729.858	19030.25
730.199	18984.15
730.541	18957.93
730.882	18924.26
731.224	18924.94
731.565	18842.23
731.906	18860.31
732.248	18847.88
732.589	18783.7
732.93	18735.34
733.271	18776.47
733.612	18806.53
733.953	18839.29
734.294	18698.73
734.635	18741.89
734.976	18874.77
735.317	18637.26
735.658	18579.19
735.999	18716.58
736.339	18656.47
736.68	18736.24
737.021	18638.62
737.361	18543.71
737.702	18677.04
738.042	18653.53
738.383	18641.78
738.723	18552.07
739.063	18601.33
739.404	18661.67
739.744	18567.21
740.084	18475.46
740.424	18539.19
740.764	18530.37
741.104	18465.52
741.444	18482.01
741.784	18435.91
742.124	18403.82
742.464	18490.83
742.804	18418.29
743.143	18349.14
743.483	18447.21
743.823	18314.11
744.162	18311.85
744.502	18436.59
744.841	18306.88
745.181	18471.17
745.52	18228.01
745.86	18395.69
746.199	18256.71
746.538	18340.32
746.877	18378.97
747.216	18352.98
747.556	18312.75
747.895	18386.2
748.234	18215.13
748.573	18251.96
748.911	18209.7
749.25	18258.29
749.589	18187.11
749.928	18241.34
750.267	18222.13
750.605	18152.08
750.944	18110.72
751.283	18028.47
751.621	18133.32
751.96	18009.94
752.298	18155.69
752.636	18087.22
752.975	18084.06
753.313	17886.1
753.651	18028.01
753.989	17943.5
754.327	17951.86
754.666	17931.52
755.004	17974
755.342	17915.7
755.679	17827.12
756.017	17817.85
756.355	17916.83
756.693	17822.82
757.031	17899.2
757.368	17791.86
757.706	17679.32
