Data from cardboard_FLMS001491_023.txt Node
Date: Tue Feb 07 11:39:10 GMT 2017
User: dcchb
Spectrometer: FLMS00149
Trigger mode: 0
Integration Time (sec): 2.000000E-2
Scans to average: 10
Electric dark correction enabled: true
Nonlinearity correction enabled: false
Boxcar width: 0
XAxis mode: Wavelengths
Number of Pixels in Spectrum: 2048
>>>>>Begin Spectral Data<<<<<
341.393	-1.12
341.776	-1.12
342.16	-1.12
342.543	-80.66
342.927	-98.74
343.31	-71.4
343.693	-60.1
344.077	-71.4
344.46	-42.7
344.843	-66.65
345.226	-46.09
345.61	-21.68
345.993	-29.14
346.376	-6.54
346.759	-1.57
347.142	22.61
347.525	52.22
347.908	52.44
348.291	71.42
348.674	112.33
349.057	106.23
349.44	118.88
349.823	144.87
350.206	146
350.588	169.05
350.971	203.17
351.354	208.6
351.737	223.74
352.119	227.35
352.502	238.2
352.884	263.96
353.267	288.37
353.65	278.65
354.032	296.05
354.414	289.05
354.797	299.22
355.179	290.63
355.562	308.25
355.944	313.9
356.326	304.19
356.709	307.12
357.091	311.19
357.473	324.3
357.855	329.72
358.238	321.59
358.62	342.83
359.002	340.12
359.384	325.66
359.766	341.25
360.148	315.71
360.53	329.05
360.912	315.94
361.294	323.4
361.676	330.17
362.057	315.94
362.439	313.45
362.821	315.03
363.203	318.2
363.584	315.71
363.966	298.76
364.348	304.19
364.729	297.18
365.111	315.94
365.493	307.58
365.874	293.34
366.256	297.18
366.637	307.58
367.019	308.03
367.4	301.7
367.781	298.09
368.163	309.16
368.544	298.99
368.925	296.5
369.306	321.59
369.688	294.47
370.069	298.76
370.45	310.29
370.831	292.66
371.212	290.18
371.593	300.8
371.974	313
372.355	298.99
372.736	301.25
373.117	315.26
373.498	289.5
373.879	297.86
374.26	296.5
374.641	294.7
375.021	304.41
375.402	296.5
375.783	302.15
376.163	298.99
376.544	303.28
376.925	289.5
377.305	302.38
377.686	289.27
378.066	308.48
378.447	308.48
378.827	330.17
379.208	315.26
379.588	303.51
379.968	313.45
380.349	301.25
380.729	311.42
381.109	304.41
381.489	317.07
381.87	346.45
382.25	310.06
382.63	311.42
383.01	304.64
383.39	311.42
383.77	317.52
384.15	324.98
384.53	333.79
384.91	324.75
385.29	308.93
385.67	318.2
386.049	311.19
386.429	319.78
386.809	330.4
387.189	324.98
387.568	290.4
387.948	314.81
388.328	342.38
388.707	342.83
389.087	318.2
389.466	323.85
389.846	347.35
390.225	332.66
390.605	344.41
390.984	332.21
391.363	348.03
391.743	336.05
392.122	351.19
392.501	351.42
392.881	338.08
393.26	356.84
393.639	356.16
394.018	360.23
394.397	344.19
394.776	337.86
395.155	373.11
395.534	362.94
395.913	351.42
396.292	357.07
396.671	347.58
397.05	354.13
397.429	361.13
397.808	347.35
398.186	342.83
398.565	354.58
398.944	357.97
399.323	339.89
399.701	371.76
400.08	373.34
400.458	372.21
400.837	362.04
401.215	362.04
401.594	369.27
401.972	385.99
402.351	385.77
402.729	383.05
403.107	370.17
403.486	371.98
403.864	383.28
404.242	373.56
404.62	384.64
404.999	362.26
405.377	380.34
405.755	375.37
406.133	383.73
406.511	376.73
406.889	409.04
407.267	385.54
407.645	379.67
408.023	399.78
408.401	382.15
408.779	400
409.156	410.4
409.534	392.09
409.912	403.17
410.29	415.14
410.667	423.96
411.045	398.2
411.422	422.83
411.8	396.84
412.178	421.25
412.555	417.63
412.933	411.53
413.31	426.22
413.687	435.03
414.065	433.45
414.442	441.58
414.819	437.74
415.197	447.01
415.574	437.74
415.951	426.67
416.328	443.39
416.705	447.91
417.082	442.26
417.46	471.87
417.837	449.49
418.214	463.05
418.591	456.05
418.967	448.36
419.344	459.89
419.721	464.41
420.098	467.12
420.475	447.23
420.852	458.76
421.228	456.95
421.605	457.63
421.982	486.78
422.358	469.61
422.735	505.09
423.111	471.64
423.488	498.76
423.864	480
424.241	497.63
424.617	485.65
424.994	491.75
425.37	480.45
425.746	477.97
426.123	473.22
426.499	499.21
426.875	510.06
427.251	503.96
427.627	512.32
428.003	528.36
428.379	508.93
428.756	517.29
429.132	533.79
429.507	540.11
429.883	538.08
430.259	536.27
430.635	529.04
431.011	548.47
431.387	534.24
431.763	566.78
432.138	573.11
432.514	565.42
432.89	578.3
433.265	567.91
433.641	578.3
434.016	577.4
434.392	582.37
434.767	586.67
435.143	607.23
435.518	622.6
435.894	623.05
436.269	592.54
436.644	604.97
437.02	619.88
437.395	641.58
437.77	629.38
438.145	615.37
438.52	643.61
438.895	637.29
439.271	657.85
439.646	614.24
440.021	654.91
440.395	640
440.77	635.7
441.145	673.44
441.52	669.83
441.895	666.21
442.27	655.59
442.645	680.45
443.019	672.54
443.394	701.24
443.769	682.26
444.143	701.92
444.518	688.36
444.892	684.52
445.267	691.75
445.641	702.37
446.016	694.46
446.39	708.02
446.764	703.27
447.139	705.08
447.513	715.7
447.887	736.49
448.262	729.71
448.636	713.67
449.01	717.28
449.384	744.18
449.758	720.22
450.132	724.06
450.506	744.4
450.88	723.61
451.254	736.49
451.628	748.24
452.002	758.64
452.376	770.39
452.75	763.38
453.123	792.54
453.497	782.37
453.871	801.12
454.244	789.82
454.618	789.82
454.992	792.54
455.365	822.59
455.739	821.01
456.112	846.55
456.486	842.03
456.859	847.9
457.232	854.68
457.606	867.11
457.979	879.09
458.352	868.47
458.725	878.64
459.099	897.17
459.472	894.91
459.845	910.72
460.218	933.32
460.591	939.42
460.964	886.77
461.337	965.19
461.71	937.39
462.083	958.63
462.456	957.96
462.829	965.41
463.201	980.55
463.574	971.74
463.947	995.92
464.32	1002.02
464.692	1031.63
465.065	1018.74
465.438	1011.74
465.81	1043.6
466.183	1036.6
466.555	1085.64
466.928	1080.21
467.3	1065.52
467.672	1106.88
468.045	1076.82
468.417	1127.89
468.789	1134.9
469.161	1135.13
469.534	1148.46
469.906	1167.89
470.278	1166.31
470.65	1175.35
471.022	1200.66
471.394	1204.5
471.766	1229.81
472.138	1244.73
472.51	1267.33
472.882	1287.21
473.253	1285.4
473.625	1289.92
473.997	1335.12
474.369	1331.5
474.74	1368.11
475.112	1391.39
475.484	1390.94
475.855	1410.37
476.227	1417.38
476.598	1473.65
476.97	1456.47
477.341	1489.47
477.713	1531.27
478.084	1521.56
478.455	1581.67
478.827	1577.37
479.198	1581.89
479.569	1604.94
479.94	1666.86
480.311	1700.31
480.682	1694.21
481.053	1716.35
481.424	1770.59
481.795	1749.8
482.166	1789.12
482.537	1780.53
482.908	1875.9
483.279	1895.11
483.65	1906.86
484.021	1951.6
484.391	1984.59
484.762	2011.94
485.133	1998.83
485.503	2023.01
485.874	2056.01
486.244	2091.03
486.615	2145.72
486.985	2146.62
487.356	2181.65
487.726	2200.18
488.097	2244.25
488.467	2270.46
488.837	2324.47
489.207	2303.68
489.578	2333.51
489.948	2365.38
490.318	2422.78
490.688	2434.98
491.058	2466.62
491.428	2472.72
491.798	2523.34
492.168	2562.21
492.538	2530.8
492.908	2581.19
493.278	2639.94
493.648	2627.52
494.017	2677.91
494.387	2714.75
494.757	2730.34
495.126	2807.62
495.496	2799.49
495.866	2842.43
496.235	2863.44
496.605	2869.09
496.974	2881.07
497.344	2960.39
497.713	2950.9
498.082	3027.73
498.452	3007.39
498.821	3029.54
499.19	3035.19
499.559	3086.49
499.928	3079.26
500.298	3135.3
500.667	3186.82
501.036	3176.2
501.405	3224.56
501.774	3227.27
502.143	3212.81
502.512	3312.92
502.88	3316.54
503.249	3323.54
503.618	3341.85
503.987	3349.76
504.356	3406.48
504.724	3439.7
505.093	3426.82
505.462	3458
505.83	3500.71
506.199	3553.82
506.567	3570.77
506.936	3574.84
507.304	3566.47
507.672	3681.95
508.041	3673.82
508.409	3748.62
508.777	3745.23
509.145	3783.42
509.514	3801.5
509.882	3877.43
510.25	3891.21
510.618	3894.15
510.986	3933.47
511.354	3999.68
511.722	4010.98
512.09	4027.93
512.458	4066.8
512.826	4120.58
513.193	4122.84
513.561	4137.98
513.929	4195.38
514.297	4238.77
514.664	4265.66
515.032	4272.67
515.4	4327.36
515.767	4354.48
516.135	4401.03
516.502	4408.26
516.869	4517.18
517.237	4506.11
517.604	4537.52
517.972	4609.16
518.339	4654.36
518.706	4643.28
519.073	4669.5
519.44	4726.9
519.808	4763.73
520.175	4748.59
520.542	4860
520.909	4874.91
521.276	4937.51
521.643	4955.36
522.009	5024.51
522.376	5113.55
522.743	5104.96
523.11	5150.39
523.477	5169.82
523.843	5271.74
524.21	5306.77
524.577	5405.75
524.943	5398.97
525.31	5421.34
525.676	5476.71
526.043	5521.68
526.409	5608.23
526.776	5621.34
527.142	5726.42
527.508	5740.43
527.874	5765.74
528.241	5816.13
528.607	5829.92
528.973	5868.11
529.339	5930.48
529.705	5947.2
530.071	6047.99
530.437	6090.25
530.803	6122.57
531.169	6172.06
531.535	6194.2
531.901	6231.04
532.267	6273.52
532.632	6316.91
532.998	6324.37
533.364	6426.51
533.73	6455.21
534.095	6587.86
534.461	6582.89
534.826	6582.67
535.192	6598.94
535.557	6740.63
535.923	6707.63
536.288	6785.82
536.653	6762.55
537.019	6859.95
537.384	6851.59
537.749	6889.78
538.114	6972.71
538.479	6988.3
538.845	7073.05
539.21	7059.72
539.575	7123.67
539.94	7078.92
540.305	7184.01
540.67	7219.71
541.034	7240.95
541.399	7298.81
541.764	7327.96
542.129	7351.01
542.494	7403.44
542.858	7509.2
543.223	7464.68
543.587	7534.96
543.952	7544.67
544.316	7619.25
544.681	7627.38
545.045	7671.45
545.41	7707.83
545.774	7775.63
546.138	7803.2
546.503	7863.31
546.867	7922.97
547.231	8004.32
547.595	7986.7
547.959	7977.88
548.324	8058.79
548.688	8035.06
549.052	8102.85
549.416	8151.89
549.779	8178.33
550.143	8180.59
550.507	8303.52
550.871	8321.38
551.235	8320.25
551.599	8440.24
551.962	8489.73
552.326	8492.67
552.689	8537.64
553.053	8561.6
553.417	8635.49
553.78	8734.47
554.143	8708.49
554.507	8818.09
554.87	8815.83
555.234	8923.4
555.597	8879.55
555.96	9007.23
556.323	8972.43
556.686	8997.52
557.05	9124.29
557.413	9171.07
557.776	9210.39
558.139	9217.62
558.502	9297.4
558.865	9330.84
559.228	9400.67
559.59	9485.41
559.953	9488.58
560.316	9586.65
560.679	9611.51
561.041	9696.26
561.404	9706.2
561.767	9835.69
562.129	9803.82
562.492	9912.75
562.854	9998.62
563.217	9992.07
563.579	10021.22
563.941	10091.05
564.304	10129.01
564.666	10212.4
565.028	10300.99
565.39	10287.2
565.753	10413.07
566.115	10486.52
566.477	10563.35
566.839	10519.51
567.201	10660.75
567.563	10654.88
567.925	10783.23
568.287	10746.85
568.648	10833.4
569.01	10940.29
569.372	10965.15
569.734	10941.42
570.095	11063.45
570.457	11151.13
570.819	11137.35
571.18	11180.74
571.542	11312.49
571.903	11274.75
572.265	11315.65
572.626	11387.96
572.987	11434.74
573.349	11505.47
573.71	11535.3
574.071	11551.8
574.432	11643.32
574.794	11781.85
575.155	11780.95
575.516	11716.77
575.877	11737.56
576.238	11791.79
576.599	11907.27
576.96	11954.05
577.32	11985.91
577.681	12025.69
578.042	12050.32
578.403	12048.96
578.763	12112.69
579.124	12108.62
579.485	12221.39
579.845	12292.35
580.206	12250.09
580.566	12299.58
580.927	12283.31
581.287	12382.74
581.648	12385.9
582.008	12447.37
582.368	12392.68
582.728	12460.25
583.089	12494.83
583.449	12481.04
583.809	12484.88
584.169	12592.9
584.529	12561.94
584.889	12670.64
585.249	12628.83
585.609	12610.98
585.969	12699.12
586.329	12620.25
586.688	12739.57
587.048	12783.18
587.408	12728.72
587.768	12775.72
588.127	12860.47
588.487	12742.96
588.846	12853.24
589.206	12761.71
589.565	12850.98
589.925	12931.88
590.284	12941.82
590.643	12916.28
591.003	12902.5
591.362	13060.01
591.721	13027.92
592.08	13058.43
592.44	13067.02
592.799	13129.84
593.158	13058.2
593.517	13069.95
593.876	13091.42
594.235	13158.31
594.593	13178.42
594.952	13193.57
595.311	13239.67
595.67	13201.25
596.029	13292.55
596.387	13318.99
596.746	13326.67
597.104	13305.43
597.463	13347.23
597.822	13367.57
598.18	13395.37
598.538	13408.02
598.897	13482.82
599.255	13362.83
599.613	13595.36
599.972	13489.6
600.33	13563.95
600.688	13449.15
601.046	13557.62
601.404	13639.88
601.762	13607.11
602.12	13677.85
602.478	13790.61
602.836	13777.5
603.194	13724.17
603.552	13714
603.91	13664.06
604.268	13726.66
604.625	13690.95
604.983	13834.68
605.341	13760.56
605.698	13850.05
606.056	13894.56
606.413	13897.5
606.771	14004.84
607.128	14002.58
607.485	13912.42
607.843	13999.87
608.2	14081.68
608.557	14170.04
608.914	14033.09
609.272	14135.91
609.629	14105.86
609.986	14225.4
610.343	14164.61
610.7	14324.38
611.057	14248.23
611.414	14182.24
611.771	14247.1
612.127	14329.13
612.484	14360.09
612.841	14404.61
613.198	14365.51
613.554	14492.06
613.911	14498.16
614.267	14506.07
614.624	14481.89
614.98	14565.28
615.337	14602.34
615.693	14574.77
616.05	14464.94
616.406	14774.09
616.762	14681.21
617.118	14704.94
617.475	14667.88
617.831	14772.96
618.187	14731.83
618.543	14733.64
618.899	14868.32
619.255	14832.39
619.611	14775.9
619.967	14871.26
620.323	14923.46
620.678	14974.99
621.034	14862.45
621.39	14875.78
621.746	14930.92
622.101	15066.51
622.457	14894.09
622.812	14955.55
623.168	15058.38
623.523	15055.89
623.879	15144.7
624.234	15011.37
624.589	15079.39
624.945	15077.36
625.3	15110.8
625.655	15111.26
626.01	15048.66
626.365	15196.45
626.72	15176.79
627.075	15146.73
627.43	15086.62
627.785	15083.46
628.14	15095.66
628.495	15225.83
628.85	15153.06
629.205	15193.29
629.559	15136.79
629.914	15249.78
630.269	15245.71
630.623	15150.35
630.978	15072.84
631.332	15200.74
631.687	15211.37
632.041	15124.36
632.396	15208.43
632.75	15188.54
633.104	15216.56
633.459	15120.52
633.813	15107.41
634.167	15174.3
634.521	15124.81
634.875	15221.53
635.229	15135.66
635.583	15071.71
635.937	15139.28
636.291	15127.98
636.645	15100.86
636.999	15080.97
637.352	15145.6
637.706	15050.24
638.06	15156.45
638.413	15099.5
638.767	15032.84
639.121	15048.66
639.474	14986.96
639.828	14976.12
640.181	15012.27
640.534	15040.52
640.888	15031.71
641.241	15043.23
641.594	15013.86
641.947	15033.74
642.301	14947.87
642.654	15121.42
643.007	15075.32
643.36	15000.75
643.713	14992.84
644.066	14997.81
644.419	14952.84
644.771	14953.52
645.124	14822.9
645.477	14731.6
645.83	14667.88
646.182	14615.45
646.535	14603.02
646.888	14613.42
647.24	14589.24
647.593	14716.92
647.945	14666.75
648.298	14587.65
648.65	14521.89
649.002	14448.45
649.355	14640.76
649.707	14518.5
650.059	14611.38
650.411	14894.31
650.763	14856.35
651.115	14962.11
651.467	14979.51
651.819	14898.61
652.171	14971.15
652.523	14923.69
652.875	15004.59
653.227	14825.39
653.578	15038.49
653.93	14930.02
654.282	14938.83
654.633	14828.1
654.985	14937.25
655.337	14877.59
655.688	14911.49
656.039	14943.8
656.391	14790.59
656.742	14831.49
657.094	14854.31
657.445	14911.26
657.796	14959.62
658.147	14825.61
658.498	14869.23
658.849	14926.85
659.2	14940.19
659.551	14881.43
659.902	14869.91
660.253	14893.63
660.604	14927.08
660.955	14928.89
661.306	14917.81
661.656	14953.07
662.007	14920.07
662.358	14904.93
662.708	14918.72
663.059	14942.9
663.409	14790.13
663.76	14899.96
664.11	14970.92
664.461	15023.12
664.811	14915.55
665.161	14903.35
665.511	15005.72
665.862	14982.67
666.212	15004.59
666.562	14950.58
666.912	14920.75
667.262	14871.26
667.612	14932.73
667.962	14895.67
668.312	15033.07
668.662	14970.47
669.011	14991.71
669.361	14976.34
669.711	14950.58
670.06	14935.21
670.41	14984.25
670.76	14914.42
671.109	14971.15
671.459	14911.71
671.808	14878.49
672.157	14993.07
672.507	14857.93
672.856	14934.76
673.205	14924.37
673.554	14960.07
673.904	14905.61
674.253	14984.25
674.602	14980.19
674.951	14750.13
675.3	14688.89
675.649	14952.39
675.998	14906.06
676.346	14912.16
676.695	14914.42
677.044	14819.51
677.393	14895.67
677.741	14911.49
678.09	14915.33
678.438	14750.59
678.787	14888.66
679.135	14921.66
679.484	14823.13
679.832	14908.1
680.181	14777.25
680.529	14815.9
680.877	14806.63
681.225	14807.53
681.573	14962.78
681.922	14802.79
682.27	14778.38
682.618	14801.66
682.966	14720.98
683.314	14805.05
683.661	14800.3
684.009	14654.77
684.357	14645.73
684.705	14627.43
685.053	14710.59
685.4	14628.78
685.748	14605.96
686.095	14577.03
686.443	14560.08
686.79	14564.83
687.138	14552.85
687.485	14514.66
687.832	14452.97
688.18	14514.66
688.527	14373.87
688.874	14404.38
689.221	14418.39
689.568	14329.13
689.915	14329.58
690.262	14287.1
690.609	14340.2
690.956	14365.51
691.303	14285.97
691.65	14206.19
691.997	14135.69
692.344	14176.82
692.69	14149.25
693.037	14078.29
693.383	14058.4
693.73	14048.46
694.077	13981.79
694.423	13963.71
694.769	13965.3
695.116	13972.08
695.462	13894.79
695.808	13938.18
696.155	13870.38
696.501	13816.6
696.847	13819.09
697.193	13795.58
697.539	13786.77
697.885	13739.31
698.231	13712.65
698.577	13747
698.923	13686.89
699.269	13572.54
699.614	13473.11
699.96	13508.81
700.306	13481.02
700.651	13435.82
700.997	13488.25
701.342	13462.49
701.688	13427.01
702.033	13377.74
702.379	13443.05
702.724	13351.98
703.069	13323.96
703.415	13125.77
703.76	13218.42
704.105	13140.69
704.45	13230.85
704.795	13190.63
705.14	13204.41
705.485	13070.86
705.83	13028.37
706.175	13050.29
706.52	13121.25
706.865	12997.86
707.209	13000.58
707.554	12954.02
707.899	12996.73
708.243	12921.26
708.588	12843.52
708.932	12808.94
709.277	12798.77
709.621	12773.92
709.966	12723.97
710.31	12698.21
710.654	12699.57
710.998	12695.05
711.342	12706.57
711.687	12646.91
712.031	12611.21
712.375	12608.5
712.719	12609.17
713.063	12576.63
713.407	12681.04
713.75	12567.14
714.094	12527.14
714.438	12462.06
714.782	12522.4
715.125	12412.12
715.469	12525.79
715.812	12450.76
716.156	12365.79
716.499	12358.11
716.843	12343.42
717.186	12327.6
717.53	12333.48
717.873	12417.77
718.216	12351.33
718.559	12267.94
718.902	12202.18
719.246	12215.29
719.589	12290.31
719.932	12231.33
720.275	12154.72
720.617	12184.1
720.96	12106.36
721.303	12108.4
721.646	12085.57
721.989	12071.11
722.331	12116.08
722.674	12098.68
723.016	12149.98
723.359	12166.93
723.701	12095.06
724.044	11981.85
724.386	12022.3
724.729	12081.05
725.071	12064.33
725.413	11992.47
725.755	12032.69
726.097	11988.63
726.439	11946.14
726.782	11935.75
727.124	12014.61
727.465	11893.94
727.807	11979.59
728.149	11922.19
728.491	11833.38
728.833	11877.22
729.175	11883.32
729.516	11900.49
729.858	11801.51
730.199	11931.68
730.541	11819.82
730.882	11783.66
731.224	11852.13
731.565	11740.04
731.906	11767.61
732.248	11834.96
732.589	11692.81
732.93	11731.01
733.271	11749.99
733.612	11743.43
733.953	11837.89
734.294	11771.91
734.635	11718.12
734.976	11756.99
735.317	11721.97
735.658	11631.8
735.999	11663.21
736.339	11714.51
736.68	11699.82
737.021	11671.57
737.361	11598.35
737.702	11649.2
738.042	11621.86
738.383	11662.08
738.723	11694.85
739.063	11598.35
739.404	11695.07
739.744	11633.38
740.084	11555.42
740.424	11614.85
740.764	11633.83
741.104	11566.04
741.444	11600.61
741.784	11525.59
742.124	11557.9
742.464	11577.34
742.804	11566.26
743.143	11420.5
743.483	11554.96
743.823	11502.08
744.162	11508.86
744.502	11527.85
744.841	11491.46
745.181	11575.98
745.52	11380.73
745.86	11394.74
746.199	11485.14
746.538	11411.01
746.877	11470.22
747.216	11469.32
747.556	11470.67
747.895	11382.77
748.234	11344.12
748.573	11400.84
748.911	11343.9
749.25	11391.35
749.589	11335.99
749.928	11390.45
750.267	11351.35
750.605	11395.19
750.944	11368.3
751.283	11366.72
751.621	11364.24
751.96	11237.46
752.298	11239.04
752.636	11314.52
752.975	11227.74
753.313	11168.76
753.651	11213.05
753.989	11161.98
754.327	11200.4
754.666	11116.78
755.004	11204.92
755.342	11140.51
755.679	11114.07
756.017	11128.76
756.355	11169.21
756.693	11079.95
757.031	11040.18
757.368	11060.74
757.706	11086.73
758.044	11067.52
758.381	11021.42
758.719	10957.24
759.056	11004.92
759.394	10978.71
759.731	10866.17
760.068	10925.6
