Data from cardboard_FLMS001491_024.txt Node
Date: Tue Feb 07 11:39:10 GMT 2017
User: dcchb
Spectrometer: FLMS00149
Trigger mode: 0
Integration Time (sec): 2.000000E-2
Scans to average: 10
Electric dark correction enabled: true
Nonlinearity correction enabled: false
Boxcar width: 0
XAxis mode: Wavelengths
Number of Pixels in Spectrum: 2048
>>>>>Begin Spectral Data<<<<<
341.393	-27.73
341.776	-27.73
342.16	-27.73
342.543	-55.07
342.927	-83.09
343.31	-77.67
343.693	-83.32
344.077	-60.94
344.46	-40.61
344.843	-62.53
345.226	-42.87
345.61	-20.95
345.993	-18.01
346.376	-1.06
346.759	16.57
347.142	29.67
347.525	31.26
347.908	51.14
348.291	93.63
348.674	75.1
349.057	110.58
349.44	124.81
349.823	137.92
350.206	156.45
350.588	182.89
350.971	204.81
351.354	193.74
351.737	207.75
352.119	239.61
352.502	235.32
352.884	272.83
353.267	246.62
353.65	292.72
354.032	287.52
354.414	271.7
354.797	300.18
355.179	297.24
355.562	308.76
355.944	281.65
356.326	307.86
356.709	304.7
357.091	311.25
357.473	332.27
357.855	308.54
358.238	330.68
358.62	314.19
359.002	298.37
359.384	330.68
359.766	311.93
360.148	312.6
360.53	329.78
360.912	308.09
361.294	305.37
361.676	317.35
362.057	293.17
362.439	297.01
362.821	308.31
363.203	297.46
363.584	316.45
363.966	308.09
364.348	290.91
364.729	306.5
365.111	292.72
365.493	293.85
365.874	302.66
366.256	301.53
366.637	282.78
367.019	296.79
367.4	297.01
367.781	284.58
368.163	299.5
368.544	279.39
368.925	288.65
369.306	289.33
369.688	291.36
370.069	290.23
370.45	290.01
370.831	287.07
371.212	279.61
371.593	290.68
371.974	289.1
372.355	276.67
372.736	319.16
373.117	302.21
373.498	294.07
373.879	291.59
374.26	301.08
374.641	293.4
375.021	274.41
375.402	294.53
375.783	299.95
376.163	289.55
376.544	290.01
376.925	325.26
377.305	322.55
377.686	295.2
378.066	316.9
378.447	310.57
378.827	299.27
379.208	313.73
379.588	294.75
379.968	311.02
380.349	300.18
380.729	297.92
381.109	310.34
381.489	306.73
381.87	314.64
382.25	323.45
382.63	298.37
383.01	306.5
383.39	316.67
383.77	321.42
384.15	309.22
384.53	329.1
384.91	320.29
385.29	332.94
385.67	332.94
386.049	330.01
386.429	309.67
386.809	321.42
387.189	322.55
387.568	326.62
387.948	314.86
388.328	319.84
388.707	329.33
389.087	310.8
389.466	336.33
389.846	312.83
390.225	313.06
390.605	329.78
390.984	355.32
391.363	311.25
391.743	330.23
392.122	352.83
392.501	325.26
392.881	365.71
393.26	314.64
393.639	348.08
394.018	353.06
394.397	322.32
394.776	334.07
395.155	345.37
395.534	343.11
395.913	351.7
396.292	344.02
396.671	353.73
397.05	342.43
397.429	352.83
397.808	364.81
398.186	350.8
398.565	345.15
398.944	334.98
399.323	339.27
399.701	355.99
400.08	360.51
400.458	358.48
400.837	350.12
401.215	367.07
401.594	359.38
401.972	370.68
402.351	355.99
402.729	375.43
403.107	353.73
403.486	385.37
403.864	353.73
404.242	373.62
404.62	371.81
404.999	394.64
405.377	372.49
405.755	392.83
406.133	386.05
406.511	367.97
406.889	409.78
407.267	372.26
407.645	373.85
408.023	382.66
408.401	379.72
408.779	376.11
409.156	380.85
409.534	395.99
409.912	404.35
410.29	394.64
410.667	397.35
411.045	410.91
411.422	415.43
411.8	401.19
412.178	406.16
412.555	434.18
412.933	415.65
413.31	395.99
413.687	411.36
414.065	442.54
414.442	422.88
414.819	422.43
415.197	438.48
415.574	451.58
415.951	449.1
416.328	445.03
416.705	439.83
417.082	430.57
417.46	456.33
417.837	442.32
418.214	434.41
418.591	454.75
418.967	452.71
419.344	450.23
419.721	438.7
420.098	446.61
420.475	452.94
420.852	453.39
421.228	454.52
421.605	483.67
421.982	474.18
422.358	460.17
422.735	482.77
423.111	501.3
423.488	476.67
423.864	478.25
424.241	508.76
424.617	480.96
424.994	485.26
425.37	515.09
425.746	487.06
426.123	500.4
426.499	486.39
426.875	501.3
427.251	496.1
427.627	513.28
428.003	524.8
428.379	508.08
428.756	527.29
429.132	544.69
429.507	530.68
429.883	533.62
430.259	534.07
430.635	541.07
431.011	544.46
431.387	542.2
431.763	579.04
432.138	570.23
432.514	532.49
432.89	563.22
433.265	559.6
433.641	574.74
434.016	588.98
434.392	590.34
434.767	591.24
435.143	590.34
435.518	610.22
435.894	602.54
436.269	615.87
436.644	591.24
437.02	604.12
437.395	607.29
437.77	620.39
438.145	601.41
438.52	607.51
438.895	641.18
439.271	641.18
439.646	636.21
440.021	663.33
440.395	639.38
440.77	618.81
441.145	652.48
441.52	644.57
441.895	647.29
442.27	669.21
442.645	665.59
443.019	643.22
443.394	648.42
443.769	664.69
444.143	666.95
444.518	672.6
444.892	694.06
445.267	683.89
445.641	692.26
446.016	681.63
446.39	713.5
446.764	701.52
447.139	673.73
447.513	723.44
447.887	720.5
448.262	712.14
448.636	721.18
449.01	717.34
449.384	751.92
449.758	717.79
450.132	718.47
450.506	762.76
450.88	748.98
451.254	757.34
451.628	742.42
452.002	772.71
452.376	766.15
452.75	777.9
453.123	761.86
453.497	767.96
453.871	795.08
454.244	792.82
454.618	800.95
454.992	816.77
455.365	824
455.739	832.37
456.112	840.5
456.486	832.37
456.859	831.91
457.232	841.4
457.606	853.61
457.979	895.87
458.352	870.1
458.725	862.19
459.099	896.09
459.472	925.02
459.845	882.08
460.218	914.85
460.591	917.11
460.964	924.79
461.337	941.74
461.71	962.53
462.083	966.6
462.456	971.34
462.829	959.37
463.201	966.6
463.574	957.56
463.947	1002.08
464.32	1009.31
464.692	1003.43
465.065	1026.26
465.438	1028.07
465.81	1050.66
466.183	1034.17
466.555	1048.63
466.928	1069.65
467.3	1082.53
467.672	1075.75
468.045	1097.22
468.417	1106.48
468.789	1111
469.161	1142.19
469.534	1139.93
469.906	1152.13
470.278	1152.58
470.65	1161.17
471.022	1214.73
471.394	1236.87
471.766	1232.58
472.138	1229.87
472.51	1239.81
472.882	1268.29
473.253	1299.02
473.625	1295.86
473.997	1304.44
474.369	1332.92
474.74	1327.49
475.112	1377.44
475.484	1362.52
475.855	1410.88
476.227	1433.93
476.598	1443.87
476.97	1480.94
477.341	1493.36
477.713	1491.33
478.084	1519.8
478.455	1545.57
478.827	1579.01
479.198	1614.49
479.569	1618.56
479.94	1631.89
480.311	1674.15
480.682	1685.45
481.053	1740.82
481.424	1771.55
481.795	1770.19
482.166	1799.57
482.537	1837.08
482.908	1849.74
483.279	1868.04
483.65	1892.9
484.021	1914.14
484.391	1953.69
484.762	1968.15
485.133	1970.41
485.503	2003.63
485.874	2042.73
486.244	2053.58
486.615	2125.66
486.985	2135.38
487.356	2171.76
487.726	2165.89
488.097	2248.37
488.467	2239.79
488.837	2295.83
489.207	2321.59
489.578	2333.12
489.948	2404.98
490.318	2373.12
490.688	2410.18
491.058	2421.93
491.428	2470.51
491.798	2505.32
492.168	2546.9
492.538	2588.93
492.908	2610.62
493.278	2585.31
493.648	2654.01
494.017	2675.48
494.387	2743.28
494.757	2749.15
495.126	2756.83
495.496	2762.48
495.866	2836.83
496.235	2852.65
496.605	2838.87
496.974	2905.3
497.344	2891.07
497.713	2961.35
498.082	2976.26
498.452	3010.84
498.821	3003.38
499.19	3045.41
499.559	3121.8
499.928	3051.74
500.298	3110.05
500.667	3163.6
501.036	3164.06
501.405	3226.88
501.774	3236.82
502.143	3229.82
502.512	3309.81
502.88	3317.5
503.249	3315.46
503.618	3370.83
503.987	3390.94
504.356	3391.39
504.724	3446.53
505.093	3458.96
505.462	3459.64
505.83	3516.14
506.199	3563.59
506.567	3546.87
506.936	3600.65
507.304	3627.77
507.672	3668.67
508.041	3730.37
508.409	3716.36
508.777	3742.35
509.145	3794.77
509.514	3801.1
509.882	3814.89
510.25	3842.68
510.618	3882.91
510.986	3863.02
511.354	3962.45
511.722	4015.56
512.09	4057.37
512.458	4085.61
512.826	4064.6
513.193	4109.79
513.561	4150.7
513.929	4199.51
514.297	4221.88
514.664	4279.51
515.032	4275.89
515.4	4364.93
515.767	4380.52
516.135	4379.84
516.502	4401.54
516.869	4484.25
517.237	4523.79
517.604	4503.91
517.972	4587.52
518.339	4594.53
518.706	4674.98
519.073	4693.73
519.44	4679.5
519.808	4774.63
520.175	4759.49
520.542	4845.59
520.909	4893.5
521.276	4917.23
521.643	4990
522.009	5034.51
522.376	5107.96
522.743	5079.49
523.11	5170.78
523.477	5269.54
523.843	5244.23
524.21	5295.52
524.577	5334.39
524.943	5402.87
525.31	5441.74
525.676	5487.38
526.043	5535.74
526.409	5551.56
526.776	5675.85
527.142	5654.39
527.508	5709.53
527.874	5750.88
528.241	5774.38
528.607	5825.91
528.973	5882.63
529.339	5906.13
529.705	6025.22
530.071	6042.17
530.437	6069.29
530.803	6098.22
531.169	6192
531.535	6146.35
531.901	6243.52
532.267	6317.87
532.632	6341.15
532.998	6328.27
533.364	6433.8
533.73	6483.97
534.095	6519.45
534.461	6558.77
534.826	6632.44
535.192	6660.69
535.557	6706.33
535.923	6732.77
536.288	6763.73
536.653	6836.5
537.019	6782.27
537.384	6865.43
537.749	6886.9
538.114	6946.1
538.479	7022.94
538.845	6974.8
539.21	7053.9
539.575	7051.64
539.94	7109.94
540.305	7148.81
540.67	7140
541.034	7245.53
541.399	7317.84
541.764	7310.39
542.129	7370.95
542.494	7416.82
542.858	7443.94
543.223	7437.16
543.587	7618.85
543.952	7560.78
544.316	7616.82
544.681	7639.42
545.045	7678.51
545.41	7728.91
545.774	7759.41
546.138	7762.58
546.503	7736.36
546.867	7892.74
547.231	7976.81
547.595	7971.84
547.959	8031.72
548.324	7999.63
548.688	8054.55
549.052	8140.2
549.416	8169.12
549.779	8191.27
550.143	8250.25
550.507	8318.72
550.871	8316.69
551.235	8335.67
551.599	8419.06
551.962	8506.51
552.326	8510.13
552.689	8511.49
553.053	8501.09
553.417	8631.48
553.78	8671.93
554.143	8758.03
554.507	8779.05
554.87	8820.4
555.234	8948.76
555.597	8885.94
555.96	8946.28
556.323	8977.91
556.686	9012.49
557.05	9107.85
557.413	9124.58
557.776	9131.13
558.139	9273.05
558.502	9276.44
558.865	9297
559.228	9348.3
559.59	9457.22
559.953	9506.04
560.316	9585.13
560.679	9622.42
561.041	9632.59
561.404	9697.44
561.767	9840.49
562.129	9816.31
562.492	9951.45
562.854	9975.4
563.217	9982.41
563.579	10001.62
563.941	10096.08
564.304	10181.95
564.666	10228.28
565.028	10270.08
565.39	10287.26
565.753	10397.09
566.115	10473.92
566.477	10454.71
566.839	10584.43
567.201	10647.02
567.563	10715.04
567.925	10784.87
568.287	10798.2
568.648	10818.32
569.01	10875.04
569.372	10967.01
569.734	10984.64
570.095	11108.93
570.457	11177.4
570.819	11130.63
571.18	11211.98
571.542	11223.05
571.903	11281.81
572.265	11376.04
572.626	11326.78
572.987	11451.75
573.349	11488.81
573.71	11527.9
574.071	11525.87
574.432	11664.4
574.794	11719.54
575.155	11779.42
575.516	11763.15
575.877	11819.42
576.238	11836.14
576.599	11884.05
576.96	11883.6
577.32	11946.88
577.681	11974.67
578.042	11997.5
578.403	12033.2
578.763	12085.85
579.124	12166.3
579.485	12084.05
579.845	12253.76
580.206	12191.61
580.566	12196.36
580.927	12256.7
581.287	12354.1
581.648	12395
582.008	12477.71
582.368	12351.84
582.728	12486.3
583.089	12469.57
583.449	12418.73
583.809	12509.35
584.169	12617.14
584.529	12626.18
584.889	12695.1
585.249	12701.88
585.609	12622.11
585.969	12774.2
586.329	12686.06
586.688	12709.57
587.048	12737.36
587.408	12754.54
587.768	12765.84
588.127	12795.44
588.487	12781.2
588.846	12876.12
589.206	12882.44
589.565	12814.2
589.925	12918.83
590.284	12859.62
590.643	12959.05
591.003	12969
591.362	13134.41
591.721	12947.3
592.08	13056
592.44	13097.35
592.799	13009.67
593.158	13108.88
593.517	13132.61
593.876	13119.5
594.235	13111.36
594.593	13199.72
594.952	13222.32
595.311	13185.71
595.67	13168.99
596.029	13366.5
596.387	13256.9
596.746	13410.11
597.104	13355.2
597.463	13300.29
597.822	13348.87
598.18	13333.51
598.538	13322.21
598.897	13441.75
599.255	13395.2
599.613	13571.92
599.972	13464.58
600.33	13538.02
600.688	13508.64
601.046	13615.76
601.404	13606.72
601.762	13587.28
602.12	13620.96
602.478	13747.05
602.836	13659.82
603.194	13655.76
603.552	13685.36
603.91	13663.21
604.268	13721.29
604.625	13760.61
604.983	13816.43
605.341	13843.1
605.698	13860.5
606.056	13899.59
606.413	13935.52
606.771	13968.97
607.128	14002.41
607.485	13907.05
607.843	13957.22
608.2	14130.55
608.557	14027.95
608.914	14095.52
609.272	14125.12
609.629	14192.47
609.986	14232.01
610.343	14145.24
610.7	14274.95
611.057	14249.41
611.414	14263.65
611.771	14302.97
612.127	14386.81
612.484	14326.93
612.841	14415.74
613.198	14424.55
613.554	14326.25
613.911	14573.92
614.267	14466.58
614.624	14462.74
614.98	14586.81
615.337	14644.88
615.693	14638.1
616.05	14620.25
616.406	14702.06
616.762	14605.56
617.118	14684.2
617.475	14665.22
617.831	14681.04
618.187	14794.26
618.543	14781.15
618.899	14935.27
619.255	14901.6
619.611	14955.84
619.967	14882.62
620.323	14903.41
620.678	14897.76
621.034	14880.58
621.39	14890.53
621.746	14911.99
622.101	15040.35
622.457	14903.41
622.812	15021.14
623.168	15005.78
623.523	15052.56
623.879	15095.04
624.234	14954.25
624.589	15039.45
624.945	15071.31
625.3	15132.33
625.655	15076.51
626.01	15093.91
626.365	15139.56
626.72	15198.77
627.075	15165.32
627.43	15131.42
627.785	15173.91
628.14	15166
628.495	15206.9
628.85	15084.87
629.205	15095.27
629.559	15202.38
629.914	15176.62
630.269	15208.26
630.623	15118.32
630.978	15145.89
631.332	15250.97
631.687	15196.06
632.041	15213.46
632.396	15194.47
632.75	15095.27
633.104	15205.32
633.459	15120.35
633.813	15085.55
634.167	15232.89
634.521	14989.06
634.875	15118.54
635.229	15133.91
635.583	15156.96
635.937	15140.01
636.291	15071.99
636.645	15162.38
636.999	15064.99
637.352	15137.07
637.706	15035.83
638.06	15122.61
638.413	15102.72
638.767	15077.87
639.121	15079.9
639.474	15074.25
639.828	15002.16
640.181	15072.89
640.534	15091.88
640.888	15093.69
641.241	14988.38
641.594	15024.31
641.947	15037.64
642.301	15003.07
642.654	15081.48
643.007	15080.13
643.36	15089.39
643.713	15009.85
644.066	15101.82
644.419	14993.8
644.771	14945.89
645.124	14731.66
645.477	14634.04
645.83	14577.31
646.182	14657.54
646.535	14540.03
646.888	14647.37
647.24	14608.73
647.593	14507.26
647.945	14587.26
648.298	14544.55
648.65	14514.49
649.002	14562.17
649.355	14556.52
649.707	14556.75
650.059	14601.72
650.411	14808.72
650.763	14801.26
651.115	14985.67
651.467	14987.25
651.819	14952.22
652.171	14995.38
652.523	14898.66
652.875	14883.97
653.227	14861.83
653.578	14996.29
653.93	15016.4
654.282	14864.99
654.633	14851.88
654.985	14885.78
655.337	14891.88
655.688	14862.28
656.039	14925.1
656.391	14813.47
656.742	14871.54
657.094	14852.56
657.445	14900.02
657.796	14875.16
658.147	14831.55
658.498	14825.67
658.849	14997.19
659.2	14854.6
659.551	14848.72
659.902	14940.69
660.253	14895.27
660.604	14897.53
660.955	14853.01
661.306	14949.51
661.656	14922.84
662.007	14879.45
662.358	14942.5
662.708	14956.29
663.059	14879.23
663.409	14873.58
663.76	14994.25
664.11	14932.11
664.461	14882.84
664.811	14909.06
665.161	14974.14
665.511	14958.55
665.862	15026.57
666.212	14999.45
666.562	15057.53
666.912	14966.23
667.262	14860.02
667.612	14916.06
667.962	14921.94
668.312	14900.7
668.662	14970.3
669.011	14921.03
669.361	14979.34
669.711	14991.77
670.06	14970.98
670.41	14965.78
670.76	14994.93
671.109	14987.25
671.459	14933.24
671.808	14850.98
672.157	14959.68
672.507	14938.43
672.856	14922.39
673.205	14874.71
673.554	15016.4
673.904	14946.34
674.253	14995.16
674.602	14913.58
674.951	14684.88
675.3	14697.76
675.649	14932.79
675.998	14930.53
676.346	14886.23
676.695	14902.05
677.044	14819.34
677.393	14930.3
677.741	14878.78
678.09	14905.22
678.438	14846.01
678.787	14866.35
679.135	14834.71
679.484	14824.99
679.832	14931.43
680.181	14904.99
680.529	14829.29
680.877	14809.4
681.225	14701.15
681.573	14977.53
681.922	14736.86
682.27	14768.95
682.618	14734.15
682.966	14752.9
683.314	14704.32
683.661	14741.83
684.009	14659.35
684.357	14606.01
684.705	14501.61
685.053	14644.21
685.4	14617.09
685.748	14520.14
686.095	14490.54
686.443	14542.97
686.79	14520.59
687.138	14567.37
687.485	14581.16
687.832	14533.02
688.18	14528.95
688.527	14467.71
688.874	14407.15
689.221	14473.14
689.568	14291.22
689.915	14285.57
690.262	14339.13
690.609	14303.42
690.956	14280.15
691.303	14266.14
691.65	14149.53
691.997	14131.22
692.344	14125.8
692.69	14133.48
693.037	14219.36
693.383	14031.57
693.73	14060.94
694.077	13998.12
694.423	14001.28
694.769	14019.81
695.116	13930.55
695.462	13933.72
695.808	13870.21
696.155	13962.87
696.501	13805.36
696.847	13815.75
697.193	13804
697.539	13806.94
697.885	13694.63
698.231	13736.43
698.577	13646.04
698.923	13590.22
699.269	13629.54
699.614	13536.44
699.96	13525.59
700.306	13535.53
700.651	13481.07
700.997	13312.71
701.342	13388.65
701.688	13407.63
702.033	13384.8
702.379	13371.7
702.724	13349.32
703.069	13307.74
703.415	13165.15
703.76	13230.01
704.105	13271.36
704.45	13171.25
704.795	13117.92
705.14	13103.91
705.485	13074.3
705.83	13028.43
706.175	12990.69
706.52	12934.65
706.865	13028.43
707.209	13012.16
707.554	12946.4
707.899	12949.11
708.243	12860.3
708.588	12884.93
708.932	12828.43
709.277	12844.48
709.621	12800.64
709.966	12742.33
710.31	12724.03
710.654	12650.59
710.998	12725.39
711.342	12706.4
711.687	12613.98
712.031	12619.85
712.375	12584.82
712.719	12585.95
713.063	12584.6
713.407	12592.96
713.75	12569.23
714.094	12531.04
714.438	12483.58
714.782	12463.02
715.125	12468.22
715.469	12452.17
715.812	12436.13
716.156	12348.45
716.499	12343.02
716.843	12411.72
717.186	12412.4
717.53	12317.03
717.873	12337.83
718.216	12363.36
718.559	12244.27
718.902	12201.11
719.246	12279.75
719.589	12201.78
719.932	12147.77
720.275	12181.22
720.617	12158.62
720.96	12147.32
721.303	12177.15
721.646	12228.45
721.989	12135.12
722.331	12221.44
722.674	12107.55
723.016	12154.33
723.359	12141.22
723.701	12084.5
724.044	11983.94
724.386	11972.86
724.729	12036.82
725.071	11982.58
725.413	12076.14
725.755	11958.17
726.097	11979.64
726.439	11908.91
726.782	12004.95
727.124	11986.87
727.465	11962.02
727.807	11891.96
728.149	11826.2
728.491	11841.79
728.833	11893.32
729.175	11815.35
729.516	11910.49
729.858	11873.43
730.199	11844.28
730.541	11830.27
730.882	11795.92
731.224	11789.37
731.565	11733.32
731.906	11766.09
732.248	11781
732.589	11651.97
732.93	11696.03
733.271	11763.6
733.612	11728.12
733.953	11777.61
734.294	11745.3
734.635	11655.58
734.976	11762.47
735.317	11685.41
735.658	11632.76
735.999	11702.59
736.339	11718.86
736.68	11709.37
737.021	11674.11
737.361	11618.07
737.702	11681.8
738.042	11604.29
738.383	11632.31
738.723	11707.79
739.063	11630.5
739.404	11678.18
739.744	11569.48
740.084	11527.23
740.424	11645.64
740.764	11583.04
741.104	11592.08
741.444	11558.64
741.784	11519.77
742.124	11578.52
742.464	11568.58
742.804	11534.68
743.143	11514.8
743.483	11570.84
743.823	11523.61
744.162	11467.34
744.502	11491.97
744.841	11500.11
745.181	11534.91
745.52	11449.71
745.86	11469.6
746.199	11448.36
746.538	11472.99
746.877	11458.3
747.216	11497.85
747.556	11442.48
747.895	11425.98
748.234	11404.29
748.573	11362.48
748.911	11325.42
749.25	11424.18
749.589	11317.51
749.928	11405.65
750.267	11371.75
750.605	11315.25
750.944	11349.15
751.283	11192.54
751.621	11295.37
751.96	11281.58
752.298	11330.62
752.636	11278.87
752.975	11232.77
753.313	11235.93
753.651	11250.85
753.989	11115.71
754.327	11219.44
754.666	11201.58
755.004	11175.37
755.342	11134.24
755.679	11129.04
756.017	11149.38
756.355	11080.46
756.693	11078.42
757.031	11117.07
757.368	11065.99
757.706	11021.93
758.044	10951.42
758.381	11051.31
758.719	10964.75
759.056	10982.61
759.394	10923.63
759.731	10955.71
760.068	10892.89
760.405	10872.78
