Data from cardboard_FLMS001491_083.txt Node
Date: Tue Feb 07 11:40:16 GMT 2017
User: dcchb
Spectrometer: FLMS00149
Trigger mode: 0
Integration Time (sec): 2.000000E-2
Scans to average: 10
Electric dark correction enabled: true
Nonlinearity correction enabled: false
Boxcar width: 0
XAxis mode: Wavelengths
Number of Pixels in Spectrum: 2048
>>>>>Begin Spectral Data<<<<<
341.393	-37.06
341.776	-37.06
342.16	-37.06
342.543	-55.59
342.927	-70.96
343.31	-81.81
343.693	-69.83
344.077	-49.94
344.46	-66.21
344.843	-57.17
345.226	-28.93
345.61	-33.67
345.993	-32.99
346.376	-0.68
346.759	13.78
347.142	10.62
347.525	56.95
347.908	69.83
348.291	71.41
348.674	90.39
349.057	108.25
349.44	133.1
349.823	157.74
350.206	152.54
350.588	201.12
350.971	213.1
351.354	217.62
351.737	235.02
352.119	248.58
352.502	239.54
352.884	266.21
353.267	283.16
353.65	287.45
354.032	289.48
354.414	295.13
354.797	312.76
355.179	328.8
355.562	319.54
355.944	315.92
356.326	322.48
356.709	332.65
357.091	340.1
357.473	339.2
357.855	340.33
358.238	336.94
358.62	329.71
359.002	359.31
359.384	352.08
359.766	346.88
360.148	341.01
360.53	339.43
360.912	352.08
361.294	333.32
361.676	345.75
362.057	335.13
362.439	340.78
362.821	323.61
363.203	338.3
363.584	320.22
363.966	310.73
364.348	334.68
364.729	328.35
365.111	327
365.493	319.54
365.874	342.36
366.256	331.52
366.637	318.86
367.019	319.31
367.4	310.27
367.781	290.61
368.163	324.74
368.544	305.98
368.925	312.99
369.306	323.16
369.688	309.82
370.069	312.99
370.45	301.91
370.831	308.24
371.212	314.34
371.593	314.79
371.974	328.13
372.355	326.77
372.736	319.31
373.117	305.75
373.498	327
373.879	319.99
374.26	311.18
374.641	303.04
375.021	320.9
375.402	313.89
375.783	304.4
376.163	332.19
376.544	323.83
376.925	319.54
377.305	324.96
377.686	350.27
378.066	339.43
378.447	344.17
378.827	348.24
379.208	334.91
379.588	338.3
379.968	329.03
380.349	351.4
380.729	348.01
381.109	342.82
381.489	351.63
381.87	338.07
382.25	351.63
382.63	351.4
383.01	369.03
383.39	363.61
383.77	375.36
384.15	365.41
384.53	350.95
384.91	360.44
385.29	364.28
385.67	378.52
386.049	368.8
386.429	364.51
386.809	361.57
387.189	378.75
387.568	373.1
387.948	375.36
388.328	382.36
388.707	364.28
389.087	376.04
389.466	380.55
389.846	370.61
390.225	378.97
390.605	376.04
390.984	389.14
391.363	392.76
391.743	385.07
392.122	396.15
392.501	386.66
392.881	410.61
393.26	400.67
393.639	389.59
394.018	404.74
394.397	399.99
394.776	399.54
395.155	409.93
395.534	393.89
395.913	403.38
396.292	420.78
396.671	396.6
397.05	418.07
397.429	420.78
397.808	403.38
398.186	435.02
398.565	421.68
398.944	429.59
399.323	433.21
399.701	439.31
400.08	438.18
400.458	413.1
400.837	435.24
401.215	430.27
401.594	429.59
401.972	444.73
402.351	420.55
402.729	446.54
403.107	443.6
403.486	437.5
403.864	451.06
404.242	435.69
404.62	478.86
404.999	449.93
405.377	475.02
405.755	462.13
406.133	488.8
406.511	469.59
406.889	477.95
407.267	478.41
407.645	491.06
408.023	487.44
408.401	507.78
408.779	503.04
409.156	503.26
409.534	525.18
409.912	521.57
410.29	542.58
410.667	519.31
411.045	542.81
411.422	522.92
411.8	549.14
412.178	547.1
412.555	563.15
412.933	548.23
413.31	534.22
413.687	571.96
414.065	563.83
414.442	568.8
414.819	584.17
415.197	588.23
415.574	601.79
415.951	587.56
416.328	590.04
416.705	582.81
417.082	615.13
417.46	626.65
417.837	605.63
418.214	604.96
418.591	617.61
418.967	632.98
419.344	645.18
419.721	626.42
420.098	618.51
420.475	638.18
420.852	638.85
421.228	638.85
421.605	656.25
421.982	655.8
422.358	668.91
422.735	668.91
423.111	679.98
423.488	651.06
423.864	688.12
424.241	697.83
424.617	700.77
424.994	702.13
425.37	698.06
425.746	701.22
426.123	705.07
426.499	732.18
426.875	728.34
427.251	720.43
427.627	748.68
428.003	733.99
428.379	737.38
428.756	760.21
429.132	766.08
429.507	797.04
429.883	779.41
430.259	780.54
430.635	787.78
431.011	808.34
431.387	808.11
431.763	800.88
432.138	823.03
432.514	833.42
432.89	838.62
433.265	845.85
433.641	866.42
434.016	855.8
434.392	888.56
434.767	875.46
435.143	883.82
435.518	904.61
435.894	918.39
436.269	908.9
436.644	934.21
437.02	936.47
437.395	916.36
437.77	928.11
438.145	935.57
438.52	990.03
438.895	962.23
439.271	978.73
439.646	1012.18
440.021	1018.96
440.395	976.7
440.77	988.67
441.145	998.39
441.52	1021.89
441.895	1031.61
442.27	1049.69
442.645	1060.31
443.019	1052.4
443.394	1051.5
443.769	1062.57
444.143	1050.14
444.518	1072.97
444.892	1066.64
445.267	1098.5
445.641	1097.82
446.016	1109.12
446.39	1111.61
446.764	1131.5
447.139	1100.99
447.513	1126.75
447.887	1133.76
448.262	1150.7
448.636	1143.47
449.01	1157.71
449.384	1167.88
449.758	1183.92
450.132	1190.7
450.506	1201.78
450.88	1206.97
451.254	1173.53
451.628	1208.78
452.002	1214.66
452.376	1227.76
452.75	1260.53
453.123	1269.35
453.497	1291.49
453.871	1300.08
454.244	1283.36
454.618	1300.98
454.992	1339.63
455.365	1310.02
455.739	1358.16
456.112	1394.09
456.486	1378.72
456.859	1410.81
457.232	1415.33
457.606	1418.49
457.979	1451.71
458.352	1474.54
458.725	1493.97
459.099	1491.71
459.472	1491.26
459.845	1511.37
460.218	1529.68
460.591	1529.23
460.964	1540.3
461.337	1563.57
461.71	1605.61
462.083	1629.34
462.456	1617.81
462.829	1593.4
463.201	1654.65
463.574	1669.33
463.947	1696.23
464.32	1686.74
464.692	1768.32
465.065	1756.34
465.438	1764.7
465.81	1771.48
466.183	1816.45
466.555	1853.74
466.928	1879.95
467.3	1871.59
467.672	1912.04
468.045	1930.8
468.417	1948.2
468.789	1950.01
469.161	1996.11
469.534	2021.42
469.906	2055.31
470.278	2052.6
470.65	2096.44
471.022	2101.87
471.394	2137.12
471.766	2151.58
472.138	2225.03
472.51	2204.46
472.882	2266.83
473.253	2309.32
473.625	2309.09
473.997	2401.97
474.369	2419.6
474.74	2411.46
475.112	2453.04
475.484	2504.57
475.855	2572.81
476.227	2550.89
476.598	2636.31
476.97	2647.39
477.341	2714.96
477.713	2737.33
478.084	2788.4
478.455	2846.7
478.827	2876.53
479.198	2958.79
479.569	2948.85
479.94	3030.65
480.311	3083.76
480.682	3150.88
481.053	3204.66
481.424	3257.32
481.795	3253.7
482.166	3370.98
482.537	3396.75
482.908	3460.25
483.279	3484.88
483.65	3527.36
484.021	3653.92
484.391	3694.82
484.762	3696.17
485.133	3759.22
485.503	3848.71
485.874	3864.31
486.244	3926.45
486.615	4002.15
486.985	4067.92
487.356	4135.26
487.726	4149.27
488.097	4243.28
488.467	4251.19
488.837	4374.35
489.207	4391.97
489.578	4478.75
489.948	4539.99
490.318	4594.46
490.688	4596.94
491.058	4712.87
491.428	4744.96
491.798	4799.2
492.168	4908.8
492.538	4930.94
492.908	5018.63
493.278	5089.81
493.648	5137.04
494.017	5147.21
494.387	5210.94
494.757	5278.05
495.126	5383.36
495.496	5328
495.866	5451.61
496.235	5508.78
496.605	5520.31
496.974	5605.95
497.344	5649.79
497.713	5692.96
498.082	5800.07
498.452	5814.31
498.821	5829
499.19	5914.87
499.559	6022.67
499.928	6031.93
500.298	6036.45
500.667	6136.34
501.036	6116.45
501.405	6207.75
501.774	6282.55
502.143	6366.39
502.512	6414.07
502.88	6422.2
503.249	6497.46
503.618	6531.13
503.987	6581.3
504.356	6644.8
504.724	6686.83
505.093	6762.31
505.462	6781.52
505.83	6836.66
506.199	6916.43
506.567	7005.69
506.936	7021.96
507.304	7158.91
507.672	7203.65
508.041	7238.45
508.409	7291.79
508.777	7381.5
509.145	7438.67
509.514	7438.22
509.882	7560.93
510.25	7618.1
510.618	7583.53
510.986	7778.1
511.354	7846.8
511.722	7904.65
512.09	8021.71
512.458	8024.87
512.826	8019.68
513.193	8162.95
513.561	8179.67
513.929	8272.78
514.297	8401.36
514.664	8466.44
515.032	8508.48
515.4	8631.19
515.767	8658.08
516.135	8735.36
516.502	8703.27
516.869	8854
517.237	8979.42
517.604	8941.01
517.972	9061.23
518.339	9166.54
518.706	9253.09
519.073	9301
519.44	9361.34
519.808	9551.84
520.175	9464.38
520.542	9707.54
520.909	9811.72
521.276	9770.14
521.643	9894.43
522.009	10026.63
522.376	10150.24
522.743	10133.97
523.11	10297.13
523.477	10368.09
523.843	10458.71
524.21	10605.14
524.577	10682.2
524.943	10741.86
525.31	10870.9
525.676	10980.73
526.043	10976.43
526.409	11144.34
526.776	11359.7
527.142	11422.07
527.508	11451.68
527.874	11532.13
528.241	11583.42
528.607	11706.13
528.973	11896.41
529.339	11883.53
529.705	12033.58
530.071	12158.32
530.437	12271.99
530.803	12291.43
531.169	12471.08
531.535	12500.69
531.901	12607.13
532.267	12636.05
532.632	12820.23
532.998	12774.35
533.364	12939.55
533.73	13005.31
534.095	13175.47
534.461	13217.51
534.826	13314.9
535.192	13323.27
535.557	13580.89
535.923	13474.9
536.288	13644.16
536.653	13657.72
537.019	13768.9
537.384	13783.37
537.749	13904.72
538.114	14023.13
538.479	14059.29
538.845	14168.67
539.21	14230.36
539.575	14330.7
539.94	14349
540.305	14522.33
540.67	14580.63
541.034	14648.88
541.399	14725.94
541.764	14785.15
542.129	14898.14
542.494	14909.21
542.858	15014.07
543.223	15024.46
543.587	15141.52
543.952	15220.16
544.316	15356.21
544.681	15289.32
545.045	15359.6
545.41	15473.27
545.774	15552.13
546.138	15659.7
546.503	15719.81
546.867	15711.45
547.231	15986.92
547.595	15906.93
547.959	16112.8
548.324	16103.31
548.688	16351.43
549.052	16275.73
549.416	16305.11
549.779	16451.09
550.143	16527.02
550.507	16635.04
550.871	16778.77
551.235	16767.02
551.599	16919.1
551.962	17016.73
552.326	17075.94
552.689	17224.63
553.053	17160.68
553.417	17253.11
553.78	17524.51
554.143	17484.06
554.507	17663.72
554.87	17658.74
555.234	17893.54
555.597	17814.45
555.96	17959.53
556.323	18098.51
556.686	18089.02
557.05	18223.25
557.413	18327.2
557.776	18370.59
558.139	18429.12
558.502	18605.39
558.865	18721.54
559.228	18853.97
559.59	18908.43
559.953	19023.23
560.316	19251.47
560.679	19290.57
561.041	19392.48
561.404	19463.22
561.767	19633.83
562.129	19672.7
562.492	19966.48
562.854	20002.41
563.217	20011
563.579	20109.3
563.941	20367.83
564.304	20376.87
564.666	20547.71
565.028	20613.7
565.39	20674.03
565.753	20839.45
566.115	20927.81
566.477	21080.12
566.839	21171.87
567.201	21303.17
567.563	21424.52
567.925	21535.7
568.287	21643.27
568.648	21698.41
569.01	21882.59
569.372	21937.95
569.734	21969.14
570.095	22095.46
570.457	22308.11
570.819	22312.63
571.18	22500.65
571.542	22506.3
571.903	22599.63
572.265	22728.89
572.626	22896.8
572.987	22888.66
573.349	22923.69
573.71	23177.24
574.071	23214.08
574.432	23320.52
574.794	23497.69
575.155	23560.96
575.516	23487.07
575.877	23615.88
576.238	23691.13
576.599	23769.54
576.96	23871.01
577.32	23864.91
577.681	23978.35
578.042	24034.85
578.403	24143.32
578.763	24208.4
579.124	24273.71
579.485	24478
579.845	24400.49
580.206	24498.56
580.566	24555.06
580.927	24521.84
581.287	24759.35
581.648	24671.89
582.008	24745.34
582.368	24810.42
582.728	24846.13
583.089	24797.99
583.449	25028.95
583.809	25004.99
584.169	25158.43
584.529	25016.07
584.889	25204.31
585.249	25160.92
585.609	25053.13
585.969	25377.86
586.329	25263.29
586.688	25230.3
587.048	25385.55
587.408	25284.31
587.768	25481.59
588.127	25419.9
588.487	25480.01
588.846	25582.15
589.206	25623.06
589.565	25619.21
589.925	25656.27
590.284	25728.36
590.643	25735.82
591.003	25964.52
591.362	25958.19
591.721	25945.53
592.08	25919.32
592.44	26021.01
592.799	26090.39
593.158	26024.17
593.517	26018.07
593.876	26148.69
594.235	26014.23
594.593	26270.72
594.952	26275.24
595.311	26125.87
595.67	26301
596.029	26390.94
596.387	26563.6
596.746	26524.95
597.104	26458.06
597.463	26508
597.822	26597.04
598.18	26476.82
598.538	26575.8
598.897	26719.98
599.255	26590.49
599.613	26992.51
599.972	26779.18
600.33	26961.32
600.688	26806.53
601.046	26898.05
601.404	26975.11
601.762	27032.28
602.12	27128.55
602.478	27214.43
602.836	27184.6
603.194	27073.86
603.552	27259.17
603.91	27138.04
604.268	27267.98
604.625	27131.04
604.983	27424.36
605.341	27230.24
605.698	27392.73
606.056	27493.06
606.413	27430.47
606.771	27535.32
607.128	27654.41
607.485	27544.81
607.843	27719.27
608.2	27835.2
608.557	27992.03
608.914	27805.14
609.272	27856.89
609.629	27982.99
609.986	28140.05
610.343	28039.49
610.7	28222.76
611.057	28284.23
611.414	28241.29
611.771	28242.65
612.127	28354.96
612.484	28372.59
612.841	28362.19
613.198	28322.42
613.554	28384.11
613.911	28624.11
614.267	28538.23
614.624	28557.89
614.98	28563.09
615.337	28794.05
615.693	28734.39
616.05	28714.5
616.406	28974.15
616.762	28859.58
617.118	28879.01
617.475	28956.75
617.831	29060.25
618.187	28982.51
618.543	29179.8
618.899	29392.9
619.255	29138.67
619.611	29321.94
619.967	29358.32
620.323	29418.89
620.678	29376.4
621.034	29260.02
621.39	29286.46
621.746	29389.96
622.101	29644.42
622.457	29411.2
622.812	29654.14
623.168	29597.64
623.523	29569.84
623.879	29768.03
624.234	29552.67
624.589	29570.97
624.945	29728.71
625.3	29669.73
625.655	29659.56
626.01	29729.61
626.365	29707.24
626.72	29689.39
627.075	29660.69
627.43	29727.58
627.785	29717.18
628.14	29678.99
628.495	29779.56
628.85	29761.93
629.205	29703.85
629.559	29990.4
629.914	29674.25
630.269	29767.58
630.623	29789.05
630.978	29689.61
631.332	29767.58
631.687	29897.29
632.041	29744.3
632.396	29783.17
632.75	29758.54
633.104	29772.55
633.459	29700.24
633.813	29659.56
634.167	29678.99
634.521	29699.78
634.875	29761.93
635.229	29697.07
635.583	29600.58
635.937	29731.2
636.291	29646.45
636.645	29652.33
636.999	29486.46
637.352	29634.93
637.706	29481.94
638.06	29727.81
638.413	29408.49
638.767	29510.41
639.121	29523.07
639.474	29351.54
639.828	29429.96
640.181	29475.84
640.534	29504.99
640.888	29335.73
641.241	29304.09
641.594	29420.47
641.947	29335.5
642.301	29443.97
642.654	29399.45
643.007	29380.7
643.36	29316.74
643.713	29371.66
644.066	29354.48
644.419	29126.47
644.771	28916.3
645.124	28772.12
645.477	28789.07
645.83	28615.97
646.182	28414.85
646.535	28461.4
646.888	28488.97
647.24	28345.24
647.593	28549.98
647.945	28441.29
648.298	28386.6
648.65	28256.43
649.002	28163.55
649.355	28441.06
649.707	28307.5
650.059	28418.69
650.411	28788.85
650.763	28766.48
651.115	29036.52
651.467	28892.8
651.819	29047.15
652.171	28963.53
652.523	28976.41
652.875	28925.79
653.227	28707.95
653.578	29155.84
653.93	28914.04
654.282	28922.4
654.633	28846.93
654.985	28864.55
655.337	28996.07
655.688	28944.78
656.039	29265.22
656.391	28812.8
656.742	28904.55
657.094	28859.35
657.445	29087.37
657.796	28888.73
658.147	28884.66
658.498	28833.14
658.849	28962.18
659.2	28891.67
659.551	28887.15
659.902	28983.19
660.253	28863.2
660.604	28927.15
660.955	28916.75
661.306	28911.56
661.656	28956.75
662.007	28857.55
662.358	28959.69
662.708	28909.07
663.059	28945.45
663.409	28862.97
663.76	28947.04
664.11	29024.32
664.461	28992.91
664.811	28970.76
665.161	29042.85
665.511	28893.03
665.862	28965.79
666.212	29065.9
666.562	29112.45
666.912	29070.42
667.262	28959.69
667.612	28987.71
667.962	29025
668.312	28949.3
668.662	29166.46
669.011	29021.38
669.361	28900.93
669.711	28920.6
670.06	28956.98
670.41	28983.19
670.76	28914.95
671.109	29025
671.459	28942.74
671.808	28857.55
672.157	28938.9
672.507	28738.68
672.856	28747.04
673.205	28941.84
673.554	28917.43
673.904	28780.94
674.253	28994.04
674.602	28938.9
674.951	28383.66
675.3	28437.44
675.649	28846.7
675.998	28930.54
676.346	28775.74
676.695	28910.65
677.044	28663.43
677.393	28716.31
677.741	28796.08
678.09	28762.86
678.438	28651.9
678.787	28719.24
679.135	28737.78
679.484	28618.68
679.832	28716.53
680.181	28590.89
680.529	28686.25
680.877	28551.57
681.225	28499.59
681.573	28629.53
681.922	28475.18
682.27	28478.8
682.618	28492.13
682.966	28493.26
683.314	28475.86
683.661	28432.92
684.009	28196.32
684.357	28147.96
684.705	28208.3
685.053	28263.21
685.4	28207.62
685.748	28006.27
686.095	28091.92
686.443	27875.65
686.79	27932.82
687.138	27903.9
687.485	27943.9
687.832	27735.09
688.18	27908.87
688.527	27740.51
688.874	27873.39
689.221	27804.47
689.568	27613.51
689.915	27619.84
690.262	27630.23
690.609	27511.82
690.956	27384.14
691.303	27428.66
691.65	27361.31
691.997	27346.17
692.344	27152.05
692.69	27210.36
693.037	27115.45
693.383	27022.79
693.73	27165.61
694.077	26919.52
694.423	26937.6
694.769	26796.81
695.116	26790.03
695.462	26839.97
695.808	26699.18
696.155	26761.56
696.501	26496.25
696.847	26437.5
697.193	26290.61
697.539	26429.36
697.885	26283.6
698.231	26124.74
698.577	26188.69
698.923	26180.78
699.269	26150.05
699.614	25964.29
699.96	25897.4
700.306	25886.55
700.651	25804.52
700.997	25723.39
701.342	25682.26
701.688	25650.85
702.033	25727.23
702.379	25543.96
702.724	25445.21
703.069	25449.5
703.415	25260.58
703.76	25313.01
704.105	25292.89
704.45	25256.51
704.795	25106.01
705.14	25027.82
705.485	25023.07
705.83	24897.65
706.175	24986.91
706.52	24929.51
706.865	24802.74
707.209	24758.67
707.554	24598.45
707.899	24791.44
708.243	24701.27
708.588	24568.62
708.932	24425.35
709.277	24525.68
709.621	24409.3
709.966	24362.98
710.31	24390.55
710.654	24192.81
710.998	24227.84
711.342	24259.25
711.687	24144.45
712.031	24094.51
712.375	24058.35
712.719	24029.65
713.063	23964.57
713.407	24105.35
713.75	23888.64
714.094	23962.08
714.438	23889.32
714.782	23783.1
715.125	23800.96
715.469	23845.93
715.812	23727.06
716.156	23568.42
716.499	23636.67
716.843	23603.45
717.186	23536.1
717.53	23565.26
717.873	23680.06
718.216	23532.26
718.559	23398.93
718.902	23324.13
719.246	23452.26
719.589	23341.99
719.932	23240.97
720.275	23228.99
720.617	23201.65
720.96	23133.18
721.303	23186.96
721.646	23205.72
721.989	23050.92
722.331	23126.62
722.674	23069.22
723.016	23072.16
723.359	23072.16
723.701	23105.83
724.044	23033.29
724.386	22778.61
724.729	22989.23
725.071	22898.61
725.413	22779.51
725.755	22917.82
726.097	22869.68
726.439	22669.23
726.782	22677.14
727.124	22947.87
727.465	22660.42
727.807	22652.74
728.149	22685.05
728.491	22588.33
728.833	22660.42
729.175	22527.09
729.516	22512.18
729.858	22524.61
730.199	22588.11
730.541	22531.61
730.882	22436.47
731.224	22592.63
731.565	22369.81
731.906	22446.87
732.248	22459.3
732.589	22377.94
732.93	22255.01
733.271	22344.5
733.612	22336.36
733.953	22377.04
734.294	22253.43
734.635	22243.26
734.976	22342.46
735.317	22173.2
735.658	22187.89
735.999	22260.21
736.339	22234.22
736.68	22302.69
737.021	22087.55
737.361	22024.28
737.702	22184.95
738.042	22142.02
738.383	22063.37
738.723	22091.4
739.063	22087.78
739.404	22057.5
739.744	22004.17
740.084	21968.91
740.424	21926.66
740.764	21961.23
741.104	22061.11
741.444	21964.39
741.784	21862.93
742.124	21958.52
742.464	21972.3
742.804	21883.72
743.143	21903.15
743.483	21944.06
743.823	21782.7
744.162	21817.51
744.502	21870.39
744.841	21795.59
745.181	21798.75
745.52	21838.97
745.86	21924.4
746.199	21774.12
746.538	21792.2
746.877	21802.14
747.216	21811.18
747.556	21689.15
747.895	21843.49
748.234	21660.67
748.573	21704.51
748.911	21672.2
749.25	21625.19
749.589	21597.4
749.928	21735.47
750.267	21733.44
750.605	21600.79
750.944	21619.77
751.283	21435.82
751.621	21601.24
751.96	21521.02
752.298	21518.53
752.636	21482.37
752.975	21443.96
753.313	21478.53
753.651	21431.3
753.989	21325.99
754.327	21353.56
754.666	21309.5
755.004	21322.15
755.342	21411.87
755.679	21265.2
756.017	21267.46
756.355	21238.54
756.693	21229.72
757.031	21266.56
757.368	21154.92
