Data from cardboard_FLMS001491_088.txt Node
Date: Tue Feb 07 11:40:17 GMT 2017
User: dcchb
Spectrometer: FLMS00149
Trigger mode: 0
Integration Time (sec): 2.000000E-2
Scans to average: 10
Electric dark correction enabled: true
Nonlinearity correction enabled: false
Boxcar width: 0
XAxis mode: Wavelengths
Number of Pixels in Spectrum: 2048
>>>>>Begin Spectral Data<<<<<
341.393	-32.5
341.776	-32.5
342.16	-32.5
342.543	-70.92
342.927	-53.52
343.31	-68.66
343.693	-77.02
344.077	-71.82
344.46	-52.84
344.843	-63.68
345.226	-54.19
345.61	-26.85
345.993	-26.62
346.376	-4.03
346.759	-5.61
347.142	34.39
347.525	63.77
347.908	63.32
348.291	78.68
348.674	97.67
349.057	113.49
349.44	113.94
349.823	128.85
350.206	167.72
350.588	208.62
350.971	209.08
351.354	214.27
351.737	244.33
352.119	233.26
352.502	262.18
352.884	272.35
353.267	276.19
353.65	289.98
354.032	297.89
354.414	317.55
354.797	313.48
355.179	318.45
355.562	298.57
355.944	334.27
356.326	320.03
356.709	331.56
357.091	353.71
357.473	336.08
357.855	349.19
358.238	346.02
358.62	340.6
359.002	336.76
359.384	333.59
359.766	362.74
360.148	346.02
360.53	346.7
360.912	337.89
361.294	316.19
361.676	318
362.057	337.66
362.439	345.34
362.821	316.42
363.203	327.94
363.584	333.59
363.966	333.37
364.348	333.82
364.729	321.39
365.111	326.59
365.493	322.97
365.874	309.19
366.256	330.2
366.637	340.6
367.019	327.94
367.4	310.99
367.781	332.24
368.163	308.96
368.544	326.81
368.925	295.4
369.306	336.53
369.688	327.04
370.069	348.06
370.45	324.1
370.831	311.45
371.212	315.51
371.593	320.49
371.974	305.35
372.355	334.5
372.736	306.7
373.117	327.94
373.498	331.11
373.879	332.46
374.26	325.68
374.641	329.3
375.021	320.71
375.402	323.65
375.783	325.46
376.163	329.07
376.544	313.48
376.925	318
377.305	324.55
377.686	340.6
378.066	318.68
378.447	288.4
378.827	343.54
379.208	337.66
379.588	355.51
379.968	350.54
380.349	344.44
380.729	336.08
381.109	362.07
381.489	335.63
381.87	344.44
382.25	342.86
382.63	326.14
383.01	368.17
383.39	362.29
383.77	361.16
384.15	368.85
384.53	375.63
384.91	352.58
385.29	338.11
385.67	375.4
386.049	386.25
386.429	368.39
386.809	384.89
387.189	359.35
387.568	382.18
387.948	363.87
388.328	376.98
388.707	384.44
389.087	385.34
389.466	367.94
389.846	383.76
390.225	373.82
390.605	368.39
390.984	376.76
391.363	380.6
391.743	369.07
392.122	387.38
392.501	409.07
392.881	413.59
393.26	367.72
393.639	396.64
394.018	418.56
394.397	405.46
394.776	424.66
395.155	420.6
395.534	436.64
395.913	405.91
396.292	422.63
396.671	430.54
397.05	421.05
397.429	414.49
397.808	420.14
398.186	420.37
398.565	423.99
398.944	453.14
399.323	438.9
399.701	442.29
400.08	428.96
400.458	441.61
400.837	466.7
401.215	452.91
401.594	429.41
401.972	466.92
402.351	445
402.729	433.93
403.107	447.26
403.486	433.93
403.864	451.33
404.242	456.08
404.62	447.49
404.999	474.15
405.377	464.21
405.755	504.21
406.133	481.61
406.511	479.58
406.889	465.79
407.267	486.13
407.645	474.38
408.023	492.68
408.401	514.38
408.779	483.42
409.156	509.18
409.534	531.78
409.912	507.83
410.29	522.06
410.667	532.46
411.045	548.95
411.422	542.85
411.8	535.62
412.178	543.3
412.555	541.5
412.933	540.82
413.31	542.4
413.687	555.28
414.065	587.6
414.442	576.75
414.819	589.63
415.197	609.52
415.574	586.02
415.951	595.28
416.328	607.03
416.705	599.8
417.082	602.74
417.46	602.51
417.837	609.74
418.214	634.38
418.591	637.31
418.967	616.98
419.344	623.53
419.721	644.32
420.098	624.88
420.475	673.92
420.852	638.44
421.228	664.43
421.605	658.78
421.982	659.91
422.358	704.66
422.735	664.21
423.111	692.23
423.488	677.54
423.864	690.65
424.241	701.49
424.617	686.13
424.994	710.98
425.37	701.94
425.746	720.7
426.123	728.84
426.499	727.03
426.875	729.74
427.251	733.36
427.627	742.85
428.003	748.05
428.379	753.02
428.756	753.02
429.132	771.77
429.507	772
429.883	778.78
430.259	818.1
430.635	802.51
431.011	812
431.387	801.83
431.763	813.81
432.138	829.4
432.514	830.3
432.89	861.26
433.265	861.26
433.641	858.1
434.016	879.57
434.392	885.44
434.767	870.08
435.143	894.71
435.518	896.52
435.894	915.5
436.269	931.09
436.644	957.76
437.02	912.56
437.395	932.45
437.77	964.76
438.145	949.85
438.52	980.36
438.895	974.48
439.271	981.71
439.646	996.85
440.021	1018.55
440.395	1014.25
440.77	1000.47
441.145	1021.26
441.52	1039.11
441.895	1038.21
442.27	1035.04
442.645	1028.72
443.019	1060.81
443.394	1034.59
443.769	1076.17
444.143	1053.12
444.518	1054.03
444.892	1073.01
445.267	1096.96
445.641	1094.48
446.016	1065.78
446.39	1087.47
446.764	1113.46
447.139	1127.24
447.513	1137.64
447.887	1135.38
448.262	1108.26
448.636	1120.24
449.01	1158.66
449.384	1171.76
449.758	1183.51
450.132	1188.71
450.506	1202.27
450.88	1213.8
451.254	1192.1
451.628	1201.14
452.002	1239.11
452.376	1253.57
452.75	1266.68
453.123	1286.11
453.497	1278.43
453.871	1298.54
454.244	1338.54
454.618	1306.9
454.992	1314.13
455.365	1315.94
455.739	1347.13
456.112	1373.57
456.486	1415.82
456.859	1381.7
457.232	1421.47
457.606	1411.08
457.979	1437.52
458.352	1465.77
458.725	1472.09
459.099	1479.55
459.472	1494.24
459.845	1520.91
460.218	1540.11
460.591	1539.21
460.964	1557.29
461.337	1582.15
461.71	1594.35
462.083	1638.87
462.456	1648.13
462.829	1651.3
463.201	1661.47
463.574	1668.93
463.947	1695.59
464.32	1708.02
464.692	1747.12
465.065	1752.31
465.438	1782.37
465.81	1822.37
466.183	1800.67
466.555	1864.63
466.928	1869.6
467.3	1856.04
467.672	1925.19
468.045	1932.87
468.417	1968.13
468.789	1946.66
469.161	1990.05
469.534	2009.26
469.906	2034.57
470.278	2050.16
470.65	2078.86
471.022	2152.08
471.394	2170.61
471.766	2166.54
472.138	2221.23
472.51	2272.3
472.882	2274.11
473.253	2329.92
473.625	2305.07
473.997	2346.65
474.369	2400.66
474.74	2449.92
475.112	2485.85
475.484	2506.19
475.855	2564.72
476.227	2605.4
476.598	2621.67
476.97	2649.92
477.341	2696.92
477.713	2757.26
478.084	2780.99
478.455	2867.09
478.827	2879.74
479.198	2962.9
479.569	2967.65
479.94	3009.91
480.311	3074.09
480.682	3144.14
481.053	3198.38
481.424	3246.96
481.795	3310.24
482.166	3296.68
482.537	3371.71
482.908	3463.45
483.279	3511.59
483.65	3575.09
484.021	3624.58
484.391	3696.67
484.762	3715.65
485.133	3752.26
485.503	3803.78
485.874	3851.92
486.244	3935.53
486.615	4014.4
486.985	4027.28
487.356	4117.9
487.726	4107.96
488.097	4216.65
488.467	4290.78
488.837	4404.9
489.207	4425.01
489.578	4458.68
489.948	4558.11
490.318	4594.72
490.688	4645.12
491.058	4702.07
491.428	4780.03
491.798	4825.9
492.168	4928.27
492.538	4941.83
492.908	4996.75
493.278	5053.92
493.648	5130.53
494.017	5134.37
494.387	5202.17
494.757	5247.59
495.126	5356.96
495.496	5382.95
495.866	5442.84
496.235	5474.02
496.605	5573.23
496.974	5650.29
497.344	5724.41
497.713	5716.95
498.082	5799.89
498.452	5821.81
498.821	5860.23
499.19	5927.12
499.559	6036.72
499.928	6018.19
500.298	6103.84
500.667	6137.06
501.036	6126.21
501.405	6210.27
501.774	6253.44
502.143	6377.28
502.512	6432.64
502.88	6431.29
503.249	6459.99
503.618	6542.02
503.987	6622.92
504.356	6644.16
504.724	6665.4
505.093	6754.44
505.462	6751.73
505.83	6809.58
506.199	6894.55
506.567	7058.39
506.936	7024.26
507.304	7115.79
507.672	7228.78
508.041	7263.13
508.409	7309
508.777	7375.89
509.145	7401.2
509.514	7425.84
509.882	7514.87
510.25	7559.62
510.618	7663.34
510.986	7743.12
511.354	7822.44
511.722	7871.7
512.09	8019.94
512.458	8006.61
512.826	8058.81
513.193	8197.57
513.561	8192.6
513.929	8272.14
514.297	8350.33
514.664	8425.13
515.032	8560.95
515.4	8567.95
515.767	8657.67
516.135	8714.84
516.502	8703.99
516.869	8898.34
517.237	8988.28
517.604	8943.54
517.972	9060.14
518.339	9146.02
518.706	9303.75
519.073	9299.91
519.44	9392.34
519.808	9487.93
520.175	9518.89
520.542	9701.03
520.909	9736.06
521.276	9836.39
521.643	9957.75
522.009	9941.7
522.376	10067.8
522.743	10220.34
523.11	10254.01
523.477	10393.89
523.843	10532.19
524.21	10595.47
524.577	10685.64
524.943	10812.41
525.31	10957.72
525.676	10980.77
526.043	11101.45
526.409	11140.77
526.776	11355.45
527.142	11352.06
527.508	11512.28
527.874	11623.24
528.241	11757.02
528.607	11681.77
528.973	11842.22
529.339	11912.5
529.705	12023
530.071	12078.14
530.437	12277.91
530.803	12375.54
531.169	12427.96
531.535	12374.41
531.901	12611.91
532.267	12616.21
532.632	12796.09
532.998	12837.9
533.364	12931.68
533.73	12982.98
534.095	13206.47
534.461	13268.17
534.826	13370.31
535.192	13343.42
535.557	13545.67
535.923	13503.87
536.288	13577.76
536.653	13696.18
537.019	13739.79
537.384	13766.23
537.749	13929.39
538.114	13969.62
538.479	13999.22
538.845	14122.38
539.21	14142.27
539.575	14229.72
539.94	14376.39
540.305	14485.09
540.67	14549.04
541.034	14647.57
541.399	14681.46
541.764	14754
542.129	14800.56
542.494	14983.15
542.858	15001
543.223	15050.72
543.587	15233.31
543.952	15211.85
544.316	15196.03
544.681	15288
545.045	15438.51
545.41	15509.92
545.774	15600.31
546.138	15686.86
546.503	15737.03
546.867	15851.15
547.231	15994.42
547.595	16059.96
547.959	16123.69
548.324	16135.66
548.688	16258.15
549.052	16289.11
549.416	16344.47
549.779	16433.51
550.143	16459.27
550.507	16636.89
550.871	16689.32
551.235	16725.93
551.599	16921.63
551.962	16965.47
552.326	17155.3
552.689	17170.44
553.053	17109.65
553.417	17259.25
553.78	17437.1
554.143	17342.41
554.507	17545.8
554.87	17603.42
555.234	17937.65
555.597	17788.05
555.96	17893.58
556.323	18049.74
556.686	18066.91
557.05	18288.6
557.413	18353.68
557.776	18361.37
558.139	18579.89
558.502	18643.85
558.865	18709.83
559.228	18838.64
559.59	18927.23
559.953	19072.31
560.316	19258.07
560.679	19344.17
561.041	19431.62
561.404	19595.69
561.767	19867.77
562.129	19718.17
562.492	19982.57
562.854	20012.4
563.217	20031.83
563.579	20166.52
563.941	20263.69
564.304	20431.37
564.666	20653.28
565.028	20679.95
565.39	20674.75
565.753	20863.22
566.115	21010.11
566.477	21005.37
566.839	21070.9
567.201	21342.76
567.563	21324
567.925	21549.53
568.287	21643.99
568.648	21622.52
569.01	21881.73
569.372	22014.15
569.734	21934.38
570.095	22166.47
570.457	22360.81
570.819	22421.83
571.18	22355.84
571.542	22563.29
571.903	22615.27
572.265	22657.3
572.626	22773.91
572.987	22843.96
573.349	23070.17
573.71	23122.6
574.071	23229.26
574.432	23241.92
574.794	23482.36
575.155	23514.68
575.516	23399.43
575.877	23535.92
576.238	23740.44
576.599	23914.89
576.96	23855.01
577.32	23972.07
577.681	24047.55
578.042	24095.45
578.403	24084.15
578.763	24127.32
579.124	24281.66
579.485	24401.89
579.845	24571.37
580.206	24462.9
580.566	24634.65
580.927	24578.61
581.287	24779.96
581.648	24657.93
582.008	24862.67
582.368	24826.73
582.728	24931.59
583.089	24891.59
583.449	24921.87
583.809	24988.76
584.169	25117.12
584.529	25045.71
584.889	25358.7
585.249	25183.11
585.609	25062.89
585.969	25309.89
586.329	25255.65
586.688	25386.95
587.048	25375.42
587.408	25308.98
587.768	25355.31
588.127	25473.04
588.487	25516.43
588.846	25738.8
589.206	25541.97
589.565	25824.45
589.925	25839.36
590.284	25741.29
590.643	25753.49
591.003	25820.61
591.362	25829.42
591.721	25966.82
592.08	25908.74
592.44	26002.75
592.799	26070.77
593.158	26023.54
593.517	26049.75
593.876	26076.42
594.235	26148.51
594.593	26188.51
594.952	26282.06
595.311	26192.12
595.67	26356.64
596.029	26623.3
596.387	26483.64
596.746	26556.18
597.104	26462.17
597.463	26442.28
597.822	26624.88
598.18	26583.98
598.538	26461.95
598.897	26730.64
599.255	26478.22
599.613	27002.04
599.972	26838.88
600.33	26786.23
600.688	26804.54
601.046	26924.31
601.404	27076.17
601.762	27035.72
602.12	27137.41
602.478	27089.27
602.836	27146.67
603.194	27127.92
603.552	27205.88
603.91	27118.2
604.268	27208.59
604.625	27149.61
604.983	27317.29
605.341	27316.39
605.698	27525.42
606.056	27560.9
606.413	27495.36
606.771	27725.64
607.128	27769.93
607.485	27501.47
607.843	27751.18
608.2	27823.04
608.557	28048.8
608.914	27834.56
609.272	27987.56
609.629	28076.59
609.986	28199.07
610.343	28018.97
610.7	28265.06
611.057	28124.27
611.414	28181.67
611.771	28305.96
612.127	28340.09
612.484	28401.56
612.841	28562.46
613.198	28405.62
613.554	28390.71
613.911	28599.74
614.267	28571.72
614.624	28526.07
614.98	28536.24
615.337	28865.27
615.693	28689.91
616.05	28710.7
616.406	29033.63
616.762	28816.91
617.118	28859.17
617.475	28916.8
617.831	28998.15
618.187	29056
618.543	29114.98
618.899	29345.71
619.255	29296.67
619.611	29271.59
619.967	29377.8
620.323	29453.73
620.678	29340.29
621.034	29362.66
621.39	29415.54
621.746	29340.29
622.101	29685.14
622.457	29559.94
622.812	29620.96
623.168	29742.09
623.523	29659.83
623.879	29769.43
624.234	29471.81
624.589	29690.34
624.945	29728.53
625.3	29627.74
625.655	29636.1
626.01	29689.66
626.365	29710
626.72	29680.84
627.075	29718.13
627.43	29688.3
627.785	29627.96
628.14	29728.98
628.495	29822.31
628.85	29777.79
629.205	29731.24
629.559	30005.81
629.914	29781.41
630.269	29857.34
630.623	29717.45
630.978	29673.16
631.332	29891.46
631.687	29883.1
632.041	29676.32
632.396	29804
632.75	29820.28
633.104	29717.45
633.459	29628.42
633.813	29734.63
634.167	29684.46
634.521	29703.44
634.875	29831.8
635.229	29780.73
635.583	29580.06
635.937	29679.94
636.291	29550
636.645	29668.41
636.999	29463.45
637.352	29636.55
637.706	29336.45
638.06	29474.3
638.413	29571.92
638.767	29476.33
639.121	29598.36
639.474	29255.32
639.828	29434.07
640.181	29465.03
640.534	29448.99
640.888	29444.47
641.241	29246.28
641.594	29277.46
641.947	29285.83
642.301	29265.49
642.654	29345.49
643.007	29432.71
643.36	29370.34
643.713	29336.9
644.066	29405.37
644.419	29125.15
644.771	29044.48
645.124	28785.73
645.477	28787.08
645.83	28567.65
646.182	28433.42
646.535	28489.24
646.888	28584.6
647.24	28459.86
647.593	28524.04
647.945	28539.18
648.298	28479.75
648.65	28285.17
649.002	28264.84
649.355	28290.82
649.707	28210.15
650.059	28397.94
650.411	28749.12
650.763	28841.09
651.115	29029.56
651.467	29149.33
651.819	29027.08
652.171	29041.09
652.523	28958.6
652.875	28989.34
653.227	28861.88
653.578	29137.13
653.93	28965.61
654.282	29020.97
654.633	28804.26
654.985	28879.28
655.337	28950.02
655.688	28934.87
656.039	29011.03
656.391	28741.89
656.742	28942.78
657.094	28931.49
657.445	29064.36
657.796	28749.12
658.147	28939.17
658.498	28813.97
658.849	28962.44
659.2	28868.89
659.551	28894.65
659.902	29112.05
660.253	29000.64
660.604	29085.83
660.955	28868.89
661.306	28872.28
661.656	29034.31
662.007	28966.74
662.358	28950.24
662.708	28966.29
663.059	28940.98
663.409	28733.52
663.76	29010.35
664.11	28976.46
664.461	28989.11
664.811	29009.22
665.161	29086.28
665.511	28987.75
665.862	29084.25
666.212	29105.04
666.562	29098.71
666.912	29086.74
667.262	28811.94
667.612	28986.17
667.962	29056.91
668.312	28989.79
668.662	29122.21
669.011	29005.16
669.361	28889.9
669.711	28889.68
670.06	28947.08
670.41	28982.78
670.76	28954.08
671.109	28990.01
671.459	28831.83
671.808	28886.97
672.157	28899.62
672.507	28818.72
672.856	28741.21
673.205	28908.89
673.554	29015.1
673.904	28769
674.253	28976.46
674.602	28907.3
674.951	28543.92
675.3	28368.34
675.649	28763.35
675.998	28671.83
676.346	28767.42
676.695	28927.64
677.044	28635.9
677.393	28731.04
677.741	28712.51
678.09	28748.21
678.438	28620.31
678.787	28771.04
679.135	28890.36
679.484	28546.18
679.832	28764.71
680.181	28583.47
680.529	28625.73
680.877	28383.02
681.225	28526.3
681.573	28825.5
681.922	28392.06
682.27	28440.88
682.618	28487.65
682.966	28389.35
683.314	28483.36
683.661	28291.5
684.009	28277.49
684.357	28286.76
684.705	28162.01
685.053	28174.22
685.4	28009.48
685.748	28087.89
686.095	28058.29
686.443	27950.49
686.79	27845.64
687.138	27968.35
687.485	27944.84
687.832	27833.66
688.18	28029.36
688.527	27789.59
688.874	27870.5
689.221	27704.4
689.568	27642.48
689.915	27556.61
690.262	27669.37
690.609	27513.22
690.956	27496.49
691.303	27489.26
691.65	27343.5
691.997	27477.06
692.344	27214.69
692.69	27117.52
693.037	27199.78
693.383	26915.27
693.73	27097.18
694.077	26910.07
694.423	26955.94
694.769	26808.6
695.116	26826.91
695.462	26670.08
695.808	26659
696.155	26751.43
696.501	26450.87
696.847	26459.23
697.193	26346.02
697.539	26422.4
697.885	26329.75
698.231	26137.89
698.577	26146.47
698.923	26067.15
699.269	25898.12
699.614	25945.8
699.96	25964.56
700.306	25881.62
700.651	25897.67
700.997	25707.84
701.342	25727.05
701.688	25695.86
702.033	25473.04
702.379	25581.74
702.724	25476.66
703.069	25582.19
703.415	25187.85
703.76	25288.19
704.105	25337.46
704.45	25303.11
704.795	25200.96
705.14	25123.22
705.485	25055.65
705.83	24890.69
706.175	24969.78
706.52	24797.36
706.865	24853.63
707.209	24822.67
707.554	24692.05
707.899	24765.04
708.243	24629.9
708.588	24584.48
708.932	24394.2
709.277	24410.7
709.621	24465.39
709.966	24196.92
710.31	24330.93
710.654	24158.96
710.998	24240.31
711.342	24228.33
711.687	24101.56
712.031	24136.13
712.375	24053.42
712.719	24132.97
713.063	23865.63
713.407	24042.8
713.75	23849.81
714.094	23915.8
714.438	23787.67
714.782	23927.1
715.125	23812.98
715.469	23859.08
715.812	23767.55
716.156	23609.59
716.499	23647.78
716.843	23548.12
717.186	23578.18
717.53	23629.7
717.873	23616.14
718.216	23572.08
718.559	23417.05
718.902	23298.19
719.246	23408.47
719.589	23362.59
719.932	23252.54
720.275	23161.92
720.617	23175.93
720.96	23177.74
721.303	23296.15
721.646	23214.12
721.989	23059.78
722.331	23080.34
722.674	23063.84
723.016	23025.65
723.359	23037.85
723.701	23090.73
724.044	22927.8
724.386	22758.77
724.729	23083.28
725.071	22953.79
725.413	22944.98
725.755	22814.36
726.097	22780.91
726.439	22759.22
726.782	22655.04
727.124	22891.64
727.465	22618.43
727.807	22728.03
728.149	22678.09
728.491	22657.07
728.833	22556.51
729.175	22563.97
729.516	22522.16
729.858	22468.15
730.199	22594.25
730.541	22464.08
730.882	22512.67
731.224	22583.86
731.565	22450.98
731.906	22380.02
732.248	22456.85
732.589	22337.08
732.93	22283.98
733.271	22299.34
733.612	22328.49
733.953	22373.01
734.294	22333.01
734.635	22368.95
734.976	22323.52
735.317	22167.6
735.658	22279.23
735.999	22146.8
736.339	22175.73
736.68	22215.96
737.021	22262.96
737.361	22148.16
737.702	22151.55
738.042	22038.78
738.383	22043.76
738.723	22078.78
739.063	22052.12
739.404	22208.72
739.744	22087.37
740.084	22038.11
740.424	22074.49
740.764	22050.54
741.104	22130.31
741.444	21990.65
741.784	21898.68
742.124	21879.69
742.464	21960.14
742.804	21926.47
743.143	21988.16
743.483	21902.97
743.823	21811.22
744.162	21747.49
744.502	21841.05
744.841	21696.42
745.181	21875.63
745.52	21812.58
745.86	21887.15
746.199	21779.13
746.538	21796.98
746.877	21945.91
747.216	21766.02
747.556	21772.8
747.895	21729.87
748.234	21677.21
748.573	21636.31
748.911	21674.05
749.25	21672.92
749.589	21592.69
749.928	21610.77
750.267	21683.09
750.605	21542.75
750.944	21617.1
751.283	21493.04
751.621	21526.26
751.96	21573.49
752.298	21551.79
752.636	21507.27
752.975	21401.29
753.313	21339.37
753.651	21523.54
753.989	21436.31
754.327	21370.55
754.666	21341.63
755.004	21434.51
755.342	21380.5
755.679	21335.07
756.017	21232.7
756.355	21309.76
756.693	21174.63
757.031	21175.53
