Data from cardboard_FLMS001491_011.txt Node
Date: Tue Feb 07 11:39:00 GMT 2017
User: dcchb
Spectrometer: FLMS00149
Trigger mode: 0
Integration Time (sec): 2.000000E-2
Scans to average: 10
Electric dark correction enabled: true
Nonlinearity correction enabled: false
Boxcar width: 0
XAxis mode: Wavelengths
Number of Pixels in Spectrum: 2048
>>>>>Begin Spectral Data<<<<<
341.393	-13.87
341.776	-13.87
342.16	-13.87
342.543	-63.81
342.927	-82.12
343.31	-84.6
343.693	-88.44
344.077	-80.76
344.46	-61.78
344.843	-66.98
345.226	-44.15
345.61	-32.17
345.993	-5.06
346.376	0.82
346.759	24.77
347.142	13.93
347.525	49.86
347.908	67.48
348.291	82.4
348.674	107.26
349.057	117.43
349.44	127.14
349.823	150.65
350.206	179.57
350.588	201.94
350.971	196.29
351.354	228.38
351.737	242.85
352.119	250.08
352.502	269.29
352.884	264.99
353.267	275.84
353.65	280.13
354.032	288.04
354.414	315.84
354.797	320.13
355.179	313.58
355.562	325.78
355.944	299.79
356.326	326.46
356.709	330.98
357.091	346.57
357.473	331.88
357.855	327.59
358.238	328.95
358.62	327.36
359.002	336.86
359.384	323.97
359.766	317.2
360.148	330.98
360.53	329.4
360.912	318.32
361.294	342.51
361.676	316.29
362.057	311.32
362.439	329.4
362.821	331.88
363.203	304.31
363.584	324.65
363.966	312.22
364.348	311.32
364.729	312.45
365.111	308.38
365.493	299.34
365.874	324.43
366.256	293.92
366.637	308.16
367.019	301.83
367.4	302.96
367.781	316.74
368.163	309.74
368.544	311.77
368.925	310.87
369.306	316.97
369.688	318.32
370.069	296.86
370.45	309.74
370.831	290.53
371.212	307.48
371.593	301.6
371.974	326.01
372.355	304.31
372.736	299.34
373.117	329.4
373.498	304.31
373.879	309.74
374.26	310.64
374.641	327.59
375.021	323.3
375.402	306.8
375.783	319.45
376.163	325.33
376.544	338.66
376.925	335.05
377.305	341.15
377.686	318.1
378.066	323.3
378.447	309.51
378.827	321.71
379.208	320.58
379.588	325.1
379.968	323.07
380.349	335.95
380.729	315.39
381.109	306.8
381.489	343.18
381.87	328.49
382.25	333.47
382.63	332.34
383.01	344.54
383.39	320.36
383.77	343.64
384.15	335.27
384.53	331.88
384.91	344.54
385.29	340.47
385.67	362.39
386.049	360.36
386.429	350.64
386.809	345.67
387.189	342.05
387.568	331.66
387.948	341.38
388.328	348.83
388.707	370.53
389.087	352.67
389.466	352
389.846	342.96
390.225	366.01
390.605	392.22
390.984	349.28
391.363	364.43
391.743	365.1
392.122	375.95
392.501	387.02
392.881	363.52
393.26	374.14
393.639	356.74
394.018	375.27
394.397	382.73
394.776	390.64
395.155	412.56
395.534	406.46
395.913	387.25
396.292	372.56
396.671	385.89
397.05	398.55
397.429	356.97
397.808	370.98
398.186	392.67
398.565	385.67
398.944	393.13
399.323	399.45
399.701	389.74
400.08	400.36
400.458	392.67
400.837	409.4
401.215	409.62
401.594	407.14
401.972	406.68
402.351	404.88
402.729	398.1
403.107	436.06
403.486	406.91
403.864	427.25
404.242	428.6
404.62	423.63
404.999	417.31
405.377	422.95
405.755	432.22
406.133	428.83
406.511	441.49
406.889	433.12
407.267	428.38
407.645	430.19
408.023	453.24
408.401	463.63
408.779	465.44
409.156	455.72
409.534	459.79
409.912	460.47
410.29	468.15
410.667	478.32
411.045	450.98
411.422	460.92
411.8	476.06
412.178	477.87
412.555	481.48
412.933	475.83
413.31	510.18
413.687	515.83
414.065	518.32
414.442	498.66
414.819	515.16
415.197	506.57
415.574	507.92
415.951	531.88
416.328	517.64
416.705	508.38
417.082	521.48
417.46	539.79
417.837	530.75
418.214	546.34
418.591	539.34
418.967	541.82
419.344	561.26
419.721	561.26
420.098	562.16
420.475	567.81
420.852	564.19
421.228	557.87
421.605	576.85
421.982	582.95
422.358	578.43
422.735	579.11
423.111	577.3
423.488	574.82
423.864	577.75
424.241	591.99
424.617	595.38
424.994	595.15
425.37	597.41
425.746	588.83
426.123	625.66
426.499	616.85
426.875	623.18
427.251	645.55
427.627	639.45
428.003	627.47
428.379	653.46
428.756	670.86
429.132	671.76
429.507	641.48
429.883	640.35
430.259	696.62
430.635	698.88
431.011	704.53
431.387	689.39
431.763	737.07
432.138	734.36
432.514	729.61
432.89	744.53
433.265	744.08
433.641	744.3
434.016	732.78
434.392	767.13
434.767	739.78
435.143	755.6
435.518	775.94
435.894	778.2
436.269	755.83
436.644	773.91
437.02	773.91
437.395	781.82
437.77	795.15
438.145	801.02
438.52	801.25
438.895	844.64
439.271	805.77
439.646	818.88
440.021	841.7
440.395	885.32
440.77	836.5
441.145	842.6
441.52	863.85
441.895	867.92
442.27	859.1
442.645	849.61
443.019	881.7
443.394	887.35
443.769	876.5
444.143	869.95
444.518	896.84
444.892	894.58
445.267	918.99
445.641	896.84
446.016	909.27
446.39	896.16
446.764	925.54
447.139	910.85
447.513	932.09
447.887	968.03
448.262	933.45
448.636	963.05
449.01	969.38
449.384	974.35
449.758	962.83
450.132	980.91
450.506	998.08
450.88	1002.6
451.254	994.92
451.628	1013
452.002	1022.94
452.376	1031.3
452.75	1025.88
453.123	1044.86
453.497	1049.61
453.871	1067.01
454.244	1047.35
454.618	1088.93
454.992	1104.29
455.365	1097.51
455.739	1116.04
456.112	1137.06
456.486	1105.42
456.859	1154.46
457.232	1152.88
457.606	1158.53
457.979	1172.99
458.352	1210.5
458.725	1187.45
459.099	1228.81
459.472	1221.58
459.845	1250.05
460.218	1237.85
460.591	1274.23
460.964	1265.64
461.337	1292.31
461.71	1291.41
462.083	1321.46
462.456	1304.51
462.829	1332.31
463.201	1401.23
463.574	1349.03
463.947	1374.79
464.32	1384.96
464.692	1449.59
465.065	1409.14
465.438	1448.01
465.81	1454.57
466.183	1486.88
466.555	1525.98
466.928	1497.28
467.3	1519.65
467.672	1520.55
468.045	1584.28
468.417	1575.02
468.789	1579.31
469.161	1609.14
469.534	1633.54
469.906	1670.38
470.278	1635.8
470.65	1701.11
471.022	1747.44
471.394	1768.68
471.766	1751.96
472.138	1783.37
472.51	1816.82
472.882	1823.82
473.253	1864.72
473.625	1870.37
473.997	1953.31
474.369	1925.74
474.74	1974.78
475.112	1939.53
475.484	2028.56
475.855	2042.35
476.227	2048.45
476.598	2138.84
476.97	2127.77
477.341	2172.51
477.713	2217.48
478.084	2245.05
478.455	2288.22
478.827	2295.67
479.198	2370.25
479.569	2385.84
479.94	2419.96
480.311	2480.08
480.682	2501.77
481.053	2567.08
481.424	2605.04
481.795	2637.81
482.166	2656.79
482.537	2655.21
482.908	2733.85
483.279	2771.14
483.65	2825.83
484.021	2877.35
484.391	2880.29
484.762	2964.81
485.133	2982.44
485.503	3027.41
485.874	3099.95
486.244	3126.84
486.615	3204.8
486.985	3216.1
487.356	3259.49
487.726	3306.95
488.097	3363.89
488.467	3382.88
488.837	3431.46
489.207	3491.57
489.578	3555.3
489.948	3580.84
490.318	3633.94
490.688	3668.52
491.058	3713.94
491.428	3760.27
491.798	3821.51
492.168	3896.08
492.538	3919.13
492.908	3962.52
493.278	4024.44
493.648	4034.84
494.017	4087.04
494.387	4132.91
494.757	4179.92
495.126	4221.73
495.496	4208.84
495.866	4282.29
496.235	4337.88
496.605	4375.39
496.974	4393.7
497.344	4455.17
497.713	4517.99
498.082	4547.82
498.452	4591.88
498.821	4631.88
499.19	4661.26
499.559	4706.01
499.928	4788.26
500.298	4803.86
500.667	4860.58
501.036	4859.9
501.405	4976.51
501.774	4908.26
502.143	5003.4
502.512	5001.37
502.88	5136.05
503.249	5151.87
503.618	5165.43
503.987	5210.4
504.356	5285.2
504.724	5262.38
505.093	5337.4
505.462	5332.43
505.83	5444.97
506.199	5496.72
506.567	5544.85
506.936	5563.61
507.304	5643.16
507.672	5628.02
508.041	5707.34
508.409	5726.09
508.777	5851.06
509.145	5907.78
509.514	5947.78
509.882	5992.3
510.25	5968.35
510.618	6106.87
510.986	6096.93
511.354	6194.33
511.722	6251.05
512.09	6350.71
512.458	6340.99
512.826	6451.95
513.193	6459.41
513.561	6543.25
513.929	6517.71
514.297	6602.91
514.664	6705.28
515.032	6738.04
515.4	6875.67
515.767	6896.01
516.135	6922.22
516.502	6884.03
516.869	7070.69
517.237	7086.06
517.604	7071.14
517.972	7212.15
518.339	7288.31
518.706	7263
519.073	7376.22
519.44	7405.82
519.808	7517.01
520.175	7493.73
520.542	7736.43
520.909	7701.18
521.276	7741.41
521.643	7898.24
522.009	7947.05
522.376	8049.2
522.743	8144.11
523.11	8233.6
523.477	8259.36
523.843	8361.73
524.21	8440.6
524.577	8526.02
524.943	8599.69
525.31	8632.68
525.676	8711.55
526.043	8797.88
526.409	8893.01
526.776	8991.54
527.142	9073.12
527.508	9126.45
527.874	9246.68
528.241	9304.53
528.607	9264.98
528.973	9490.51
529.339	9467.69
529.705	9576.61
530.071	9665.2
530.437	9775.93
530.803	9855.93
531.169	9902.48
531.535	9941.8
531.901	10027.45
532.267	10084.17
532.632	10136.15
532.998	10255.69
533.364	10316.93
533.73	10403.48
534.095	10497.49
534.461	10540.66
534.826	10623.59
535.192	10662.69
535.557	10720.31
535.923	10708.56
536.288	10848.9
536.653	10887.54
537.019	10915.11
537.384	11065.84
537.749	11144.25
538.114	11225.61
538.479	11242.56
538.845	11323.01
539.21	11305.38
539.575	11383.57
539.94	11495.88
540.305	11559.84
540.67	11516
541.034	11667.86
541.399	11748.76
541.764	11801.41
542.129	11829.66
542.494	12005.02
542.858	12053.38
543.223	12119.6
543.587	12164.79
543.952	12117.56
544.316	12224.23
544.681	12289.31
545.045	12349.42
545.41	12435.75
545.774	12518
546.138	12575.4
546.503	12734.04
546.867	12707.15
547.231	12834.61
547.595	12820.37
547.959	12883.87
548.324	12963.64
548.688	12988.05
549.052	13108.5
549.416	13099.23
549.779	13199.79
550.143	13255.61
550.507	13381.26
550.871	13517.53
551.235	13487.7
551.599	13565.43
551.962	13709.39
552.326	13754.81
552.689	13858.31
553.053	13790.29
553.417	13858.53
553.78	14036.16
554.143	14059.21
554.507	14115.7
554.87	14208.58
555.234	14290.39
555.597	14333.55
555.96	14465.98
556.323	14554.79
556.686	14609.7
557.05	14748
557.413	14768.79
557.776	14778.06
558.139	14988.67
558.502	15020.99
558.865	15098.73
559.228	15217.82
559.59	15333.98
559.953	15313.18
560.316	15533.07
560.679	15619.39
561.041	15666.4
561.404	15805.38
561.767	15804.92
562.129	15915.88
562.492	16115.2
562.854	16140.73
563.217	16049.44
563.579	16302.76
563.941	16393.83
564.304	16448.75
564.666	16450.56
565.028	16704.11
565.39	16796.54
565.753	16872.01
566.115	16911.33
566.477	16992.91
566.839	17072.69
567.201	17237.43
567.563	17314.94
567.925	17323.98
568.287	17435.61
568.648	17554.48
569.01	17603.75
569.372	17866.34
569.734	17804.42
570.095	17849.84
570.457	17951.31
570.819	17963.28
571.18	18067.46
571.542	18142.26
571.903	18256.16
572.265	18392.88
572.626	18441.01
572.987	18473.78
573.349	18674.45
573.71	18683.49
574.071	18776.6
574.432	18877.38
574.794	19063.82
575.155	19046.87
575.516	18918.97
575.877	19148.34
576.238	19172.07
576.599	19185.4
576.96	19338.62
577.32	19330.48
577.681	19399.18
578.042	19522.79
578.403	19570.93
578.763	19611.83
579.124	19663.8
579.485	19799.39
579.845	19852.95
580.206	19827.64
580.566	19949.22
580.927	19931.82
581.287	20031.93
581.648	20028.54
582.008	20240.29
582.368	20247.07
582.728	20169.55
583.089	20236.67
583.449	20221.3
583.809	20318.93
584.169	20441.41
584.529	20453.84
584.889	20562.99
585.249	20452.03
585.609	20459.94
585.969	20667.62
586.329	20609.54
586.688	20598.47
587.048	20774.06
587.408	20644.12
587.768	20607.51
588.127	20700.16
588.487	20586.72
588.846	20883.66
589.206	20910.1
589.565	20825.81
589.925	21001.62
590.284	20994.62
590.643	21000.49
591.003	20914.62
591.362	21037.55
591.721	21121.85
592.08	21113.03
592.44	21223.99
592.799	21256.31
593.158	21199.58
593.517	21284.1
593.876	21309.86
594.235	21313.93
594.593	21344.66
594.952	21346.47
595.311	21356.87
595.67	21452.46
596.029	21640.7
596.387	21646.8
596.746	21710.98
597.104	21595.51
597.463	21621.04
597.822	21781.04
598.18	21697.88
598.538	21725.67
598.897	21833.69
599.255	21775.16
599.613	22014.48
599.972	21895.84
600.33	21955.72
600.688	21931.32
601.046	21976.96
601.404	22127.24
601.762	22108.49
602.12	22221.7
602.478	22310.74
602.836	22227.13
603.194	22136.73
603.552	22263.06
603.91	22190.07
604.268	22375.15
604.625	22354.58
604.983	22352.32
605.341	22381.25
605.698	22522.26
606.056	22452.88
606.413	22547.34
606.771	22566.78
607.128	22715.25
607.485	22672.77
607.843	22707.79
608.2	22834.34
608.557	22973.32
608.914	22688.36
609.272	22939.2
609.629	22864.4
609.986	23149.82
610.343	23010.84
610.7	23116.82
611.057	23078.63
611.414	23128.12
611.771	23276.14
612.127	23322.47
612.484	23220.32
612.841	23303.71
613.198	23286.76
613.554	23352.97
613.911	23500.99
614.267	23479.75
614.624	23515.46
614.98	23481.11
615.337	23647.88
615.693	23605.62
616.05	23654.21
616.406	23794.09
616.762	23764.71
617.118	23658.5
617.475	23856.46
617.831	23891.26
618.187	23908.67
618.543	23922.22
618.899	24128.32
619.255	24062.79
619.611	24017.14
619.967	24153.63
620.323	24086.51
620.678	24086.51
621.034	24086.97
621.39	24281.54
621.746	24176.68
622.101	24486.05
622.457	24268.88
622.812	24339.61
623.168	24427.75
623.523	24312.72
623.879	24533.96
624.234	24311.82
624.589	24478.82
624.945	24476.79
625.3	24551.59
625.655	24495.99
626.01	24482.66
626.365	24490.8
626.72	24483.11
627.075	24504.13
627.43	24557.01
627.785	24533.96
628.14	24562.21
628.495	24702.77
628.85	24626.39
629.205	24536.45
629.559	24645.37
629.914	24573.73
630.269	24562.89
630.623	24513.39
630.978	24463.45
631.332	24676.33
631.687	24661.87
632.041	24598.82
632.396	24712.26
632.75	24583
633.104	24677.91
633.459	24462.1
633.813	24399.27
634.167	24514.3
634.521	24486.73
634.875	24484.02
635.229	24531.93
635.583	24477.69
635.937	24444.7
636.291	24474.53
636.645	24543.22
636.999	24408.31
637.352	24568.76
637.706	24442.44
638.06	24512.94
638.413	24450.8
638.767	24354.53
639.121	24401.53
639.474	24263.91
639.828	24270.24
640.181	24303.68
640.534	24402.21
640.888	24307.98
641.241	24206.96
641.594	24288.32
641.947	24417.35
642.301	24313.63
642.654	24394.98
643.007	24387.52
643.36	24292.61
643.713	24302.55
644.066	24347.75
644.419	24191.37
644.771	23976.91
645.124	23971.94
645.477	23771.04
645.83	23688.11
646.182	23679.74
646.535	23631.61
646.888	23618.96
647.24	23594.55
647.593	23664.15
647.945	23689.01
648.298	23440.65
648.65	23393.88
649.002	23473.2
649.355	23545.96
649.707	23453.31
650.059	23635.45
650.411	23931.04
650.763	23967.19
651.115	24192.05
651.467	24203.8
651.819	24042.67
652.171	24073.86
652.523	24144.14
652.875	24141.88
653.227	23993.41
653.578	24114.08
653.93	24115.21
654.282	24031.6
654.633	24018.72
654.985	24018.04
655.337	24114.54
655.688	24058.04
656.039	24104.37
656.391	23871.38
656.742	24029.34
657.094	23919.29
657.445	24026.18
657.796	24087.42
658.147	24114.54
658.498	24053.52
658.849	24155.89
659.2	23974.2
659.551	23888.1
659.902	24077.7
660.253	24051.26
660.604	24037.93
660.955	23969.45
661.306	24090.36
661.656	24057.59
662.007	24016.23
662.358	24042.67
662.708	24059.85
663.059	24057.81
663.409	23955.9
663.76	24135.33
664.11	24081.54
664.461	24091.26
664.811	24113.86
665.161	24068.66
665.511	24033.86
665.862	24053.97
666.212	24243.12
666.562	24139.62
666.912	24094.42
667.262	24126.74
667.612	24137.59
667.962	24147.75
668.312	24040.64
668.662	24154.08
669.011	24148.66
669.361	24176.23
669.711	24222.33
670.06	24077.7
670.41	23987.99
670.76	24104.14
671.109	24166.96
671.459	24108.21
671.808	23989.11
672.157	24077.7
672.507	23935.33
672.856	24026.63
673.205	24020.98
673.554	24169.9
673.904	24144.82
674.253	24181.43
674.602	24117.93
674.951	23751.38
675.3	23608.11
675.649	24104.14
675.998	24148.66
676.346	24132.84
676.695	24148.43
677.044	23901.66
677.393	23912.05
677.741	23994.31
678.09	23875.67
678.438	24026.63
678.787	24063.69
679.135	23963.58
679.484	23984.14
679.832	24055.1
680.181	23841.32
680.529	23918.83
680.877	23772.17
681.225	23811.72
681.573	23969.23
681.922	23819.4
682.27	23683.36
682.618	23755.45
682.966	23763.13
683.314	23839.06
683.661	23678.84
684.009	23578.96
684.357	23533.76
684.705	23552.06
685.053	23615.34
685.4	23519.75
685.748	23394.78
686.095	23435.01
686.443	23419.64
686.79	23268.68
687.138	23410.83
687.485	23282.47
687.832	23399.75
688.18	23333.76
688.527	23171.74
688.874	23149.36
689.221	23279.08
689.568	23219.42
689.915	23115.69
690.262	23136.48
690.609	23089.25
690.956	23035.47
691.303	22977.16
691.65	22774.23
691.997	22775.14
692.344	22779.66
692.69	22663.05
693.037	22787.11
693.383	22595.48
693.73	22586.44
694.077	22530.62
694.423	22575.59
694.769	22463.28
695.116	22513
695.462	22377.63
695.808	22310.97
696.155	22314.36
696.501	22191.87
696.847	22056.28
697.193	22074.14
697.539	22242.27
697.885	22059.67
698.231	21975.38
698.577	21999.11
698.923	21917.31
699.269	21873.69
699.614	21714.6
699.96	21714.15
700.306	21713.69
700.651	21607.26
700.997	21617.2
701.342	21468.5
701.688	21512.8
702.033	21424.89
702.379	21442.74
702.724	21336.3
703.069	21339.47
703.415	21077.78
703.76	21259.24
704.105	21226.02
704.45	21112.35
704.795	20991.23
705.14	21025.58
705.485	20932.02
705.83	20961.85
706.175	21014.5
706.52	20774.51
706.865	20810.67
707.209	20792.81
707.554	20712.36
707.899	20726.15
708.243	20597.11
708.588	20612.48
708.932	20524.35
709.277	20520.96
709.621	20570.45
709.966	20280.96
710.31	20528.87
710.654	20282.32
710.998	20344.92
711.342	20391.47
711.687	20302.21
712.031	20149.67
712.375	20176.56
712.719	20202.55
713.063	20200.06
713.407	20192.38
713.75	20111.7
714.094	20087.75
714.438	20103.12
714.782	20028.54
715.125	19962.1
715.469	20023.34
715.812	19962.78
716.156	19801.43
716.499	19890.69
716.843	19932.72
717.186	19788.77
717.53	19847.75
717.873	19787.64
718.216	19740.19
718.559	19671.04
718.902	19501.32
719.246	19654.54
719.589	19657.7
719.932	19558.5
720.275	19410.25
720.617	19672.39
720.96	19429.91
721.303	19436.24
721.646	19547.2
721.989	19345.17
722.331	19559.63
722.674	19287.09
723.016	19288.22
723.359	19401.66
723.701	19395.79
724.044	19271.95
724.386	19226.75
724.729	19250.48
725.071	19223.82
725.413	19233.76
725.755	19294.1
726.097	19180.43
726.439	19068.11
726.782	19139.07
727.124	19203.25
727.465	19096.14
727.807	19042.8
728.149	19062.24
728.491	19031.51
728.833	19072.18
729.175	18978.85
729.516	19036.48
729.858	18887.1
730.199	18921.68
730.541	18911.06
730.882	18989.47
731.224	18994.44
731.565	18811.17
731.906	18904.73
732.248	18887.33
732.589	18815.01
732.93	18756.71
733.271	18759.87
733.612	18855.92
733.953	18858.85
734.294	18780.89
734.635	18826.31
734.976	18744.28
735.317	18625.87
735.658	18660.67
735.999	18721.23
736.339	18723.04
736.68	18678.07
737.021	18700.44
737.361	18529.37
737.702	18683.94
738.042	18607.56
738.383	18616.15
738.723	18597.84
739.063	18576.15
739.404	18611.18
739.744	18527.34
740.084	18457.51
740.424	18562.37
740.764	18428.36
741.104	18571.86
741.444	18436.94
741.784	18411.86
742.124	18515.81
742.464	18457.51
742.804	18357.85
743.143	18309.26
743.483	18374.57
743.823	18414.35
744.162	18438.98
744.502	18403.95
744.841	18294.8
745.181	18447.34
745.52	18336.83
745.86	18280.11
746.199	18302.94
746.538	18273.11
746.877	18283.28
747.216	18371.86
747.556	18321.47
747.895	18346.1
748.234	18315.37
748.573	18239.89
748.911	18289.83
749.25	18181.81
749.589	18265.2
749.928	18250.06
750.267	18254.58
750.605	18118.31
750.944	18187.23
751.283	18084.41
751.621	18184.75
751.96	18021.14
752.298	18029.05
752.636	18036.73
752.975	18001.93
753.313	18017.29
753.651	18063.85
753.989	17985.88
754.327	17994.47
754.666	17788.15
755.004	17932.1
755.342	17979.1
755.679	17960.57
756.017	17804.42
756.355	17797.64
756.693	17793.57
757.031	17809.16
757.368	17688.04
757.706	17731.43
