Data from cardboard_FLMS001491_042.txt Node
Date: Tue Feb 07 11:39:30 GMT 2017
User: dcchb
Spectrometer: FLMS00149
Trigger mode: 0
Integration Time (sec): 2.000000E-2
Scans to average: 10
Electric dark correction enabled: true
Nonlinearity correction enabled: false
Boxcar width: 0
XAxis mode: Wavelengths
Number of Pixels in Spectrum: 2048
>>>>>Begin Spectral Data<<<<<
341.393	-24.08
341.776	-24.08
342.16	-24.08
342.543	-76.74
342.927	-71.31
343.31	-74.48
343.693	-64.53
344.077	-65.44
344.46	-73.35
344.843	-60.46
345.226	-48.04
345.61	-27.25
345.993	-12.56
346.376	15.01
346.759	13.21
347.142	29.25
347.525	32.41
347.908	66.76
348.291	76.26
348.674	93.66
349.057	99.53
349.44	139.98
349.823	132.3
350.206	168.23
350.588	177.5
350.971	206.2
351.354	197.83
351.737	232.41
352.119	236.7
352.502	251.62
352.884	259.98
353.267	252.52
353.65	278.06
354.032	289.13
354.414	302.24
354.797	299.3
355.179	316.93
355.562	335.91
355.944	307.89
356.326	326.42
356.709	311.28
357.091	302.92
357.473	320.09
357.855	354.67
358.238	338.17
358.62	313.99
359.002	323.03
359.384	327.77
359.766	320.99
360.148	330.49
360.53	339.98
360.912	324.38
361.294	310.37
361.676	316.7
362.057	335.01
362.439	317.38
362.821	313.99
363.203	325.74
363.584	311.96
363.966	291.16
364.348	297.72
364.729	309.02
365.111	292.07
365.493	296.81
365.874	307.66
366.256	293.65
366.637	315.8
367.019	287.55
367.4	292.29
367.781	323.03
368.163	297.94
368.544	282.13
368.925	277.83
369.306	290.26
369.688	299.3
370.069	298.85
370.45	313.76
370.831	307.89
371.212	290.94
371.593	300.66
371.974	298.62
372.355	299.75
372.736	304.95
373.117	297.49
373.498	288.23
373.879	305.4
374.26	294.55
374.641	313.76
375.021	293.2
375.402	306.08
375.783	298.62
376.163	301.33
376.544	298.62
376.925	320.99
377.305	309.92
377.686	306.76
378.066	314.89
378.447	329.13
378.827	317.15
379.208	319.41
379.588	316.47
379.968	304.5
380.349	302.46
380.729	315.57
381.109	313.76
381.489	306.53
381.87	331.39
382.25	290.49
382.63	338.17
383.01	315.12
383.39	312.18
383.77	321.45
384.15	321.45
384.53	312.63
384.91	340.43
385.29	331.84
385.67	313.54
386.049	346.98
386.429	327.32
386.809	325.06
387.189	326.64
387.568	327.55
387.948	331.62
388.328	342.91
388.707	330.94
389.087	360.99
389.466	349.02
389.846	341.56
390.225	346.53
390.605	347.66
390.984	338.85
391.363	332.07
391.743	372.29
392.122	371.39
392.501	359.19
392.881	351.5
393.26	367.77
393.639	334.33
394.018	350.6
394.397	371.16
394.776	352.86
395.155	373.87
395.534	365.51
395.913	367.55
396.292	365.29
396.671	346.53
397.05	342.24
397.429	357.83
397.808	354.89
398.186	361.67
398.565	368.68
398.944	367.77
399.323	352.41
399.701	365.96
400.08	349.47
400.458	362.35
400.837	384.95
401.215	356.02
401.594	381.78
401.972	367.32
402.351	369.58
402.729	366.64
403.107	373.2
403.486	393.76
403.864	395.57
404.242	371.61
404.62	355.57
404.999	400.77
405.377	393.99
405.755	398.73
406.133	390.15
406.511	386.3
406.889	387.21
407.267	392.86
407.645	387.89
408.023	394.44
408.401	383.82
408.779	396.25
409.156	391.73
409.534	416.36
409.912	417.49
410.29	398.05
410.667	438.73
411.045	411.39
411.422	422.01
411.8	418.62
412.178	404.38
412.555	407.77
412.933	442.57
413.31	437.6
413.687	417.72
414.065	451.16
414.442	443.03
414.819	461.78
415.197	437.15
415.574	446.41
415.951	443.48
416.328	455
416.705	463.14
417.082	445.28
417.46	471.27
417.837	458.17
418.214	470.82
418.591	459.07
418.967	461.56
419.344	463.36
419.721	467.66
420.098	471.95
420.475	468.34
420.852	466.98
421.228	456.81
421.605	490.48
421.982	497.49
422.358	464.04
422.735	499.75
423.111	480.09
423.488	509.69
423.864	487.32
424.241	496.36
424.617	513.98
424.994	484.83
425.37	498.39
425.746	507.88
426.123	527.32
426.499	512.63
426.875	496.58
427.251	523.93
427.627	520.31
428.003	515.11
428.379	520.54
428.756	519.63
429.132	535.68
429.507	544.72
429.883	541.78
430.259	548.33
430.635	541.78
431.011	559.18
431.387	564.15
431.763	570.25
432.138	575.9
432.514	573.42
432.89	565.96
433.265	570.48
433.641	569.58
434.016	589.01
434.392	595.56
434.767	590.37
435.143	618.16
435.518	613.42
435.894	621.78
436.269	618.61
436.644	615.68
437.02	631.04
437.395	603.47
437.77	629.23
438.145	607.77
438.52	636.69
438.895	625.62
439.271	635.11
439.646	672.85
440.021	647.99
440.395	653.42
440.77	619.74
441.145	650.93
441.52	679.18
441.895	663.58
442.27	688.67
442.645	693.41
443.019	683.24
443.394	690.7
443.769	655.45
444.143	670.82
444.518	698.61
444.892	711.72
445.267	702.91
445.641	716.92
446.016	685.5
446.39	712.4
446.764	713.75
447.139	701.32
447.513	700.65
447.887	736.12
448.262	723.7
448.636	701.55
449.01	746.29
449.384	755.33
449.758	739.29
450.132	741.55
450.506	755.33
450.88	745.84
451.254	751.72
451.628	778.84
452.002	770.02
452.376	766.18
452.75	766.63
453.123	789.68
453.497	814.77
453.871	790.13
454.244	805.73
454.618	828.78
454.992	837.82
455.365	811.15
455.739	818.38
456.112	831.72
456.486	865.16
456.859	837.36
457.232	850.25
457.606	828.78
457.979	867.87
458.352	853.41
458.725	905.16
459.099	901.32
459.472	894.09
459.845	917.81
460.218	922.11
460.591	927.76
460.964	903.8
461.337	965.5
461.71	963.24
462.083	996.91
462.456	984.03
462.829	996
463.201	981.32
463.574	987.87
463.947	994.65
464.32	1020.19
464.692	1028.32
465.065	1023.57
465.438	1058.83
465.81	1062.22
466.183	1037.36
466.555	1041.65
466.928	1068.32
467.3	1096.34
467.672	1081.88
468.045	1085.04
468.417	1110.8
468.789	1123.23
469.161	1146.51
469.534	1176.79
469.906	1173.4
470.278	1193.97
470.65	1195.32
471.022	1216.34
471.394	1238.94
471.766	1218.15
472.138	1240.07
472.51	1280.29
472.882	1285.04
473.253	1310.12
473.625	1338.82
473.997	1348.54
474.369	1341.98
474.74	1352.15
475.112	1376.33
475.484	1389.44
475.855	1416.78
476.227	1416.78
476.598	1438.03
476.97	1497.01
477.341	1520.28
477.713	1531.58
478.084	1535.65
478.455	1582.66
478.827	1591.7
479.198	1625.14
479.569	1611.36
479.94	1667.85
480.311	1670.11
480.682	1697.68
481.053	1756.21
481.424	1754.4
481.795	1801.18
482.166	1812.93
482.537	1793.95
482.908	1860.39
483.279	1895.19
483.65	1892.7
484.021	1967.73
484.391	1979.26
484.762	2027.16
485.133	1980.16
485.503	2036.88
485.874	2057.67
486.244	2095.86
486.615	2129.53
486.985	2135.41
487.356	2211.34
487.726	2170.89
488.097	2281.17
488.467	2266.25
488.837	2281.39
489.207	2325.46
489.578	2340.83
489.948	2386.7
490.318	2395.97
490.688	2452.01
491.058	2476.64
491.428	2505.12
491.798	2517.55
492.168	2577.21
492.538	2578.79
492.908	2593.03
493.278	2654.94
493.648	2652.23
494.017	2696.98
494.387	2713.93
494.757	2757.31
495.126	2788.05
495.496	2802.74
495.866	2813.13
496.235	2853.81
496.605	2869.63
496.974	2848.39
497.344	2938.1
497.713	2934.03
498.082	2939
498.452	3037.08
498.821	3033.92
499.19	3023.97
499.559	3114.14
499.928	3121.15
500.298	3127.25
500.667	3168.6
501.036	3182.61
501.405	3214.25
501.774	3185.55
502.143	3263.97
502.512	3256.06
502.88	3289.96
503.249	3304.87
503.618	3343.29
503.987	3398.88
504.356	3411.53
504.724	3429.84
505.093	3427.58
505.462	3470.74
505.83	3515.49
506.199	3530.85
506.567	3591.64
506.936	3591.64
507.304	3644.97
507.672	3632.09
508.041	3665.31
508.409	3723.84
508.777	3760.9
509.145	3755.25
509.514	3783.5
509.882	3792.09
510.25	3837.51
510.618	3875.7
510.986	3884.52
511.354	3929.49
511.722	3999.32
512.09	4064.4
512.458	4082.03
512.826	4111.18
513.193	4100.33
513.561	4106.88
513.929	4205.64
514.297	4160.89
514.664	4211.97
515.032	4288.8
515.4	4350.27
515.767	4356.59
516.135	4399.31
516.502	4345.3
516.869	4490.15
517.237	4451.73
517.604	4486.53
517.972	4568.34
518.339	4634.33
518.706	4591.39
519.073	4629.58
519.44	4656.25
519.808	4748.9
520.175	4731.95
520.542	4870.93
520.909	4905.28
521.276	4891.72
521.643	4982.79
522.009	4960.65
522.376	5056.46
522.743	5092.39
523.11	5082.68
523.477	5186.63
523.843	5186.63
524.21	5259.62
524.577	5356.12
524.943	5370.35
525.31	5399.05
525.676	5471.59
526.043	5479.5
526.409	5546.85
526.776	5606.96
527.142	5598.6
527.508	5647.86
527.874	5723.34
528.241	5779.83
528.607	5820.74
528.973	5857.8
529.339	5913.62
529.705	5964.69
530.071	5957
530.437	6046.04
530.803	6065.93
531.169	6117.68
531.535	6199.48
531.901	6180.73
532.267	6276.54
532.632	6224.34
532.998	6286.49
533.364	6366.49
533.73	6363.77
534.095	6498.46
534.461	6446.26
534.826	6570.77
535.192	6580.72
535.557	6624.56
535.923	6652.58
536.288	6674.05
536.653	6747.94
537.019	6742.97
537.384	6734.61
537.749	6844.21
538.114	6894.83
538.479	6895.96
538.845	6955.62
539.21	6963.53
539.575	7006.02
539.94	7032
540.305	7096.41
540.67	7079.46
541.034	7142.28
541.399	7163.53
541.764	7264.09
542.129	7271.55
542.494	7257.31
542.858	7340.24
543.223	7388.61
543.587	7412.79
543.952	7413.92
544.316	7472.44
544.681	7472.67
545.045	7524.65
545.41	7609.16
545.774	7620.01
546.138	7611.88
546.503	7703.63
546.867	7713.34
547.231	7816.62
547.595	7803.74
547.959	7850.51
548.324	7893
548.688	7896.84
549.052	7961.7
549.416	8041.92
549.779	7992.66
550.143	8025.42
550.507	8092.54
550.871	8161.24
551.235	8141.58
551.599	8259.99
551.962	8258.19
552.326	8312.65
552.689	8400.33
553.053	8375.7
553.417	8425.64
553.78	8558.29
554.143	8534.34
554.507	8577.73
554.87	8609.59
555.234	8693.43
555.597	8641.68
555.96	8718.51
556.323	8779.3
556.686	8798.29
557.05	8846.19
557.413	8892.07
557.776	8938.39
558.139	9036.92
558.502	9114.66
558.865	9144.94
559.228	9240.76
559.59	9199.86
559.953	9255.45
560.316	9380.19
560.679	9338.61
561.041	9411.15
561.404	9483.01
561.767	9544.71
562.129	9581.54
562.492	9672.61
562.854	9667.64
563.217	9659.28
563.579	9772.95
563.941	9845.49
564.304	9916
564.666	9959.16
565.028	10047.29
565.39	10044.13
565.753	10134.3
566.115	10161.41
566.477	10216.78
566.839	10225.59
567.201	10336.32
567.563	10387.17
567.925	10449.09
568.287	10525.92
568.648	10510.78
569.01	10565.7
569.372	10646.15
569.734	10648.18
570.095	10757.56
570.457	10733.38
570.819	10874.16
571.18	10866.03
571.542	10942.41
571.903	10857.67
572.265	11042.75
572.626	11013.37
572.987	11048.85
573.349	11111.67
573.71	11171.78
574.071	11183.08
574.432	11260.59
574.794	11320.71
575.155	11383.98
575.516	11332.46
575.877	11432.11
576.238	11446.58
576.599	11527.93
576.96	11485.67
577.32	11590.08
577.681	11664.2
578.042	11621.04
578.403	11690.86
578.763	11702.16
579.124	11754.59
579.485	11742.16
579.845	11882.27
580.206	11882.05
580.566	11864.42
580.927	11994.13
581.287	11964.08
581.648	11964.98
582.008	11981.48
582.368	11986.22
582.728	12078.88
583.089	12115.94
583.449	12069.61
583.809	12151.19
584.169	12097.41
584.529	12159.33
584.889	12273.22
585.249	12233.45
585.609	12240.23
585.969	12215.37
586.329	12245.43
586.688	12281.13
587.048	12375.82
587.408	12359.55
587.768	12338.76
588.127	12345.31
588.487	12316.61
588.846	12507.34
589.206	12381.24
589.565	12433.67
589.925	12463.27
590.284	12464.63
590.643	12557.73
591.003	12520.9
591.362	12504.63
591.721	12593.44
592.08	12568.13
592.44	12633.89
592.799	12646.77
593.158	12663.04
593.517	12746.2
593.876	12726.32
594.235	12657.39
594.593	12694.45
594.952	12703.27
595.311	12688.13
595.67	12708.92
596.029	12792.98
596.387	12842.47
596.746	12856.48
597.104	12846.77
597.463	12791.4
597.822	12927.67
598.18	12849.48
598.538	12891.51
598.897	12938.97
599.255	12846.77
599.613	13040.89
599.972	12957.05
600.33	13024.16
600.688	13013.77
601.046	13003.37
601.404	13061.45
601.762	13061.22
602.12	13172.18
602.478	13172.18
602.836	13252.86
603.194	13124.05
603.552	13141.67
603.91	13154.1
604.268	13269.35
604.625	13200.66
604.983	13266.42
605.341	13205.4
605.698	13295.57
606.056	13372.18
606.413	13346.19
606.771	13454.43
607.128	13431.84
607.485	13351.16
607.843	13417.83
608.2	13441.55
608.557	13439.97
608.914	13451.5
609.272	13554.09
609.629	13599.06
609.986	13631.38
610.343	13557.03
610.7	13704.37
611.057	13598.39
611.414	13696.91
611.771	13751.15
612.127	13733.07
612.484	13679.29
612.841	13800.87
613.198	13792.28
613.554	13751.38
613.911	13849.9
614.267	13871.82
614.624	13843.8
614.98	13941.65
615.337	13990.92
615.693	13984.14
616.05	13951.37
616.406	14124.02
616.762	14010.58
617.118	14052.84
617.475	14056.45
617.831	14121.54
618.187	14215.32
618.543	14165.83
618.899	14261.19
619.255	14242.44
619.611	14261.42
619.967	14347.52
620.323	14274.3
620.678	14335.32
621.034	14304.13
621.39	14291.25
621.746	14283.11
622.101	14437.91
622.457	14265.94
622.812	14457.8
623.168	14456.67
623.523	14488.31
623.879	14545.71
624.234	14300.29
624.589	14481.07
624.945	14430.91
625.3	14533.95
625.655	14495.54
626.01	14462.54
626.365	14588.87
626.72	14560.85
627.075	14591.13
627.43	14590.45
627.785	14480.85
628.14	14485.59
628.495	14579.15
628.85	14507.97
629.205	14510.9
629.559	14652.82
629.914	14582.09
630.269	14557.68
630.623	14502.77
630.978	14525.37
631.332	14601.52
631.687	14650.56
632.041	14597.46
632.396	14633.16
632.75	14529.21
633.104	14596.1
633.459	14561.75
633.813	14565.37
634.167	14586.83
634.521	14496.89
634.875	14499.6
635.229	14589.55
635.583	14541.41
635.937	14522.65
636.291	14576.21
636.645	14531.02
636.999	14498.93
637.352	14506.16
637.706	14492.15
638.06	14507.74
638.413	14437.46
638.767	14522.65
639.121	14521.07
639.474	14433.39
639.828	14375.77
640.181	14455.99
640.534	14482.43
640.888	14456.44
641.241	14305.94
641.594	14408.99
641.947	14401.53
642.301	14374.41
642.654	14361.76
643.007	14391.36
643.36	14421.41
643.713	14431.13
644.066	14416.89
644.419	14321.3
644.771	14293.06
645.124	14203.79
645.477	14184.81
645.83	14066.17
646.182	13925.38
646.535	14011.93
646.888	13981.2
647.24	13845.38
647.593	14018.94
647.945	13940.75
648.298	13888.1
648.65	13921.99
649.002	13883.35
649.355	13999.73
649.707	13870.02
650.059	13981.2
650.411	14190.46
650.763	14086.06
651.115	14335.32
651.467	14309.78
651.819	14268.2
652.171	14276.79
652.523	14284.47
652.875	14288.08
653.227	14167.18
653.578	14362.43
653.93	14253.06
654.282	14176.45
654.633	14170.35
654.985	14262.55
655.337	14221.65
655.688	14171.93
656.039	14347.29
656.391	14117.24
656.742	14260.29
657.094	14197.92
657.445	14224.58
657.796	14268.65
658.147	14285.15
658.498	14250.8
658.849	14211.25
659.2	14244.92
659.551	14233.62
659.902	14259.61
660.253	14187.07
660.604	14242.21
660.955	14271.81
661.306	14270.46
661.656	14159.73
662.007	14280.85
662.358	14240.4
662.708	14248.99
663.059	14229.1
663.409	14209.44
663.76	14302.55
664.11	14235.43
664.461	14295.32
664.811	14322.43
665.161	14326.05
665.511	14303
665.862	14231.36
666.212	14299.61
666.562	14288.31
666.912	14303.68
667.262	14234.07
667.612	14317.24
667.962	14325.37
668.312	14281.98
668.662	14333.96
669.011	14313.85
669.361	14305.71
669.711	14293.73
670.06	14231.14
670.41	14352.72
670.76	14291.7
671.109	14321.08
671.459	14312.94
671.808	14277.92
672.157	14279.27
672.507	14306.84
672.856	14204.02
673.205	14290.12
673.554	14316.11
673.904	14261.42
674.253	14350.91
674.602	14271.14
674.951	14111.59
675.3	14030.24
675.649	14257.13
675.998	14275.66
676.346	14261.64
676.695	14253.74
677.044	14200.4
677.393	14191.14
677.741	14348.87
678.09	14251.7
678.438	14130.35
678.787	14295.99
679.135	14173.51
679.484	14192.27
679.832	14208.99
680.181	14134.42
680.529	14149.78
680.877	14120.63
681.225	14067.98
681.573	14268.42
681.922	14092.38
682.27	14087.86
682.618	14095.1
682.966	14124.47
683.314	14141.87
683.661	14015.78
684.009	14031.14
684.357	13976.68
684.705	13970.35
685.053	14015.32
685.4	13972.61
685.748	13968.09
686.095	13936.91
686.443	13914.99
686.79	13859.85
687.138	13941.65
687.485	13928.32
687.832	13860.07
688.18	13786.18
688.527	13860.98
688.874	13901.88
689.221	13770.58
689.568	13688.33
689.915	13770.81
690.262	13667.08
690.609	13708.89
690.956	13599.74
691.303	13654.43
691.65	13549.57
691.997	13595.22
692.344	13480.42
692.69	13566.52
693.037	13516.35
693.383	13390.26
693.73	13481.33
694.077	13408.56
694.423	13371.5
694.769	13427.54
695.116	13300.99
695.462	13373.76
695.808	13341.44
696.155	13310.71
696.501	13311.39
696.847	13249.02
697.193	13149.36
697.539	13157.49
697.885	13141.22
698.231	13046.99
698.577	13124.27
698.923	13066.2
699.269	13021.68
699.614	13044.05
699.96	13050.83
700.306	12901
700.651	12999.98
700.997	12902.36
701.342	12797.95
701.688	12890.61
702.033	12725.64
702.379	12816.26
702.724	12690.61
703.069	12842.02
703.415	12635.7
703.76	12693.1
704.105	12643.16
704.45	12656.94
704.795	12630.5
705.14	12510.5
705.485	12579.66
705.83	12489.26
706.175	12520
706.52	12504.85
706.865	12440.68
707.209	12482.48
707.554	12365.65
707.899	12441.13
708.243	12283.62
708.588	12304.41
708.932	12223.73
709.277	12268.02
709.621	12331.75
709.966	12120.91
710.31	12243.84
710.654	12119.1
710.998	12126.33
711.342	12181.47
711.687	12110.74
712.031	12102.15
712.375	12077.97
712.719	12132.21
713.063	12086.33
713.407	12088.37
713.75	11939.9
714.094	12042.72
714.438	11927.47
714.782	11934.47
715.125	11877.53
715.469	11987.81
715.812	11907.36
716.156	11901.25
716.499	11830.52
716.843	11800.01
717.186	11879.56
717.53	11913.46
717.873	11887.24
718.216	11793.69
718.559	11830.07
718.902	11709.85
719.246	11798.66
719.589	11771.99
719.932	11774.93
720.275	11688.83
720.617	11649.74
720.96	11641.15
721.303	11712.79
721.646	11666.68
721.989	11596.4
722.331	11652.45
722.674	11611.09
723.016	11648.61
723.359	11654.71
723.701	11674.82
724.044	11614.93
724.386	11505.33
724.729	11623.97
725.071	11541.49
725.413	11569.74
725.755	11546.69
726.097	11542.39
726.439	11511.21
726.782	11503.75
727.124	11546.01
727.465	11450.87
727.807	11503.75
728.149	11485.9
728.491	11395.28
728.833	11402.06
729.175	11389.63
729.516	11373.13
729.858	11402.74
730.199	11440.93
730.541	11367.94
730.882	11371.33
731.224	11368.61
731.565	11281.61
731.906	11347.6
732.248	11340.82
732.589	11297.43
732.93	11273.47
733.271	11341.04
733.612	11289.07
733.953	11313.7
734.294	11227.6
734.635	11298.56
734.976	11249.07
735.317	11180.6
735.658	11205.45
735.999	11180.14
736.339	11239.35
736.68	11247.49
737.021	11205.91
737.361	11183.53
737.702	11249.07
738.042	11175.4
738.383	11218.33
738.723	11219.46
739.063	11165.68
739.404	11167.71
739.744	11162.29
740.084	11090.65
740.424	11205.91
740.764	11146.47
741.104	11119.35
741.444	11138.11
741.784	11071.67
742.124	11067.6
742.464	11143.99
742.804	11076.19
743.143	10979.92
743.483	11101.73
743.823	11037.32
744.162	10978.57
744.502	11072.12
744.841	11085.46
745.181	11005.46
745.52	11030.77
745.86	11044.55
746.199	11038.45
746.538	11029.87
746.877	11020.6
747.216	11035.29
747.556	10948.29
747.895	10993.26
748.234	10981.73
748.573	10964.33
748.911	10867.38
749.25	10998.23
749.589	10895.18
749.928	10950.55
750.267	10941.96
750.605	10885.91
750.944	10831.9
751.283	10861.96
751.621	10894.05
751.96	10816.99
752.298	10917.78
752.636	10879.81
752.975	10802.07
753.313	10720.72
753.651	10856.99
753.989	10802.75
754.327	10822.19
754.666	10710.55
755.004	10774.05
755.342	10722.98
755.679	10731.12
756.017	10661.51
756.355	10685.02
756.693	10671.91
757.031	10719.59
757.368	10636.43
757.706	10673.26
758.044	10594.17
758.381	10676.43
758.719	10582.65
759.056	10550.1
759.394	10504.46
759.731	10512.36
