Data from cardboard_FLMS001491_096.txt Node
Date: Tue Feb 07 11:40:26 GMT 2017
User: dcchb
Spectrometer: FLMS00149
Trigger mode: 0
Integration Time (sec): 2.000000E-2
Scans to average: 10
Electric dark correction enabled: true
Nonlinearity correction enabled: false
Boxcar width: 0
XAxis mode: Wavelengths
Number of Pixels in Spectrum: 2048
>>>>>Begin Spectral Data<<<<<
341.393	-24.73
341.776	-24.73
342.16	-24.73
342.543	-47.33
342.927	-75.8
343.31	-52.53
343.693	-66.76
344.077	-64.05
344.46	-29.25
344.843	-63.15
345.226	-65.86
345.61	-26.99
345.993	-18.18
346.376	-1.91
346.759	4.87
347.142	32.44
347.525	33.57
347.908	52.33
348.291	66.11
348.674	84.87
349.057	114.47
349.44	116.73
349.823	159.22
350.206	168.71
350.588	212.55
350.971	216.17
351.354	222.27
351.737	212.78
352.119	247.8
352.502	268.59
352.884	258.88
353.267	280.8
353.65	294.81
354.032	292.1
354.414	304.07
354.797	305.43
355.179	338.88
355.562	323.73
355.944	343.85
356.326	340.46
356.709	326.22
357.091	343.85
357.473	315.83
357.855	349.95
358.238	306.79
358.62	323.73
359.002	344.52
359.384	343.17
359.766	361.02
360.148	335.26
360.53	354.47
360.912	333.9
361.294	323.28
361.676	330.97
362.057	351.3
362.439	336.62
362.821	333.45
363.203	335.26
363.584	332.1
363.966	344.75
364.348	327.8
364.729	315.83
365.111	343.39
365.493	325.09
365.874	319.44
366.256	333
366.637	291.19
367.019	318.54
367.4	315.6
367.781	319.89
368.163	326.22
368.544	314.47
368.925	322.38
369.306	335.03
369.688	312.21
370.069	324.19
370.45	318.08
370.831	326.67
371.212	315.83
371.593	327.12
371.974	324.64
372.355	330.97
372.736	318.08
373.117	335.49
373.498	330.51
373.879	345.88
374.26	331.87
374.641	320.57
375.021	329.16
375.402	330.97
375.783	307.69
376.163	317.18
376.544	337.29
376.925	318.08
377.305	325.32
377.686	333
378.066	339.1
378.447	340.01
378.827	333.45
379.208	321.02
379.588	325.32
379.968	332.77
380.349	353.79
380.729	345.2
381.109	347.24
381.489	351.3
381.87	326.45
382.25	326.67
382.63	333.68
383.01	339.1
383.39	367.12
383.77	376.61
384.15	342.49
384.53	355.6
384.91	363.51
385.29	340.01
385.67	344.07
386.049	348.82
386.429	348.37
386.809	349.27
387.189	346.33
387.568	373
387.948	373.22
388.328	371.42
388.707	367.8
389.087	356.73
389.466	376.61
389.846	375.48
390.225	367.35
390.605	380
390.984	381.59
391.363	368.48
391.743	394.02
392.122	391.08
392.501	391.76
392.881	374.58
393.26	379.33
393.639	395.37
394.018	391.3
394.397	408.93
394.776	389.95
395.155	393.11
395.534	391.76
395.913	392.21
396.292	409.16
396.671	402.15
397.05	375.94
397.429	385.88
397.808	379.55
398.186	398.31
398.565	405.31
398.944	420.23
399.323	413.9
399.701	408.03
400.08	398.76
400.458	408.25
400.837	415.26
401.215	431.3
401.594	410.51
401.972	421.36
402.351	422.71
402.729	438.31
403.107	432.66
403.486	451.64
403.864	423.62
404.242	423.17
404.62	450.06
404.999	430.85
405.377	435.82
405.755	455.48
406.133	453.45
406.511	457.29
406.889	438.99
407.267	465.2
407.645	448.25
408.023	452.54
408.401	488.93
408.779	482.6
409.156	506.33
409.534	472.88
409.912	481.92
410.29	493
410.667	500.45
411.045	488.48
411.422	498.65
411.8	509.04
412.178	505.2
412.555	498.19
412.933	512.88
413.31	525.31
413.687	539.77
414.065	528.02
414.442	534.35
414.819	521.47
415.197	515.14
415.574	538.42
415.951	537.51
416.328	532.54
416.705	557.17
417.082	541.13
417.46	570.96
417.837	544.97
418.214	579.32
418.591	587.46
418.967	576.38
419.344	586.55
419.721	581.13
420.098	581.35
420.475	593.56
420.852	584.97
421.228	585.65
421.605	615.03
421.982	613.9
422.358	607.34
422.735	612.09
423.111	603.28
423.488	637.62
423.864	624.29
424.241	634.46
424.617	625.87
424.994	631.75
425.37	622.94
425.746	631.97
426.123	656.83
426.499	646.66
426.875	671.07
427.251	691.86
427.627	667.68
428.003	686.21
428.379	676.27
428.756	678.75
429.132	685.98
429.507	680.56
429.883	706.78
430.259	715.14
430.635	723.27
431.011	730.28
431.387	750.62
431.763	753.1
432.138	750.39
432.514	741.35
432.89	748.58
433.265	767.79
433.641	764.63
434.016	785.87
434.392	755.14
434.767	808.92
435.143	763.72
435.518	812.54
435.894	810.28
436.269	831.97
436.644	822.03
437.02	826.09
437.395	813.44
437.77	830.16
438.145	834
438.52	868.58
438.895	873.55
439.271	863.83
439.646	883.49
440.021	900.44
440.395	878.97
440.77	894.79
441.145	897.28
441.52	897.05
441.895	907.45
442.27	911.06
442.645	917.62
443.019	922.14
443.394	931.63
443.769	930.72
444.143	935.24
444.518	971.4
444.892	961.91
445.267	928.92
445.641	980.44
446.016	980.44
446.39	952.64
446.764	956.94
447.139	983.6
447.513	994.9
447.887	997.62
448.262	1004.17
448.636	1008.24
449.01	1013.89
449.384	1012.98
449.758	1036.94
450.132	1046.88
450.506	1049.82
450.88	1024.05
451.254	1052.98
451.628	1093.66
452.002	1053.66
452.376	1090.72
452.75	1077.61
453.123	1088.91
453.497	1132.3
453.871	1116.48
454.244	1135.46
454.618	1151.51
454.992	1154.45
455.365	1170.27
455.739	1175.01
456.112	1205.07
456.486	1193.99
456.859	1188.57
457.232	1233.09
457.606	1203.94
457.979	1236.48
458.352	1230.83
458.725	1261.34
459.099	1281.68
459.472	1322.8
459.845	1320.77
460.218	1345.85
460.591	1321
460.964	1345.4
461.337	1362.35
461.71	1361.9
462.083	1386.31
462.456	1417.94
462.829	1462.46
463.201	1438.73
463.574	1441.9
463.947	1445.96
464.32	1483.48
464.692	1471.5
465.065	1485.74
465.438	1519.18
465.81	1545.4
466.183	1560.76
466.555	1626.3
466.928	1585.62
467.3	1584.72
467.672	1610.25
468.045	1639.63
468.417	1667.88
468.789	1662.46
469.161	1727.77
469.534	1706.52
469.906	1768.44
470.278	1784.71
470.65	1760.98
471.022	1810.47
471.394	1845.5
471.766	1857.25
472.138	1847.99
472.51	1903.81
472.882	1941.09
473.253	1963.92
473.625	2003.69
473.997	2024.71
474.369	2028.55
474.74	2069.23
475.112	2094.54
475.484	2141.54
475.855	2148.09
476.227	2205.94
476.598	2254.08
476.97	2234.42
477.341	2321.87
477.713	2328.43
478.084	2379.5
478.455	2424.02
478.827	2461.31
479.198	2527.97
479.569	2503.34
479.94	2583.56
480.311	2595.77
480.682	2654.52
481.053	2699.49
481.424	2796.66
481.795	2757.57
482.166	2830.79
482.537	2843.44
482.908	2937.45
483.279	2946.26
483.65	2972.25
484.021	3057
484.391	3099.03
484.762	3096.09
485.133	3151.68
485.503	3181.29
485.874	3305.58
486.244	3322.98
486.615	3366.82
486.985	3414.73
487.356	3476.87
487.726	3492.69
488.097	3546.93
488.467	3553.93
488.837	3697.43
489.207	3699.69
489.578	3739.01
489.948	3778.56
490.318	3851.1
490.688	3884.09
491.058	3957.99
491.428	3984.43
491.798	4071.88
492.168	4158.89
492.538	4130.64
492.908	4220.58
493.278	4243.86
493.648	4279.79
494.017	4339.22
494.387	4400.46
494.757	4434.59
495.126	4496.05
495.496	4545.32
495.866	4578.31
496.235	4587.35
496.605	4683.62
496.974	4720.91
497.344	4724.52
497.713	4794.8
498.082	4834.12
498.452	4897.63
498.821	4936.49
499.19	4964.97
499.559	5032.31
499.928	5064.63
500.298	5088.13
500.667	5125.19
501.036	5183.72
501.405	5251.51
501.774	5291.74
502.143	5312.3
502.512	5349.82
502.88	5423.49
503.249	5448.12
503.618	5477.27
503.987	5529.02
504.356	5567.44
504.724	5617.15
505.093	5644.95
505.462	5659.87
505.83	5764.5
506.199	5844.72
506.567	5879.75
506.936	5905.28
507.304	6004.26
507.672	6081.78
508.041	6090.59
508.409	6138.95
508.777	6195.9
509.145	6254.65
509.514	6312.96
509.882	6331.94
510.25	6418.72
510.618	6501.43
510.986	6442.22
511.354	6543.01
511.722	6628.2
512.09	6670.01
512.458	6711.36
512.826	6820.51
513.193	6808.76
513.561	6902.32
513.929	6983.9
514.297	7053.05
514.664	7080.39
515.032	7140.96
515.4	7248.75
515.767	7279.03
516.135	7352.25
516.502	7369.88
516.869	7509.76
517.237	7533.94
517.604	7496.43
517.972	7726.48
518.339	7693.03
518.706	7738.68
519.073	7863.88
519.44	7914.04
519.808	8016.41
520.175	8038.33
520.542	8150.2
520.909	8231.55
521.276	8291.43
521.643	8358.1
522.009	8444.88
522.376	8567.36
522.743	8587.92
523.11	8740.46
523.477	8730.29
523.843	8857.07
524.21	8945.2
524.577	9062.49
524.943	9075.37
525.31	9203.95
525.676	9327.79
526.043	9318.53
526.409	9453.89
526.776	9622.02
527.142	9615.24
527.508	9710.61
527.874	9781.79
528.241	9898.62
528.607	9914.22
528.973	9962.8
529.339	10110.14
529.705	10137.26
530.071	10268.33
530.437	10342.23
530.803	10450.25
531.169	10473.98
531.535	10562.34
531.901	10654.08
532.267	10671.03
532.632	10751.03
532.998	10870.8
533.364	10917.13
533.73	10972.04
534.095	11155.09
534.461	11108.99
534.826	11240.96
535.192	11249.32
535.557	11398.25
535.923	11488.86
536.288	11520.73
536.653	11579.71
537.019	11566.6
537.384	11745.81
537.749	11732.93
538.114	11795.07
538.479	11904.22
538.845	11973.82
539.21	11947.38
539.575	12059.47
539.94	12189.64
540.305	12262.4
540.67	12356.19
541.034	12394.6
541.399	12409.07
541.764	12457.2
542.129	12623.98
542.494	12610.19
542.858	12685.44
543.223	12806.8
543.587	12862.16
543.952	12778.77
544.316	12953.23
544.681	13035.49
545.045	13124.3
545.41	13141.93
545.774	13191.19
546.138	13277.29
546.503	13406.1
546.867	13449.27
547.231	13517.96
547.595	13497.85
547.959	13632.54
548.324	13731.29
548.688	13741.46
549.052	13849.93
549.416	13894.68
549.779	13951.17
550.143	14023.04
550.507	14214.44
550.871	14234.33
551.235	14269.36
551.599	14353.42
551.962	14396.36
552.326	14477.94
552.689	14614.21
553.053	14568.11
553.417	14619.63
553.78	14875.89
554.143	14837.03
554.507	15019.17
554.87	15064.59
555.234	15178.26
555.597	15144.59
555.96	15257.35
556.323	15357.46
556.686	15413.06
557.05	15583.9
557.413	15594.52
557.776	15668.87
558.139	15846.49
558.502	15832.25
558.865	15987.28
559.228	16093.72
559.59	16171.23
559.953	16262.52
560.316	16479.47
560.679	16476.98
561.041	16602.63
561.404	16687.37
561.767	16787.93
562.129	16817.76
562.492	16961.94
562.854	17010.53
563.217	17125.55
563.579	17207.58
563.941	17404.64
564.304	17377.07
564.666	17519.21
565.028	17615.26
565.39	17654.13
565.753	17717.63
566.115	17851.86
566.477	17932.31
566.839	18052.76
567.201	18210.72
567.563	18278.52
567.925	18442.13
568.287	18369.14
568.648	18432.41
569.01	18600.99
569.372	18877.37
569.734	18683.48
570.095	19008.89
570.457	19068.33
570.819	19109
571.18	19050.47
571.542	19291.6
571.903	19302.67
572.265	19408.2
572.626	19544.7
572.987	19539.5
573.349	19670.12
573.71	19624.47
574.071	19902.65
574.432	19850.23
574.794	20150.78
575.155	20074.63
575.516	20072.82
575.877	20132.71
576.238	20177.45
576.599	20321.17
576.96	20368.63
577.32	20447.73
577.681	20570.66
578.042	20568.4
578.403	20704.89
578.763	20671.9
579.124	20760.71
579.485	20874.61
579.845	21036.64
580.206	21017.65
580.566	21028.73
580.927	21107.37
581.287	21188.5
581.648	21200.25
582.008	21323.18
582.368	21265.78
582.728	21303.3
583.089	21414.93
583.449	21448.38
583.809	21513.69
584.169	21621.03
584.529	21494.03
584.889	21721.59
585.249	21681.36
585.609	21680.01
585.969	21868.48
586.329	21734.24
586.688	21701.7
587.048	21851.08
587.408	21816.28
587.768	21937.18
588.127	21912.55
588.487	21999.1
588.846	22151.64
589.206	22119.77
589.565	22025.99
589.925	22302.59
590.284	22225.08
590.643	22216.94
591.003	22329.48
591.362	22411.74
591.721	22361.8
592.08	22423.94
592.44	22644.96
592.799	22520.66
593.158	22491.97
593.517	22476.6
593.876	22605.18
594.235	22578.97
594.593	22655.35
594.952	22677.27
595.311	22674.56
595.67	22691.06
596.029	22816.25
596.387	22925.4
596.746	22812.86
597.104	22909.58
597.463	22901.45
597.822	22982.12
598.18	23032.74
598.538	23050.59
598.897	23252.17
599.255	22992.52
599.613	23240.42
599.972	23143.02
600.33	23269.12
600.688	23155.45
601.046	23339.4
601.404	23448.78
601.762	23495.55
602.12	23500.75
602.478	23643.57
602.836	23626.4
603.194	23498.04
603.552	23583.69
603.91	23582.11
604.268	23617.13
604.625	23725.83
604.983	23803.12
605.341	23670.92
605.698	23781.87
606.056	23916.56
606.413	23982.32
606.771	24023.22
607.128	24114.3
607.485	23938.48
607.843	23979.84
608.2	24158.59
608.557	24203.78
608.914	24218.02
609.272	24250.56
609.629	24403.78
609.986	24469.99
610.343	24466.83
610.7	24590.44
611.057	24582.98
611.414	24600.84
611.771	24628.63
612.127	24656.88
612.484	24782.98
612.841	24902.98
613.198	24747.05
613.554	24714.05
613.911	24979.81
614.267	24924.22
614.624	25020.49
614.98	25050.99
615.337	25074.72
615.693	25062.52
616.05	25198.56
616.406	25324.66
616.762	25204.89
617.118	25183.42
617.475	25279.69
617.831	25438.78
618.187	25431.1
618.543	25507.25
618.899	25601.26
619.255	25564.88
619.611	25579.34
619.967	25636.74
620.323	25774.82
620.678	25766.23
621.034	25681.49
621.39	25732.56
621.746	25735.95
622.101	25989.95
622.457	25761.26
622.812	25842.84
623.168	25944.76
623.523	25919.9
623.879	25968.48
624.234	25899.56
624.589	25916.73
624.945	25920.12
625.3	25979.33
625.655	26091.87
626.01	26044.19
626.365	26110.4
626.72	26084.19
627.075	26016.62
627.43	26080.57
627.785	26061.14
628.14	26107.24
628.495	26085.99
628.85	26134.13
629.205	26060.68
629.559	26314.46
629.914	26147.46
630.269	26194.47
630.623	26070.63
630.978	26115.15
631.332	26288.7
631.687	26242.15
632.041	26123.28
632.396	26144.98
632.75	26083.96
633.104	26214.81
633.459	26100.91
633.813	26129.84
634.167	25989.05
634.521	26017.97
634.875	26203.73
635.229	26116.5
635.583	25946.11
635.937	26004.64
636.291	26087.58
636.645	26029.5
636.999	25981.36
637.352	26100.01
637.706	25934.13
638.06	25942.5
638.413	25933.23
638.767	25958.54
639.121	26018.2
639.474	25815.27
639.828	25830.41
640.181	25904.08
640.534	25947.92
640.888	25797.19
641.241	25726.23
641.594	25874.48
641.947	25910.18
642.301	25813.01
642.654	25805.32
643.007	25834.02
643.36	25836.74
643.713	25806.23
644.066	25933.91
644.419	25692.33
644.771	25591.09
645.124	25468.16
645.477	25330.08
645.83	25180.03
646.182	25056.64
646.535	25077.43
646.888	25213.25
647.24	24997.44
647.593	25129.18
647.945	25068.62
648.298	25034.27
648.65	25011.67
649.002	24926.25
649.355	25055.06
649.707	24956.76
650.059	25125.79
650.411	25458.44
650.763	25559.46
651.115	25736.17
651.467	25594.48
651.819	25676.74
652.171	25619.11
652.523	25580.47
652.875	25650.3
653.227	25516.07
653.578	25676.51
653.93	25617.31
654.282	25443.98
654.633	25447.82
654.985	25493.69
655.337	25532.34
655.688	25559.23
656.039	25726.68
656.391	25405.56
656.742	25456.63
657.094	25513.58
657.445	25587.93
657.796	25648.49
658.147	25481.27
658.498	25455.95
658.849	25583.41
659.2	25528.5
659.551	25490.76
659.902	25538.89
660.253	25562.84
660.604	25631.32
660.955	25462.96
661.306	25577.53
661.656	25552.9
662.007	25566.69
662.358	25555.16
662.708	25706.8
663.059	25571.66
663.409	25455.95
663.76	25680.58
664.11	25544.09
664.461	25551.55
664.811	25561.71
665.161	25690.53
665.511	25657.08
665.862	25732.56
666.212	25724.65
666.562	25780.24
666.912	25627.25
667.262	25614.37
667.612	25468.16
667.962	25615.27
668.312	25580.92
668.662	25755.38
669.011	25592.45
669.361	25541.83
669.711	25616.85
670.06	25536.4
670.41	25462.28
670.76	25653.69
671.109	25717.64
671.459	25562.84
671.808	25448.05
672.157	25595.16
672.507	25541.15
672.856	25616.18
673.205	25603.75
673.554	25659.11
673.904	25677.87
674.253	25566.23
674.602	25637.42
674.951	25335.51
675.3	25260.71
675.649	25514.26
675.998	25607.59
676.346	25517.87
676.695	25638.55
677.044	25415.28
677.393	25464.09
677.741	25502.28
678.09	25457.54
678.438	25389.52
678.787	25472.9
679.135	25432
679.484	25347.26
679.832	25408.72
680.181	25304.32
680.529	25417.31
680.877	25294.38
681.225	25326.92
681.573	25354.26
681.922	25198.56
682.27	25294.38
682.618	25227.26
682.966	25166.92
683.314	25315.39
683.661	25118.11
684.009	24933.71
684.357	24987.49
684.705	24950.21
685.053	25034.95
685.4	24959.7
685.748	24890.55
686.095	24798.57
686.443	24878.12
686.79	24787.5
687.138	24801.96
687.485	24847.84
687.832	24742.3
688.18	24743.43
688.527	24728.06
688.874	24612.36
689.221	24617.11
689.568	24568.97
689.915	24317.68
690.262	24463.21
690.609	24381.41
690.956	24370.33
691.303	24424.12
691.65	24305.02
691.997	24166.05
692.344	24145.25
692.69	23992.72
693.037	24005.15
693.383	23963.79
693.73	24012.15
694.077	23903
694.423	23830.01
694.769	23886.28
695.116	23769.45
695.462	23817.35
695.808	23673.4
696.155	23704.36
696.501	23601.99
696.847	23559.06
697.193	23490.58
697.539	23418.72
697.885	23379.17
698.231	23349.57
698.577	23309.12
698.923	23269.8
699.269	23184.6
699.614	23022.35
699.96	23003.82
700.306	23021.44
700.651	22860.09
700.997	22835.01
701.342	22908
701.688	22852.41
702.033	22825.74
702.379	22789.36
702.724	22692.19
703.069	22785.97
703.415	22530.61
703.76	22516.15
704.105	22587.78
704.45	22410.84
704.795	22372.42
705.14	22390.27
705.485	22308.69
705.83	22199.32
706.175	22260.11
706.52	22081.35
706.865	22131.07
707.209	22058.98
707.554	21994.8
707.899	22009.49
708.243	22002.71
708.588	21887.24
708.932	21731.08
709.277	21740.57
709.621	21847.01
709.966	21711.42
710.31	21737.18
710.654	21511.43
710.998	21627.36
711.342	21534.25
711.687	21563.63
712.031	21380.81
712.375	21376.29
712.719	21433.69
713.063	21431.88
713.407	21452.22
713.75	21430.07
714.094	21270.53
714.438	21257.42
714.782	21286.8
715.125	21292
715.469	21359.11
715.812	21159.12
716.156	20978.11
716.499	21154.83
716.843	21127.26
717.186	21036.41
717.53	21184.43
717.873	21027.14
718.216	21014.94
718.559	20878.22
718.902	20875.06
719.246	20992.34
719.589	20827.83
719.932	20805.23
720.275	20716.19
720.617	20763.42
720.96	20686.59
721.303	20776.53
721.646	20676.65
721.989	20555.52
722.331	20657.66
722.674	20572.92
723.016	20654.5
723.359	20538.57
723.701	20685.46
724.044	20501.73
724.386	20394.39
724.729	20603.88
725.071	20427.84
725.413	20325.69
725.755	20428.29
726.097	20307.16
726.439	20249.76
726.782	20287.05
727.124	20514.16
727.465	20256.09
727.807	20355.3
728.149	20278.24
728.491	20269.65
728.833	20252.02
729.175	20188.97
729.516	20207.96
729.858	20130.22
730.199	20125.93
730.541	20141.07
730.882	20114.63
731.224	20149.65
731.565	20000.51
731.906	19979.71
732.248	20035.08
732.589	19905.37
732.93	19928.64
733.271	20012.93
733.612	20075.08
733.953	19905.59
734.294	19972.26
734.635	19919.15
734.976	19911.92
735.317	19826.05
735.658	19807.97
735.999	19884.8
736.339	19854.75
736.68	19829.89
737.021	19762.55
737.361	19720.51
737.702	19866.5
738.042	19692.26
738.383	19743.56
738.723	19755.31
739.063	19654.3
739.404	19790.12
739.744	19755.77
740.084	19614.75
740.424	19631.7
740.764	19524.13
741.104	19842.09
741.444	19572.49
741.784	19546.73
742.124	19656.11
742.464	19629.44
742.804	19523.46
743.143	19568.43
743.483	19549.9
743.823	19460.18
744.162	19459.73
744.502	19502.67
744.841	19463.12
745.181	19567.07
745.52	19446.17
745.86	19431.03
746.199	19413.4
746.538	19420.63
746.877	19458.15
747.216	19501.99
747.556	19419.96
747.895	19386.06
748.234	19383.35
748.573	19340.64
748.911	19244.82
749.25	19323.91
749.589	19255.89
749.928	19354.65
750.267	19277.13
750.605	19205.5
750.944	19264.25
751.283	19154.88
751.621	19225.61
751.96	19169.57
752.298	19173.63
752.636	19131.15
752.975	19094.31
753.313	19040.98
753.651	19122.79
753.989	18962.11
754.327	19064.03
754.666	18980.42
755.004	19038.95
755.342	19111.26
755.679	19024.03
756.017	18956.24
756.355	19021.32
756.693	18943.58
757.031	18871.27
757.368	18815
757.706	18941.32
