Data from cardboard_FLMS001491_071.txt Node
Date: Tue Feb 07 11:40:06 GMT 2017
User: dcchb
Spectrometer: FLMS00149
Trigger mode: 0
Integration Time (sec): 2.000000E-2
Scans to average: 10
Electric dark correction enabled: true
Nonlinearity correction enabled: false
Boxcar width: 0
XAxis mode: Wavelengths
Number of Pixels in Spectrum: 2048
>>>>>Begin Spectral Data<<<<<
341.393	-2.13
341.776	-2.13
342.16	-2.13
342.543	-70.15
342.927	-73.09
343.31	-73.54
343.693	-71.06
344.077	-51.85
344.46	-37.39
344.843	-59.76
345.226	-30.61
345.61	-26.31
345.993	-22.25
346.376	-9.82
346.759	25.66
347.142	15.27
347.525	34.93
347.908	50.3
348.291	63.4
348.674	87.13
349.057	105.89
349.44	123.06
349.823	144.98
350.206	164.19
350.588	218.43
350.971	205.55
351.354	221.59
351.737	234.92
352.119	268.59
352.502	284.87
352.884	264.98
353.267	249.16
353.65	288.03
354.032	295.94
354.414	290.29
354.797	299.33
355.179	332.77
355.562	313.79
355.944	333.68
356.326	323.96
356.709	333.45
357.091	317.18
357.473	344.52
357.855	343.17
358.238	344.98
358.62	349.95
359.002	325.99
359.384	335.94
359.766	337.29
360.148	345.2
360.53	343.39
360.912	315.6
361.294	343.39
361.676	322.38
362.057	337.29
362.439	303.62
362.821	316.5
363.203	324.19
363.584	333.9
363.966	318.76
364.348	325.54
364.729	311.76
365.111	318.99
365.493	316.73
365.874	325.77
366.256	309.5
366.637	294.58
367.019	317.41
367.4	315.15
367.781	297.52
368.163	315.6
368.544	298.2
368.925	315.37
369.306	303.4
369.688	306.56
370.069	321.25
370.45	309.27
370.831	301.14
371.212	321.02
371.593	316.05
371.974	287.13
372.355	293.9
372.736	302.94
373.117	327.35
373.498	328.48
373.879	312.21
374.26	324.64
374.641	315.6
375.021	320.12
375.402	320.34
375.783	324.86
376.163	314.02
376.544	341.81
376.925	318.54
377.305	300.91
377.686	324.19
378.066	332.55
378.447	298.88
378.827	306.56
379.208	307.46
379.588	310.4
379.968	317.41
380.349	332.77
380.729	325.54
381.109	303.4
381.489	327.8
381.87	349.27
382.25	332.1
382.63	351.76
383.01	333
383.39	338.88
383.77	330.74
384.15	336.16
384.53	357.86
384.91	357.41
385.29	342.27
385.67	335.49
386.049	362.15
386.429	348.14
386.809	340.23
387.189	349.5
387.568	340.68
387.948	350.63
388.328	353.56
388.707	340.01
389.087	365.99
389.466	357.63
389.846	363.96
390.225	367.35
390.605	349.72
390.984	361.7
391.363	357.18
391.743	364.41
392.122	347.46
392.501	375.71
392.881	372.09
393.26	374.81
393.639	366.45
394.018	372.32
394.397	374.58
394.776	367.58
395.155	376.39
395.534	378.87
395.913	379.55
396.292	374.81
396.671	377.52
397.05	391.76
397.429	394.69
397.808	378.42
398.186	381.13
398.565	401.92
398.944	381.81
399.323	387.46
399.701	389.5
400.08	372.77
400.458	424.75
400.837	402.83
401.215	402.83
401.594	400.34
401.972	393.56
402.351	412.55
402.729	408.93
403.107	394.47
403.486	416.84
403.864	417.07
404.242	424.3
404.62	432.88
404.999	409.16
405.377	423.17
405.755	429.49
406.133	435.82
406.511	426.1
406.889	418.65
407.267	427.46
407.645	432.21
408.023	447.8
408.401	446.67
408.779	456.84
409.156	460.45
409.534	447.35
409.912	448.02
410.29	464.07
410.667	456.84
411.045	483.73
411.422	489.61
411.8	495.26
412.178	472.43
412.555	466.56
412.933	476.72
413.31	469.04
413.687	487.57
414.065	501.13
414.442	483.28
414.819	495.71
415.197	509.49
415.574	495.71
415.951	509.72
416.328	510.17
416.705	519.66
417.082	500.23
417.46	515.37
417.837	511.53
418.214	503.84
418.591	514.46
418.967	528.93
419.344	531.64
419.721	552.2
420.098	532.09
420.475	552.88
420.852	537.51
421.228	542.94
421.605	554.46
421.982	557.17
422.358	580
422.735	581.13
423.111	581.35
423.488	581.58
423.864	588.81
424.241	575.03
424.617	588.36
424.994	576.84
425.37	581.81
425.746	575.71
426.123	603.05
426.499	579.09
426.875	599.43
427.251	597.4
427.627	615.48
428.003	623.61
428.379	608.92
428.756	626.1
429.132	634.46
429.507	630.17
429.883	652.54
430.259	650.73
430.635	640.56
431.011	663.16
431.387	668.81
431.763	668.36
432.138	667.68
432.514	700.67
432.89	693.89
433.265	671.07
433.641	700.67
434.016	720.11
434.392	707.91
434.767	712.88
435.143	723.95
435.518	703.16
435.894	729.37
436.269	742.03
436.644	747.9
437.02	718.53
437.395	768.47
437.77	744.51
438.145	768.69
438.52	770.28
438.895	791.97
439.271	776.83
439.646	787.45
440.021	801.69
440.395	801.01
440.77	795.81
441.145	799.43
441.52	817.05
441.895	831.29
442.27	809.6
442.645	823.38
443.019	825.42
443.394	841.46
443.769	840.56
444.143	847.79
444.518	871.06
444.892	831.74
445.267	843.95
445.641	851.86
446.016	854.12
446.39	879.65
446.764	892.76
447.139	884.17
447.513	871.52
447.887	894.11
448.262	887.56
448.636	902.48
449.01	924.62
449.384	939.31
449.758	926.43
450.132	956.26
450.506	922.81
450.88	967.33
451.254	945.64
451.628	977.05
452.002	958.29
452.376	958.97
452.75	980.67
453.123	995.58
453.497	1004.17
453.871	991.51
454.244	1012.76
454.618	1029.25
454.992	1037.16
455.365	1025.41
455.739	1064.96
456.112	1062.25
456.486	1079.19
456.859	1088.23
457.232	1114.45
457.606	1086.43
457.979	1135.01
458.352	1128.23
458.725	1131.17
459.099	1146.54
459.472	1168.68
459.845	1169.81
460.218	1178.85
460.591	1181.79
460.964	1222.69
461.337	1216.14
461.71	1220.89
462.083	1263.37
462.456	1262.01
462.829	1248.23
463.201	1282.35
463.574	1288.68
463.947	1284.16
464.32	1307.44
464.692	1319.41
465.065	1321.9
465.438	1351.28
465.81	1385.4
466.183	1382.01
466.555	1391.05
466.928	1421.11
467.3	1429.02
467.672	1450.26
468.045	1467.89
468.417	1474.21
468.789	1477.15
469.161	1533.65
469.534	1516.25
469.906	1534.32
470.278	1572.06
470.65	1596.7
471.022	1631.5
471.394	1610.03
471.766	1653.87
472.138	1686.64
472.51	1682.12
472.882	1720.76
473.253	1720.08
473.625	1733.41
473.997	1762.34
474.369	1788.55
474.74	1799.85
475.112	1850.93
475.484	1853.19
475.855	1908.33
476.227	1948.32
476.598	1945.39
476.97	1974.99
477.341	2021.54
477.713	2038.04
478.084	2088.89
478.455	2121.65
478.827	2123.01
479.198	2219.28
479.569	2216.57
479.94	2244.81
480.311	2262.67
480.682	2304.47
481.053	2337.24
481.424	2386.51
481.795	2415.66
482.166	2444.81
482.537	2533.17
482.908	2515.77
483.279	2552.83
483.65	2605.26
484.021	2687.51
484.391	2689.55
484.762	2737.23
485.133	2756.89
485.503	2780.62
485.874	2856.1
486.244	2899.94
486.615	2929.09
486.985	2933.38
487.356	3017.67
487.726	3040.05
488.097	3109.42
488.467	3147.61
488.837	3170.89
489.207	3226.93
489.578	3281.4
489.948	3327.5
490.318	3343.77
490.688	3386.48
491.058	3449.75
491.428	3499.24
491.798	3512.58
492.168	3579.69
492.538	3646.36
492.908	3651.1
493.278	3691.56
493.648	3783.76
494.017	3782.63
494.387	3803.19
494.757	3847.03
495.126	3876.64
495.496	3934.26
495.866	3930.19
496.235	3984.88
496.605	4049.51
496.974	4085.67
497.344	4135.61
497.713	4112.56
498.082	4238.43
498.452	4247.02
498.821	4295.38
499.19	4299.45
499.559	4352.56
499.928	4406.79
500.298	4428.71
500.667	4492.89
501.036	4517.75
501.405	4570.18
501.774	4595.26
502.143	4610.18
502.512	4627.8
502.88	4682.94
503.249	4757.06
503.618	4802.71
503.987	4838.42
504.356	4824.63
504.724	4884.07
505.093	4917.06
505.462	4917.74
505.83	5033.89
506.199	5039.09
506.567	5166.32
506.936	5117.96
507.304	5162.48
507.672	5186.21
508.041	5290.16
508.409	5331.51
508.777	5374.68
509.145	5417.16
509.514	5477.5
509.882	5487.67
510.25	5550.49
510.618	5523.37
510.986	5609.47
511.354	5662.8
511.722	5787.09
512.09	5813.76
512.458	5844.27
512.826	5887.88
513.193	5908.22
513.561	5954.77
513.929	6065.73
514.297	6075.45
514.664	6141.89
515.032	6167.65
515.4	6230.47
515.767	6302.79
516.135	6355.67
516.502	6332.16
516.869	6480.41
517.237	6468.66
517.604	6525.61
517.972	6653.06
518.339	6654.42
518.706	6733.74
519.073	6757.69
519.44	6889.21
519.808	6948.42
520.175	6970.34
520.542	7050.56
520.909	7105.93
521.276	7178.7
521.643	7178.02
522.009	7313.61
522.376	7387.05
522.743	7428.63
523.11	7507.95
523.477	7568.74
523.843	7636.99
524.21	7784.78
524.577	7816.87
524.943	7814.16
525.31	7942.07
525.676	8055.51
526.043	8068.62
526.409	8152.68
526.776	8252.79
527.142	8321.04
527.508	8402.39
527.874	8475.38
528.241	8561.48
528.607	8600.58
528.973	8731.87
529.339	8665.21
529.705	8814.81
530.071	8902.72
530.437	9022.26
530.803	9036.5
531.169	9127.57
531.535	9142.03
531.901	9217.51
532.267	9301.35
532.632	9377.06
532.998	9444.85
533.364	9495.02
533.73	9564.17
534.095	9667.67
534.461	9728.23
534.826	9755.58
535.192	9802.58
535.557	9951.28
535.923	10016.36
536.288	10055.46
536.653	10060.65
537.019	10142.46
537.384	10148.33
537.749	10205.06
538.114	10242.57
538.479	10401.21
538.845	10463.35
539.21	10460.19
539.575	10508.78
539.94	10486.41
540.305	10704.25
540.67	10728.88
541.034	10768.21
541.399	10849.79
541.764	10901.99
542.129	10949.9
542.494	11020.85
542.858	11103.34
543.223	11122.32
543.587	11193.28
543.952	11235.99
544.316	11245.26
544.681	11337.68
545.045	11381.97
545.41	11407.96
545.774	11484.34
546.138	11560.28
546.503	11589.2
546.867	11698.58
547.231	11751.91
547.595	11828.97
547.959	11820.38
548.324	11928.85
548.688	11995.29
549.052	12103.54
549.416	12154.38
549.779	12102.41
550.143	12187.83
550.507	12356.64
550.871	12389.18
551.235	12398.67
551.599	12464.21
551.962	12563.64
552.326	12648.83
552.689	12775.16
553.053	12755.95
553.417	12760.47
553.78	12914.36
554.143	12896.74
554.507	13054.7
554.87	13102.16
555.234	13252.21
555.597	13154.81
555.96	13297.63
556.323	13447.23
556.686	13432.54
557.05	13628.92
557.413	13652.2
557.776	13668.02
558.139	13836.37
558.502	13906.43
558.865	13904.17
559.228	14081.79
559.59	14133.09
559.953	14136.7
560.316	14355.68
560.679	14280.43
561.041	14511.61
561.404	14562
561.767	14643.81
562.129	14629.57
562.492	14843.58
562.854	14876.8
563.217	14880.87
563.579	15000.64
563.941	15139.84
564.304	15177.36
564.666	15318.37
565.028	15341.64
565.39	15423.22
565.753	15496.22
566.115	15659.38
566.477	15730.11
566.839	15775.31
567.201	15863.21
567.563	15885.13
567.925	16022.53
568.287	16113.6
568.648	16156.54
569.01	16224.11
569.372	16351.11
569.734	16367.61
570.095	16507.26
570.457	16540.26
570.819	16674.72
571.18	16662.74
571.542	16816.63
571.903	16991.77
572.265	16979.12
572.626	17092.11
572.987	17018.66
573.349	17182.95
573.71	17275.83
574.071	17266.57
574.432	17382.72
574.794	17485.09
575.155	17633.56
575.516	17644.86
575.877	17638.53
576.238	17636.27
576.599	17787
576.96	17778.64
577.32	17947.45
577.681	17937.73
578.042	17942.03
578.403	18041.01
578.763	18168.91
579.124	18247.33
579.485	18158.97
579.845	18299.53
580.206	18302.02
580.566	18407.55
580.927	18415.69
581.287	18472.86
581.648	18427.44
582.008	18671.95
582.368	18672.18
582.728	18545.18
583.089	18620.2
583.449	18678.96
583.809	18677.83
584.169	18824.04
584.529	18771.38
584.889	18846.64
585.249	18750.59
585.609	18803.93
585.969	18973.87
586.329	18904.94
586.688	18928.67
587.048	19043.92
587.408	18983.58
587.768	19051.38
588.127	19087.99
588.487	18997.59
588.846	19200.53
589.206	19034.65
589.565	19142.22
589.925	19356.45
590.284	19417.92
590.643	19321.43
591.003	19359.39
591.362	19408.43
591.721	19433.97
592.08	19417.02
592.44	19538.82
592.799	19502.21
593.158	19602.1
593.517	19552.16
593.876	19640.97
594.235	19588.09
594.593	19630.35
594.952	19733.85
595.311	19622.66
595.67	19711.93
596.029	19819.49
596.387	19828.76
596.746	19887.51
597.104	19786.27
597.463	19847.74
597.822	19942.2
598.18	20024.46
598.538	19899.04
598.897	20046.83
599.255	19925.93
599.613	20148.3
599.972	19975.42
600.33	20163.89
600.688	20009.54
601.046	20203.66
601.404	20323.43
601.762	20236.43
602.12	20406.82
602.478	20397.33
602.836	20435.97
603.194	20419.7
603.552	20378.12
603.91	20376.77
604.268	20502.64
604.625	20544.9
604.983	20553.94
605.341	20558.23
605.698	20664.89
606.056	20810.43
606.413	20680.04
606.771	20783.08
607.128	20842.52
607.485	20752.35
607.843	20835.74
608.2	21000.03
608.557	20972.68
608.914	20960.93
609.272	21076.18
609.629	21134.94
609.986	21120.7
610.343	21189.4
610.7	21281.15
611.057	21291.09
611.414	21178.55
611.771	21318.89
612.127	21292.45
612.484	21387.14
612.841	21405.21
613.198	21290.87
613.554	21477.3
613.911	21513.46
614.267	21506.68
614.624	21554.14
614.98	21651.99
615.337	21754.13
615.693	21781.93
616.05	21717.75
616.406	21893.56
616.762	21771.31
617.118	21799.1
617.475	21802.49
617.831	21919.32
618.187	21892.21
618.543	21983.05
618.899	22117.96
619.255	21951.64
619.611	22140.34
619.967	22110.28
620.323	22280.45
620.678	22087.68
621.034	22110.05
621.39	22124.52
621.746	22236.15
622.101	22393.89
622.457	22319.09
622.812	22343.72
623.168	22315.25
623.523	22349.37
623.879	22486.99
624.234	22218.07
624.589	22406.54
624.945	22417.16
625.3	22446.32
625.655	22370.39
626.01	22520.21
626.365	22459.88
626.72	22411.52
627.075	22399.31
627.43	22479.99
627.785	22411.74
628.14	22609.48
628.495	22468.01
628.85	22444.51
629.205	22512.08
629.559	22531.74
629.914	22430.72
630.269	22496.48
630.623	22522.47
630.978	22529.25
631.332	22569.93
631.687	22648.12
632.041	22491.29
632.396	22465.3
632.75	22515.02
633.104	22567.22
633.459	22470.95
633.813	22450.16
634.167	22612.87
634.521	22490.84
634.875	22543.94
635.229	22411.52
635.583	22422.36
635.937	22354.34
636.291	22317.51
636.645	22409.71
636.999	22421.91
637.352	22523.83
637.706	22348.69
638.06	22473.43
638.413	22324.29
638.767	22315.02
639.121	22318.86
639.474	22199.77
639.828	22218.75
640.181	22221.24
640.534	22388.46
640.888	22308.69
641.241	22238.41
641.594	22219.88
641.947	22354.34
642.301	22164.52
642.654	22251.52
643.007	22275.93
643.36	22256.49
643.713	22181.46
644.066	22294.23
644.419	22148.7
644.771	21956.39
645.124	21804.53
645.477	21809.27
645.83	21595.04
646.182	21626.9
646.535	21498.54
646.888	21612.67
647.24	21512.56
647.593	21628.48
647.945	21576.06
648.298	21448.83
648.65	21551.65
649.002	21487.02
649.355	21459
649.707	21455.83
650.059	21600.24
650.411	21884.3
650.763	21901.25
651.115	22075.25
651.467	22098.98
651.819	22048.13
652.171	22009.72
652.523	22012.66
652.875	21944.18
653.227	21973.79
653.578	22051.75
653.93	22084.52
654.282	21897.63
654.633	21892.43
654.985	21949.38
655.337	21978.08
655.688	21956.16
656.039	22014.92
656.391	21856.28
656.742	21850.85
657.094	21886.33
657.445	21865.77
657.796	21974.01
658.147	21955.26
658.498	21939.21
658.849	22000.9
659.2	21933.11
659.551	21872.09
659.902	21977.4
660.253	21865.31
660.604	21994.13
660.955	21888.59
661.306	21975.82
661.656	21947.8
662.007	21927.46
662.358	21931.08
662.708	22004.07
663.059	22000
663.409	21772.21
663.76	21993.67
664.11	21937.86
664.461	22025.31
664.811	22037.74
665.161	22038.87
665.511	22046.33
665.862	21907.57
666.212	22132.2
666.562	22128.13
666.912	21952.09
667.262	22110.96
667.612	21955.71
667.962	22031.19
668.312	22056.95
668.662	22024.18
669.011	21988.02
669.361	22044.52
669.711	21974.24
670.06	21974.24
670.41	22089.26
670.76	22035.93
671.109	22053.11
671.459	22061.92
671.808	22026.89
672.157	22061.02
672.507	21930.17
672.856	21926.1
673.205	21953.22
673.554	22131.52
673.904	21884.98
674.253	22115.7
674.602	21999.77
674.951	21604.08
675.3	21644.53
675.649	21987.35
675.998	21888.59
676.346	21907.12
676.695	21965.88
677.044	21793.23
677.393	21876.84
677.741	21898.99
678.09	21829.61
678.438	21843.39
678.787	21799.1
679.135	21844.3
679.484	21715.71
679.832	21862.38
680.181	21716.84
680.529	21738.31
680.877	21706.45
681.225	21772.89
681.573	21819.67
681.922	21736.28
682.27	21650.41
682.618	21699.22
682.966	21575.83
683.314	21697.86
683.661	21583.97
684.009	21520.01
684.357	21386.91
684.705	21483.4
685.053	21468.04
685.4	21362.73
685.748	21411.32
686.095	21356.85
686.443	21261.49
686.79	21283.41
687.138	21310.53
687.485	21346.91
687.832	21283.18
688.18	21322.5
688.527	21214.03
688.874	21139.91
689.221	21123.19
689.568	21094.71
689.915	21081.61
690.262	21050.2
690.609	20980.37
690.956	20958.22
691.303	20959.12
691.65	20859.47
691.997	20805.91
692.344	20751.45
692.69	20689.3
693.037	20647.04
693.383	20456.31
693.73	20645.46
694.077	20461.51
694.423	20505.35
694.769	20450.89
695.116	20456.54
695.462	20453.6
695.808	20349.2
696.155	20357.56
696.501	20215.19
696.847	20219.71
697.193	20113.5
697.539	20137.45
697.885	19961.41
698.231	20047.51
698.577	20002.77
698.923	19951.01
699.269	19791.02
699.614	19808.87
699.96	19730.46
700.306	19769.32
700.651	19675.77
700.997	19662.43
701.342	19606.84
701.688	19581.76
702.033	19551.03
702.379	19552.38
702.724	19377.24
703.069	19483.68
703.415	19242.11
703.76	19327.53
704.105	19341.31
704.45	19314.2
704.795	19125.5
705.14	19098.83
705.485	19032.62
705.83	19000.76
706.175	19095.67
706.52	19045.05
706.865	18998.27
707.209	18939.29
707.554	18816.81
707.899	18825.85
708.243	18861.78
708.588	18771.84
708.932	18644.38
709.277	18632.86
709.621	18750.59
709.966	18575.23
710.31	18620.88
710.654	18426.76
710.998	18547.21
711.342	18587.66
711.687	18477.83
712.031	18276.03
712.375	18347.67
712.719	18363.26
713.063	18366.65
713.407	18416.82
713.75	18279.87
714.094	18300.89
714.438	18144.96
714.782	18109.93
715.125	18141.12
715.469	18197.39
715.812	18163.49
716.156	18107.45
716.499	18010.28
716.843	18017.51
717.186	18014.57
717.53	18020.44
717.873	18014.34
718.216	17974.57
718.559	17887.57
718.902	17780.22
719.246	17854.57
719.589	17763.28
719.932	17786.33
720.275	17728.25
720.617	17652.32
720.96	17701.81
721.303	17716.5
721.646	17670.85
721.989	17594.01
722.331	17756.04
722.674	17655.48
723.016	17620
723.359	17592.66
723.701	17655.93
724.044	17586.56
724.386	17498.42
724.729	17574.13
725.071	17494.13
725.413	17503.85
725.755	17430.4
726.097	17346.11
726.439	17300.92
726.782	17382.49
727.124	17428.37
727.465	17324.64
727.807	17317.41
728.149	17262.27
728.491	17289.62
728.833	17221.37
729.175	17175.27
729.516	17292.1
729.858	17313.34
730.199	17189.73
730.541	17199
730.882	17132.56
731.224	17199.22
731.565	17112.45
731.906	17178.66
732.248	17164.87
732.589	17075.16
732.93	17029.28
733.271	17006.23
733.612	17108.6
733.953	17123.74
734.294	17065.89
734.635	16957.42
734.976	17140.24
735.317	16951.09
735.658	16904.32
735.999	16924.2
736.339	16807.59
736.68	16982.05
737.021	16968.04
737.361	16911.55
737.702	16982.73
738.042	16847.59
738.383	16902.73
738.723	16973.24
739.063	16766.47
739.404	16886.91
739.744	16830.42
740.084	16734.83
740.424	16841.94
740.764	16848.5
741.104	16862.96
741.444	16704.77
741.784	16688.05
742.124	16824.77
742.464	16781.83
742.804	16812.79
743.143	16662.97
743.483	16717.43
743.823	16629.07
744.162	16648.28
744.502	16657.32
744.841	16604.89
745.181	16678.33
745.52	16636.75
745.86	16677.88
746.199	16679.46
746.538	16626.81
746.877	16622.97
747.216	16574.15
747.556	16563.76
747.895	16574.38
748.234	16535.74
748.573	16528.28
748.911	16492.57
749.25	16598.56
749.589	16410.77
749.928	16451.9
750.267	16528.96
750.605	16444.89
750.944	16419.81
751.283	16324.44
751.621	16398.11
751.96	16381.17
752.298	16425.23
752.636	16397.66
752.975	16286.03
753.313	16253.49
753.651	16355.63
753.989	16272.69
754.327	16307.27
754.666	16209.42
755.004	16169.87
755.342	16262.07
755.679	16221.17
756.017	16082.19
756.355	16236.54
756.693	16063.89
757.031	16128.06
757.368	16014.17
757.706	16052.59
