Data from cardboard_FLMS001491_069.txt Node
Date: Tue Feb 07 11:39:57 GMT 2017
User: dcchb
Spectrometer: FLMS00149
Trigger mode: 0
Integration Time (sec): 2.000000E-2
Scans to average: 10
Electric dark correction enabled: true
Nonlinearity correction enabled: false
Boxcar width: 0
XAxis mode: Wavelengths
Number of Pixels in Spectrum: 2048
>>>>>Begin Spectral Data<<<<<
341.393	20.58
341.776	20.58
342.16	20.58
342.543	-58.52
342.927	-63.49
343.31	-80.44
343.693	-51.96
344.077	-84.5
344.46	-75.92
344.843	-47.22
345.226	-35.24
345.61	-31.85
345.993	-19.65
346.376	-20.32
346.759	3.4
347.142	45.89
347.525	42.27
347.908	52.67
348.291	76.85
348.674	106.23
349.057	119.78
349.44	132.21
349.823	164.08
350.206	170.41
350.588	185.55
350.971	234.13
351.354	234.81
351.737	264.19
352.119	265.09
352.502	257.86
352.884	282.04
353.267	306.22
353.65	304.64
354.032	329.72
354.414	317.29
354.797	330.4
355.179	348.93
355.562	310.06
355.944	344.64
356.326	319.55
356.709	349.16
357.091	346.45
357.473	341.47
357.855	345.99
358.238	350.29
358.62	348.93
359.002	364.3
359.384	352.1
359.766	366.78
360.148	346.67
360.53	336.05
360.912	339.44
361.294	339.21
361.676	347.12
362.057	336.95
362.439	327.46
362.821	333.79
363.203	339.89
363.584	340.57
363.966	326.79
364.348	341.02
364.729	341.7
365.111	311.64
365.493	301.48
365.874	304.86
366.256	341.25
366.637	309.84
367.019	334.69
367.4	324.75
367.781	312.77
368.163	326.56
368.544	313.23
368.925	302.15
369.306	321.14
369.688	324.75
370.069	327.92
370.45	332.89
370.831	325.88
371.212	319.78
371.593	328.37
371.974	309.16
372.355	345.99
372.736	345.09
373.117	332.89
373.498	310.74
373.879	350.51
374.26	333.79
374.641	331.98
375.021	351.87
375.402	321.81
375.783	323.85
376.163	330.17
376.544	343.06
376.925	318.42
377.305	345.99
377.686	344.86
378.066	327.46
378.447	343.96
378.827	339.44
379.208	330.17
379.588	341.7
379.968	338.08
380.349	339.89
380.729	335.37
381.109	329.05
381.489	351.87
381.87	366.56
382.25	358.42
382.63	366.11
383.01	356.61
383.39	350.29
383.77	364.52
384.15	353.9
384.53	353
384.91	367.46
385.29	370.63
385.67	362.49
386.049	366.56
386.429	381.92
386.809	351.87
387.189	385.09
387.568	385.09
387.948	378.31
388.328	370.17
388.707	373.56
389.087	397.29
389.466	382.83
389.846	390.29
390.225	382.83
390.605	397.29
390.984	395.26
391.363	379.67
391.743	386.9
392.122	382.6
392.501	395.94
392.881	418.99
393.26	419.66
393.639	424.41
394.018	392.32
394.397	409.95
394.776	438.87
395.155	434.58
395.534	417.63
395.913	417.63
396.292	437.29
396.671	427.57
397.05	428.25
397.429	424.41
397.808	425.77
398.186	419.44
398.565	407.24
398.944	418.08
399.323	429.38
399.701	419.44
400.08	439.32
400.458	435.26
400.837	465.54
401.215	428.48
401.594	459.21
401.972	443.39
402.351	436.61
402.729	462.6
403.107	450.62
403.486	433.68
403.864	467.35
404.242	475.48
404.62	481.36
404.999	458.31
405.377	461.7
405.755	494.24
406.133	488.59
406.511	489.72
406.889	485.88
407.267	478.19
407.645	484.07
408.023	503.5
408.401	502.6
408.779	493.56
409.156	496.27
409.534	507.57
409.912	524.75
410.29	500.79
410.667	516.16
411.045	522.26
411.422	528.81
411.8	549.83
412.178	536.27
412.555	544.18
412.933	534.46
413.31	535.59
413.687	557.51
414.065	558.87
414.442	530.17
414.819	585.31
415.197	555.71
415.574	550.06
415.951	579.66
416.328	580.34
416.705	594.8
417.082	603.84
417.46	600.68
417.837	584.41
418.214	611.07
418.591	602.03
418.967	607
419.344	609.94
419.721	636.38
420.098	613.56
420.475	621.92
420.852	629.15
421.228	625.53
421.605	637.96
421.982	649.71
422.358	645.87
422.735	661.24
423.111	656.95
423.488	655.36
423.864	649.49
424.241	662.37
424.617	668.7
424.994	662.6
425.37	679.54
425.746	683.39
426.123	703.27
426.499	698.75
426.875	707.34
427.251	696.49
427.627	711.63
428.003	722.26
428.379	728.36
428.756	735.59
429.132	731.75
429.507	740.11
429.883	737.4
430.259	743.27
430.635	766.1
431.011	780.33
431.387	784.63
431.763	805.87
432.138	772.42
432.514	804.06
432.89	802.48
433.265	812.2
433.641	826.66
434.016	826.89
434.392	843.83
434.767	867.56
435.143	867.34
435.518	866.43
435.894	852.65
436.269	870.95
436.644	891.06
437.02	886.32
437.395	909.82
437.77	904.4
438.145	934.23
438.52	894.68
438.895	943.04
439.271	951.4
439.646	943.49
440.021	953.66
440.395	941.68
440.77	932.42
441.145	942.14
441.52	967.67
441.895	953.66
442.27	963.6
442.645	981.68
443.019	986.43
443.394	1018.97
443.769	1009.71
444.143	983.04
444.518	1021.91
444.892	1015.81
445.267	1013.55
445.641	1026.88
446.016	1038.86
446.39	1027.78
446.764	1030.27
447.139	1051.06
447.513	1093.32
447.887	1059.42
448.262	1079.99
448.636	1072.75
449.01	1103.94
449.384	1094.9
449.758	1108.91
450.132	1102.81
450.506	1102.58
450.88	1138.52
451.254	1140.55
451.628	1131.06
452.002	1115.47
452.376	1174.9
452.75	1168.12
453.123	1201.56
453.497	1196.59
453.871	1187.33
454.244	1222.58
454.618	1215.58
454.992	1241.79
455.365	1237.5
455.739	1254.67
456.112	1278.85
456.486	1287.66
456.859	1297.38
457.232	1325.85
457.606	1285.4
457.979	1328.79
458.352	1357.04
458.725	1393.42
459.099	1364.27
459.472	1420.77
459.845	1428.68
460.218	1425.97
460.591	1427.77
460.964	1424.61
461.337	1456.02
461.71	1489.69
462.083	1494.44
462.456	1498.05
462.829	1510.93
463.201	1540.99
463.574	1540.31
463.947	1557.26
464.32	1580.99
464.692	1593.64
465.065	1598.39
465.438	1670.03
465.81	1634.77
466.183	1713.64
466.555	1705.73
466.928	1713.42
467.3	1747.99
467.672	1763.13
468.045	1797.03
468.417	1772.85
468.789	1832.06
469.161	1830.93
469.534	1843.36
469.906	1886.52
470.278	1890.81
470.65	1922.22
471.022	1982.79
471.394	2009.45
471.766	2011.03
472.138	2047.19
472.51	2102.33
472.882	2083.12
473.253	2110.69
473.625	2129.68
473.997	2206.96
474.369	2222.78
474.74	2218.26
475.112	2296
475.484	2301.87
475.855	2350.23
476.227	2367.86
476.598	2437.46
476.97	2441.31
477.341	2505.71
477.713	2533.73
478.084	2545.26
478.455	2597.69
478.827	2621.64
479.198	2681.07
479.569	2739.6
479.94	2779.83
480.311	2831.35
480.682	2881.07
481.053	2932.59
481.424	2990.9
481.795	3032.02
482.166	3052.59
482.537	3082.87
482.908	3171.46
483.279	3185.92
483.65	3232.47
484.021	3290.78
484.391	3358.57
484.762	3399.25
485.133	3380.49
485.503	3497.78
485.874	3538.45
486.244	3589.98
486.615	3697.77
486.985	3702.74
487.356	3725.79
487.726	3792.46
488.097	3905.9
488.467	3892.57
488.837	3964.66
489.207	4055.5
489.578	4101.6
489.948	4164.42
490.318	4202.62
490.688	4218.43
491.058	4302.5
491.428	4394.47
491.798	4415.27
492.168	4489.39
492.538	4502.04
492.908	4596.96
493.278	4656.84
493.648	4689.16
494.017	4745.65
494.387	4824.97
494.757	4826.33
495.126	4898.19
495.496	4998.07
495.866	5001.24
496.235	5011.18
496.605	5122.14
496.974	5102.7
497.344	5194
497.713	5248.92
498.082	5330.04
498.452	5385.86
498.821	5427.44
499.19	5460.89
499.559	5455.92
499.928	5499.3
500.298	5559.87
500.667	5686.19
501.036	5654.1
501.405	5688.68
501.774	5794.66
502.143	5840.76
502.512	5899.52
502.88	5950.37
503.249	5940.87
503.618	6048.22
503.987	6044.15
504.356	6122.79
504.724	6168.21
505.093	6189.46
505.462	6268.1
505.83	6314.65
506.199	6428.77
506.567	6494.08
506.936	6512.39
507.304	6561.88
507.672	6609.11
508.041	6668.31
508.409	6760.97
508.777	6825.82
509.145	6895.43
509.514	6897.01
509.882	6951.7
510.25	7063.33
510.618	7106.04
510.986	7111.92
511.354	7269.65
511.722	7358.46
512.09	7462.19
512.458	7509.2
512.826	7565.24
513.193	7548.52
513.561	7655.63
513.929	7691.56
514.297	7830.99
514.664	7854.27
515.032	7940.82
515.4	7996.41
515.767	8115.28
516.135	8131.78
516.502	8146.01
516.869	8336.29
517.237	8363.86
517.604	8381.26
517.972	8452
518.339	8550.07
518.706	8667.13
519.073	8763.4
519.44	8818.99
519.808	8965.43
520.175	8934.47
520.542	9073.67
520.909	9208.13
521.276	9229.6
521.643	9355.25
522.009	9453.55
522.376	9540.1
522.743	9628.46
523.11	9741
523.477	9848.79
523.843	9893.31
524.21	10009.47
524.577	10102.35
524.943	10184.61
525.31	10167.2
525.676	10336.24
526.043	10519.51
526.409	10574.65
526.776	10669.79
527.142	10792.95
527.508	10755.44
527.874	10951.14
528.241	11123.56
528.607	11077.91
528.973	11237.23
529.339	11283.33
529.705	11398.13
530.071	11447.85
530.437	11657.56
530.803	11760.38
531.169	11773.72
531.535	11827.95
531.901	11960.83
532.267	12009.64
532.632	12137.1
532.998	12198.79
533.364	12325.57
533.73	12377.77
534.095	12522.62
534.461	12620.47
534.826	12693.47
535.192	12815.95
535.557	12834.03
535.923	12903.86
536.288	13010.52
536.653	13143.4
537.019	13173.45
537.384	13190.4
537.749	13306.56
538.114	13344.3
538.479	13469.49
538.845	13644.63
539.21	13451.86
539.575	13649.82
539.94	13767.11
540.305	13898.41
540.67	14032.19
541.034	14047.33
541.399	14174.1
541.764	14185.18
542.129	14281.45
542.494	14378.17
542.858	14419.3
543.223	14477.37
543.587	14559.86
543.952	14712.17
544.316	14641.66
544.681	14812.96
545.045	14878.49
545.41	14981.77
545.774	15072.61
546.138	15028.77
546.503	15276.22
546.867	15224.02
547.231	15392.6
547.595	15495.2
547.959	15609.1
548.324	15558.02
548.688	15719.83
549.052	15769.99
549.416	15919.14
549.779	15953.72
550.143	16033.49
550.507	16214.05
550.871	16263.09
551.235	16354.16
551.599	16423.54
551.962	16512.12
552.326	16591.89
552.689	16736.3
553.053	16714.6
553.417	16794.37
553.78	17153.24
554.143	17027.14
554.507	17136.96
554.87	17195.95
555.234	17517.75
555.597	17338.54
555.96	17559.78
556.323	17589.61
556.686	17744.18
557.05	17858.08
557.413	17956.6
557.776	17976.26
558.139	18137.84
558.502	18254.68
558.865	18261.91
559.228	18436.37
559.59	18626.19
559.953	18697.83
560.316	18814.89
560.679	18957.26
561.041	19088.33
561.404	19084.26
561.767	19234.54
562.129	19253.97
562.492	19481.54
562.854	19573.96
563.217	19631.36
563.579	19778.93
563.941	19932.6
564.304	19995.87
564.666	20177.34
565.028	20304.11
565.39	20334.85
565.753	20502.75
566.115	20553.6
566.477	20689.87
566.839	20777.32
567.201	20954.27
567.563	21000.14
567.925	21225.9
568.287	21246.24
568.648	21286.46
569.01	21371.66
569.372	21688.03
569.734	21725.32
570.095	21749.72
570.457	21919.44
570.819	21972.77
571.18	21980.91
571.542	22193.78
571.903	22215.7
572.265	22362.14
572.626	22343.16
572.987	22587.89
573.349	22695.01
573.71	22819.3
574.071	22813.43
574.432	22946.53
574.794	23101.55
575.155	23087.54
575.516	23090.71
575.877	23363.24
576.238	23300.64
576.599	23385.84
576.96	23465.84
577.32	23497.48
577.681	23612.05
578.042	23753.29
578.403	23714.64
578.763	23856.79
579.124	23894.75
579.485	24066.27
579.845	24249.55
580.206	24266.72
580.566	24159.6
580.927	24174.52
581.287	24509.88
581.648	24333.61
582.008	24471.69
582.368	24477.79
582.728	24500.84
583.089	24536.54
583.449	24753.71
583.809	24766.82
584.169	24855.18
584.529	24765.46
584.889	25010.43
585.249	25001.62
585.609	24861.96
585.969	25045.23
586.329	25073.93
586.688	25116.87
587.048	25092.69
587.408	25067.38
587.768	25148.73
588.127	25195.28
588.487	25220.37
588.846	25534.71
589.206	25240.93
589.565	25307.82
589.925	25505.56
590.284	25481.38
590.643	25583.52
591.003	25656.97
591.362	25715.72
591.721	25728.38
592.08	25718.66
592.44	25839.79
592.799	25871.42
593.158	25827.13
593.517	25892.44
593.876	25987.13
594.235	25954.59
594.593	25989.84
594.952	26111.42
595.311	26071.87
595.67	26238.65
596.029	26371.3
596.387	26358.42
596.746	26397.96
597.104	26326.55
597.463	26335.37
597.822	26506.21
598.18	26393.9
598.538	26418.3
598.897	26508.24
599.255	26390.05
599.613	26927.44
599.972	26655.81
600.33	26726.32
600.688	26726.77
601.046	26697.17
601.404	26899.87
601.762	26837.27
602.12	27025.29
602.478	27082.01
602.836	27136.02
603.194	27003.37
603.552	27069.81
603.91	27043.82
604.268	27166.76
604.625	27125.85
604.983	27319.97
605.341	27119.75
605.698	27232.97
606.056	27452.85
606.413	27367.2
606.771	27521.78
607.128	27678.16
607.485	27462.12
607.843	27558.39
608.2	27688.33
608.557	27879.96
608.914	27815.55
609.272	27911.6
609.629	27876.12
609.986	27998.83
610.343	27971.71
610.7	28157.01
611.057	28140.97
611.414	28227.97
611.771	28175.54
612.127	28324.92
612.484	28383.9
612.841	28400.62
613.198	28396.56
613.554	28412.37
613.911	28556.55
614.267	28486.72
614.624	28628.87
614.98	28626.38
615.337	28828.63
615.693	28885.13
616.05	28731.24
616.406	28926.94
616.762	28721.52
617.118	28911.34
617.475	28934.62
617.831	29062.07
618.187	29141.85
618.543	29219.81
618.899	29256.87
619.255	29143.65
619.611	29252.13
619.967	29460.93
620.323	29407.15
620.678	29386.36
621.034	29317.89
621.39	29394.5
621.746	29350.2
622.101	29679.91
622.457	29490.31
622.812	29554.72
623.168	29749.51
623.523	29730.31
623.879	29733.47
624.234	29628.39
624.589	29797.2
624.945	29788.38
625.3	29769.17
625.655	29727.82
626.01	29805.78
626.365	29789.97
626.72	29722.62
627.075	29841.49
627.43	29813.69
627.785	29798.78
628.14	29796.74
628.495	29805.33
628.85	29825.9
629.205	29859.12
629.559	30024.54
629.914	29922.39
630.269	29859.12
630.623	29832.68
630.978	29801.72
631.332	30034.03
631.687	29989.51
632.041	29839.68
632.396	29999.68
632.75	29771.66
633.104	29834.48
633.459	29801.94
633.813	29958.32
634.167	29794.94
634.521	29796.52
634.875	29928.27
635.229	29836.74
635.583	29692.57
635.937	29747.03
636.291	29687.6
636.645	29726.69
636.999	29681.04
637.352	29803.07
637.706	29662.29
638.06	29576.19
638.413	29626.13
638.767	29549.07
639.121	29642.17
639.474	29492.57
639.828	29445.57
640.181	29482.63
640.534	29528.73
640.888	29428.17
641.241	29348.17
641.594	29551.33
641.947	29549.75
642.301	29419.81
642.654	29470.65
643.007	29496.41
643.36	29426.59
643.713	29444.21
644.066	29520.14
644.419	29380.71
644.771	29173.94
645.124	28967.61
645.477	28862.76
645.83	28714.74
646.182	28616.89
646.535	28532.82
646.888	28739.15
647.24	28582.99
647.593	28812.82
647.945	28558.36
648.298	28674.06
648.65	28470.45
649.002	28451.47
649.355	28510.45
649.707	28574.63
650.059	28658.02
650.411	28932.36
650.763	29095.29
651.115	29378.22
651.467	29247.83
651.819	29237.44
652.171	29175.97
652.523	29309.53
652.875	29156.08
653.227	29078.12
653.578	29334.84
653.93	29239.92
654.282	29259.36
654.633	29081.28
654.985	29112.92
655.337	29189.53
655.688	29159.02
656.039	29194.5
656.391	29094.62
656.742	29069.76
657.094	29127.84
657.445	29172.81
657.796	29099.36
658.147	29043.54
658.498	29042.87
658.849	29187.72
659.2	29102.53
659.551	28915.19
659.902	29163.77
660.253	28996.09
660.604	29206.48
660.955	29013.71
661.306	29135.97
661.656	29025.92
662.007	29188.85
662.358	29070.44
662.708	29073.15
663.059	29039.93
663.409	28883.32
663.76	29180.94
664.11	29174.39
664.461	29194.5
664.811	29188.63
665.161	29121.06
665.511	29112.24
665.862	29227.95
666.212	29218
666.562	29263.2
666.912	29325.57
667.262	29164.22
667.612	29197.44
667.962	29257.32
668.312	29194.05
668.662	29270.66
669.011	29252.35
669.361	29255.06
669.711	29111.79
670.06	29136.42
670.41	29166.03
670.76	29068.4
671.109	29167.16
671.459	29245.57
671.808	29063.43
672.157	29096.42
672.507	29060.04
672.856	29017.56
673.205	29092.58
673.554	29083.54
673.904	29013.71
674.253	29113.82
674.602	29186.59
674.951	28688.98
675.3	28558.13
675.649	28971
675.998	29044.22
676.346	28979.59
676.695	29052.36
677.044	28876.54
677.393	29001.51
677.741	28964.9
678.09	29018.46
678.438	28960.61
678.787	28984.56
679.135	28918.12
679.484	28868.86
679.832	28912.02
680.181	28825.24
680.529	28801.74
680.877	28761.97
681.225	28592.26
681.573	28879.93
681.922	28634.74
682.27	28692.14
682.618	28635.87
682.966	28598.36
683.314	28638.36
683.661	28575.53
684.009	28391.36
684.357	28332.38
684.705	28431.81
685.053	28371.02
685.4	28386.84
685.748	28209.44
686.095	28239.5
686.443	28162.66
686.79	28121.76
687.138	28189.56
687.485	28217.8
687.832	28199.27
688.18	28195.66
688.527	27950.01
688.874	28062.78
689.221	27909.79
689.568	27826.4
689.915	27804.93
690.262	27822.11
690.609	27646.97
690.956	27658.04
691.303	27723.35
691.65	27557.26
691.997	27501.66
692.344	27349.35
692.69	27305.96
693.037	27446.3
693.383	27131.5
693.73	27289.69
694.077	27043.82
694.423	27066.87
694.769	27117.27
695.116	27052.86
695.462	26915.24
695.808	26861
696.155	26977.61
696.501	26712.98
696.847	26656.26
697.193	26580.78
697.539	26688.8
697.885	26461.24
698.231	26406.55
698.577	26314.8
698.923	26406.33
699.269	26383.73
699.614	26191.87
699.96	26177.63
700.306	26209.95
700.651	26179.44
700.997	25997.52
701.342	25824.42
701.688	25938.09
702.033	25774.7
702.379	25795.72
702.724	25655.84
703.069	25722.05
703.415	25514.37
703.76	25521.83
704.105	25498.33
704.45	25489.51
704.795	25245.45
705.14	25188.28
705.485	25292.23
705.83	25176.53
706.175	25286.35
706.52	25078.45
706.865	25043.65
707.209	25090.88
707.554	25006.36
707.899	25018.34
708.243	24845.24
708.588	24910.32
708.932	24685.47
709.277	24688.63
709.621	24762.75
709.966	24588.07
710.31	24538.35
710.654	24441.63
710.998	24430.78
711.342	24523.44
711.687	24446.38
712.031	24245.25
712.375	24357.57
712.719	24337.45
713.063	24295.19
713.407	24401.41
713.75	24159.38
714.094	24189.66
714.438	24120.06
714.782	24095.43
715.125	24030.34
715.469	23998.48
715.812	23839.61
716.156	23816.56
716.499	23802.55
716.843	23819.27
717.186	23744.25
717.53	23841.42
717.873	23826.51
718.216	23727.98
718.559	23750.35
718.902	23519.4
719.246	23633.07
719.589	23569.34
719.932	23343.13
720.275	23372.51
720.617	23382.22
720.96	23451.15
721.303	23320.08
721.646	23416.57
721.989	23241.66
722.331	23316.24
722.674	23370.47
723.016	23323.24
723.359	23257.71
723.701	23334.54
724.044	23185.17
724.386	23070.59
724.729	23300.19
725.071	23132.97
725.413	23108.11
725.755	23067.88
726.097	23004.38
726.439	22899.07
726.782	22873.99
727.124	23026.53
727.465	22948.56
727.807	22922.12
728.149	22827.89
728.491	22873.09
728.833	22945.85
729.175	22829.7
729.516	22871.96
729.858	22779.3
730.199	22803.48
730.541	22775.23
730.882	22777.49
731.224	22849.36
731.565	22742.69
731.906	22657.5
732.248	22705.86
732.589	22618.85
732.93	22598.29
733.271	22531.85
733.612	22702.02
733.953	22646.88
734.294	22488.01
734.635	22473.55
734.976	22652.3
735.317	22491.4
735.658	22418.63
735.999	22428.35
736.339	22386.09
736.68	22422.93
737.021	22331.86
737.361	22336.38
737.702	22421.12
738.042	22329.82
738.383	22343.38
738.723	22343.61
739.063	22317.17
739.404	22347.22
739.744	22331.86
740.084	22253.89
740.424	22260.22
740.764	22185.65
741.104	22219.09
741.444	22165.53
741.784	22089.83
742.124	22148.36
742.464	22210.5
742.804	22140.22
743.143	22118.53
743.483	22118.53
743.823	21976.39
744.162	22017.74
744.502	22096.38
744.841	22068.13
745.181	22104.74
745.52	22019.55
745.86	22036.72
746.199	21995.59
746.538	22024.75
746.877	22022.26
747.216	21962.37
747.556	21973.22
747.895	21911.08
748.234	21945.43
748.573	21862.04
748.911	21775.94
749.25	21876.95
749.589	21718.09
749.928	21904.75
750.267	21902.04
750.605	21707.47
750.944	21750.63
751.283	21727.58
751.621	21705.21
751.96	21677.18
752.298	21703.85
752.636	21654.36
752.975	21529.84
753.313	21465.44
753.651	21599.67
753.989	21486.68
754.327	21478.77
754.666	21503.4
755.004	21452.11
755.342	21556.06
755.679	21383.18
756.017	21265.44
756.355	21396.06
756.693	21336.18
