Data from cardboard_FLMS001491_080.txt Node
Date: Tue Feb 07 11:40:08 GMT 2017
User: dcchb
Spectrometer: FLMS00149
Trigger mode: 0
Integration Time (sec): 2.000000E-2
Scans to average: 10
Electric dark correction enabled: true
Nonlinearity correction enabled: false
Boxcar width: 0
XAxis mode: Wavelengths
Number of Pixels in Spectrum: 2048
>>>>>Begin Spectral Data<<<<<
341.393	15.45
341.776	15.45
342.16	15.45
342.543	-64.09
342.927	-39.91
343.31	-83.08
343.693	-77.2
344.077	-60.03
344.46	-76.75
344.843	-50.31
345.226	-42.17
345.61	-38.78
345.993	1.67
346.376	-4.21
346.759	19.75
347.142	34.66
347.525	66.3
347.908	55.22
348.291	72.4
348.674	82.12
349.057	100.42
349.44	131.61
349.823	127.99
350.206	169.8
350.588	197.59
350.971	210.25
351.354	225.39
351.737	204.83
352.119	251.38
352.502	258.84
352.884	273.07
353.267	273.75
353.65	280.53
354.032	292.51
354.414	295.67
354.797	307.42
355.179	301.32
355.562	321.88
355.944	330.02
356.326	328.89
356.709	327.08
357.091	330.47
357.473	339.06
357.855	333.64
358.238	323.47
358.62	323.47
359.002	334.54
359.384	340.41
359.766	336.8
360.148	346.74
360.53	348.1
360.912	331.83
361.294	330.47
361.676	313.97
362.057	342.67
362.439	338.15
362.821	310.36
363.203	328.44
363.584	305.39
363.966	324.14
364.348	311.04
364.729	317.82
365.111	299.96
365.493	304.26
365.874	304.48
366.256	305.84
366.637	329.79
367.019	313.07
367.4	311.49
367.781	313.97
368.163	327.08
368.544	296.57
368.925	305.16
369.306	322.34
369.688	308.33
370.069	297.25
370.45	304.26
370.831	297.03
371.212	321.88
371.593	295.44
371.974	305.84
372.355	300.42
372.736	322.11
373.117	312.62
373.498	311.26
373.879	313.75
374.26	325.27
374.641	314.2
375.021	308.55
375.402	312.84
375.783	292.73
376.163	321.88
376.544	306.97
376.925	328.21
377.305	334.31
377.686	316.23
378.066	333.18
378.447	321.21
378.827	319.62
379.208	316.91
379.588	319.4
379.968	322.11
380.349	325.27
380.729	327.53
381.109	352.17
381.489	346.29
381.87	362.11
382.25	299.96
382.63	348.1
383.01	355.1
383.39	339.28
383.77	344.71
384.15	338.38
384.53	338.38
384.91	344.03
385.29	356.91
385.67	351.94
386.049	351.49
386.429	335.44
386.809	348.1
387.189	349.23
387.568	344.03
387.948	338.61
388.328	342
388.707	350.13
389.087	354.43
389.466	365.05
389.846	350.58
390.225	365.5
390.605	346.06
390.984	363.92
391.363	324.82
391.743	353.97
392.122	360.08
392.501	347.65
392.881	363.47
393.26	370.92
393.639	372.96
394.018	358.04
394.397	368.21
394.776	376.35
395.155	383.13
395.534	376.57
395.913	384.26
396.292	391.03
396.671	361.21
397.05	391.26
397.429	378.38
397.808	379.74
398.186	382.9
398.565	389.45
398.944	388.32
399.323	383.58
399.701	405.05
400.08	406.18
400.458	393.07
400.837	398.04
401.215	399.17
401.594	391.94
401.972	410.02
402.351	402.33
402.729	394.65
403.107	416.57
403.486	412.5
403.864	411.15
404.242	426.97
404.62	407.53
404.999	424.48
405.377	417.47
405.755	422.22
406.133	422.67
406.511	427.42
406.889	436.91
407.267	443.91
407.645	431.03
408.023	454.08
408.401	436.01
408.779	466.06
409.156	467.19
409.534	440.53
409.912	450.47
410.29	464.93
410.667	448.89
411.045	480.98
411.422	473.07
411.8	462.67
412.178	466.74
412.555	485.95
412.933	491.82
413.31	491.15
413.687	480.98
414.065	499.28
414.442	502.67
414.819	485.95
415.197	500.64
415.574	509.9
415.951	494.99
416.328	506.29
416.705	492.5
417.082	523.23
417.46	539.28
417.837	528.43
418.214	533.63
418.591	519.39
418.967	527.75
419.344	541.77
419.721	523.46
420.098	529.56
420.475	549.45
420.852	537.7
421.228	552.16
421.605	537.02
421.982	550.58
422.358	560.3
422.735	573.4
423.111	572.73
423.488	572.73
423.864	563.23
424.241	611.14
424.617	565.27
424.994	602.78
425.37	594.65
425.746	594.87
426.123	592.39
426.499	587.19
426.875	625.15
427.251	630.35
427.627	607.53
428.003	630.12
428.379	650.92
428.756	617.02
429.132	637.58
429.507	646.4
429.883	638.94
430.259	658.37
430.635	673.06
431.011	656.56
431.387	649.11
431.763	685.49
432.138	656.56
432.514	680.29
432.89	675.1
433.265	710.35
433.641	711.25
434.016	695.89
434.392	728.65
434.767	715.77
435.143	734.98
435.518	727.3
435.894	707.86
436.269	746.73
436.644	756.9
437.02	777.47
437.395	753.29
437.77	752.61
438.145	767.3
438.52	763.91
438.895	791.48
439.271	796.45
439.646	815.2
440.021	817.01
440.395	828.54
440.77	823.11
441.145	824.02
441.52	831.7
441.895	828.31
442.27	836.67
442.645	835.54
443.019	809.1
443.394	823.79
443.769	857.01
444.143	832.38
444.518	837.12
444.892	850.91
445.267	847.97
445.641	852.27
446.016	863.11
446.39	895.2
446.764	882.1
447.139	870.12
447.513	882.1
447.887	893.85
448.262	873.51
448.636	888.2
449.01	911.93
449.384	897.01
449.758	940.62
450.132	965.71
450.506	929.78
450.88	941.75
451.254	955.77
451.628	955.77
452.002	944.01
452.376	957.12
452.75	955.77
453.123	990.12
453.497	991.02
453.871	1000.96
454.244	1015.65
454.618	1039.38
454.992	1031.47
455.365	1041.19
455.739	1056.33
456.112	1038.7
456.486	1055.65
456.859	1061.98
457.232	1090.68
457.606	1110.11
457.979	1111.47
458.352	1122.77
458.725	1155.08
459.099	1116.67
459.472	1182.43
459.845	1164.57
460.218	1187.85
460.591	1206.38
460.964	1194.18
461.337	1218.58
461.71	1242.99
462.083	1255.19
462.456	1272.14
462.829	1257
463.201	1267.17
463.574	1269.43
463.947	1319.15
464.32	1344.23
464.692	1347.39
465.065	1343.1
465.438	1348.75
465.81	1362.08
466.183	1386.94
466.555	1400.27
466.928	1431.69
467.3	1407.73
467.672	1427.84
468.045	1491.57
468.417	1494.06
468.789	1519.59
469.161	1512.14
469.534	1523.66
469.906	1561.17
470.278	1564.34
470.65	1578.57
471.022	1609.08
471.394	1616.54
471.766	1657.89
472.138	1643.21
472.51	1706.93
472.882	1728.63
473.253	1715.75
473.625	1747.38
473.997	1807.27
474.369	1788.51
474.74	1806.59
475.112	1851.79
475.484	1894.27
475.855	1901.96
476.227	1928.85
476.598	1971.56
476.97	1979.24
477.341	2027.38
477.713	2039.58
478.084	2084.1
478.455	2113.7
478.827	2125.9
479.198	2187.15
479.569	2190.54
479.94	2282.74
480.311	2279.12
480.682	2316.41
481.053	2366.35
481.424	2434.6
481.795	2390.3
482.166	2433.47
482.537	2512.11
482.908	2470.08
483.279	2576.51
483.65	2614.71
484.021	2662.61
484.391	2698.54
484.762	2728.6
485.133	2749.84
485.503	2782.84
485.874	2849.95
486.244	2865.09
486.615	2897.64
486.985	2983.51
487.356	3016.05
487.726	3051.3
488.097	3099.66
488.467	3112.09
488.837	3188.48
489.207	3213.56
489.578	3251.52
489.948	3327.23
490.318	3368.36
490.688	3394.57
491.058	3451.97
491.428	3498.52
491.798	3511.86
492.168	3582.82
492.538	3624.85
492.908	3669.59
493.278	3712.53
493.648	3672.98
494.017	3804.05
494.387	3854.45
494.757	3881.11
495.126	3903.48
495.496	3948.91
495.866	3933.99
496.235	4063.25
496.605	4024.16
496.974	4100.54
497.344	4162.24
497.713	4128.56
498.082	4163.14
498.452	4226.64
498.821	4280.88
499.19	4309.12
499.559	4361.55
499.928	4397.48
500.298	4444.49
500.667	4442.68
501.036	4509.8
501.405	4543.69
501.774	4583.24
502.143	4623.01
502.512	4671.6
502.88	4679.51
503.249	4700.07
503.618	4742.56
503.987	4774.2
504.356	4849.9
504.724	4869.34
505.093	4912.72
505.462	4940.97
505.83	4990.24
506.199	5051.48
506.567	5117.46
506.936	5123.57
507.304	5176.9
507.672	5271.13
508.041	5292.6
508.409	5298.7
508.777	5385.93
509.145	5457.79
509.514	5447.85
509.882	5531.24
510.25	5543.67
510.618	5554.29
510.986	5625.25
511.354	5686.94
511.722	5671.35
512.09	5841.51
512.458	5824.34
512.826	5918.35
513.193	5950.44
513.561	5952.24
513.929	5998.35
514.297	6124.67
514.664	6109.98
515.032	6217.32
515.4	6299.81
515.767	6286.47
516.135	6369.63
516.502	6362.18
516.869	6514.72
517.237	6495.06
517.604	6550.87
517.972	6633.81
518.339	6717.65
518.706	6719.23
519.073	6790.87
519.44	6864.54
519.808	6940.02
520.175	6938.43
520.542	7058.88
520.909	7050.97
521.276	7104.08
521.643	7239.22
522.009	7294.36
522.376	7415.71
522.743	7470.62
523.11	7506.55
523.477	7615.03
523.843	7620.9
524.21	7791.07
524.577	7861.12
524.943	7904.96
525.31	7958.52
525.676	8076.93
526.043	8114
526.409	8166.42
526.776	8237.83
527.142	8289.81
527.508	8353.31
527.874	8499.52
528.241	8570.03
528.607	8604.15
528.973	8722.34
529.339	8824.03
529.705	8798.5
530.071	8971.83
530.437	8933.86
530.803	9100.86
531.169	9194.65
531.535	9140.18
531.901	9216.34
532.267	9298.15
532.632	9419.72
532.998	9403.45
533.364	9484.81
533.73	9571.13
534.095	9708.98
534.461	9760.28
534.826	9795.53
535.192	9875.53
535.557	9846.83
535.923	9998.47
536.288	10017.45
536.653	10106.03
537.019	10115.52
537.384	10172.02
537.749	10283.66
538.114	10313.94
538.479	10351
538.845	10477.55
539.21	10400.26
539.575	10494.05
539.94	10541.95
540.305	10615.4
540.67	10641.39
541.034	10807.94
541.399	10812.46
541.764	10852.23
542.129	10999.57
542.494	10976.75
542.858	11016.52
543.223	11093.8
543.587	11176.97
543.952	11202.95
544.316	11259.9
544.681	11255.61
545.045	11433.46
545.41	11494.92
545.774	11571.31
546.138	11555.49
546.503	11615.6
546.867	11716.84
547.231	11767.46
547.595	11852.65
547.959	11931.3
548.324	11940.56
548.688	11990.73
549.052	12070.95
549.416	12143.95
549.779	12200.67
550.143	12238.41
550.507	12348.46
550.871	12407.67
551.235	12411.28
551.599	12407.89
551.962	12537.38
552.326	12640.88
552.689	12717.94
553.053	12786.19
553.417	12729.69
553.78	12940.99
554.143	12962
554.507	13031.61
554.87	13053.3
555.234	13170.81
555.597	13166.07
555.96	13337.81
556.323	13423.46
556.686	13455.32
557.05	13536
557.413	13644.02
557.776	13710.68
558.139	13820.96
558.502	13830.46
558.865	13926.95
559.228	14010.34
559.59	14067.29
559.953	14086.49
560.316	14308.41
560.679	14385.24
561.041	14435.64
561.404	14540.04
561.767	14655.29
562.129	14609.42
562.492	14703.88
562.854	14882.63
563.217	14974.61
563.579	14978.45
563.941	15160.14
564.304	15164.43
564.666	15352
565.028	15340.02
565.39	15402.62
565.753	15560.81
566.115	15569.62
566.477	15714.7
566.839	15721.93
567.201	15834.24
567.563	15935.48
567.925	16192.65
568.287	16071.3
568.648	16074.46
569.01	16266.55
569.372	16421.12
569.734	16356.04
570.095	16572.98
570.457	16632.64
570.819	16656.37
571.18	16610.72
571.542	16774.56
571.903	16829.92
572.265	17016.59
572.626	16977.04
572.987	17038.73
573.349	17158.5
573.71	17285.96
574.071	17272.85
574.432	17434.43
574.794	17553.75
575.155	17621.54
575.516	17584.48
575.877	17571.37
576.238	17703.35
576.599	17753.52
576.96	17804.14
577.32	17839.16
577.681	17897.47
578.042	18100.4
578.403	18032.15
578.763	18090.68
579.124	18182.88
579.485	18209.32
579.845	18331.81
580.206	18281.19
580.566	18283.45
580.927	18470.11
581.287	18486.83
581.648	18465.81
582.008	18621.97
582.368	18529.09
582.728	18538.13
583.089	18685.47
583.449	18666.71
583.809	18687.5
584.169	18700.16
584.529	18753.04
584.889	18915.75
585.249	18790.33
585.609	18884.79
585.969	18972.02
586.329	18901.28
586.688	19029.41
587.048	19011.79
587.408	19002.52
587.768	18940.83
588.127	19048.4
588.487	19019.7
588.846	19287.71
589.206	19176.98
589.565	19161.39
589.925	19340.59
590.284	19259.01
590.643	19341.95
591.003	19415.39
591.362	19481.38
591.721	19396.86
592.08	19458.33
592.44	19491.1
592.799	19609.51
593.158	19472.79
593.517	19551.89
593.876	19615.16
594.235	19604.32
594.593	19653.81
594.952	19702.17
595.311	19658.78
595.67	19714.82
596.029	19796.63
596.387	19904.19
596.746	19925.66
597.104	19795.5
597.463	19849.28
597.822	19928.6
598.18	19949.16
598.538	19927.47
598.897	20074.36
599.255	19985.55
599.613	20256.5
599.972	20097.18
600.33	20179.67
600.688	20137.63
601.046	20203.85
601.404	20340.11
601.762	20268.25
602.12	20364.3
602.478	20344.18
602.836	20290.4
603.194	20390.74
603.552	20385.54
603.91	20391.86
604.268	20561.35
604.625	20488.36
604.983	20562.03
605.341	20563.39
605.698	20628.02
606.056	20767.9
606.413	20681.12
606.771	20786.2
607.128	20810.16
607.485	20764.74
607.843	20716.15
608.2	20861.23
608.557	20957.27
608.914	20878.18
609.272	21019.19
609.629	21027.78
609.986	21103.71
610.343	21096.03
610.7	21250.6
611.057	21226.87
611.414	21193.43
611.771	21273.88
612.127	21333.54
612.484	21381.44
612.841	21423.48
613.198	21401.78
613.554	21412.4
613.911	21531.95
614.267	21517.94
614.624	21564.72
614.98	21644.04
615.337	21725.62
615.693	21655.11
616.05	21659.63
616.406	21818.27
616.762	21752.51
617.118	21815.78
617.475	21715.22
617.831	21865.72
618.187	21910.02
618.543	21988.66
618.899	22013.74
619.255	22010.58
619.611	22064.36
619.967	22136.9
620.323	22180.74
620.678	22076.34
621.034	22153.17
621.39	22161.54
621.746	22123.8
622.101	22400.85
622.457	22245.38
622.812	22272.04
623.168	22251.48
623.523	22403.56
623.879	22428.2
624.234	22365.15
624.589	22424.13
624.945	22395.65
625.3	22488.98
625.655	22483.34
626.01	22500.51
626.365	22554.97
626.72	22401.98
627.075	22409.21
627.43	22396.56
627.785	22571.02
628.14	22389.78
628.495	22477.91
628.85	22615.08
629.205	22466.16
629.559	22570.79
629.914	22520.62
630.269	22445.37
630.623	22443.34
630.978	22434.98
631.332	22534.63
631.687	22709.77
632.041	22520.85
632.396	22547.97
632.75	22512.94
633.104	22532.83
633.459	22422.09
633.813	22412.6
634.167	22434.3
634.521	22498.93
634.875	22412.15
635.229	22420.51
635.583	22265.71
635.937	22465.93
636.291	22285.6
636.645	22349.55
636.999	22314.53
637.352	22350.46
637.706	22267.52
638.06	22415.77
638.413	22389.1
638.767	22308.42
639.121	22409.67
639.474	22218.48
639.828	22280.63
640.181	22241.08
640.534	22303.45
640.888	22199.5
641.241	22120.41
641.594	22233.17
641.947	22271.14
642.301	22130.58
642.654	22241.76
643.007	22239.73
643.36	22271.59
643.713	22248.99
644.066	22254.19
644.419	22097.81
644.771	21980.98
645.124	21806.74
645.477	21892.16
645.83	21786.18
646.182	21561.78
646.535	21592.96
646.888	21565.85
647.24	21451.05
647.593	21663.47
647.945	21616.24
648.298	21385.29
648.65	21491.72
649.002	21389.35
649.355	21527.43
649.707	21379.18
650.059	21613.3
650.411	21830.02
650.763	21932.39
651.115	22025.27
651.467	22028.88
651.819	22086.28
652.171	22102.33
652.523	21955.21
652.875	21943.91
653.227	21972.84
653.578	22013.07
653.93	22059.62
654.282	21987.76
654.633	21955.89
654.985	21914.99
655.337	21907.76
655.688	21976.23
656.039	22053.06
656.391	21818.27
656.742	21842.22
657.094	21874.09
657.445	21947.08
657.796	22020.97
658.147	21850.13
658.498	21878.83
658.849	21926.06
659.2	21924.03
659.551	21857.36
659.902	21989.79
660.253	21885.16
660.604	22011.26
660.955	21976.68
661.306	21991.37
661.656	21919.06
662.007	22006.29
662.358	21910.24
662.708	22000.86
663.059	22009.9
663.409	21752.28
663.76	21966.29
664.11	22078.15
664.461	21955.44
664.811	22052.39
665.161	21898.72
665.511	21940.52
665.862	22036.12
666.212	22070.46
666.562	22093.97
666.912	22082.89
667.262	21907.53
667.612	22049.22
667.962	22025.72
668.312	22030.92
668.662	22054.19
669.011	22020.3
669.361	22104.36
669.711	22082.89
670.06	21998.83
670.41	22037.47
670.76	22017.13
671.109	22142.1
671.459	22059.39
671.808	21893.75
672.157	22080.63
672.507	21985.27
672.856	21979.17
673.205	21944.37
673.554	22043.8
673.904	21955.21
674.253	22062.56
674.602	21943.24
674.951	21620.53
675.3	21653.3
675.649	21927.87
675.998	21819.17
676.346	21885.16
676.695	21905.05
677.044	21768.33
677.393	21924.25
677.741	21927.87
678.09	21891.49
678.438	21817.59
678.787	21923.12
679.135	22034.99
679.484	21735.56
679.832	21868.89
680.181	21706.63
680.529	21677.25
680.877	21661.21
681.225	21680.19
681.573	21843.58
681.922	21643.13
682.27	21615.56
682.618	21712.28
682.966	21700.98
683.314	21738.27
683.661	21519.29
684.009	21449.92
684.357	21427.54
684.705	21389.58
685.053	21437.04
685.4	21469.58
685.748	21383.25
686.095	21383.93
686.443	21280.2
686.79	21233.2
687.138	21267.55
687.485	21291.28
687.832	21273.42
688.18	21320.65
688.527	21241.79
688.874	21203.82
689.221	21143.03
689.568	21063.49
689.915	21022.81
690.262	21081.34
690.609	20986.2
690.956	20945.75
691.303	20904.85
691.65	20875.24
691.997	20815.58
692.344	20726.32
692.69	20715.25
693.037	20785.07
693.383	20602.48
693.73	20660.11
694.077	20467.8
694.423	20396.38
694.769	20456.72
695.116	20412.88
695.462	20397.74
695.808	20303.05
696.155	20334.69
696.501	20223.28
696.847	20208.82
697.193	20023.29
697.539	20118.2
697.885	19951.88
698.231	19902.39
698.577	20036.39
698.923	19946.9
699.269	19894.93
699.614	19823.74
699.96	19746.01
700.306	19726.12
700.651	19669.4
700.997	19633.92
701.342	19694.48
701.688	19574.26
702.033	19526.35
702.379	19489.74
702.724	19476.86
703.069	19548.5
703.415	19308.96
703.76	19285
704.105	19351.89
704.45	19352.57
704.795	19276.41
705.14	19082.75
705.485	19098.57
705.83	19022.18
706.175	19035.97
706.52	18994.39
706.865	18915.97
707.209	18892.92
707.554	18919.59
707.899	18861.74
708.243	18896.09
708.588	18823.09
708.932	18710.55
709.277	18597.34
709.621	18559.14
709.966	18607.05
710.31	18595.08
710.654	18457.45
710.998	18564.12
711.342	18467.17
711.687	18504.91
712.031	18372.71
712.375	18317.34
712.719	18399.83
713.063	18365.25
713.407	18377.68
713.75	18260.62
714.094	18219.94
714.438	18259.04
714.782	18215.43
715.125	18136.78
715.469	18166.84
715.812	18012.27
716.156	17920.29
716.499	18053.62
716.843	18043
717.186	17925.49
717.53	18028.09
717.873	18000.97
718.216	17953.51
718.559	17872.61
718.902	17753.29
719.246	17872.16
719.589	17777.02
719.932	17664.03
720.275	17733.18
720.617	17633.75
720.96	17618.83
721.303	17615.89
721.646	17716
721.989	17574.54
722.331	17731.6
722.674	17601.43
723.016	17633.97
723.359	17649.56
723.701	17601.88
724.044	17426.29
724.386	17423.81
724.729	17476.46
725.071	17528.44
725.413	17479.4
725.755	17497.48
726.097	17408.44
726.439	17313.53
726.782	17368.22
727.124	17462.9
727.465	17350.81
727.807	17302.45
728.149	17275.11
728.491	17237.6
728.833	17306.07
729.175	17279.63
729.516	17324.83
729.858	17150.37
730.199	17250.93
730.541	17188.56
730.882	17184.94
731.224	17151.27
731.565	17161.44
731.906	17112.63
732.248	17220.65
732.589	17067.66
732.93	17051.39
733.271	17117.6
733.612	17078.73
733.953	17105.62
734.294	17046.42
734.635	16918.28
734.976	16992.41
735.317	16998.28
735.658	16904.73
735.999	16978.85
736.339	16944.72
736.68	16930.26
737.021	16976.81
737.361	16873.09
737.702	16884.39
738.042	16871.28
738.383	16839.64
738.723	16975.68
739.063	16933.88
739.404	16896.36
739.744	16893.43
740.084	16828.34
740.424	16903.37
740.764	16797.84
741.104	16896.59
741.444	16715.58
741.784	16731.17
742.124	16760.77
742.464	16715.8
742.804	16738.4
743.143	16753.54
743.483	16675.35
743.823	16704.96
744.162	16679.19
744.502	16720.32
744.841	16684.17
745.181	16707.67
745.52	16633.09
745.86	16577.28
746.199	16631.06
746.538	16581.57
746.877	16629.03
747.216	16679.87
747.556	16585.19
747.895	16518.75
748.234	16514.23
748.573	16489.14
748.911	16535.92
749.25	16463.61
749.589	16465.41
749.928	16499.76
750.267	16426.77
750.605	16405.08
750.944	16458.18
751.283	16319.66
751.621	16469.03
751.96	16316.27
752.298	16346.77
752.636	16337.73
752.975	16393.33
753.313	16214.57
753.651	16384.96
753.989	16231.07
754.327	16121.47
754.666	16187.68
755.004	16228.36
755.342	16212.54
755.679	16210.05
756.017	16092.54
756.355	16197.62
756.693	16081.47
757.031	16175.25
757.368	16061.13
757.706	16074.92
758.044	16045.99
