Data from cardboard_FLMS001491_078.txt Node
Date: Tue Feb 07 11:40:07 GMT 2017
User: dcchb
Spectrometer: FLMS00149
Trigger mode: 0
Integration Time (sec): 2.000000E-2
Scans to average: 10
Electric dark correction enabled: true
Nonlinearity correction enabled: false
Boxcar width: 0
XAxis mode: Wavelengths
Number of Pixels in Spectrum: 2048
>>>>>Begin Spectral Data<<<<<
341.393	-23.21
341.776	-23.21
342.16	-23.21
342.543	-61.85
342.927	-73.15
343.31	-72.92
343.693	-77.44
344.077	-77.67
344.46	-69.53
344.843	-48.52
345.226	-50.78
345.61	-36.99
345.993	-13.26
346.376	0.52
346.759	22.44
347.142	37.36
347.525	31.03
347.908	53.85
348.291	83.23
348.674	88.88
349.057	129.78
349.44	128.88
349.823	138.15
350.206	175.21
350.588	196.22
350.971	210.91
351.354	212.95
351.737	241.19
352.119	232.15
352.502	243.68
352.884	252.49
353.267	264.47
353.65	308.54
354.032	305.6
354.414	318.71
354.797	327.97
355.179	337.46
355.562	316.9
355.944	318.03
356.326	335.66
356.709	313.51
357.091	325.94
357.473	329.55
357.855	334.07
358.238	339.5
358.62	349.67
359.002	339.5
359.384	351.25
359.766	336.11
360.148	318.93
360.53	314.64
360.912	353.06
361.294	334.07
361.676	347.41
362.057	327.07
362.439	307.18
362.821	315.54
363.203	310.12
363.584	316.67
363.966	301.08
364.348	316.9
364.729	315.99
365.111	314.86
365.493	302.66
365.874	327.97
366.256	324.36
366.637	298.82
367.019	300.4
367.4	303.34
367.781	291.59
368.163	292.94
368.544	337.01
368.925	307.86
369.306	328.88
369.688	316.67
370.069	298.59
370.45	310.34
370.831	317.12
371.212	323.45
371.593	313.06
371.974	289.78
372.355	320.51
372.736	295.66
373.117	315.77
373.498	297.69
373.879	305.37
374.26	320.74
374.641	315.99
375.021	308.54
375.402	294.75
375.783	314.41
376.163	323.23
376.544	338.37
376.925	316.67
377.305	319.61
377.686	346.95
378.066	306.5
378.447	329.33
378.827	337.24
379.208	340.4
379.588	339.04
379.968	333.62
380.349	341.98
380.729	324.81
381.109	318.48
381.489	344.24
381.87	323.9
382.25	325.71
382.63	326.39
383.01	342.89
383.39	325.94
383.77	335.66
384.15	346.95
384.53	342.43
384.91	325.71
385.29	354.86
385.67	351.25
386.049	350.8
386.429	357.35
386.809	351.93
387.189	335.2
387.568	349.44
387.948	366.39
388.328	367.07
388.707	348.76
389.087	357.8
389.466	378.59
389.846	350.34
390.225	359.84
390.605	371.59
390.984	383.11
391.363	366.16
391.743	388.08
392.122	365.03
392.501	374.3
392.881	364.13
393.26	377.91
393.639	381.3
394.018	369.55
394.397	376.33
394.776	360.97
395.155	375.88
395.534	385.82
395.913	398.03
396.292	401.42
396.671	404.35
397.05	390.34
397.429	413.17
397.808	375.88
398.186	380.4
398.565	399.83
398.944	393.96
399.323	379.5
399.701	401.87
400.08	384.92
400.458	387.86
400.837	391.92
401.215	417.69
401.594	411.59
401.972	422.43
402.351	410.91
402.729	409.33
403.107	422.66
403.486	407.29
403.864	405.03
404.242	406.84
404.62	435.09
404.999	419.04
405.377	426.27
405.755	414.97
406.133	453.84
406.511	432.6
406.889	418.82
407.267	447.06
407.645	469.21
408.023	425.6
408.401	446.16
408.779	446.39
409.156	477.8
409.534	455.88
409.912	455.43
410.29	459.95
410.667	458.82
411.045	452.49
411.422	480.28
411.8	467.4
412.178	472.6
412.555	487.74
412.933	465.37
413.31	487.29
413.687	488.65
414.065	484.35
414.442	495.88
414.819	516.67
415.197	498.81
415.574	504.46
415.951	493.62
416.328	500.4
416.705	509.89
417.082	512.83
417.46	511.92
417.837	524.12
418.214	538.36
418.591	535.88
418.967	523.67
419.344	553.5
419.721	532.03
420.098	545.59
420.475	561.19
420.852	552.15
421.228	572.03
421.605	572.48
421.982	565.03
422.358	563.22
422.735	565.48
423.111	557.34
423.488	570.9
423.864	567.29
424.241	569.1
424.617	609.55
424.994	595.76
425.37	591.02
425.746	597.8
426.123	595.99
426.499	605.93
426.875	590.34
427.251	622.88
427.627	621.3
428.003	600.96
428.379	660.62
428.756	637.34
429.132	629.43
429.507	633.5
429.883	658.13
430.259	639.83
430.635	633.5
431.011	674.18
431.387	668.98
431.763	668.53
432.138	665.82
432.514	680.28
432.89	685.48
433.265	692.93
433.641	724.35
434.016	706.94
434.392	719.37
434.767	729.09
435.143	728.41
435.518	727.96
435.894	747.62
436.269	719.83
436.644	752.82
437.02	737.45
437.395	764.8
437.77	785.59
438.145	778.81
438.52	770.67
438.895	772.03
439.271	775.87
439.646	797.11
440.021	795.3
440.395	800.73
440.77	805.47
441.145	813.38
441.52	825.81
441.895	812.48
442.27	834.17
442.645	800.28
443.019	837.34
443.394	818.81
443.769	840.27
444.143	834.85
444.518	878.24
444.892	868.75
445.267	862.19
445.641	861.29
446.016	873.04
446.39	887.05
446.764	907.62
447.139	889.09
447.513	882.53
447.887	913.27
448.262	925.47
448.636	904.91
449.01	901.52
449.384	921.63
449.758	916.88
450.132	959.37
450.506	925.7
450.88	956.66
451.254	936.54
451.628	940.16
452.002	949.88
452.376	961.63
452.75	966.15
453.123	971.8
453.497	987.84
453.871	1005.47
454.244	1002.76
454.618	1023.77
454.992	1025.35
455.365	1053.38
455.739	1058.12
456.112	1077.33
456.486	1078.23
456.859	1066.94
457.232	1086.6
457.606	1093.6
457.979	1113.49
458.352	1124.11
458.725	1147.61
459.099	1152.13
459.472	1168.63
459.845	1180.6
460.218	1190.1
460.591	1194.39
460.964	1212.02
461.337	1198.46
461.71	1228.96
462.083	1236.65
462.456	1231
462.829	1248.17
463.201	1273.71
463.574	1320.26
463.947	1295.4
464.32	1320.26
464.692	1340.6
465.065	1374.72
465.438	1357.55
465.81	1363.65
466.183	1400.26
466.555	1404.78
466.928	1424.44
467.3	1433.03
467.672	1439.35
468.045	1493.82
468.417	1472.57
468.789	1502.4
469.161	1535.17
469.534	1532.46
469.906	1523.87
470.278	1579.01
470.65	1553.02
471.022	1621.04
471.394	1634.38
471.766	1634.6
472.138	1682.51
472.51	1662.4
472.882	1723.42
473.253	1748.95
473.625	1761.15
473.997	1750.08
474.369	1785.11
474.74	1829.85
475.112	1876.86
475.484	1880.47
475.855	1902.17
476.227	1920.25
476.598	1965.44
476.97	1965.89
477.341	2044.54
477.713	2018.32
478.084	2107.81
478.455	2145.55
478.827	2147.13
479.198	2188.94
479.569	2223.97
479.94	2263.29
480.311	2292.89
480.682	2348.94
481.053	2364.98
481.424	2391.87
481.795	2426.45
482.166	2476.39
482.537	2515.26
482.908	2520.68
483.279	2571.08
483.65	2625.99
484.021	2686.1
484.391	2685.65
484.762	2715.93
485.133	2791.86
485.503	2813.56
485.874	2824.4
486.244	2853.33
486.615	2952.99
486.985	2969.94
487.356	3032.53
487.726	3051.97
488.097	3110.05
488.467	3133.1
488.837	3210.16
489.207	3199.99
489.578	3265.97
489.948	3308.23
490.318	3376.48
490.688	3376.7
491.058	3421.22
491.428	3503.03
491.798	3514.1
492.168	3585.06
492.538	3583.48
492.908	3680.43
493.278	3726.53
493.648	3703.93
494.017	3744.15
494.387	3772.63
494.757	3855.56
495.126	3872.06
495.496	3886.75
495.866	3978.27
496.235	4032.05
496.605	4036.8
496.974	4095.78
497.344	4108.89
497.713	4184.82
498.082	4206.06
498.452	4264.14
498.821	4304.14
499.19	4273.86
499.559	4386.85
499.928	4375.1
500.298	4433.17
500.667	4491.25
501.036	4498.94
501.405	4580.74
501.774	4590.46
502.143	4625.94
502.512	4657.12
502.88	4712.04
503.249	4740.74
503.618	4775.76
503.987	4808.31
504.356	4815.76
504.724	4881.3
505.093	4944.12
505.462	4894.41
505.83	4952.03
506.199	5046.72
506.567	5121.52
506.936	5153.38
507.304	5208.97
507.672	5243.55
508.041	5261.85
508.409	5341.63
508.777	5373.04
509.145	5416.88
509.514	5468.18
509.882	5504.33
510.25	5563.31
510.618	5623.88
510.986	5602.64
511.354	5726.47
511.722	5746.59
512.09	5814.16
512.458	5851.67
512.826	5895.73
513.193	5936.86
513.561	5987.26
513.929	6043.08
514.297	6051.44
514.664	6151.55
515.032	6232.45
515.4	6273.8
515.767	6289.62
516.135	6421.6
516.502	6350.86
516.869	6519.45
517.237	6525.55
517.604	6521.93
517.972	6707.01
518.339	6727.13
518.706	6714.24
519.073	6722.38
519.44	6822.94
519.808	6885.09
520.175	6882.6
520.542	7033.11
520.909	7121.24
521.276	7146.32
521.643	7271.29
522.009	7270.84
522.376	7399.88
522.743	7438.29
523.11	7489.14
523.477	7580.44
523.843	7637.61
524.21	7800.77
524.577	7857.27
524.943	7955.34
525.31	7963.25
525.676	8065.17
526.043	8123.25
526.409	8187.43
526.776	8316.01
527.142	8347.87
527.508	8377.25
527.874	8512.39
528.241	8574.08
528.607	8620.86
528.973	8723.68
529.339	8791.93
529.705	8848.65
530.071	8941.3
530.437	9006.39
530.803	9019.72
531.169	9155.99
531.535	9158.93
531.901	9228.75
532.267	9303.55
532.632	9380.84
532.998	9482.31
533.364	9475.3
533.73	9602.08
534.095	9586.49
534.461	9703.32
534.826	9787.38
535.192	9854.27
535.557	9937.44
535.923	9935.85
536.288	10065.12
536.653	10086.59
537.019	10131.1
537.384	10158.9
537.749	10236.64
538.114	10309.18
538.479	10323.19
538.845	10447.48
539.21	10486.12
539.575	10541.49
539.94	10609.28
540.305	10707.81
540.67	10743.29
541.034	10766.79
541.399	10873.01
541.764	10873.68
542.129	10955.04
542.494	11011.08
542.858	11043.85
543.223	11057.63
543.587	11282.03
543.952	11214.01
544.316	11233.45
544.681	11322.26
545.045	11424.85
545.41	11453.1
545.774	11569.03
546.138	11550.05
546.503	11618.07
546.867	11726.54
547.231	11831.4
547.595	11801.79
547.959	11921.11
548.324	11929.47
548.688	11912.3
549.052	12024.84
549.416	12094.44
549.779	12144.16
550.143	12244.95
550.507	12321.33
550.871	12339.41
551.235	12391.61
551.599	12579.85
551.962	12622.34
552.326	12569.23
552.689	12825.5
553.053	12712.73
553.417	12743.24
553.78	12919.5
554.143	12957.02
554.507	13013.51
554.87	13071.59
555.234	13297.57
555.597	13174.64
555.96	13235.65
556.323	13339.38
556.686	13510.45
557.05	13607.62
557.413	13526.95
557.776	13633.16
558.139	13766.04
558.502	13862.3
558.865	13900.72
559.228	14099.81
559.59	14119.02
559.953	14211.67
560.316	14373.48
560.679	14321.73
561.041	14447.6
561.404	14575.05
561.767	14573.25
562.129	14665.22
562.492	14849.4
562.854	14816.63
563.217	14894.82
563.579	14968.94
563.941	15140.92
564.304	15132.55
564.666	15321.25
565.028	15396.73
565.39	15434.24
565.753	15535.26
566.115	15621.13
566.477	15718.08
566.839	15813.44
567.201	15805.08
567.563	15909.71
567.925	16071.51
568.287	16160.78
568.648	16146.31
569.01	16287.55
569.372	16367.1
569.734	16338.85
570.095	16449.13
570.457	16621.1
570.819	16684.15
571.18	16782.45
571.542	16815.67
571.903	16894.77
572.265	16874.2
572.626	17026.29
572.987	17072.16
573.349	17203.01
573.71	17138.83
574.071	17229.67
574.432	17347.41
574.794	17499.5
575.155	17540.4
575.516	17495.66
575.877	17629.44
576.238	17706.72
576.599	17753.95
576.96	17877.11
577.32	17890
577.681	17915.08
578.042	18050.44
578.403	17939.03
578.763	18065.13
579.124	18130.44
579.485	18333.83
579.845	18307.39
580.206	18238.24
580.566	18262.64
580.927	18352.81
581.287	18496.08
581.648	18393.71
582.008	18547.15
582.368	18614.5
582.728	18676.19
583.089	18586.93
583.449	18701.5
583.809	18685
584.169	18841.61
584.529	18737.43
584.889	18890.42
585.249	18859.46
585.609	18812.01
585.969	18977.88
586.329	18964.32
586.688	18985.79
587.048	18972.23
587.408	19011.77
587.768	19102.85
588.127	19167.25
588.487	19045.22
588.846	19216.97
589.206	19091.32
589.565	19172.45
589.925	19345.1
590.284	19309.39
590.643	19381.71
591.003	19409.28
591.362	19480.01
591.721	19430.75
592.08	19413.57
592.44	19577.63
592.799	19517.52
593.158	19540.57
593.517	19542.16
593.876	19579.89
594.235	19565.66
594.593	19693.79
594.952	19643.17
595.311	19531.31
595.67	19801.13
596.029	19797.74
596.387	19853.11
596.746	19915.71
597.104	19816.05
597.463	19960.45
597.822	19961.81
598.18	19923.84
598.538	19952.99
598.897	20053.78
599.255	19908.47
599.613	20260.55
599.972	20124.51
600.33	20213.32
600.688	20148.69
601.046	20123.38
601.404	20285.41
601.762	20346.65
602.12	20374.9
602.478	20495.58
602.836	20573.09
603.194	20280.22
603.552	20441.79
603.91	20324.06
604.268	20645.4
604.625	20507.78
604.983	20536.71
605.341	20571.96
605.698	20566.76
606.056	20849.92
606.413	20726.98
606.771	20717.94
607.128	20866.87
607.485	20789.81
607.843	20761.33
608.2	20876.13
608.557	21022.12
608.914	21019.4
609.272	21091.72
609.629	21095.56
609.986	21154.09
610.343	21127.2
610.7	21222.11
611.057	21160.87
611.414	21273.18
611.771	21322.45
612.127	21330.58
612.484	21301.66
612.841	21457.36
613.198	21441.54
613.554	21505.27
613.911	21489.22
614.267	21632.95
614.624	21548.2
614.98	21607.86
615.337	21673.63
615.693	21769.89
616.05	21737.13
616.406	21834.07
616.762	21722.44
617.118	21796.11
617.475	21801.31
617.831	21863.45
618.187	21935.99
618.543	21965.14
618.899	22036.55
619.255	22091.69
619.611	21983.22
619.967	22138.47
620.323	22217.34
620.678	22145.7
621.034	22100.51
621.39	22205.81
621.746	22075.65
622.101	22398.8
622.457	22231.8
622.812	22380.27
623.168	22329.43
623.523	22359.03
623.879	22431.12
624.234	22419.37
624.589	22347.51
624.945	22430.89
625.3	22476.54
625.655	22426.6
626.01	22450.33
626.365	22499.59
626.72	22592.02
627.075	22526.26
627.43	22511.57
627.785	22500.95
628.14	22436.99
628.495	22560.61
628.85	22508.41
629.205	22479.71
629.559	22561.29
629.914	22451.46
630.269	22507.28
630.623	22470.44
630.978	22485.58
631.332	22594.96
631.687	22635.18
632.041	22465.47
632.396	22579.14
632.75	22437.22
633.104	22638.35
633.459	22413.04
633.813	22541.4
634.167	22347.51
634.521	22454.62
634.875	22442.87
635.229	22444.9
635.583	22350.44
635.937	22376.66
636.291	22342.76
636.645	22296.21
636.999	22416.88
637.352	22433.15
637.706	22255.3
638.06	22336.21
638.413	22393.15
638.767	22251.91
639.121	22386.83
639.474	22164.23
639.828	22321.97
640.181	22373.72
640.534	22280.16
640.888	22237.45
641.241	22099.6
641.594	22208.98
641.947	22350.44
642.301	22139.6
642.654	22255.76
643.007	22260.5
643.36	22201.29
643.713	22221.18
644.066	22279.71
644.419	22027.06
644.771	22019.83
645.124	21724.25
645.477	21823.9
645.83	21582.55
646.182	21606.51
646.535	21543.68
646.888	21555.66
647.24	21449.22
647.593	21632.04
647.945	21523.57
648.298	21530.58
648.65	21510.47
649.002	21388.66
649.355	21510.69
649.707	21495.55
650.059	21631.37
650.411	21968.08
650.763	21848.54
651.115	22112.71
651.467	21944.58
651.819	22044.01
652.171	21910.68
652.523	21999.72
652.875	22117
653.227	21871.81
653.578	22082.88
653.93	22021.86
654.282	21968.31
654.633	21844.69
654.985	21980.96
655.337	21961.75
655.688	21985.03
656.039	21940.74
656.391	21754.07
656.742	21949.1
657.094	21935.77
657.445	21925.37
657.796	21990.45
658.147	21903.22
658.498	21867.52
658.849	22057.34
659.2	21985.03
659.551	21893.96
659.902	21963.79
660.253	21885.14
660.604	22041.3
660.955	21823.23
661.306	22068.64
661.656	21950.91
662.007	21964.92
662.358	21885.14
662.708	21973.05
663.059	21986.16
663.409	21816.67
663.76	21888.76
664.11	21965.37
664.461	22030.45
664.811	21971.02
665.161	21902.77
665.511	21847.86
665.862	22012.15
666.212	22057.34
666.562	22055.99
666.912	22038.36
667.262	21910.23
667.612	22079.04
667.962	22041.98
668.312	22118.36
668.662	22126.49
669.011	22181.18
669.361	22062.32
669.711	22075.65
670.06	22112.94
670.41	21990
670.76	21923.11
671.109	22107.29
671.459	22047.17
671.808	21959.72
672.157	22164.01
672.507	21906.39
672.856	21999.72
673.205	21986.39
673.554	22100.28
673.904	21977.8
674.253	22062.99
674.602	22010.34
674.951	21645.38
675.3	21595.89
675.649	21969.66
675.998	21925.14
676.346	21881.53
676.695	21980.96
677.044	21879.27
677.393	21849.21
677.741	21953.84
678.09	21939.38
678.438	21780.97
678.787	21890.79
679.135	21837.01
679.484	21761.76
679.832	21866.39
680.181	21732.61
680.529	21807.18
680.877	21836.33
681.225	21734.64
681.573	21908.87
681.922	21661.65
682.27	21614.87
682.618	21643.57
682.966	21648.54
683.314	21648.77
683.661	21611.25
684.009	21447.64
684.357	21461.2
684.705	21390.92
685.053	21455.55
685.4	21374.42
685.748	21397.93
686.095	21393.41
686.443	21343.92
686.79	21237.25
687.138	21408.1
687.485	21284.03
687.832	21247.87
688.18	21291.94
688.527	21037.94
688.874	21162.23
689.221	21102.79
689.568	21004.04
689.915	21079.29
690.262	21039.07
690.609	20853.76
690.956	20952.29
691.303	20925.4
691.65	20741.9
691.997	20765.17
692.344	20613.09
692.69	20693.99
693.037	20634.1
693.383	20527.67
693.73	20616.25
694.077	20414.68
694.423	20491.96
694.769	20385.75
695.116	20245.19
695.462	20413.32
695.808	20357.5
696.155	20297.16
696.501	20173.33
696.847	20221.23
697.193	20142.37
697.539	20137.62
697.885	19996.38
698.231	20044.97
698.577	19912.77
698.923	19975.82
699.269	19912.09
699.614	19742.83
699.96	19830.06
700.306	19801.58
700.651	19649.27
700.997	19608.59
701.342	19683.62
701.688	19550.07
702.033	19567.01
702.379	19482.5
702.724	19431.42
703.069	19466.23
703.415	19245.44
703.76	19317.08
704.105	19290.41
704.45	19362.5
704.795	19131.54
705.14	19112.34
705.485	19047.03
705.83	18981.94
706.175	19028.95
706.52	19023.07
706.865	19028.72
707.209	18980.36
707.554	18882.06
707.899	18888.39
708.243	18833.47
708.588	18821.27
708.932	18692.91
709.277	18717.09
709.621	18639.13
709.966	18569.98
710.31	18628.96
710.654	18471
710.998	18436.87
711.342	18444.78
711.687	18480.94
712.031	18358.46
712.375	18372.24
712.719	18327.27
713.063	18244.56
713.407	18446.59
713.75	18181.06
714.094	18222.42
714.438	18168.41
714.782	18138.58
715.125	18101.29
715.469	18148.97
715.812	18082.31
716.156	18026.49
716.499	17989.43
716.843	17974.51
717.186	17853.61
717.53	17955.3
717.873	17996.43
718.216	17875.76
718.559	17851.13
718.902	17762.99
719.246	17863.56
719.589	17829.43
719.932	17634.64
720.275	17731.13
720.617	17754.63
720.96	17763.45
721.303	17598.03
721.646	17640.74
721.989	17622.88
722.331	17608.65
722.674	17657.91
723.016	17605.03
723.359	17545.15
723.701	17628.31
724.044	17581.53
724.386	17475.09
724.729	17527.07
725.071	17484.58
725.413	17453.4
725.755	17465.83
726.097	17400.07
726.439	17400.07
726.782	17304.02
727.124	17425.15
727.465	17334.3
727.807	17293.63
728.149	17287.98
728.491	17331.59
728.833	17389.67
729.175	17298.6
729.516	17248.43
729.858	17214.31
730.199	17295.89
730.541	17212.95
730.882	17160.52
731.224	17237.81
731.565	17172.5
731.906	17135.89
732.248	17144.03
732.589	16981.09
732.93	17000.75
733.271	17002.34
733.612	17106.51
733.953	17089.34
734.294	17013.41
734.635	16919.17
734.976	17185.83
735.317	16924.37
735.658	17055.22
735.999	16965.95
736.339	16881.66
736.68	17010.47
737.021	16976.35
737.361	16913.07
737.702	16988.1
738.042	16838.27
738.383	16837.14
738.723	16963.01
739.063	16810.25
739.404	16873.07
739.744	16926.86
740.084	16811.15
740.424	16902.23
740.764	16833.75
741.104	16863.13
741.444	16824.94
741.784	16717.15
742.124	16820.65
742.464	16742
742.804	16719.63
743.143	16730.03
743.483	16670.14
743.823	16555.79
744.162	16619.75
744.502	16677.15
744.841	16675.11
745.181	16709.91
745.52	16641.67
745.86	16667.2
746.199	16574.32
746.538	16539.3
746.877	16655.68
747.216	16607.54
747.556	16560.99
747.895	16624.49
748.234	16527.09
748.573	16534.78
748.911	16500.88
749.25	16593.98
749.589	16480.99
749.928	16492.97
750.267	16531.39
750.605	16491.16
750.944	16304.73
751.283	16361
751.621	16430.83
751.96	16352.86
752.298	16327.32
752.636	16397.61
752.975	16348.79
753.313	16268.8
753.651	16250.04
753.989	16256.59
754.327	16331.17
754.666	16107.9
755.004	16244.62
755.342	16261.79
755.679	16286.65
756.017	16060.67
756.355	16195.58
756.693	16130.72
757.031	16155.58
757.368	16010.72
757.706	16039.65
758.044	16000.78
