Data from cardboard_FLMS001491_085.txt Node
Date: Tue Feb 07 11:40:16 GMT 2017
User: dcchb
Spectrometer: FLMS00149
Trigger mode: 0
Integration Time (sec): 2.000000E-2
Scans to average: 10
Electric dark correction enabled: true
Nonlinearity correction enabled: false
Boxcar width: 0
XAxis mode: Wavelengths
Number of Pixels in Spectrum: 2048
>>>>>Begin Spectral Data<<<<<
341.393	-7.15
341.776	-7.15
342.16	-7.15
342.543	-72.68
342.927	-78.33
343.31	-59.12
343.693	-70.2
344.077	-47.82
344.46	-48.28
344.843	-65.68
345.226	-29.97
345.61	-31.1
345.993	-43.3
346.376	-14.15
346.759	9.12
347.142	3.7
347.525	62.46
347.908	51.83
348.291	93.87
348.674	90.03
349.057	98.61
349.44	105.39
349.823	147.88
350.206	175.45
350.588	184.94
350.971	196.46
351.354	211.15
351.737	243.24
352.119	256.8
352.502	249.57
352.884	272.85
353.267	279.63
353.65	286.63
354.032	310.36
354.414	310.59
354.797	295.44
355.179	316.23
355.562	328.89
355.944	315.56
356.326	325.05
356.709	344.03
357.091	313.52
357.473	332.73
357.855	329.12
358.238	335.22
358.62	332.05
359.002	313.07
359.384	326.86
359.766	341.54
360.148	340.19
360.53	338.61
360.912	333.86
361.294	330.92
361.676	329.57
362.057	322.56
362.439	323.01
362.821	334.09
363.203	318.27
363.584	332.05
363.966	321.43
364.348	343.58
364.729	324.6
365.111	319.62
365.493	330.47
365.874	317.59
366.256	327.53
366.637	316.23
367.019	309.23
367.4	320.53
367.781	312.84
368.163	310.81
368.544	327.53
368.925	314.43
369.306	301.32
369.688	302
370.069	324.37
370.45	322.56
370.831	305.61
371.212	320.3
371.593	310.13
371.974	305.39
372.355	314.88
372.736	327.53
373.117	310.59
373.498	330.7
373.879	297.25
374.26	302
374.641	316.46
375.021	317.82
375.402	309.23
375.783	322.79
376.163	309.23
376.544	321.43
376.925	320.08
377.305	335.9
377.686	344.26
378.066	326.86
378.447	340.64
378.827	328.89
379.208	340.19
379.588	339.28
379.968	350.36
380.349	343.13
380.729	322.11
381.109	347.19
381.489	341.77
381.87	347.42
382.25	340.64
382.63	346.97
383.01	346.74
383.39	342.67
383.77	331.6
384.15	353.3
384.53	351.94
384.91	345.16
385.29	384.03
385.67	356.91
386.049	367.53
386.429	359.17
386.809	387.42
387.189	347.42
387.568	372.5
387.948	365.05
388.328	382.45
388.707	372.5
389.087	366.85
389.466	358.27
389.846	373.63
390.225	365.95
390.605	408.66
390.984	390.13
391.363	381.54
391.743	388.32
392.122	406.63
392.501	411.37
392.881	411.83
393.26	393.52
393.639	386.29
394.018	378.61
394.397	418.6
394.776	398.49
395.155	395.55
395.534	419.96
395.913	404.59
396.292	438.49
396.671	438.04
397.05	412.05
397.429	408.44
397.808	393.75
398.186	389.23
398.565	444.59
398.944	409.11
399.323	408.66
399.701	420.41
400.08	424.71
400.458	406.85
400.837	447.3
401.215	415.67
401.594	449.11
401.972	435.78
402.351	443.01
402.729	443.46
403.107	463.58
403.486	441.66
403.864	459.06
404.242	454.31
404.62	472.16
404.999	471.71
405.377	436.68
405.755	462.9
406.133	457.25
406.511	477.36
406.889	456.34
407.267	472.61
407.645	503.8
408.023	492.28
408.401	506.74
408.779	483.91
409.156	502.67
409.534	509.22
409.912	504.03
410.29	519.39
410.667	518.49
411.045	551.48
411.422	545.16
411.8	518.26
412.178	550.13
412.555	554.19
412.933	563.23
413.31	555.78
413.687	569.34
414.065	564.14
414.442	558.04
414.819	572.95
415.197	573.18
415.574	588.32
415.951	603.46
416.328	587.64
416.705	595.32
417.082	605.04
417.46	579.28
417.837	615.66
418.214	603.01
418.591	617.24
418.967	611.59
419.344	603.68
419.721	643.91
420.098	637.36
420.475	629.45
420.852	636.68
421.228	659.5
421.605	658.15
421.982	668.54
422.358	660.63
422.735	679.16
423.111	662.89
423.488	677.81
423.864	680.07
424.241	710.12
424.617	688.65
424.994	694.3
425.37	695.21
425.746	705.6
426.123	706.28
426.499	715.09
426.875	690.46
427.251	735.21
427.627	744.47
428.003	763.23
428.379	750.12
428.756	746.96
429.132	756.9
429.507	781.76
429.883	770.23
430.259	774.3
430.635	786.5
431.011	817.69
431.387	829.89
431.763	821.98
432.138	825.15
432.514	847.97
432.89	833.74
433.265	868.76
433.641	852.72
434.016	875.54
434.392	858.82
434.767	893.39
435.143	915.77
435.518	921.87
435.894	898.82
436.269	936.33
436.644	925.03
437.02	922.09
437.395	938.59
437.77	958.93
438.145	969.1
438.52	966.84
438.895	965.03
439.271	981.08
439.646	987.86
440.021	1006.16
440.395	989.44
440.77	989.66
441.145	1002.77
441.52	1031.47
441.895	1015.2
442.27	1009.32
442.645	1038.93
443.019	1049.77
443.394	1078.25
443.769	1081.64
444.143	1041.19
444.518	1078.93
444.892	1065.14
445.267	1083.45
445.641	1096.78
446.016	1078.7
446.39	1098.59
446.764	1132.26
447.139	1105.14
447.513	1125.03
447.887	1131.81
448.262	1127.51
448.636	1128.19
449.01	1115.31
449.384	1165.7
449.758	1148.76
450.132	1195.08
450.506	1183.33
450.88	1219.49
451.254	1185.14
451.628	1219.04
452.002	1224.01
452.376	1249.54
452.75	1229.43
453.123	1256.55
453.497	1247.51
453.871	1262.42
454.244	1316.89
454.618	1318.02
454.992	1322.08
455.365	1294.06
455.739	1344.23
456.112	1372.93
456.486	1368.64
456.859	1387.39
457.232	1429.2
457.606	1398.01
457.979	1421.97
458.352	1460.39
458.725	1468.75
459.099	1462.65
459.472	1523.43
459.845	1502.19
460.218	1517.56
460.591	1535.86
460.964	1536.09
461.337	1556.88
461.71	1613.6
462.083	1639.14
462.456	1617.67
462.829	1606.6
463.201	1652.24
463.574	1665.13
463.947	1731.79
464.32	1706.71
464.692	1737.21
465.065	1731.11
465.438	1766.37
465.81	1762.52
466.183	1827.83
466.555	1835.74
466.928	1896.53
467.3	1868.74
467.672	1907.38
468.045	1936.98
468.417	1951.67
468.789	1936.31
469.161	1970.43
469.534	2006.59
469.906	2065.79
470.278	2069.86
470.65	2088.17
471.022	2115.28
471.394	2149.41
471.766	2167.49
472.138	2217.2
472.51	2246.81
472.882	2274.83
473.253	2319.12
473.625	2365.45
473.997	2382.62
474.369	2391.66
474.74	2426.24
475.112	2478.66
475.484	2517.98
475.855	2551.43
476.227	2562.28
476.598	2629.17
476.97	2638.43
477.341	2746.91
477.713	2756.17
478.084	2762.05
478.455	2867.58
478.827	2846.56
479.198	2967.24
479.569	2963.85
479.94	3024.64
480.311	3051.3
480.682	3131.3
481.053	3209.94
481.424	3232.54
481.795	3310.28
482.166	3331.52
482.537	3366.78
482.908	3440.9
483.279	3466.21
483.65	3543.04
484.021	3602.02
484.391	3670.27
484.762	3693.32
485.133	3770.83
485.503	3825.07
485.874	3888.12
486.244	3944.84
486.615	3980.77
486.985	4067.1
487.356	4110.94
487.726	4118.62
488.097	4288.11
488.467	4307.99
488.837	4366.98
489.207	4414.21
489.578	4467.99
489.948	4511.38
490.318	4604.94
490.688	4627.53
491.058	4676.8
491.428	4784.37
491.798	4811.48
492.168	4920.18
492.538	4933.29
492.908	4983.46
493.278	5049.44
493.648	5106.84
494.017	5227.29
494.387	5230.91
494.757	5261.87
495.126	5338.93
495.496	5381.19
495.866	5406.27
496.235	5481.3
496.605	5547.74
496.974	5586.83
497.344	5650.78
497.713	5688.75
498.082	5782.98
498.452	5841.97
498.821	5835.64
499.19	5856.43
499.559	5971.68
499.928	6006.03
500.298	6114.73
500.667	6069.98
501.036	6172.58
501.405	6228.4
501.774	6276.76
502.143	6359.24
502.512	6360.6
502.88	6459.35
503.249	6507.26
503.618	6508.84
503.987	6573.47
504.356	6675.39
504.724	6679.68
505.093	6754.71
505.462	6815.05
505.83	6836.29
506.199	6915.38
506.567	7025.66
506.936	7046.91
507.304	7133.91
507.672	7182.49
508.041	7248.48
508.409	7324.19
508.777	7356.73
509.145	7457.97
509.514	7476.5
509.882	7603.5
510.25	7606.44
510.618	7660.9
510.986	7747
511.354	7842.59
511.722	7914.68
512.09	7989.93
512.458	8014.56
512.826	8104.05
513.193	8172.3
513.561	8163.26
513.929	8256.14
514.297	8328.45
514.664	8427.66
515.032	8493.19
515.4	8615.9
515.767	8638.73
516.135	8674.88
516.502	8694.77
516.869	8871.72
517.237	8943.58
517.604	8956.01
517.972	9123.23
518.339	9195.32
518.706	9210.46
519.073	9274.87
519.44	9386.05
519.808	9502.21
520.175	9527.52
520.542	9701.98
520.909	9735.2
521.276	9775.19
521.643	9884.8
522.009	9987.17
522.376	10076.2
522.743	10192.13
523.11	10308.06
523.477	10418.57
523.843	10534.72
524.21	10634.61
524.577	10735.17
524.943	10788.95
525.31	10887.03
525.676	10991.21
526.043	11104.43
526.409	11117.76
526.776	11379.9
527.142	11328.15
527.508	11384.42
527.874	11553.23
528.241	11670.06
528.607	11689.95
528.973	11936.04
529.339	11908.7
529.705	12056.26
530.071	12220.33
530.437	12291.96
530.803	12290.61
531.169	12456.03
531.535	12413.32
531.901	12539.64
532.267	12677.27
532.632	12807.43
532.998	12800.65
533.364	12937.6
533.73	12981.44
534.095	13185.05
534.461	13224.14
534.826	13304.37
535.192	13390.24
535.557	13444.48
535.923	13524.25
536.288	13650.8
536.653	13663.23
537.019	13680.4
537.384	13841.3
537.749	13999.26
538.114	13967.85
538.479	13941.64
538.845	14071.58
539.21	14188.64
539.575	14258.69
539.94	14434.73
540.305	14507.27
540.67	14512.92
541.034	14555.63
541.399	14660.26
541.764	14721.73
542.129	14846.25
542.494	14828.85
542.858	15041.95
543.223	15034.94
543.587	15166.69
543.952	15260.7
544.316	15286.01
544.681	15295.73
545.045	15409.4
545.41	15528.72
545.774	15598.77
546.138	15655.94
546.503	15738.2
546.867	15794.25
547.231	15886.67
547.595	16017.74
547.959	16109.04
548.324	16109.72
548.688	16144.74
549.052	16267.68
549.416	16408.24
549.779	16404.4
550.143	16543.6
550.507	16736.59
550.871	16766.65
551.235	16739.98
551.599	16975.46
551.962	16979.3
552.326	17009.81
552.689	17182.91
553.053	17194.43
553.417	17264.49
553.78	17501.55
554.143	17431.49
554.507	17562.56
554.87	17738.83
555.234	17843.23
555.597	17842.78
555.96	18009.55
556.323	18082.77
556.686	18020.18
557.05	18211.81
557.413	18344.01
557.776	18367.51
558.139	18455.19
558.502	18576.77
558.865	18722.76
559.228	18883.2
559.59	18961.39
559.953	19059.47
560.316	19323.19
560.679	19330.42
561.041	19489.97
561.404	19582.39
561.767	19659
562.129	19668.27
562.492	19884.76
562.854	19942.39
563.217	20074.36
563.579	20080.69
563.941	20325.2
564.304	20392.09
564.666	20465.99
565.028	20684.74
565.39	20757.73
565.753	20816.26
566.115	21009.25
566.477	20990.95
566.839	21127.44
567.201	21347.55
567.563	21343.93
567.925	21564.04
568.287	21606.3
568.648	21766.29
569.01	21866.18
569.372	21960.64
569.734	21967.64
570.095	22070.46
570.457	22278.14
570.819	22388.87
571.18	22440.62
571.542	22455.99
571.903	22677.68
572.265	22715.65
572.626	22753.84
572.987	22868.18
573.349	22942.08
573.71	23023.89
574.071	23238.57
574.432	23291.9
574.794	23546.13
575.155	23483.31
575.516	23463.2
575.877	23663.42
576.238	23613.02
576.599	23851.66
576.96	23800.59
577.32	23889.4
577.681	24003.52
578.042	24037.19
578.403	24146.79
578.763	24146.57
579.124	24301.14
579.485	24421.14
579.845	24401.03
580.206	24428.82
580.566	24608.93
580.927	24653.45
581.287	24703.39
581.648	24750.62
582.008	24802.14
582.368	24841.69
582.728	24868.58
583.089	24914.23
583.449	24913.1
583.809	24912.88
584.169	25086.66
584.529	25065.19
584.889	25328.68
585.249	25124.85
585.609	25104.74
585.969	25360.77
586.329	25307.44
586.688	25303.83
587.048	25382.69
587.408	25435.12
587.768	25416.59
588.127	25476.93
588.487	25477.38
588.846	25552.86
589.206	25471.51
589.565	25585.85
589.925	25803.47
590.284	25579.3
590.643	25777.26
591.003	25795.79
591.362	25949.01
591.721	25812.06
592.08	25905.84
592.44	26072.62
592.799	25992.4
593.158	25992.62
593.517	26049.12
593.876	26112.62
594.235	26065.61
594.593	26120.98
594.952	26243.46
595.311	26322.1
595.67	26336.57
596.029	26387.19
596.387	26370.01
596.746	26650.68
597.104	26419.96
597.463	26495.43
597.822	26675.99
598.18	26522.33
598.538	26455.43
598.897	26699.72
599.255	26536.11
599.613	26969.09
599.972	26717.57
600.33	26868.98
600.688	26732.26
601.046	26896.33
601.404	27019.71
601.762	27003.89
602.12	27088.64
602.478	27135.87
602.836	27164.57
603.194	27062.88
603.552	27260.61
603.91	27107.85
604.268	27289.99
604.625	27242.08
604.983	27274.85
605.341	27244.57
605.698	27532.24
606.056	27590.77
606.413	27608.4
606.771	27554.16
607.128	27687.49
607.485	27580.83
607.843	27543.32
608.2	27772.46
608.557	27954.83
608.914	27834.38
609.272	27967.26
609.629	28044.32
609.986	28236.18
610.343	27902.4
610.7	28214.03
611.057	28268.95
611.414	28261.26
611.771	28311.2
612.127	28361.82
612.484	28396.4
612.841	28441.82
613.198	28269.62
613.554	28375.61
613.911	28589.39
614.267	28546.45
614.624	28644.76
614.98	28703.28
615.337	28843.85
615.693	28689.73
616.05	28770.18
616.406	28910.96
616.762	28873.68
617.118	28869.16
617.475	28932.88
617.831	29021.92
618.187	29112.99
618.543	29141.92
618.899	29365.19
619.255	29112.77
619.611	29237.96
619.967	29346.66
620.323	29445.41
620.678	29426.88
621.034	29367.67
621.39	29282.7
621.746	29359.31
622.101	29638.63
622.457	29508.91
622.812	29579.19
623.168	29582.36
623.523	29635.46
623.879	29745.07
624.234	29446.54
624.589	29608.12
624.945	29702.13
625.3	29672.07
625.655	29652.86
626.01	29778.74
626.365	29775.57
626.72	29622.36
627.075	29701
627.43	29693.77
627.785	29713.88
628.14	29743.26
628.495	29778.51
628.85	29755.69
629.205	29677.72
629.559	29813.99
629.914	29640.89
630.269	29788.68
630.623	29655.35
630.978	29674.78
631.332	29780.77
631.687	29885.63
632.041	29795.46
632.396	29871.39
632.75	29675.01
633.104	29812.41
633.459	29634.33
633.813	29731.28
634.167	29717.5
634.521	29751.17
634.875	29764.5
635.229	29757.72
635.583	29556.82
635.937	29594.33
636.291	29626.42
636.645	29612.87
636.999	29571.06
637.352	29597.5
637.706	29580.55
638.06	29611.06
638.413	29509.14
638.767	29515.01
639.121	29579.42
639.474	29371.97
639.828	29417.84
640.181	29317.73
640.534	29404.28
640.888	29346.21
641.241	29319.09
641.594	29329.94
641.947	29351.4
642.301	29398.18
642.654	29409.93
643.007	29415.58
643.36	29403.83
643.713	29300.11
644.066	29393.21
644.419	29213.1
644.771	29057.85
645.124	28713.68
645.477	28702.61
645.83	28548.94
646.182	28506.91
646.535	28454.25
646.888	28436.63
647.24	28374.93
647.593	28473.23
647.945	28505.78
648.298	28438.21
648.65	28344.2
649.002	28268.49
649.355	28459.45
649.707	28334.71
650.059	28378.32
650.411	28773.34
650.763	28903.05
651.115	29129.26
651.467	29108.7
651.819	29076.38
652.171	29074.35
652.523	29034.58
652.875	28923.17
653.227	28865.77
653.578	29079.77
653.93	28942.15
654.282	28999.55
654.633	28819.67
654.985	28982.6
655.337	28938.76
655.688	29080.22
656.039	29048.13
656.391	28772.66
656.742	28823.06
657.094	28917.06
657.445	29035.48
657.796	28902.15
658.147	28809.27
658.498	28813.34
658.849	29042.94
659.2	28837.97
659.551	28774.02
659.902	28997.29
660.253	28958.19
660.604	28915.71
660.955	28902.83
661.306	28861.47
661.656	28852.89
662.007	28917.97
662.358	28924.97
662.708	28933.56
663.059	28901.47
663.409	28736.96
663.76	29095.14
664.11	29008.59
664.461	29071.18
664.811	29066.67
665.161	28976.95
665.511	28884.97
665.862	29064.18
666.212	29140.11
666.562	29099.88
666.912	28948.48
667.262	28986.22
667.612	29007.01
667.962	29016.04
668.312	28962.04
668.662	29153.89
669.011	29097.4
669.361	28912.09
669.711	28889.27
670.06	29048.81
670.41	28931.3
670.76	28850.4
671.109	29023.28
671.459	28829.16
671.808	28874.13
672.157	28939.89
672.507	28822.6
672.856	28761.59
673.205	28828.93
673.554	29039.77
673.904	28874.13
674.253	28929.49
674.602	28969.49
674.951	28522.72
675.3	28393.91
675.649	28820.57
675.998	28901.92
676.346	28722.27
676.695	28985.76
677.044	28659.67
677.393	28728.37
677.741	28816.05
678.09	28711.19
678.438	28725.43
678.787	28816.95
679.135	28720.01
679.484	28581.48
679.832	28742.38
680.181	28554.81
680.529	28588.94
680.877	28517.75
681.225	28476.17
681.573	28651.76
681.922	28576.51
682.27	28426.46
682.618	28432.78
682.966	28374.71
683.314	28303.97
683.661	28284.31
684.009	28194.6
684.357	28209.51
684.705	28163.19
685.053	28148.05
685.4	28184.65
685.748	27970.2
686.095	28090.65
686.443	27848.62
686.79	27913.48
687.138	27974.94
687.485	28054.71
687.832	27932.91
688.18	27969.07
688.527	27798
688.874	27745.57
689.221	27824.21
689.568	27698.57
689.915	27640.26
690.262	27580.38
690.609	27562.3
690.956	27497.89
691.303	27485.46
691.65	27358.46
691.997	27319.37
692.344	27094.29
692.69	27113.72
693.037	27190.1
693.383	27043.22
693.73	27181.52
694.077	27020.84
694.423	27033.95
694.769	26904.46
695.116	26774.75
695.462	26750.34
695.808	26715.99
696.155	26686.16
696.501	26421.54
696.847	26588.76
697.193	26460.63
697.539	26460.63
697.885	26250.24
698.231	26204.14
698.577	26253.63
698.923	26196.23
699.269	26035.78
699.614	25940.42
699.96	25892.74
700.306	25977.25
700.651	25782.68
700.997	25749.24
701.342	25697.71
701.688	25742.23
702.033	25622.91
702.379	25537.27
702.724	25450.71
703.069	25457.04
703.415	25252.08
703.76	25341.57
704.105	25426.31
704.45	25213.89
704.795	25066.32
705.14	25081.01
705.485	25091.63
705.83	24891.63
706.175	24921.24
706.52	24901.12
706.865	24867.68
707.209	24687.57
707.554	24675.59
707.899	24683.73
708.243	24657.29
708.588	24641.7
708.932	24425.21
709.277	24590.17
709.621	24525.09
709.966	24323.74
710.31	24345.43
710.654	24139.34
710.998	24167.81
711.342	24126.91
711.687	24293.46
712.031	23975.95
712.375	23941.38
712.719	24010.07
713.063	24076.29
713.407	24130.98
713.75	24026.12
714.094	23981.83
714.438	23881.26
714.782	23830.64
715.125	23808.5
715.469	23759.69
715.812	23692.8
716.156	23582.97
716.499	23611.89
716.843	23550.65
717.186	23482.63
717.53	23622.06
717.873	23627.49
718.216	23558.79
718.559	23415.74
718.902	23340.49
719.246	23431.56
719.589	23269.53
719.932	23236.54
720.275	23230.89
720.617	23200.6
720.96	23094.17
721.303	23144.79
721.646	23180.72
721.989	23043.09
722.331	23187.27
722.674	23138.91
723.016	23064.11
723.359	23078.12
723.701	23099.82
724.044	22875.64
724.386	22911.12
724.729	22922.65
725.071	22877.68
725.413	22904.57
725.755	22836.55
726.097	22821.63
726.439	22667.74
726.782	22774.18
727.124	22839.26
727.465	22679.04
727.807	22635.2
728.149	22616.89
728.491	22602.2
728.833	22630
729.175	22561.98
729.516	22493.28
729.858	22520.85
730.199	22554.97
730.541	22395.43
730.882	22583.9
731.224	22481.75
731.565	22370.8
731.906	22362.43
732.248	22418.7
732.589	22333.06
732.93	22273.4
733.271	22335.32
733.612	22382.1
733.953	22371.7
734.294	22340.06
734.635	22220.74
734.976	22362.66
735.317	22172.16
735.658	22270.46
735.999	22095.1
736.339	22177.13
736.68	22145.49
737.021	22106.85
737.361	22168.54
737.702	22163.12
738.042	22150.91
738.383	22184.81
738.723	22133.51
739.063	21972.84
739.404	22086.96
739.744	22031.6
740.084	22027.98
740.424	22009.22
740.764	21924.03
741.104	22074.08
741.444	22013.52
741.784	21960.64
742.124	21897.14
742.464	21933.29
742.804	21938.94
743.143	21853.3
743.483	21899.85
743.823	21823.92
744.162	21834.54
744.502	21830.7
744.841	21724.03
745.181	21882.67
745.52	21811.94
745.86	21825.73
746.199	21772.17
746.538	21792.73
746.877	21699.85
747.216	21694.88
747.556	21707.76
747.895	21744.82
748.234	21574.88
748.573	21662.11
748.911	21711.15
749.25	21625.05
749.589	21619.86
749.928	21620.31
750.267	21662.11
750.605	21577.14
750.944	21529.69
751.283	21629.35
751.621	21604.04
751.96	21503.93
752.298	21503.93
752.636	21530.82
752.975	21426.41
753.313	21298.73
753.651	21505.06
753.989	21347.77
754.327	21343.25
754.666	21241.79
755.004	21343.03
755.342	21466.64
755.679	21375.79
756.017	21212.41
756.355	21363.59
756.693	21232.29
