Data from cardboard_FLMS001491_010.txt Node
Date: Tue Feb 07 11:38:51 GMT 2017
User: dcchb
Spectrometer: FLMS00149
Trigger mode: 0
Integration Time (sec): 2.000000E-2
Scans to average: 10
Electric dark correction enabled: true
Nonlinearity correction enabled: false
Boxcar width: 0
XAxis mode: Wavelengths
Number of Pixels in Spectrum: 2048
>>>>>Begin Spectral Data<<<<<
341.393	-3.16
341.776	-3.16
342.16	-3.16
342.543	-51.07
342.927	-46.78
343.31	-76.16
343.693	-62.15
344.077	-64.86
344.46	-68.7
344.843	-45.42
345.226	-66.89
345.61	-32.99
345.993	-29.15
346.376	-12.2
346.759	18.76
347.142	18.98
347.525	49.72
347.908	69.6
348.291	80.45
348.674	102.14
349.057	118.87
349.44	148.92
349.823	121.35
350.206	173.33
350.588	185.31
350.971	219.66
351.354	220.33
351.737	227.79
352.119	234.8
352.502	246.32
352.884	272.31
353.267	275.25
353.65	293.1
354.032	284.29
354.414	291.97
354.797	308.24
355.179	322.48
355.562	314.34
355.944	310.5
356.326	314.79
356.709	313.21
357.091	308.69
357.473	338.97
357.855	340.1
358.238	338.3
358.62	317.05
359.002	320.22
359.384	322.93
359.766	319.99
360.148	338.52
360.53	329.71
360.912	342.82
361.294	301.24
361.676	331.97
362.057	344.17
362.439	312.08
362.821	311.4
363.203	312.08
363.584	308.92
363.966	298.52
364.348	311.4
364.729	311.86
365.111	290.84
365.493	295.13
365.874	294.46
366.256	296.72
366.637	312.99
367.019	308.92
367.4	283.38
367.781	308.69
368.163	290.39
368.544	305.3
368.925	299.2
369.306	306.21
369.688	303.95
370.069	301.91
370.45	310.05
370.831	307.79
371.212	297.62
371.593	291.52
371.974	298.3
372.355	300.33
372.736	292.65
373.117	316.15
373.498	308.24
373.879	311.86
374.26	290.84
374.641	299.65
375.021	286.32
375.402	302.36
375.783	314.34
376.163	309.82
376.544	319.09
376.925	322.03
377.305	319.54
377.686	305.98
378.066	322.7
378.447	315.47
378.827	310.27
379.208	308.01
379.588	303.04
379.968	331.29
380.349	314.12
380.729	301.01
381.109	320.22
381.489	312.53
381.87	322.93
382.25	328.8
382.63	322.25
383.01	312.76
383.39	299.43
383.77	312.08
384.15	330.16
384.53	331.29
384.91	339.88
385.29	335.36
385.67	333.78
386.049	331.29
386.429	320.22
386.809	330.39
387.189	345.08
387.568	337.84
387.948	342.36
388.328	320.67
388.707	346.88
389.087	342.36
389.466	344.17
389.846	321.12
390.225	345.08
390.605	352.08
390.984	341.01
391.363	344.62
391.743	346.66
392.122	338.75
392.501	356.37
392.881	348.69
393.26	349.6
393.639	370.39
394.018	351.86
394.397	326.32
394.776	348.24
395.155	346.88
395.534	355.02
395.913	363.83
396.292	357.73
396.671	358.86
397.05	358.86
397.429	355.7
397.808	359.76
398.186	350.27
398.565	360.67
398.944	389.82
399.323	379.65
399.701	371.52
400.08	372.42
400.458	371.97
400.837	369.26
401.215	381.23
401.594	366.54
401.972	376.94
402.351	381.01
402.729	383.94
403.107	400.44
403.486	380.55
403.864	369.93
404.242	383.49
404.62	378.75
404.999	384.85
405.377	401.8
405.755	376.26
406.133	384.62
406.511	391.4
406.889	398.18
407.267	393.89
407.645	401.8
408.023	404.96
408.401	420.1
408.779	392.31
409.156	413.55
409.534	397.96
409.912	403.61
410.29	410.84
410.667	416.03
411.045	402.48
411.422	432.53
411.8	420.33
412.178	427.11
412.555	438.18
412.933	423.04
413.31	428.01
413.687	435.47
414.065	429.14
414.442	444.96
414.819	430.27
415.197	463.94
415.574	457.62
415.951	460.1
416.328	462.36
416.705	461
417.082	461.91
417.46	455.13
417.837	454.23
418.214	471.4
418.591	461.91
418.967	451.51
419.344	461.23
419.721	476.37
420.098	464.85
420.475	470.72
420.852	468.01
421.228	480.89
421.605	477.28
421.982	470.04
422.358	484.28
422.735	492.42
423.111	491.96
423.488	503.94
423.864	486.31
424.241	480.89
424.617	514.11
424.994	498.29
425.37	503.49
425.746	488.57
426.123	517.5
426.499	526.99
426.875	506.2
427.251	530.61
427.627	510.95
428.003	525.64
428.379	559.31
428.756	537.39
429.132	559.76
429.507	534.45
429.883	556.14
430.259	556.6
430.635	564.28
431.011	545.3
431.387	576.93
431.763	573.32
432.138	559.76
432.514	576.03
432.89	575.58
433.265	593.2
433.641	595.69
434.016	603.15
434.392	597.27
434.767	597.05
435.143	608.8
435.518	599.31
435.894	604.05
436.269	610.61
436.644	611.28
437.02	599.53
437.395	657.84
437.77	629.59
438.145	650.6
438.52	636.37
438.895	630.49
439.271	650.38
439.646	675.24
440.021	671.62
440.395	654.45
440.77	663.03
441.145	674.78
441.52	684.73
441.895	672.3
442.27	672.07
442.645	696.48
443.019	673.88
443.394	684.5
443.769	687.21
444.143	698.06
444.518	681.11
444.892	683.6
445.267	715.91
445.641	714.78
446.016	715.69
446.39	724.95
446.764	718.4
447.139	718.17
447.513	716.14
447.887	725.4
448.262	730.38
448.636	735.35
449.01	744.39
449.384	742.58
449.758	739.87
450.132	747.78
450.506	750.26
450.88	763.82
451.254	752.3
451.628	764.95
452.002	781.22
452.376	792.97
452.75	803.82
453.123	785.97
453.497	812.41
453.871	784.84
454.244	795.01
454.618	811.28
454.992	840.66
455.365	835.01
455.739	833.2
456.112	847.21
456.486	867.32
456.859	852.63
457.232	875.46
457.606	871.84
457.979	876.36
458.352	874.78
458.725	888.11
459.099	910.71
459.472	936.47
459.845	917.26
460.218	925.85
460.591	904.83
460.964	955
461.337	971.95
461.71	973.53
462.083	969.47
462.456	957.71
462.829	963.82
463.201	988.67
463.574	995.45
463.947	998.62
464.32	1008.56
464.692	1042.91
465.065	1030.48
465.438	1028.9
465.81	1066.64
466.183	1101.67
466.555	1076.81
466.928	1091.5
467.3	1088.78
467.672	1101.21
468.045	1147.31
468.417	1132.4
468.789	1152.96
469.161	1145.96
469.534	1193.19
469.906	1189.12
470.278	1210.82
470.65	1224.6
471.022	1248.1
471.394	1243.58
471.766	1269.8
472.138	1274.09
472.51	1280.87
472.882	1289.46
473.253	1318.61
473.625	1338.72
473.997	1361.55
474.369	1376.01
474.74	1387.08
475.112	1414.2
475.484	1418.04
475.855	1416.46
476.227	1471.37
476.598	1472.28
476.97	1503.92
477.341	1511.37
477.713	1542.78
478.084	1548.43
478.455	1592.05
478.827	1568.09
479.198	1639.5
479.569	1625.95
479.94	1679.5
480.311	1694.64
480.682	1739.84
481.053	1792.72
481.424	1781.87
481.795	1805.6
482.166	1842.89
482.537	1837.24
482.908	1878.37
483.279	1922.89
483.65	1929.44
484.021	1974.64
484.391	1946.84
484.762	2006.27
485.133	2045.82
485.503	2053.05
485.874	2093.5
486.244	2116.78
486.615	2166.95
486.985	2145.93
487.356	2225.25
487.726	2225.03
488.097	2282.65
488.467	2299.15
488.837	2320.39
489.207	2361.29
489.578	2420.28
489.948	2444.91
490.318	2434.29
490.688	2480.61
491.058	2498.92
491.428	2535.98
491.798	2584.79
492.168	2598.8
492.538	2625.92
492.908	2634.96
493.278	2671.34
493.648	2705.92
494.017	2706.37
494.387	2732.13
494.757	2759.7
495.126	2851.45
495.496	2837.44
495.866	2843.99
496.235	2939.36
496.605	2924.44
496.974	2916.99
497.344	2999.7
497.713	3017.77
498.082	3048.73
498.452	3128.28
498.821	3086.7
499.19	3145
499.559	3120.37
499.928	3182.06
500.298	3169.18
500.667	3223.42
501.036	3257.77
501.405	3283.3
501.774	3274.49
502.143	3359.01
502.512	3331.21
502.88	3397.42
503.249	3416.86
503.618	3438.1
503.987	3445.56
504.356	3476.29
504.724	3518.78
505.093	3518.78
505.462	3559.45
505.83	3604.65
506.199	3648.04
506.567	3690.07
506.936	3674.25
507.304	3695.72
507.672	3736.17
508.041	3784.76
508.409	3803.52
508.777	3810.97
509.145	3904.76
509.514	3858.66
509.882	3937.07
510.25	3975.04
510.618	3958.77
510.986	4013.91
511.354	4034.7
511.722	4073.79
512.09	4156.95
512.458	4217.52
512.826	4219.78
513.193	4244.86
513.561	4260.23
513.929	4316.72
514.297	4313.11
514.664	4381.81
515.032	4380.9
515.4	4435.82
515.767	4498.86
516.135	4533.44
516.502	4536.6
516.869	4593.1
517.237	4641.91
517.604	4622.7
517.972	4685.53
518.339	4741.8
518.706	4768.91
519.073	4799.87
519.44	4807.11
519.808	4952.86
520.175	4899.53
520.542	5003.48
520.909	5046.19
521.276	5058.62
521.643	5166.19
522.009	5179.75
522.376	5233.76
522.743	5250.94
523.11	5301.56
523.477	5380.88
523.843	5415
524.21	5475.79
524.577	5509.91
524.943	5551.72
525.31	5607.08
525.676	5678.27
526.043	5712.62
526.409	5716.01
526.776	5865.83
527.142	5889.56
527.508	5896.57
527.874	5995.32
528.241	6020.41
528.607	6038.03
528.973	6130.23
529.339	6125.49
529.705	6242.1
530.071	6248.2
530.437	6316.44
530.803	6329.1
531.169	6397.8
531.535	6424.46
531.901	6453.62
532.267	6522.09
532.632	6607.96
532.998	6569.09
533.364	6610.67
533.73	6635.98
534.095	6737.45
534.461	6817.45
534.826	6875.3
535.192	6822.19
535.557	6910.33
535.923	6927.05
536.288	6969.53
536.653	7041.17
537.019	7000.27
537.384	7124.56
537.749	7171.11
538.114	7181.28
538.479	7252.01
538.845	7263.76
539.21	7290.2
539.575	7315.51
539.94	7365.46
540.305	7499.92
540.67	7485
541.034	7520.93
541.399	7586.24
541.764	7602.06
542.129	7661.49
542.494	7668.72
542.858	7729.74
543.223	7737.42
543.587	7796.18
543.952	7837.76
544.316	7922.96
544.681	7873.92
545.045	7986.23
545.41	7995.27
545.774	8001.82
546.138	8071.88
546.503	8121.37
546.867	8115.49
547.231	8204.08
547.595	8263.51
547.959	8272.32
548.324	8328.37
548.688	8369.5
549.052	8381.25
549.416	8453.56
549.779	8460.79
550.143	8518.19
550.507	8584.41
550.871	8635.03
551.235	8665.08
551.599	8711.64
551.962	8740.11
552.326	8821.24
552.689	8870.28
553.053	8810.39
553.417	8944.85
553.78	9002.25
554.143	8927.45
554.507	8996.83
554.87	9040.44
555.234	9237.95
555.597	9171.51
555.96	9191.62
556.323	9307.33
556.686	9382.13
557.05	9415.35
557.413	9412.18
557.776	9568.11
558.139	9585.74
558.502	9661.44
558.865	9650.59
559.228	9782.34
559.59	9846.29
559.953	9838.16
560.316	9973.75
560.679	10007.42
561.041	10079.06
561.404	10081.32
561.767	10185.04
562.129	10171.03
562.492	10274.98
562.854	10279.28
563.217	10273.63
563.579	10376
563.941	10517.01
564.304	10507.52
564.666	10627.07
565.028	10689.44
565.39	10759.49
565.753	10755.2
566.115	10860.73
566.477	10931.01
566.839	10870
567.201	11022.08
567.563	11060.95
567.925	11163.1
568.287	11171.01
568.648	11220.27
569.01	11252.13
569.372	11391.34
569.734	11353.37
570.095	11478.34
570.457	11497.78
570.819	11526.7
571.18	11553.14
571.542	11636.08
571.903	11653.48
572.265	11752.69
572.626	11924.43
572.987	11799.24
573.349	11867.48
573.71	11955.17
574.071	11967.14
574.432	12018.89
574.794	12103.18
575.155	12130.75
575.516	12183.86
575.877	12215.05
576.238	12301.37
576.599	12286.91
576.96	12355.38
577.32	12436.06
577.681	12432.44
578.042	12463.18
578.403	12483.06
578.763	12474.47
579.124	12656.16
579.485	12717.86
579.845	12709.04
580.206	12671.98
580.566	12723.28
580.927	12791.75
581.287	12849.38
581.648	12786.1
582.008	12845.99
582.368	12941.13
582.728	12956.27
583.089	12959.66
583.449	12939.32
583.809	12970.28
584.169	13045.31
584.529	13022.93
584.889	13121.69
585.249	13097.96
585.609	13148.13
585.969	13118.53
586.329	13217.73
586.688	13258.41
587.048	13206.43
587.408	13212.99
587.768	13238.52
588.127	13238.97
588.487	13226.32
588.846	13401.23
589.206	13256.37
589.565	13445.97
589.925	13375.02
590.284	13431.06
590.643	13427.22
591.003	13507.67
591.362	13514.67
591.721	13537.27
592.08	13504.05
592.44	13586.54
592.799	13573.43
593.158	13581.34
593.517	13666.53
593.876	13607.78
594.235	13666.08
594.593	13676.02
594.952	13754.89
595.311	13762.58
595.67	13752.86
596.029	13839.18
596.387	13914.44
596.746	13867.21
597.104	13917.15
597.463	13905.17
597.822	13842.35
598.18	13929.35
598.538	13901.33
598.897	14004.38
599.255	13919.18
599.613	14174.77
599.972	14055.68
600.33	14119.85
600.688	14086.86
601.046	14090.48
601.404	14191.72
601.762	14118.95
602.12	14254.77
602.478	14227.42
602.836	14360.53
603.194	14226.74
603.552	14190.36
603.91	14181.1
604.268	14363.46
604.625	14295.67
604.983	14355.55
605.341	14354.2
605.698	14424.93
606.056	14478.26
606.413	14454.99
606.771	14534.53
607.128	14554.42
607.485	14484.59
607.843	14473.07
608.2	14628.32
608.557	14661.99
608.914	14647.75
609.272	14721.42
609.629	14781.98
609.986	14794.41
610.343	14724.13
610.7	14845.94
611.057	14801.42
611.414	14766.62
611.771	14868.31
612.127	14859.04
612.484	14996.22
612.841	15050.9
613.198	14978.82
613.554	14992.6
613.911	15029.89
614.267	15053.16
614.624	15078.7
614.98	15121.18
615.337	15176.32
615.693	15240.28
616.05	15249.99
616.406	15366.15
616.762	15161.41
617.118	15408.86
617.475	15313.72
617.831	15454.28
618.187	15408.86
618.543	15404.11
618.899	15475.07
619.255	15447.28
619.611	15564.11
619.967	15551.46
620.323	15640.27
620.678	15549.87
621.034	15443.21
621.39	15568.4
621.746	15550.1
622.101	15813.6
622.457	15629.19
622.812	15698.12
623.168	15722.75
623.523	15677.1
623.879	15782.64
624.234	15682.75
624.589	15776.08
624.945	15738.57
625.3	15759.59
625.655	15722.98
626.01	15787.16
626.365	15832.35
626.72	15854.5
627.075	15807.95
627.43	15807.04
627.785	15769.08
628.14	15888.85
628.495	15870.54
628.85	15830.77
629.205	15804.33
629.559	15867.83
629.914	15896.76
630.269	15864.22
630.623	15720.49
630.978	15768.62
631.332	15863.54
631.687	15883.42
632.041	15829.41
632.396	15879.36
632.75	15805.46
633.104	15852.24
633.459	15782.41
633.813	15805.91
634.167	15810.21
634.521	15853.59
634.875	15907.83
635.229	15841.84
635.583	15803.43
635.937	15807.49
636.291	15882.75
636.645	15786.93
636.999	15766.82
637.352	15755.07
637.706	15685.92
638.06	15912.58
638.413	15791.22
638.767	15641.4
639.121	15767.04
639.474	15698.34
639.828	15751.22
640.181	15782.18
640.534	15721.39
640.888	15696.54
641.241	15626.03
641.594	15703.99
641.947	15736.54
642.301	15719.59
642.654	15698.8
643.007	15692.69
643.36	15793.48
643.713	15702.19
644.066	15677.1
644.419	15604.34
644.771	15544.45
645.124	15451.57
645.477	15387.39
645.83	15378.8
646.182	15233.95
646.535	15262.2
646.888	15232.59
647.24	15191.24
647.593	15267.85
647.945	15200.28
648.298	15232.59
648.65	15238.02
649.002	15150.56
649.355	15219.71
649.707	15149.21
650.059	15287.28
650.411	15456.09
650.763	15420.61
651.115	15578.57
651.467	15617.44
651.819	15652.24
652.171	15636.43
652.523	15583.77
652.875	15598.23
653.227	15506.03
653.578	15681.62
653.93	15591.23
654.282	15632.13
654.633	15481.4
654.985	15563.21
655.337	15522.98
655.688	15510.33
656.039	15664.45
656.391	15459.03
656.742	15534.05
657.094	15505.81
657.445	15601.17
657.796	15618.8
658.147	15547.16
658.498	15545.58
658.849	15682.53
659.2	15586.48
659.551	15591.23
659.902	15649.31
660.253	15563.66
660.604	15480.5
660.955	15543.77
661.306	15541.51
661.656	15650.89
662.007	15516.43
662.358	15645.24
662.708	15575.64
663.059	15652.7
663.409	15463.1
663.76	15574.73
664.11	15663.54
664.461	15717.33
664.811	15642.53
665.161	15665.8
665.511	15633.26
665.862	15638.68
666.212	15706.71
666.562	15597.33
666.912	15674.16
667.262	15616.76
667.612	15711.45
667.962	15654.5
668.312	15647.05
668.662	15746.7
669.011	15631.68
669.361	15637.55
669.711	15578.12
670.06	15594.84
670.41	15658.12
670.76	15619.7
671.109	15691.79
671.459	15636.65
671.808	15656.54
672.157	15711.9
672.507	15520.5
672.856	15589.19
673.205	15621.74
673.554	15619.25
673.904	15622.87
674.253	15725.91
674.602	15599.36
674.951	15412.93
675.3	15378.35
675.649	15616.54
675.998	15654.28
676.346	15546.26
676.695	15676.65
677.044	15539.48
677.393	15568.86
677.741	15557.33
678.09	15607.5
678.438	15524.56
678.787	15656.76
679.135	15609.31
679.484	15574.05
679.832	15525.24
680.181	15442.76
680.529	15519.14
680.877	15437.56
681.225	15442.08
681.573	15599.36
681.922	15515.3
682.27	15376.32
682.618	15382.42
682.966	15466.71
683.314	15449.54
683.661	15381.29
684.009	15239.15
684.357	15264.23
684.705	15289.54
685.053	15261.52
685.4	15246.15
685.748	15223.78
686.095	15236.66
686.443	15252.48
686.79	15132.71
687.138	15216.55
687.485	15219.49
687.832	15095.87
688.18	15204.35
688.527	15119.6
688.874	15057.46
689.221	14991.47
689.568	14979.95
689.915	15038.02
690.262	14982.66
690.609	14966.61
690.956	14808.2
691.303	14897.01
691.65	14901.98
691.997	14864.69
692.344	14789.67
692.69	14768.65
693.037	14777.92
693.383	14732.49
693.73	14777.01
694.077	14625.6
694.423	14612.72
694.769	14629.9
695.116	14571.82
695.462	14559.39
695.808	14519.39
696.155	14566.4
696.501	14439.85
696.847	14417.7
697.193	14383.35
697.539	14381.09
697.885	14304.93
698.231	14337.02
698.577	14229.91
698.923	14229.46
699.269	14247.76
699.614	14165.96
699.96	14055
700.306	14114.88
700.651	14082.34
700.997	14078.05
701.342	14039.63
701.688	14081.89
702.033	13914.21
702.379	13930.26
702.724	13907.43
703.069	14013.64
703.415	13717.38
703.76	13879.86
704.105	13808.22
704.45	13891.16
704.795	13759.19
705.14	13629.92
705.485	13729.13
705.83	13640.55
706.175	13629.25
706.52	13704.05
706.865	13602.58
707.209	13616.59
707.554	13570.26
707.899	13567.55
708.243	13488.91
708.588	13504.73
708.932	13455.24
709.277	13393.09
709.621	13439.87
709.966	13370.04
710.31	13415.69
710.654	13228.58
710.998	13300.89
711.342	13338.41
711.687	13243.27
712.031	13234.23
712.375	13256.6
712.719	13278.97
713.063	13218.41
713.407	13221.57
713.75	13129.82
714.094	13156.94
714.438	13079.43
714.782	13095.7
715.125	13121.01
715.469	13068.81
715.812	12974.8
716.156	12983.16
716.499	12911.98
716.843	13008.92
717.186	12996.49
717.53	13020.9
717.873	12901.36
718.216	12919.21
718.559	12806.44
718.902	12799.66
719.246	12845.54
719.589	12817.97
719.932	12787.46
720.275	12752.21
720.617	12768.93
720.96	12747.46
721.303	12752.21
721.646	12771.64
721.989	12684.64
722.331	12743.85
722.674	12629.5
723.016	12714.47
723.359	12753.79
723.701	12680.34
724.044	12596.28
724.386	12518.31
724.729	12610.52
725.071	12606.67
725.413	12546.56
725.755	12575.94
726.097	12523.74
726.439	12432.22
726.782	12482.84
727.124	12547.24
727.465	12553.34
727.807	12582.04
728.149	12404.42
728.491	12465.89
728.833	12418.2
729.175	12467.92
729.516	12418.66
729.858	12469.95
730.199	12429.28
730.541	12412.33
730.882	12368.04
731.224	12460.92
731.565	12310.86
731.906	12399.22
732.248	12358.32
732.589	12269.51
732.93	12342.05
733.271	12361.03
733.612	12315.38
733.953	12384.76
734.294	12344.53
734.635	12286.23
734.976	12280.36
735.317	12253.92
735.658	12243.29
735.999	12240.36
736.339	12254.82
736.68	12274.71
737.021	12241.26
737.361	12162.62
737.702	12277.87
738.042	12231.54
738.383	12258.89
738.723	12212.11
739.063	12143.64
739.404	12226.12
739.744	12231.09
740.084	12144.09
740.424	12156.74
740.764	12159.23
741.104	12092.56
741.444	12024.32
741.784	12093.92
742.124	12108.83
742.464	12132.11
742.804	12143.18
743.143	12113.13
743.483	12148.16
743.823	12056.63
744.162	12046.01
744.502	12039.91
744.841	11988.39
745.181	12068.38
745.52	12058.67
745.86	12103.18
746.199	12018.89
746.538	12008.05
746.877	12046.01
747.216	12081.49
747.556	12051.21
747.895	12024.77
748.234	11901.61
748.573	11929.63
748.911	11938.22
749.25	11920.82
749.589	11965.34
749.928	11909.52
750.267	11987.93
750.605	11914.94
750.944	11952
751.283	11897.31
751.621	11835.4
751.96	11810.54
752.298	11832.01
752.636	11830.42
752.975	11805.11
753.313	11813.93
753.651	11838.56
753.989	11769.63
754.327	11816.41
754.666	11755.85
755.004	11757.66
755.342	11808.5
755.679	11749.3
756.017	11673.82
756.355	11720.14
756.693	11634.72
757.031	11685.57
757.368	11655.51
757.706	11633.37
758.044	11641.95
758.381	11619.58
758.719	11555.63
759.056	11644.89
759.394	11542.3
759.731	11440.83
760.068	11478.57
