Data from cardboard_FLMS001491_017.txt Node
Date: Tue Feb 07 11:39:01 GMT 2017
User: dcchb
Spectrometer: FLMS00149
Trigger mode: 0
Integration Time (sec): 2.000000E-2
Scans to average: 10
Electric dark correction enabled: true
Nonlinearity correction enabled: false
Boxcar width: 0
XAxis mode: Wavelengths
Number of Pixels in Spectrum: 2048
>>>>>Begin Spectral Data<<<<<
341.393	-26.81
341.776	-26.81
342.16	-26.81
342.543	-62.96
342.927	-73.36
343.31	-47.82
343.693	-80.59
344.077	-60.7
344.46	-52.34
344.843	-48.95
345.226	-50.31
345.61	-27.94
345.993	-9.18
346.376	3.25
346.759	1.67
347.142	20.42
347.525	37.6
347.908	49.35
348.291	80.31
348.674	83.7
349.057	101.55
349.44	96.58
349.823	153.75
350.206	140.42
350.588	169.8
350.971	205.73
351.354	228.33
351.737	217.93
352.119	246.41
352.502	264.94
352.884	274.88
353.267	279.85
353.65	282.56
354.032	262.22
354.414	279.4
354.797	293.64
355.179	317.14
355.562	317.14
355.944	322.79
356.326	314.88
356.709	313.52
357.091	326.86
357.473	337.03
357.855	327.76
358.238	349.45
358.62	340.41
359.002	330.02
359.384	311.49
359.766	337.48
360.148	341.09
360.53	336.35
360.912	318.27
361.294	321.43
361.676	317.36
362.057	321.88
362.439	325.05
362.821	330.02
363.203	338.83
363.584	332.96
363.966	333.86
364.348	333.86
364.729	327.31
365.111	331.38
365.493	318.72
365.874	294.31
366.256	305.39
366.637	320.98
367.019	321.21
367.4	313.75
367.781	311.49
368.163	324.37
368.544	309.46
368.925	294.77
369.306	307.2
369.688	331.15
370.069	295.22
370.45	303.35
370.831	312.39
371.212	312.84
371.593	313.07
371.974	328.44
372.355	301.32
372.736	308.78
373.117	314.43
373.498	323.01
373.879	302.68
374.26	312.84
374.641	306.74
375.021	311.94
375.402	314.43
375.783	311.26
376.163	297.48
376.544	324.14
376.925	321.66
377.305	334.54
377.686	321.88
378.066	318.27
378.447	333.18
378.827	323.92
379.208	313.97
379.588	319.62
379.968	342
380.349	329.79
380.729	325.73
381.109	345.61
381.489	338.61
381.87	308.33
382.25	346.52
382.63	338.38
383.01	343.58
383.39	326.63
383.77	338.38
384.15	320.08
384.53	342.67
384.91	346.06
385.29	334.54
385.67	355.33
386.049	328.66
386.429	348.78
386.809	335.44
387.189	338.38
387.568	352.84
387.948	329.57
388.328	346.29
388.707	357.14
389.087	342.45
389.466	369.79
389.846	356.01
390.225	385.84
390.605	365.27
390.984	359.17
391.363	360.75
391.743	352.62
392.122	370.24
392.501	386.06
392.881	370.02
393.26	375.22
393.639	359.85
394.018	378.83
394.397	364.14
394.776	368.66
395.155	363.47
395.534	394.42
395.913	361.21
396.292	362.11
396.671	377.25
397.05	385.39
397.429	377.7
397.808	386.97
398.186	383.58
398.565	388.78
398.944	384.71
399.323	407.76
399.701	424.25
400.08	407.31
400.458	401.66
400.837	405.95
401.215	407.08
401.594	389.68
401.972	427.19
402.351	401.2
402.729	428.77
403.107	406.18
403.486	442.11
403.864	422.67
404.242	417.93
404.62	413.18
404.999	426.74
405.377	413.41
405.755	413.86
406.133	434.65
406.511	420.86
406.889	431.94
407.267	451.6
407.645	444.14
408.023	465.38
408.401	449.79
408.779	459.51
409.156	448.21
409.534	461.32
409.912	478.94
410.29	467.87
410.667	456.57
411.045	456.8
411.422	480.75
411.8	478.49
412.178	483.91
412.555	499.05
412.933	509
413.31	503.57
413.687	495.89
414.065	489.34
414.442	510.13
414.819	522.33
415.197	516.23
415.574	514.65
415.951	505.16
416.328	525.27
416.705	515.33
417.082	526.62
417.46	522.56
417.837	534.53
418.214	512.61
418.591	532.27
418.967	546.29
419.344	554.19
419.721	553.52
420.098	560.75
420.475	560.52
420.852	549
421.228	577.02
421.605	563.46
421.982	574.98
422.358	595.1
422.735	563.01
423.111	571.14
423.488	600.52
423.864	598.04
424.241	574.53
424.617	589
424.994	593.29
425.37	610.01
425.746	613.4
426.123	608.66
426.499	625.15
426.875	622.22
427.251	636.9
427.627	648.66
428.003	645.49
428.379	656.79
428.756	656.79
429.132	637.81
429.507	654.98
429.883	672.84
430.259	674.19
430.635	667.64
431.011	697.47
431.387	681.87
431.763	711.93
432.138	702.21
432.514	710.35
432.89	703.12
433.265	725.72
433.641	729.78
434.016	738.6
434.392	734.98
434.767	754.19
435.143	740.18
435.518	741.53
435.894	772.49
436.269	777.24
436.644	770.69
437.02	774.3
437.395	779.73
437.77	805.49
438.145	815.66
438.52	788.54
438.895	812.27
439.271	809.78
439.646	831.25
440.021	813.62
440.395	851.81
440.77	848.88
441.145	842.77
441.52	876.45
441.895	841.19
442.27	851.36
442.645	888.42
443.019	892.72
443.394	862.66
443.769	879.84
444.143	897.46
444.518	897.24
444.892	917.8
445.267	883.23
445.641	915.09
446.016	947.4
446.39	906.5
446.764	935.43
447.139	943.79
447.513	924.35
447.887	940.4
448.262	944.24
448.636	941.53
449.01	968.65
449.384	957.57
449.758	950.34
450.132	993.5
450.506	996.22
450.88	1008.19
451.254	988.99
451.628	1012.49
452.002	1003.9
452.376	1007.74
452.75	1015.88
453.123	1029.21
453.497	1045.26
453.871	1050.23
454.244	1070.57
454.618	1075.54
454.992	1082.09
455.365	1073.05
455.739	1109.89
456.112	1112.82
456.486	1121.86
456.859	1128.19
457.232	1151.01
457.606	1157.79
457.979	1165.93
458.352	1176.55
458.725	1193.05
459.099	1219.04
459.472	1236.66
459.845	1247.06
460.218	1265.81
460.591	1251.35
460.964	1250.45
461.337	1297.23
461.71	1331.58
462.083	1331.12
462.456	1324.57
462.829	1308.52
463.201	1332.25
463.574	1370.67
463.947	1352.37
464.32	1400.27
464.692	1421.97
465.065	1428.07
465.438	1442.53
465.81	1440.72
466.183	1472.81
466.555	1490.89
466.928	1494.28
467.3	1517.56
467.672	1541.29
468.045	1548.29
468.417	1569.54
468.789	1607.95
469.161	1607.95
469.534	1624.22
469.906	1661.28
470.278	1677.1
470.65	1684.33
471.022	1721.17
471.394	1730.89
471.766	1726.14
472.138	1749.64
472.51	1815.4
472.882	1831.68
473.253	1875.06
473.625	1881.84
473.997	1897.66
474.369	1952.58
474.74	1960.71
475.112	1982.18
475.484	2005.46
475.855	2031.44
476.227	2074.38
476.598	2120.25
476.97	2139.46
477.341	2170.88
477.713	2212.46
478.084	2213.36
478.455	2266.69
478.827	2300.59
479.198	2343.75
479.569	2359.34
479.94	2442.73
480.311	2414.03
480.682	2465.56
481.053	2554.82
481.424	2582.39
481.795	2643.63
482.166	2661.26
482.537	2675.49
482.908	2739.67
483.279	2776.06
483.65	2811.76
484.021	2858.54
484.391	2939.67
484.762	2927.47
485.133	2980.35
485.503	3030.74
485.874	3076.16
486.244	3099.89
486.615	3202.26
486.985	3207.68
487.356	3252.2
487.726	3296.27
488.097	3387.34
488.467	3396.38
488.837	3460.78
489.207	3505.53
489.578	3557.28
489.948	3576.49
490.318	3633.66
490.688	3687.67
491.058	3723.15
491.428	3766.77
491.798	3792.3
492.168	3872.53
492.538	3876.14
492.908	3944.84
493.278	4021
493.648	4070.71
494.017	4030.71
494.387	4136.7
494.757	4198.17
495.126	4263.02
495.496	4298.73
495.866	4298.73
496.235	4364.49
496.605	4401.32
496.974	4471.83
497.344	4465.73
497.713	4497.14
498.082	4536.46
498.452	4585.95
498.821	4677.25
499.19	4640.19
499.559	4715.22
499.928	4743.24
500.298	4771.26
500.667	4816.23
501.036	4859.39
501.405	4923.57
501.774	4969.67
502.143	5011.93
502.512	5039.5
502.88	5083.79
503.249	5135.32
503.618	5162.66
503.987	5167.63
504.356	5267.52
504.724	5332.37
505.093	5324.24
505.462	5365.37
505.83	5482.88
506.199	5469.32
506.567	5536.66
506.936	5541.41
507.304	5695.98
507.672	5664.12
508.041	5721.97
508.409	5749.54
508.777	5821.17
509.145	5917.67
509.514	5933.94
509.882	5993.37
510.25	6039.47
510.618	6101.85
510.986	6126.7
511.354	6175.74
511.722	6288.96
512.09	6273.59
512.458	6303.42
512.826	6457.09
513.193	6454.38
513.561	6578.22
513.929	6561.72
514.297	6623.64
514.664	6690.53
515.032	6732.34
515.4	6777.08
515.767	6870.41
516.135	6940.24
516.502	6936.63
516.869	7050.07
517.237	7100.01
517.604	7102.27
517.972	7211.19
518.339	7323.06
518.706	7282.83
519.073	7349.5
519.44	7417.06
519.808	7524.41
520.175	7548.81
520.542	7712.2
520.909	7791.07
521.276	7755.36
521.643	7879.65
522.009	7949.48
522.376	8054.34
522.743	8164.16
523.11	8189.47
523.477	8279.42
523.843	8359.64
524.21	8418.85
524.577	8541.78
524.943	8532.52
525.31	8685.73
525.676	8757.59
526.043	8807.31
526.409	8851.6
526.776	8958.27
527.142	9044.82
527.508	9197.13
527.874	9147.19
528.241	9288.88
528.607	9403.23
528.973	9439.38
529.339	9519.83
529.705	9639.38
530.071	9742.88
530.437	9748.75
530.803	9875.76
531.169	9915.3
531.535	9922.08
531.901	9949.88
532.267	10049.76
532.632	10147.84
532.998	10274.84
533.364	10278.91
533.73	10360.72
534.095	10487.04
534.461	10547.6
534.826	10568.85
535.192	10719.58
535.557	10801.83
535.923	10820.14
536.288	10817.43
536.653	10964.32
537.019	10905.33
537.384	11034.37
537.749	11093.35
538.114	11148.04
538.479	11257.87
538.845	11303.74
539.21	11349.16
539.575	11444.53
539.94	11448.82
540.305	11566.56
540.67	11581.02
541.034	11668.48
541.399	11737.63
541.764	11794.58
542.129	11840.9
542.494	11930.84
542.858	11938.53
543.223	12075.93
543.587	12109.82
543.952	12224.4
544.316	12287.45
544.681	12235.92
545.045	12442.92
545.41	12479.3
545.774	12487.67
546.138	12500.1
546.503	12618.74
546.867	12715.91
547.231	12782.12
547.595	12853.08
547.959	12945.73
548.324	12926.3
548.688	12962.46
549.052	13134.65
549.416	13116.35
549.779	13161.09
550.143	13288.55
550.507	13347.3
550.871	13500.07
551.235	13533.29
551.599	13604.7
551.962	13732.83
552.326	13696.9
552.689	13844.24
553.053	13872.49
553.417	13874.3
553.78	14061.64
554.143	14040.17
554.507	14158.58
554.87	14239.71
555.234	14366.26
555.597	14296.88
555.96	14442.87
556.323	14512.7
556.686	14546.14
557.05	14737.78
557.413	14771
557.776	14885.8
558.139	14998.33
558.502	15014.83
558.865	15084.43
559.228	15303.41
559.59	15297.54
559.953	15309.06
560.316	15529.62
560.679	15550.41
561.041	15741.14
561.404	15785.66
561.767	15959.44
562.129	15839.67
562.492	16094.12
562.854	16077.4
563.217	16106.1
563.579	16195.82
563.941	16253.89
564.304	16494.57
564.666	16539.99
565.028	16693.66
565.39	16695.92
565.753	16962.12
566.115	16895.23
566.477	16957.6
566.839	17115.34
567.201	17262.91
567.563	17338.16
567.925	17419.29
568.287	17414.99
568.648	17461.55
569.01	17611.83
569.372	17802.33
569.734	17734.76
570.095	17934.08
570.457	17937.01
570.819	18014.53
571.18	18133.17
571.542	18211.58
571.903	18287.74
572.265	18339.72
572.626	18419.71
572.987	18514.4
573.349	18461.75
573.71	18769.31
574.071	18743.09
574.432	18919.81
574.794	19028.28
575.155	18958
575.516	19022.41
575.877	19178.11
576.238	19145.57
576.599	19323.87
576.96	19353.25
577.32	19375.39
577.681	19479.12
578.042	19490.19
578.403	19510.98
578.763	19618.55
579.124	19693.8
579.485	19864.2
579.845	19960.46
580.206	19891.99
580.566	19861.94
580.927	20054.92
581.287	20077.75
581.648	19992.1
582.008	20089.05
582.368	20084.3
582.728	20281.13
583.089	20256.05
583.449	20151.87
583.809	20370.4
584.169	20421.69
584.529	20303.73
584.889	20501.47
585.249	20467.57
585.609	20470.28
585.969	20633.67
586.329	20455.59
586.688	20573.78
587.048	20608.13
587.408	20644.74
587.768	20632.08
588.127	20745.53
588.487	20736.26
588.846	20873.66
589.206	20820.78
589.565	20955.92
589.925	20895.13
590.284	20915.47
590.643	20895.13
591.003	21078.17
591.362	21082.69
591.721	21129.25
592.08	21125.18
592.44	21132.18
592.799	21291.73
593.158	21215.57
593.517	21210.15
593.876	21420.76
594.235	21407.66
594.593	21368.56
594.952	21452.85
595.311	21327.21
595.67	21458.05
596.029	21613.98
596.387	21667.54
596.746	21616.01
597.104	21620.99
597.463	21636.58
597.822	21810.81
598.18	21739.4
598.538	21752.51
598.897	21906.85
599.255	21734.65
599.613	22022.56
599.972	21953.41
600.33	21982.11
600.688	21954.54
601.046	22003.12
601.404	22096.45
601.762	22125.83
602.12	22210.12
602.478	22246.51
602.836	22275.66
603.194	22192.5
603.552	22255.77
603.91	22152.95
604.268	22290.12
604.625	22202.21
604.983	22378.48
605.341	22331.47
605.698	22647.62
606.056	22545.48
606.413	22458.48
606.771	22644.24
607.128	22618.02
607.485	22498.7
607.843	22620.96
608.2	22736.44
608.557	22860.73
608.914	22894.85
609.272	22970.78
609.629	23075.18
609.986	23134.39
610.343	22992.93
610.7	23164.9
611.057	23005.13
611.414	23074.96
611.771	23207.38
612.127	23277.66
612.484	23243.09
612.841	23338.23
613.198	23338.45
613.554	23305.46
613.911	23538.67
614.267	23571.89
614.624	23451.9
614.98	23494.38
615.337	23659.58
615.693	23632.68
616.05	23585.91
616.406	23770.76
616.762	23678.11
617.118	23784.54
617.475	23770.08
617.831	23800.14
618.187	23873.36
618.543	23837.42
618.899	24116.06
619.255	24017.76
619.611	24065.44
619.967	24169.39
620.323	24204.19
620.678	24050.3
621.034	24139.34
621.39	24195.61
621.746	24083.75
622.101	24433.11
622.457	24257.07
622.812	24381.36
623.168	24373.23
623.523	24363.29
623.879	24412.32
624.234	24273.8
624.589	24450.29
624.945	24421.36
625.3	24550.63
625.655	24555.37
626.01	24440.35
626.365	24608.25
626.72	24456.39
627.075	24462.49
627.43	24434.47
627.785	24355.6
628.14	24594.47
628.495	24601.25
628.85	24535.26
629.205	24543.62
629.559	24587.01
629.914	24540.46
630.269	24646.22
630.623	24499.55
630.978	24519.89
631.332	24667.91
631.687	24663.17
632.041	24546.78
632.396	24572.32
632.75	24595.14
633.104	24601.25
633.459	24448.93
633.813	24614.13
634.167	24479.67
634.521	24503.85
634.875	24605.99
635.229	24588.14
635.583	24337.98
635.937	24529.61
636.291	24514.24
636.645	24508.14
636.999	24311.99
637.352	24500.91
637.706	24326.45
638.06	24447.35
638.413	24435.37
638.767	24322.38
639.121	24471.31
639.474	24191.54
639.828	24423.62
640.181	24334.13
640.534	24345.43
640.888	24271.31
641.241	24277.86
641.594	24244.42
641.947	24362.38
642.301	24162.39
642.654	24247.13
643.007	24277.41
643.36	24335.26
643.713	24247.58
644.066	24315.6
644.419	24241.48
644.771	24025.44
645.124	23758.78
645.477	23825.45
645.83	23721.72
646.182	23535.74
646.535	23627.49
646.888	23594.04
647.24	23585.68
647.593	23577.77
647.945	23556.3
648.298	23442.41
648.65	23483.76
649.002	23405.35
649.355	23493.93
649.707	23525.12
650.059	23677.88
650.411	23854.37
650.763	23981.83
651.115	24128.04
651.467	24131.88
651.819	24150.64
652.171	24035.38
652.523	24057.98
652.875	23978.66
653.227	23991.09
653.578	24096.63
653.93	24151.54
654.282	24005.33
654.633	23949.51
654.985	24002.84
655.337	24096.17
655.688	24098.21
656.039	24105.67
656.391	23948.38
656.742	24013.46
657.094	23990.87
657.445	24076.51
657.796	23984.09
658.147	24044.42
658.498	24038.1
658.849	23978.66
659.2	23952.9
659.551	24021.37
659.902	24129.17
660.253	24082.39
660.604	24127.59
660.955	23951.55
661.306	24021.83
661.656	24006.46
662.007	24005.1
662.358	24100.02
662.708	24084.88
663.059	24041.03
663.409	23886.91
663.76	24082.84
664.11	24070.86
664.461	24149.28
664.811	24125.1
665.161	24119.45
665.511	24013.92
665.862	24092.78
666.212	24220.92
666.562	24221.82
666.912	24163.29
667.262	24036.51
667.612	24103.41
667.962	24179.56
668.312	24071.77
668.662	24225.44
669.011	24121.03
669.361	24127.36
669.711	24080.58
670.06	24073.12
670.41	24067.02
670.76	24067.47
671.109	24093.69
671.459	24086.91
671.808	24005.33
672.157	24142.05
672.507	24007.82
672.856	23953.58
673.205	23976.18
673.554	24131.65
673.904	23974.37
674.253	24135.95
674.602	24087.59
674.951	23762.62
675.3	23727.37
675.649	24110.19
675.998	24073.58
676.346	23961.94
676.695	24148.83
677.044	24018.89
677.393	23972.11
677.741	23962.39
678.09	24035.84
678.438	23911.32
678.787	23999.23
679.135	23967.36
679.484	23869.97
679.832	24009.85
680.181	23982.28
680.529	23954.03
680.877	23782.06
681.225	23801.49
681.573	24022.96
681.922	23776.41
682.27	23789.52
682.618	23888.04
682.966	23700.25
683.314	23777.99
683.661	23696.18
684.009	23599.01
684.357	23544.1
684.705	23463.87
685.053	23564.89
685.4	23591.1
685.748	23555.4
686.095	23452.35
686.443	23403.09
686.79	23398.11
687.138	23399.02
687.485	23328.51
687.832	23243.32
688.18	23289.42
688.527	23180.49
688.874	23273.6
689.221	23211.9
689.568	23079.03
689.915	23116.99
690.262	23049.2
690.609	23053.72
690.956	22968.75
691.303	22984.11
691.65	22948.63
691.997	22905.92
692.344	22708.19
692.69	22771.69
693.037	22829.77
693.383	22590.45
693.73	22605.59
694.077	22515.2
694.423	22411.25
694.769	22427.52
695.116	22399.5
695.462	22350.91
695.808	22290.35
696.155	22370.34
696.501	22225.49
696.847	22156.56
697.193	22083.35
697.539	22225.26
697.885	22066.85
698.231	21886.97
698.577	21926.74
698.923	21956.12
699.269	21897.59
699.614	21666.86
699.96	21719.51
700.306	21694.66
700.651	21558.61
700.997	21634.54
701.342	21471.38
701.688	21499.63
702.033	21441.55
702.379	21444.49
702.724	21341.9
703.069	21471.84
703.415	21197.49
703.76	21150.49
704.105	21151.39
704.45	21157.04
704.795	20975.8
705.14	20997.27
705.485	20968.35
705.83	20912.76
706.175	20882.93
706.52	20852.87
706.865	20873.89
707.209	20728.13
707.554	20697.62
707.899	20731.74
708.243	20643.84
708.588	20643.16
708.932	20470.96
709.277	20503.27
709.621	20584.85
709.966	20397.06
710.31	20547.79
710.654	20249.95
710.998	20313.45
711.342	20306.67
711.687	20305.09
712.031	20203.17
712.375	20093.79
712.719	20212.89
713.063	20149.84
713.407	20236.61
713.75	20121.14
714.094	20116.84
714.438	20046.56
714.782	20185.09
715.125	20052.66
715.469	19984.42
715.812	19908.04
716.156	19785.55
716.499	19939
716.843	19953.46
717.186	19703.52
717.53	19864.65
717.873	19882.27
718.216	19816.51
718.559	19623.07
718.902	19513.02
719.246	19656.07
719.589	19604.54
719.932	19473.47
720.275	19443.19
720.617	19488.39
720.96	19520.02
721.303	19465.79
721.646	19437.77
721.989	19361.16
722.331	19440.7
722.674	19377.2
723.016	19357.09
723.359	19497.88
723.701	19353.7
724.044	19218.79
724.386	19163.2
724.729	19240.48
725.071	19236.87
725.413	19202.97
725.755	19209.07
726.097	19152.35
726.439	18998.46
726.782	19130.88
727.124	19155.29
727.465	19089.53
727.807	19111.45
728.149	18967.27
728.491	19025.12
728.833	19021.96
729.175	19005.23
729.516	19007.72
729.858	19082.29
730.199	19041.84
730.541	18890.44
730.882	18832.36
731.224	18941.06
731.565	18850.21
731.906	18902.86
732.248	18874.39
732.589	18820.83
732.93	18750.78
733.271	18789.42
733.612	18769.31
733.953	18811.12
734.294	18788.74
734.635	18678.69
734.976	18782.64
735.317	18692.47
735.658	18708.29
735.999	18824.22
736.339	18667.62
736.68	18812.7
737.021	18607.28
737.361	18532.7
737.702	18616.09
738.042	18647.05
738.383	18562.76
738.723	18592.59
739.063	18480.5
739.404	18575.87
739.744	18534.06
740.084	18513.95
740.424	18533.16
740.764	18461.52
741.104	18515.3
741.444	18487.51
741.784	18443.67
742.124	18480.28
742.464	18486.83
742.804	18438.02
743.143	18416.55
743.483	18405.93
743.823	18418.58
744.162	18357.57
744.502	18366.16
744.841	18371.81
745.181	18329.55
745.52	18247.74
745.86	18394.86
746.199	18315.99
746.538	18340.17
746.877	18310.56
747.216	18304.46
747.556	18242.77
747.895	18304.46
748.234	18202.32
748.573	18088.2
748.911	18204.35
749.25	18285.93
749.589	18119.16
749.928	18233.5
750.267	18224.92
750.605	18115.77
750.944	18182.66
751.283	18074.64
751.621	18201.41
751.96	18072.38
752.298	18026.5
752.636	18047.52
752.975	18025.83
753.313	17860.41
753.651	18084.13
753.989	17928.43
754.327	17972.27
754.666	17926.17
755.004	17967.3
755.342	18016.11
755.679	17983.79
756.017	17867.19
756.355	17892.27
756.693	17797.13
757.031	17856.11
757.368	17741.77
