Data from cardboard_FLMS001491_030.txt Node
Date: Tue Feb 07 11:39:11 GMT 2017
User: dcchb
Spectrometer: FLMS00149
Trigger mode: 0
Integration Time (sec): 2.000000E-2
Scans to average: 10
Electric dark correction enabled: true
Nonlinearity correction enabled: false
Boxcar width: 0
XAxis mode: Wavelengths
Number of Pixels in Spectrum: 2048
>>>>>Begin Spectral Data<<<<<
341.393	-14.03
341.776	-14.03
342.16	-14.03
342.543	-50.86
342.927	-70.52
343.31	-59.9
343.693	-95.15
344.077	-56.28
344.46	-50.18
344.843	-42.05
345.226	-37.53
345.61	-36.4
345.993	-21.71
346.376	-21.26
346.759	9.03
347.142	8.12
347.525	46.76
347.908	51.74
348.291	85.18
348.674	110.94
349.057	108.68
349.44	136.25
349.823	135.35
350.206	165.63
350.588	189.81
350.971	204.5
351.354	214.22
351.737	229.58
352.119	239.53
352.502	257.83
352.884	261.9
353.267	288.57
353.65	293.54
354.032	275.46
354.414	303.71
354.797	317.72
355.179	313.42
355.562	308.68
355.944	322.01
356.326	317.94
356.709	312.07
357.091	311.84
357.473	341.67
357.855	340.77
358.238	311.84
358.62	344.84
359.002	328.79
359.384	335.34
359.766	338.28
360.148	332.18
360.53	332.41
360.912	326.08
361.294	319.75
361.676	320.2
362.057	328.11
362.439	328.11
362.821	335.57
363.203	316.14
363.584	308.23
363.966	297.83
364.348	310.71
364.729	310.03
365.111	315.68
365.493	282.69
365.874	304.38
366.256	276.36
366.637	292.41
367.019	285.63
367.4	283.14
367.781	297.83
368.163	296.25
368.544	296.7
368.925	298.96
369.306	291.96
369.688	303.48
370.069	288.34
370.45	308
370.831	285.85
371.212	302.8
371.593	286.76
371.974	302.8
372.355	277.27
372.736	305.51
373.117	284.72
373.498	302.58
373.879	292.41
374.26	291.28
374.641	284.72
375.021	303.03
375.402	308
375.783	309.13
376.163	292.86
376.544	312.07
376.925	310.94
377.305	322.46
377.686	302.12
378.066	291.5
378.447	308.9
378.827	317.94
379.208	304.16
379.588	322.69
379.968	307.32
380.349	348.68
380.729	307.1
381.109	297.15
381.489	334.44
381.87	327.66
382.25	329.47
382.63	329.24
383.01	315.68
383.39	344.16
383.77	333.08
384.15	309.58
384.53	331.95
384.91	341.67
385.29	327.66
385.67	320.66
386.049	339.41
386.429	322.24
386.809	324.95
387.189	327.66
387.568	311.84
387.948	341.45
388.328	331.5
388.707	308.9
389.087	341.45
389.466	337.38
389.846	344.61
390.225	330.15
390.605	328.79
390.984	340.99
391.363	358.17
391.743	340.09
392.122	337.38
392.501	350.49
392.881	350.26
393.26	338.06
393.639	360.2
394.018	354.78
394.397	354.78
394.776	357.04
395.155	363.14
395.534	357.94
395.913	345.74
396.292	344.61
396.671	349.13
397.05	353.65
397.429	345.29
397.808	362.46
398.186	349.81
398.565	350.26
398.944	360.2
399.323	348.9
399.701	360.65
400.08	362.46
400.458	349.81
400.837	349.36
401.215	388.45
401.594	350.49
401.972	373.08
402.351	366.08
402.729	360.65
403.107	376.93
403.486	384.83
403.864	374.21
404.242	371.5
404.62	371.05
404.999	386.64
405.377	395.23
405.755	387.55
406.133	380.77
406.511	389.81
406.889	389.13
407.267	388.68
407.645	400.43
408.023	411.27
408.401	405.85
408.779	389.58
409.156	387.77
409.534	389.35
409.912	400.65
410.29	414.21
410.667	403.82
411.045	419.18
411.422	415.12
411.8	417.38
412.178	408.56
412.555	418.05
412.933	430.48
413.31	423.7
413.687	419.18
414.065	416.02
414.442	448.79
414.819	418.96
415.197	452.18
415.574	428.68
415.951	438.62
416.328	452.86
416.705	426.19
417.082	454.66
417.46	461.44
417.837	462.12
418.214	427.77
418.591	459.41
418.967	475
419.344	475.91
419.721	466.41
420.098	441.1
420.475	474.32
420.852	452.63
421.228	474.55
421.605	469.35
421.982	480.65
422.358	475
422.735	476.13
423.111	485.62
423.488	476.81
423.864	476.58
424.241	489.69
424.617	509.58
424.994	476.13
425.37	481.56
425.746	509.35
426.123	490.59
426.499	487.43
426.875	506.41
427.251	539.86
427.627	483.81
428.003	519.07
428.379	529.24
428.756	499.18
429.132	533.53
429.507	550.48
429.883	544.6
430.259	539.63
430.635	552.74
431.011	552.74
431.387	535.57
431.763	555.45
432.138	550.48
432.514	561.33
432.89	591.38
433.265	593.42
433.641	593.42
434.016	585.06
434.392	589.8
434.767	590.25
435.143	604.04
435.518	585.73
435.894	597.94
436.269	628.22
436.644	599.97
437.02	623.25
437.395	608.33
437.77	627.77
438.145	609.91
438.52	623.02
438.895	653.08
439.271	619.18
439.646	646.3
440.021	653.53
440.395	655.34
440.77	649.01
441.145	666.41
441.52	660.76
441.895	653.98
442.27	643.13
442.645	649.91
443.019	669.35
443.394	708.67
443.769	670.25
444.143	669.8
444.518	683.13
444.892	678.16
445.267	694.66
445.641	710.02
446.016	713.87
446.39	698.95
446.764	709.8
447.139	710.48
447.513	740.98
447.887	706.18
448.262	721.77
448.636	718.61
449.01	732.17
449.384	731.04
449.758	745.73
450.132	729.01
450.506	731.49
450.88	738.05
451.254	756.58
451.628	759.29
452.002	747.99
452.376	766.52
452.75	777.14
453.123	802.9
453.497	795.45
453.871	802
454.244	806.74
454.618	795.22
454.992	824.6
455.365	824.14
455.739	846.97
456.112	838.83
456.486	843.81
456.859	834.99
457.232	839.51
457.606	829.12
457.979	855.56
458.352	874.99
458.725	887.65
459.099	867.76
459.472	912.5
459.845	906.85
460.218	932.84
460.591	926.52
460.964	922.22
461.337	937.59
461.71	956.8
462.083	968.1
462.456	952.96
462.829	943.46
463.201	990.69
463.574	985.5
463.947	995.89
464.32	994.99
464.692	1007.64
465.065	1023.01
465.438	1033.86
465.81	1046.96
466.183	1027.53
466.555	1098.04
466.928	1090.35
467.3	1074.76
467.672	1101.43
468.045	1114.31
468.417	1126.74
468.789	1152.95
469.161	1131.26
469.534	1166.73
469.906	1176.9
470.278	1169.9
470.65	1191.82
471.022	1216.45
471.394	1230.69
471.766	1227.98
472.138	1224.81
472.51	1274.75
472.882	1274.98
473.253	1310.23
473.625	1276.34
473.997	1338.26
474.369	1339.61
474.74	1361.31
475.112	1396.56
475.484	1404.47
475.855	1413.96
476.227	1403.79
476.598	1474.3
476.97	1488.76
477.341	1506.16
477.713	1503.9
478.084	1510.91
478.455	1569.44
478.827	1579.38
479.198	1612.82
479.569	1618.25
479.94	1624.8
480.311	1706.83
480.682	1678.81
481.053	1731.47
481.424	1735.08
481.795	1785.93
482.166	1809.66
482.537	1811.92
482.908	1857.11
483.279	1882.42
483.65	1910.22
484.021	1921.07
484.391	1965.13
484.762	1986.6
485.133	1991.57
485.503	2048.07
485.874	2087.39
486.244	2107.95
486.615	2107.95
486.985	2113.38
487.356	2181.4
487.726	2218.23
488.097	2215.29
488.467	2247.16
488.837	2302.3
489.207	2296.42
489.578	2337.78
489.948	2370.09
490.318	2435.63
490.688	2458.68
491.058	2461.16
491.428	2469.07
491.798	2523.54
492.168	2545.23
492.538	2562.18
492.908	2630.88
493.278	2651.67
493.648	2614.83
494.017	2727.15
494.387	2697.99
494.757	2745.9
495.126	2753.59
495.496	2786.13
495.866	2784.55
496.235	2838.1
496.605	2864.77
496.974	2880.36
497.344	2947.03
497.713	2943.41
498.082	2970.76
498.452	3001.49
498.821	2995.84
499.19	3107.47
499.559	3082.84
499.928	3120.13
500.298	3149.28
500.667	3162.39
501.036	3162.16
501.405	3197.87
501.774	3221.37
502.143	3232.9
502.512	3265.66
502.88	3241.93
503.249	3333.91
503.618	3379.78
503.987	3332.55
504.356	3413.23
504.724	3434.47
505.093	3487.35
505.462	3474.7
505.83	3500.01
506.199	3550.63
506.567	3595.6
506.936	3617.52
507.304	3643.96
507.672	3663.17
508.041	3714.69
508.409	3750.17
508.777	3755.82
509.145	3763.05
509.514	3822.03
509.882	3808.93
510.25	3896.15
510.618	3857.51
510.986	3915.59
511.354	3969.82
511.722	3986.1
512.09	4029.03
512.458	4051.63
512.826	4083.49
513.193	4163.27
513.561	4193.77
513.929	4192.42
514.297	4236.71
514.664	4326.43
515.032	4304.51
515.4	4308.35
515.767	4358.06
516.135	4434.67
516.502	4418.4
516.869	4466.76
517.237	4512.41
517.604	4535.01
517.972	4568.23
518.339	4651.84
518.706	4669.47
519.073	4709.47
519.44	4745.62
519.808	4822.68
520.175	4770.48
520.542	4851.38
520.909	4876.47
521.276	4946.75
521.643	5005.73
522.009	5007.76
522.376	5100.64
522.743	5109.68
523.11	5116.69
523.477	5233.97
523.843	5281.65
524.21	5368.88
524.577	5392.61
524.943	5403.46
525.31	5456.11
525.676	5526.62
526.043	5571.14
526.409	5558.94
526.776	5645.71
527.142	5658.37
527.508	5760.96
527.874	5771.59
528.241	5790.57
528.607	5889.1
528.973	5889.1
529.339	5969.55
529.705	6010.45
530.071	6054.74
530.437	6093.61
530.803	6182.42
531.169	6186.04
531.535	6239.37
531.901	6246.83
532.267	6242.53
532.632	6333.83
532.998	6362.53
533.364	6419.25
533.73	6503.54
534.095	6551.68
534.461	6580.83
534.826	6631.9
535.192	6639.36
535.557	6734.27
535.923	6739.47
536.288	6804.55
536.653	6809.52
537.019	6816.98
537.384	6939.01
537.749	6966.81
538.114	6997.99
538.479	7042.29
538.845	7061.72
539.21	7081.16
539.575	7066.24
539.94	7163.41
540.305	7173.13
540.67	7247.25
541.034	7273.01
541.399	7289.29
541.764	7345.1
542.129	7372.67
542.494	7349.17
542.858	7466
543.223	7487.25
543.587	7555.72
543.952	7596.62
544.316	7627.58
544.681	7633.91
545.045	7649.28
545.41	7736.51
545.774	7794.13
546.138	7887.01
546.503	7778.54
546.867	7899.89
547.231	7976.27
547.595	7945.99
547.959	8037.29
548.324	7967.91
548.688	8048.36
549.052	8121.58
549.416	8131.3
549.779	8200.22
550.143	8222.37
550.507	8319.99
550.871	8339.88
551.235	8382.82
551.599	8477.96
551.962	8432.31
552.326	8507.56
552.689	8519.99
553.053	8571.29
553.417	8611.28
553.78	8671.17
554.143	8726.99
554.507	8776.7
554.87	8841.34
555.234	8901.22
555.597	8889.92
555.96	8944.84
556.323	9027.77
556.686	8981.22
557.05	9129.46
557.413	9137.6
557.776	9184.83
558.139	9309.57
558.502	9259.63
558.865	9382.34
559.228	9447.42
559.59	9431.83
559.953	9462.11
560.316	9638.6
560.679	9644.93
561.041	9674.99
561.404	9729.22
561.767	9773.51
562.129	9852.61
562.492	9951.81
562.854	9988.65
563.217	10009.44
563.579	10008.54
563.941	10122.66
564.304	10222.99
564.666	10218.47
565.028	10324.01
565.39	10352.26
565.753	10455.08
566.115	10447.39
566.477	10524.91
566.839	10527.62
567.201	10667.28
567.563	10651.46
567.925	10766.48
568.287	10758.12
568.648	10792.7
569.01	10938.91
569.372	11013.71
569.734	10967.61
570.095	11060.49
570.457	11111.78
570.819	11129.64
571.18	11212.8
571.542	11220.26
571.903	11332.8
572.265	11386.13
572.626	11431.78
572.987	11491.44
573.349	11466.35
573.71	11573.24
574.071	11540.93
574.432	11675.16
574.794	11706.12
575.155	11739.56
575.516	11726.68
575.877	11850.3
576.238	11755.61
576.599	11973.23
576.96	11868.37
577.32	11984.08
577.681	11998.77
578.042	12046.22
578.403	12170.51
578.763	12102.94
579.124	12165.99
579.485	12212.09
579.845	12178.42
580.206	12191.08
580.566	12292.09
580.927	12261.81
581.287	12387.23
581.648	12302.94
582.008	12459.09
582.368	12303.39
582.728	12481.92
583.089	12513.33
583.449	12391.07
583.809	12481.47
584.169	12624.96
584.529	12582.48
584.889	12635.13
585.249	12634.46
585.609	12630.84
585.969	12721.23
586.329	12701.35
586.688	12742.48
587.048	12713.78
587.408	12682.14
587.768	12732.76
588.127	12748.35
588.487	12821.8
588.846	12899.31
589.206	12797.39
589.565	12839.87
589.925	12956.26
590.284	12897.95
590.643	12968.68
591.003	13030.6
591.362	13008.91
591.721	13037.38
592.08	13065.41
592.44	13135.69
592.799	13114.67
593.158	13095.23
593.517	13070.38
593.876	13193.09
594.235	13170.26
594.593	13160.32
594.952	13212.52
595.311	13144.72
595.67	13195.8
596.029	13293.42
596.387	13233.08
596.746	13326.42
597.104	13302.91
597.463	13260.2
597.822	13407.54
598.18	13328.22
598.538	13360.99
598.897	13408.67
599.255	13356.24
599.613	13521.89
599.972	13463.13
600.33	13496.81
600.688	13436.02
601.046	13572.51
601.404	13661.32
601.762	13599.85
602.12	13733.86
602.478	13654.32
602.836	13716.69
603.194	13734.99
603.552	13686.63
603.91	13680.08
604.268	13786.97
604.625	13701.77
604.983	13792.17
605.341	13737.93
605.698	13880.07
606.056	13897.47
606.413	13914.2
606.771	13959.62
607.128	13950.35
607.485	13997.36
607.843	14026.96
608.2	14069.22
608.557	14123
608.914	14116.68
609.272	14159.61
609.629	14218.6
609.986	14236
610.343	14149.9
610.7	14291.36
611.057	14183.79
611.414	14310.8
611.771	14226.5
612.127	14375.2
612.484	14340.17
612.841	14391.47
613.198	14428.76
613.554	14394.41
613.911	14504.92
614.267	14490.45
614.624	14551.92
614.98	14492.26
615.337	14602.09
615.693	14594.4
616.05	14570.9
616.406	14706.94
616.762	14733.84
617.118	14652.26
617.475	14746.04
617.831	14763.89
618.187	14694.97
618.543	14783.78
618.899	14884.34
619.255	14865.13
619.611	14786.26
619.967	14878.01
620.323	14927.95
620.678	14953.72
621.034	14852.7
621.39	14947.84
621.746	14923.44
622.101	15081.4
622.457	14961.63
622.812	14923.89
623.168	15058.57
623.523	15040.49
623.879	15057.67
624.234	14938.35
624.589	15058.35
624.945	15114.62
625.3	15116.65
625.655	15024.45
626.01	15104.9
626.365	15131.57
626.72	15198.46
627.075	15089.53
627.43	15214.73
627.785	15146.71
628.14	15049.53
628.495	15137.44
628.85	15192.35
629.205	15111.9
629.559	15245.23
629.914	15128.18
630.269	15148.29
630.623	15188.29
630.978	15129.76
631.332	15258.57
631.687	15199.59
632.041	15189.19
632.396	15193.03
632.75	15193.26
633.104	15099.93
633.459	15115.97
633.813	15122.07
634.167	15194.61
634.521	15168.4
634.875	15234.84
635.229	15076.65
635.583	15151.45
635.937	15128.4
636.291	15093.37
636.645	15153.49
636.999	15109.65
637.352	15217.44
637.706	15077.1
638.06	15089.53
638.413	14956.43
638.767	15074.17
639.121	15021.96
639.474	15064
639.828	15040.27
640.181	15063.54
640.534	15085.24
640.888	15144.22
641.241	14921.4
641.594	15006.82
641.947	15118.46
642.301	15035.52
642.654	15061.96
643.007	15033.71
643.36	15056.09
643.713	15054.28
644.066	15016.99
644.419	14952.14
644.771	14986.94
645.124	14802.53
645.477	14787.39
645.83	14624.91
646.182	14664.69
646.535	14675.08
646.888	14624.46
647.24	14487.74
647.593	14624.23
647.945	14555.99
648.298	14567.74
648.65	14594.86
649.002	14528.19
649.355	14665.14
649.707	14608.87
650.059	14633.5
650.411	14875.98
650.763	14837.79
651.115	14932.25
651.467	14936.99
651.819	15004.34
652.171	14969.54
652.523	14916.2
652.875	14942.64
653.227	14854.51
653.578	14944.68
653.93	14923.89
654.282	14894.28
654.633	14825.36
654.985	14929.99
655.337	14849.54
655.688	14870.33
656.039	15006.14
656.391	14916.66
656.742	14912.81
657.094	14920.05
657.445	14960.5
657.796	14955.07
658.147	14911.91
658.498	14858.58
658.849	15025.58
659.2	14879.14
659.551	14878.01
659.902	14919.14
660.253	14978.58
660.604	14961.17
660.955	14939.03
661.306	14887.73
661.656	14923.66
662.007	14955.52
662.358	14963.21
662.708	14918.24
663.059	14921.63
663.409	14826.94
663.76	14941.29
664.11	14848.63
664.461	14945.13
664.811	14929.08
665.161	14958.24
665.511	14842.76
665.862	14959.59
666.212	14961.17
666.562	14999.37
666.912	14989.65
667.262	14990.78
667.612	14857.67
667.962	14967.73
668.312	14950.1
668.662	14984.45
669.011	14996.65
669.361	14858.8
669.711	14974.73
670.06	14957.78
670.41	14931.57
670.76	14905.36
671.109	14922.76
671.459	14969.08
671.808	14922.31
672.157	14987.39
672.507	14885.02
672.856	14878.46
673.205	14904.68
673.554	15000.04
673.904	14920.95
674.253	15032.13
674.602	14948.07
674.951	14722.99
675.3	14661.07
675.649	14886.6
675.998	14899.93
676.346	14856.77
676.695	14982.19
677.044	14839.37
677.393	14858.13
677.741	14955.52
678.09	14969.54
678.438	14789.88
678.787	14916.43
679.135	14880.95
679.484	14799.37
679.832	14858.35
680.181	14851.57
680.529	14809.09
680.877	14872.82
681.225	14809.77
681.573	14869.2
681.922	14788.75
682.27	14708.3
682.618	14748.07
682.966	14758.02
683.314	14725.02
683.661	14656.55
684.009	14655.87
684.357	14676.89
684.705	14617
685.053	14599.83
685.4	14640.05
685.748	14592.14
686.095	14559.15
686.443	14532.26
686.79	14554.18
687.138	14554.63
687.485	14548.53
687.832	14452.04
688.18	14461.75
688.527	14456.1
688.874	14386.73
689.221	14386.05
689.568	14367.52
689.915	14408.42
690.262	14449.32
690.609	14350.34
690.956	14280.29
691.303	14214.08
691.65	14152.38
691.997	14210.46
692.344	14101.08
692.69	14156.45
693.037	14054.08
693.383	14028.09
693.73	14081.42
694.077	14001.2
694.423	14019.96
694.769	14019.96
695.116	13950.81
695.462	13947.19
695.808	13820.87
696.155	13932.95
696.501	13956.46
696.847	13855.21
697.193	13750.13
697.539	13796.69
697.885	13698.16
698.231	13646.18
698.577	13683.02
698.923	13716.46
699.269	13658.84
699.614	13537.03
699.96	13506.52
700.306	13535.45
700.651	13477.6
700.997	13377.04
701.342	13440.08
701.688	13407.54
702.033	13391.72
702.379	13314.89
702.724	13277.6
703.069	13349.69
703.415	13207.1
703.76	13255
704.105	13244.16
704.45	13197.83
704.795	13213.42
705.14	13094.1
705.485	13070.15
705.83	13034.22
706.175	13036.25
706.52	13047.55
706.865	12930.27
707.209	12984.96
707.554	12981.57
707.899	12997.61
708.243	12918.29
708.588	12883.49
708.932	12823.15
709.277	12860.21
709.621	12778.63
709.966	12757.16
710.31	12732.08
710.654	12637.39
710.998	12736.6
711.342	12729.14
711.687	12711.29
712.031	12589.26
712.375	12598.07
712.719	12573.21
713.063	12584.29
713.407	12596.49
713.75	12631.97
714.094	12537.51
714.438	12453.44
714.782	12498.87
715.125	12420
715.469	12511.75
715.812	12431.52
716.156	12351.75
716.499	12363.95
716.843	12362.82
717.186	12320.57
717.53	12425.42
717.873	12418.42
718.216	12366.44
718.559	12267.46
718.902	12171.19
719.246	12266.1
719.589	12245.54
719.932	12222.49
720.275	12215.48
720.617	12216.61
720.96	12191.98
721.303	12169.61
721.646	12207.35
721.989	12086.22
722.331	12119.67
722.674	12151.98
723.016	12104.98
723.359	12046.22
723.701	12135.71
724.044	12100.01
724.386	12052.1
724.729	11982.04
725.071	12074.7
725.413	12025.43
725.755	12071.76
726.097	11927.13
726.439	11955.38
726.782	11948.15
727.124	11986.79
727.465	11933.91
727.807	11904.31
728.149	11925.55
728.491	11825.89
728.833	11843.97
729.175	11887.36
729.516	11837.87
729.858	11822.73
730.199	11850.75
730.541	11819.11
730.882	11792.44
731.224	11881.71
731.565	11731.65
731.906	11841.93
732.248	11846.45
732.589	11705.44
732.93	11700.92
733.271	11679.9
733.612	11791.54
733.953	11715.38
734.294	11730.98
734.635	11646.23
734.976	11749.06
735.317	11695.95
735.658	11756.74
735.999	11685.55
736.339	11655.05
736.68	11713.35
737.021	11623.86
737.361	11678.77
737.702	11618.21
738.042	11637.42
738.383	11606.91
738.723	11683.97
739.063	11618.89
739.404	11657.31
739.744	11596.97
740.084	11554.94
740.424	11603.3
740.764	11568.27
741.104	11593.13
741.444	11468.16
741.784	11528.72
742.124	11545.67
742.464	11532.56
742.804	11472.45
743.143	11496.41
743.483	11482.85
743.823	11501.83
744.162	11487.14
744.502	11499.57
744.841	11487.37
745.181	11571.43
745.52	11471.32
745.86	11482.62
746.199	11463.87
746.538	11438.78
746.877	11453.92
747.216	11499.57
747.556	11433.13
747.895	11467.93
748.234	11367.14
748.573	11452.11
748.911	11417.09
749.25	11334.15
749.589	11285.56
749.928	11354.94
750.267	11390.65
750.605	11354.26
750.944	11340.7
751.283	11257.99
751.621	11333.25
751.96	11260.71
752.298	11278.33
752.636	11291.21
752.975	11319.24
753.313	11187.26
753.651	11271.55
753.989	11214.15
754.327	11185.91
754.666	11154.04
755.004	11123.99
755.342	11142.74
755.679	11147.26
756.017	11118.79
756.355	11071.11
756.693	11058.68
757.031	11158.34
757.368	11114.5
757.706	11105.23
758.044	10975.97
758.381	11069.75
758.719	10951.34
759.056	11007.83
759.394	11003.09
759.731	10994.05
760.068	10936.2
