Data from cardboard_FLMS001491_086.txt Node
Date: Tue Feb 07 11:40:16 GMT 2017
User: dcchb
Spectrometer: FLMS00149
Trigger mode: 0
Integration Time (sec): 2.000000E-2
Scans to average: 10
Electric dark correction enabled: true
Nonlinearity correction enabled: false
Boxcar width: 0
XAxis mode: Wavelengths
Number of Pixels in Spectrum: 2048
>>>>>Begin Spectral Data<<<<<
341.393	-11.12
341.776	-11.12
342.16	-11.12
342.543	-55.18
342.927	-61.96
343.31	-67.84
343.693	-64
344.077	-47.5
344.46	-48.18
344.843	-69.65
345.226	-40.72
345.61	-27.39
345.993	5.83
346.376	-14.05
346.759	-9.08
347.142	19.39
347.525	46.06
347.908	42.44
348.291	66.62
348.674	92.84
349.057	115.21
349.44	108.43
349.823	140.97
350.206	176
350.588	197.92
350.971	215.55
351.354	237.69
351.737	237.47
352.119	239.95
352.502	244.24
352.884	280.63
353.267	282.44
353.65	304.81
354.032	294.87
354.414	298.93
354.797	322.44
355.179	312.72
355.562	325.6
355.944	322.44
356.326	350
356.709	334.86
357.091	335.32
357.473	342.77
357.855	334.41
358.238	339.84
358.62	354.75
359.002	346.84
359.384	355.43
359.766	346.16
360.148	315.88
360.53	357.69
360.912	337.12
361.294	333.51
361.676	343.68
362.057	338.71
362.439	333.96
362.821	349.33
363.203	326.95
363.584	324.47
363.966	331.02
364.348	320.63
364.729	321.31
365.111	308.65
365.493	325.82
365.874	334.19
366.256	326.05
366.637	332.38
367.019	307.29
367.4	330.8
367.781	345.71
368.163	322.89
368.544	312.72
368.925	330.12
369.306	331.47
369.688	314.3
370.069	310.68
370.45	321.76
370.831	325.15
371.212	334.41
371.593	317.92
371.974	319.72
372.355	317.24
372.736	332.83
373.117	311.59
373.498	321.76
373.879	315.43
374.26	314.98
374.641	316.79
375.021	320.85
375.402	323.56
375.783	339.84
376.163	338.48
376.544	333.96
376.925	338.25
377.305	335.77
377.686	338.25
378.066	343.45
378.447	321.08
378.827	343
379.208	324.24
379.588	342.1
379.968	323.11
380.349	321.08
380.729	334.64
381.109	359.04
381.489	335.99
381.87	351.36
382.25	346.62
382.63	355.2
383.01	337.35
383.39	340.06
383.77	345.49
384.15	358.14
384.53	354.52
384.91	353.17
385.29	391.36
385.67	375.77
386.049	388.65
386.429	373.73
386.809	381.42
387.189	376.44
387.568	366.5
387.948	352.94
388.328	353.62
388.707	368.99
389.087	370.57
389.466	377.8
389.846	357.69
390.225	379.83
390.605	372.83
390.984	405.37
391.363	379.83
391.743	369.67
392.122	404.47
392.501	418.7
392.881	399.27
393.26	397.46
393.639	398.14
394.018	396.11
394.397	391.36
394.776	392.04
395.155	405.37
395.534	413.73
395.913	410.57
396.292	425.94
396.671	418.93
397.05	441.08
397.429	435.88
397.808	399.5
398.186	407.86
398.565	432.04
398.944	437.69
399.323	428.42
399.701	431.36
400.08	448.53
400.458	445.37
400.837	417.8
401.215	446.5
401.594	450.12
401.972	455.09
402.351	448.99
402.729	453.73
403.107	460.51
403.486	466.39
403.864	462.32
404.242	463.9
404.62	476.78
404.999	450.12
405.377	472.71
405.755	477.46
406.133	471.13
406.511	484.46
406.889	502.09
407.267	507.06
407.645	495.76
408.023	483.56
408.401	508.64
408.779	507.97
409.156	481.53
409.534	526.05
409.912	526.95
410.29	545.03
410.667	532.82
411.045	549.77
411.422	543.45
411.8	537.8
412.178	568.76
412.555	549.55
412.933	547.97
413.31	551.58
413.687	591.13
414.065	585.25
414.442	583.45
414.819	591.35
415.197	578.02
415.574	612.37
415.951	574.63
416.328	601.3
416.705	595.65
417.082	599.94
417.46	589.77
417.837	604.24
418.214	619.83
418.591	629.55
418.967	633.84
419.344	635.42
419.721	648.98
420.098	659.6
420.475	643.33
420.852	631.81
421.228	673.84
421.605	648.3
421.982	653.27
422.358	645.82
422.735	658.47
423.111	657.57
423.488	670
423.864	681.75
424.241	679.49
424.617	693.27
424.994	667.74
425.37	691.24
425.746	709.09
426.123	723.33
426.499	712.03
426.875	732.82
427.251	764.23
427.627	752.93
428.003	745.93
428.379	751.8
428.756	759.26
429.132	760.39
429.507	779.6
429.883	791.58
430.259	795.42
430.635	798.35
431.011	790.45
431.387	807.17
431.763	828.86
432.138	861.86
432.514	849.2
432.89	843.33
433.265	846.72
433.641	873.83
434.016	867.96
434.392	890.1
434.767	883.32
435.143	892.14
435.518	899.82
435.894	921.06
436.269	910.44
436.644	895.75
437.02	933.94
437.395	917.22
437.77	948.63
438.145	955.41
438.52	965.36
438.895	980.27
439.271	1002.87
439.646	982.76
440.021	1008.74
440.395	995.41
440.77	1012.59
441.145	1000.38
441.52	1009.2
441.895	1030.89
442.27	1056.65
442.645	1061.85
443.019	1066.82
443.394	1058.46
443.769	1077.9
444.143	1045.35
444.518	1070.66
444.892	1047.39
445.267	1103.21
445.641	1121.96
446.016	1097.56
446.39	1093.71
446.764	1115.41
447.139	1125.13
447.513	1140.04
447.887	1119.02
448.262	1154.05
448.636	1144.33
449.01	1162.64
449.384	1166.48
449.758	1151.11
450.132	1182.75
450.506	1192.24
450.88	1200.83
451.254	1189.08
451.628	1211
452.002	1245.12
452.376	1218.91
452.75	1272.47
453.123	1253.71
453.497	1281.51
453.871	1263.65
454.244	1276.53
454.618	1349.75
454.992	1331.9
455.365	1310.88
455.739	1329.19
456.112	1371.9
456.486	1359.7
456.859	1381.62
457.232	1427.26
457.606	1425
457.979	1428.39
458.352	1468.85
458.725	1467.72
459.099	1486.25
459.472	1505.23
459.845	1524.44
460.218	1509.75
460.591	1528.28
460.964	1579.35
461.337	1588.84
461.71	1605.34
462.083	1610.31
462.456	1621.61
462.829	1633.59
463.201	1667.03
463.574	1674.72
463.947	1711.55
464.32	1740.02
464.692	1721.72
465.065	1778.67
465.438	1785.67
465.81	1773.02
466.183	1825.45
466.555	1853.24
466.928	1861.6
467.3	1844.65
467.672	1886.91
468.045	1904.54
468.417	1925.56
468.789	1952.22
469.161	1992.67
469.534	2011.43
469.906	2048.72
470.278	2044.65
470.65	2088.49
471.022	2124.65
471.394	2162.61
471.766	2157.19
472.138	2204.65
472.51	2250.75
472.882	2267.24
473.253	2307.69
473.625	2331.87
473.997	2370.06
474.369	2422.04
474.74	2439.22
475.112	2468.82
475.484	2516.95
475.855	2563.96
476.227	2532.55
476.598	2644.63
476.97	2657.51
477.341	2717.4
477.713	2739.09
478.084	2756.95
478.455	2829.04
478.827	2905.64
479.198	3005.3
479.569	2947.45
479.94	3039.2
480.311	3108.35
480.682	3161.23
481.053	3197.61
481.424	3267.89
481.795	3305.63
482.166	3329.59
482.537	3421.56
482.908	3475.12
483.279	3474.22
483.65	3567.55
484.021	3631.27
484.391	3659.75
484.762	3682.12
485.133	3716.24
485.503	3820.65
485.874	3891.15
486.244	3920.53
486.615	4027.2
486.985	4061.77
487.356	4100.19
487.726	4163.24
488.097	4242.56
488.467	4283.91
488.837	4367.07
489.207	4403.46
489.578	4451.14
489.948	4505.15
490.318	4626.95
490.688	4639.16
491.058	4734.07
491.428	4796.44
491.798	4843.45
492.168	4906.04
492.538	4930
492.908	5005.02
493.278	5124.57
493.648	5076.66
494.017	5174.51
494.387	5225.36
494.757	5249.31
495.126	5356.65
495.496	5369.76
495.866	5471.68
496.235	5469.87
496.605	5545.57
496.974	5535.86
497.344	5610.88
497.713	5688.62
498.082	5783.76
498.452	5829.86
498.821	5869.86
499.19	5858.33
499.559	5994.15
499.928	6013.58
500.298	6091.55
500.667	6172.9
501.036	6130.42
501.405	6217.2
501.774	6275.95
502.143	6331.77
502.512	6409.05
502.88	6388.72
503.249	6523.4
503.618	6555.72
503.987	6583.97
504.356	6608.15
504.724	6701.93
505.093	6738.54
505.462	6860.12
505.83	6862.6
506.199	6900.12
506.567	7048.81
506.936	7027.34
507.304	7159.77
507.672	7216.49
508.041	7241.12
508.409	7345.53
508.777	7381.46
509.145	7470.04
509.514	7476.15
509.882	7552.08
510.25	7573.09
510.618	7651.73
510.986	7754.78
511.354	7810.15
511.722	7889.02
512.09	7945.74
512.458	8065.73
512.826	8082.01
513.193	8180.31
513.561	8197.26
513.929	8278.16
514.297	8363.58
514.664	8509.56
515.032	8526.74
515.4	8650.58
515.767	8693.74
516.135	8749.78
516.502	8696.45
516.869	8956.78
517.237	8950.68
517.604	8987.97
517.972	9102.54
518.339	9182.32
518.706	9243.1
519.073	9323.55
519.44	9362.42
519.808	9490.1
520.175	9572.14
520.542	9644
520.909	9814.16
521.276	9820.94
521.643	9920.83
522.009	9988.17
522.376	10087.38
522.743	10114.27
523.11	10361.04
523.477	10386.35
523.843	10410.98
524.21	10660.02
524.577	10729.62
524.943	10757.41
525.31	10861.59
525.676	10974.81
526.043	11109.72
526.409	11155.82
526.776	11261.58
527.142	11351.75
527.508	11513.78
527.874	11579.77
528.241	11663.15
528.607	11728.69
528.973	11883.26
529.339	11923.71
529.705	12101.79
530.071	12153.54
530.437	12309.24
530.803	12379.07
531.169	12401.21
531.535	12426.75
531.901	12570.47
532.267	12643.24
532.632	12790.58
532.998	12885.49
533.364	13002.78
533.73	13057.69
534.095	13203.68
534.461	13195.77
534.826	13307.63
535.192	13381.3
535.557	13526.16
535.923	13539.26
536.288	13538.81
536.653	13674.63
537.019	13708.52
537.384	13805.7
537.749	13918.24
538.114	14017.44
538.479	14005.69
538.845	14147.83
539.21	14194.61
539.575	14315.29
539.94	14391.44
540.305	14534.72
540.67	14473.02
541.034	14692.23
541.399	14732.23
541.764	14781.72
542.129	14840.92
542.494	14937.64
542.858	14977.42
543.223	15017.64
543.587	15323.17
543.952	15227.13
544.316	15211.76
544.681	15356.84
545.045	15451.75
545.41	15488.36
545.774	15568.59
546.138	15618.53
546.503	15790.73
546.867	15800.45
547.231	15951.4
547.595	16064.85
547.959	16146.65
548.324	16178.52
548.688	16234.78
549.052	16285.18
549.416	16359.98
549.779	16417.83
550.143	16552.97
550.507	16697.82
550.871	16702.12
551.235	16663.25
551.599	16976.46
551.962	17001.09
552.326	17094.65
552.689	17177.81
553.053	17249.45
553.417	17249
553.78	17510.46
554.143	17495.32
554.507	17581.64
554.87	17583.9
555.234	17974.63
555.597	17836.32
555.96	17924.23
556.323	18067.28
556.686	18128.07
557.05	18261.62
557.413	18349.76
557.776	18394.73
558.139	18564.44
558.502	18692.8
558.865	18664.55
559.228	18900.48
559.59	18945.9
559.953	19018.67
560.316	19236.97
560.679	19269.51
561.041	19384.76
561.404	19524.87
561.767	19679.21
562.129	19664.3
562.492	19924.18
562.854	19958.3
563.217	19998.08
563.579	20132.31
563.941	20237.39
564.304	20329.14
564.666	20459.98
565.028	20603.71
565.39	20722.35
565.753	20843.03
566.115	20984.04
566.477	21012.51
566.839	21248.89
567.201	21276.23
567.563	21390.81
567.925	21497.7
568.287	21576.34
568.648	21680.52
569.01	21903.79
569.372	21967.06
569.734	21907.18
570.095	22160.73
570.457	22186.49
570.819	22332.03
571.18	22312.59
571.542	22619.02
571.903	22597.78
572.265	22742.41
572.626	22774.27
572.987	22911.45
573.349	22879.13
573.71	23148.73
574.071	23181.27
574.432	23262.4
574.794	23431.43
575.155	23533.8
575.516	23489.74
575.877	23612.9
576.238	23683.18
576.599	23722.05
576.96	23765.66
577.32	23848.82
577.681	24002.94
578.042	24101.47
578.403	24192.32
578.763	24197.51
579.124	24277.06
579.485	24387.79
579.845	24525.19
580.206	24475.47
580.566	24590.05
580.927	24578.97
581.287	24641.57
581.648	24613.55
582.008	24828.01
582.368	24809.02
582.728	24864.84
583.089	24948.68
583.449	24903.03
583.809	25007.21
584.169	25033.88
584.529	25014.67
584.889	25254.21
585.249	25146.87
585.609	25166.75
585.969	25273.64
586.329	25332.4
586.688	25332.17
587.048	25356.58
587.408	25352.51
587.768	25377.14
588.127	25486.07
588.487	25433.41
588.846	25692.16
589.206	25516.57
589.565	25608.55
589.925	25805.15
590.284	25651.26
590.643	25758.6
591.003	25950.24
591.362	25927.19
591.721	25834.98
592.08	25973.06
592.44	26057.8
592.799	26096.45
593.158	26031.59
593.517	25983
593.876	26113.4
594.235	26205.82
594.593	26138.71
594.952	26323.33
595.311	26171.47
595.67	26366.27
596.029	26593.61
596.387	26477.23
596.746	26571.24
597.104	26426.83
597.463	26561.52
597.822	26690.56
598.18	26582.99
598.538	26549.54
598.897	26709.09
599.255	26530.79
599.613	27006.03
599.972	26787.95
600.33	26832.47
600.688	26921.28
601.046	26938.91
601.404	27004.45
601.762	27008.06
602.12	27277.88
602.478	27088.06
602.836	27132.35
603.194	27149.3
603.552	27260.26
603.91	27100.04
604.268	27355.62
604.625	27163.09
604.983	27341.84
605.341	27287.38
605.698	27457.54
606.056	27458.67
606.413	27457.31
606.771	27593.58
607.128	27708.61
607.485	27525.79
607.843	27620.93
608.2	27881.26
608.557	27955.38
608.914	27820.92
609.272	27968.94
609.629	28094.81
609.986	28207.35
610.343	28050.07
610.7	28267.01
611.057	28193.11
611.414	28209.61
611.771	28189.5
612.127	28389.27
612.484	28409.83
612.841	28387.23
613.198	28453.22
613.554	28438.08
613.911	28717.39
614.267	28485.76
614.624	28570.28
614.98	28675.59
615.337	28768.92
615.693	28787
616.05	28725.3
616.406	28862.93
616.762	28847.11
617.118	28946.77
617.475	28876.03
617.831	29087.78
618.187	29078.97
618.543	29154.22
618.899	29266.08
619.255	29217.04
619.611	29292.29
619.967	29343.59
620.323	29432.18
620.678	29286.42
621.034	29375
621.39	29396.7
621.746	29341.11
622.101	29758.95
622.457	29430.14
622.812	29500.65
623.168	29606.41
623.523	29668.78
623.879	29709.68
624.234	29399.64
624.589	29587.65
624.945	29824.48
625.3	29687.99
625.655	29694.54
626.01	29694.09
626.365	29705.39
626.72	29692.74
627.075	29742
627.43	29683.7
627.785	29671.95
628.14	29817.25
628.495	29742.68
628.85	29776.35
629.205	29695.45
629.559	29865.61
629.914	29697.71
630.269	29798.27
630.623	29786.97
630.978	29647.99
631.332	29745.84
631.687	29931.37
632.041	29723.02
632.396	29810.25
632.75	29669.46
633.104	29729.57
633.459	29604.6
633.813	29637.6
634.167	29640.76
634.521	29751.27
634.875	29848.44
635.229	29681.21
635.583	29629.24
635.937	29647.99
636.291	29588.33
636.645	29549.69
636.999	29527.77
637.352	29646.86
637.706	29347.21
638.06	29493.42
638.413	29605.28
638.767	29459.3
639.121	29435.34
639.474	29449.58
639.828	29363.03
640.181	29418.39
640.534	29514.66
640.888	29385.4
641.241	29358.06
641.594	29358.73
641.947	29464.49
642.301	29378.17
642.654	29384.04
643.007	29343.82
643.36	29407.77
643.713	29347.43
644.066	29493.42
644.419	29130.72
644.771	29066.99
645.124	28731.86
645.477	28737.51
645.83	28563.5
646.182	28421.13
646.535	28460
646.888	28469.27
647.24	28378.87
647.593	28563.05
647.945	28447.57
648.298	28392.66
648.65	28241.47
649.002	28169.61
649.355	28300
649.707	28380.45
650.059	28476.5
650.411	28799.88
650.763	28759.65
651.115	29165.74
651.467	28954.45
651.819	29051.17
652.171	28947.22
652.523	28907.22
652.875	29004.17
653.227	28909.71
653.578	29125.75
653.93	29027.89
654.282	28942.25
654.633	28911.29
654.985	28938.86
655.337	28985.18
655.688	28928.24
656.039	28979.53
656.391	28850.27
656.742	28920.1
657.094	28889.82
657.445	28943.83
657.796	28920.55
658.147	28786.32
658.498	28928.69
658.849	28970.72
659.2	28893.44
659.551	28842.36
659.902	29003.94
660.253	28961.46
660.604	28924.17
660.955	28779.09
661.306	28935.24
661.656	28896.82
662.007	29061.11
662.358	28938.86
662.708	28945.86
663.059	28867.67
663.409	28775.7
663.76	28900.67
664.11	28938.86
664.461	29040.78
664.811	29044.62
665.161	29121.68
665.511	28949.03
665.862	28919.2
666.212	29051.4
666.562	29156.93
666.912	29141.56
667.262	29073.32
667.612	28931.17
667.962	28984.51
668.312	29051.62
668.662	29075.35
669.011	29008.69
669.361	28960.1
669.711	28900.67
670.06	28940.89
670.41	28880.1
670.76	28930.04
671.109	29147.44
671.459	28878.52
671.808	28876.49
672.157	29003.94
672.507	28843.04
672.856	28863.38
673.205	28886.66
673.554	28958.74
673.904	28833.55
674.253	28941.34
674.602	28817.96
674.951	28486.44
675.3	28265.43
675.649	28961.46
675.998	28805.75
676.346	28848.24
676.695	29052.75
677.044	28661.8
677.393	28778.41
677.741	28681.92
678.09	28747.45
678.438	28650.73
678.787	28761.01
679.135	28811.4
679.484	28600.79
679.832	28838.07
680.181	28574.12
680.529	28604.63
680.877	28547
681.225	28519.21
681.573	28759.65
681.922	28555.36
682.27	28310.63
682.618	28429.27
682.966	28280.34
683.314	28510.39
683.661	28333.68
684.009	28306.11
684.357	28187.01
684.705	28182.72
685.053	28389.72
685.4	28159.22
685.748	27970.3
686.095	28066.56
686.443	27924.87
686.79	27932.33
687.138	27995.61
687.485	28033.12
687.832	27945.21
688.18	27875.83
688.527	27864.76
688.874	27745.67
689.221	27723.75
689.568	27581.61
689.915	27639
690.262	27648.72
690.609	27587.48
690.956	27453.93
691.303	27515.62
691.65	27401.5
691.997	27378.67
692.344	27199.47
692.69	27186.36
693.037	27182.07
693.383	26950.89
693.73	27084.67
694.077	26837.22
694.423	27018.23
694.769	26882.64
695.116	26814.17
695.462	26809.2
695.808	26727.62
696.155	26718.35
696.501	26438.13
696.847	26471.13
697.193	26265.03
697.539	26440.17
697.885	26257.57
698.231	26221.87
698.577	26229.32
698.923	26153.85
699.269	26064.36
699.614	25972.16
699.96	26027.75
700.306	25949.78
700.651	25804.7
700.997	25796.57
701.342	25718.38
701.688	25752.27
702.033	25603.13
702.379	25578.72
702.724	25460.31
703.069	25531.49
703.415	25299.86
703.76	25236.13
704.105	25221.67
704.45	25263.47
704.795	25152.06
705.14	25043.82
705.485	25058.28
705.83	24952.52
706.175	24975.57
706.52	24842.69
706.865	24802.92
707.209	24861.9
707.554	24689.7
707.899	24751.4
708.243	24604.51
708.588	24586.43
708.932	24446.55
709.277	24459.65
709.621	24536.94
709.966	24250.39
710.31	24334.01
710.654	24202.26
710.998	24272.99
711.342	24337.62
711.687	24151.19
712.031	24048.14
712.375	24047.91
712.719	24040
713.063	24042.49
713.407	24090.62
713.75	23925.43
714.094	23942.6
714.438	23808.82
714.782	23851.08
715.125	23734.93
715.469	23807.47
715.812	23660.35
716.156	23613.8
716.499	23621.03
716.843	23740.8
717.186	23568.15
717.53	23751.88
717.873	23549.39
718.216	23499.9
718.559	23426.46
718.902	23267.82
719.246	23279.57
719.589	23271.66
719.932	23188.73
720.275	23176.98
720.617	23212.45
720.96	23155.96
721.303	23200.7
721.646	23178.78
721.989	23024.44
722.331	23182.17
722.674	23102.63
723.016	23086.58
723.359	23071.67
723.701	23166.58
724.044	22891.11
724.386	22815.4
724.729	23004.78
725.071	22810.21
725.413	22932.69
725.755	22755.74
726.097	22740.38
726.439	22668.97
726.782	22788.06
727.124	22836.42
727.465	22687.04
727.807	22757.1
728.149	22622.41
728.491	22549.87
728.833	22548.52
729.175	22571.12
729.516	22545.13
729.858	22544.22
730.199	22433.27
730.541	22526.37
730.882	22509.65
731.224	22579.7
731.565	22423.32
731.906	22451.57
732.248	22475.52
732.589	22401.85
732.93	22288.64
733.271	22358.47
733.612	22416.09
733.953	22430.55
734.294	22358.24
734.635	22205.02
734.976	22324.12
735.317	22146.72
735.658	22253.38
735.999	22209.09
736.339	22180.17
736.68	22224.01
737.021	22097.91
737.361	22140.39
737.702	22183.56
738.042	22101.52
738.383	22138.13
738.723	22085.03
739.063	22175.42
739.404	22153.95
739.744	22163.89
740.084	22005.71
740.424	22022.43
740.764	21927.29
741.104	22047.74
741.444	21980.62
741.784	21891.36
742.124	21921.87
742.464	21997.12
742.804	21873.05
743.143	21907.4
743.483	21922.55
743.823	21800.74
744.162	21720.29
744.502	21878.48
744.841	21743.79
745.181	21761.65
745.52	21820.17
745.86	21764.58
746.199	21843.23
746.538	21723.23
746.877	21697.24
747.216	21836.22
747.556	21832.6
747.895	21803.45
748.234	21757.58
748.573	21578.83
748.911	21670.35
749.25	21732.27
749.589	21572.72
749.928	21690.23
750.267	21721.42
750.605	21624.02
750.944	21611.37
751.283	21647.98
751.621	21532.27
751.96	21504.48
752.298	21533.18
752.636	21602.1
752.975	21459.96
753.313	21437.81
753.651	21502.67
753.989	21373.41
754.327	21337.48
754.666	21328.66
755.004	21397.59
755.342	21394.88
755.679	21362.33
756.017	21197.59
756.355	21353.52
756.693	21159.85
757.031	21287.08
