Data from cardboard_FLMS001491_041.txt Node
Date: Tue Feb 07 11:39:29 GMT 2017
User: dcchb
Spectrometer: FLMS00149
Trigger mode: 0
Integration Time (sec): 2.000000E-2
Scans to average: 10
Electric dark correction enabled: true
Nonlinearity correction enabled: false
Boxcar width: 0
XAxis mode: Wavelengths
Number of Pixels in Spectrum: 2048
>>>>>Begin Spectral Data<<<<<
341.393	-18.42
341.776	-18.42
342.16	-18.42
342.543	-71.98
342.927	-97.29
343.31	-61.35
343.693	-81.47
344.077	-54.12
344.46	-43.73
344.843	-39.89
345.226	-38.08
345.61	-37.63
345.993	-36.72
346.376	-7.34
346.759	-7.57
347.142	-1.92
347.525	61.58
347.908	61.13
348.291	94.35
348.674	80.56
349.057	112.2
349.44	110.62
349.823	133.89
350.206	146.32
350.588	208.7
350.971	197.4
351.354	212.08
351.737	222.48
352.119	233.78
352.502	259.77
352.884	239.2
353.267	262.25
353.65	268.81
354.032	280.11
354.414	270.84
354.797	282.14
355.179	285.53
355.562	298.41
355.944	320.78
356.326	323.72
356.709	303.83
357.091	307.9
357.473	326.88
357.855	297.96
358.238	324.62
358.62	337.05
359.002	335.47
359.384	323.95
359.766	322.59
360.148	328.92
360.53	319.43
360.912	290.5
361.294	316.94
361.676	345.41
362.057	312.42
362.439	287.79
362.821	311.52
363.203	304.06
363.584	322.36
363.966	296.6
364.348	299.09
364.729	306.77
365.111	311.07
365.493	299.09
365.874	280.78
366.256	297.96
366.637	278.52
367.019	295.47
367.4	302.03
367.781	299.54
368.163	313.78
368.544	307.22
368.925	291.18
369.306	281.69
369.688	292.76
370.069	284.17
370.45	283.72
370.831	289.6
371.212	293.44
371.593	284.63
371.974	298.64
372.355	290.27
372.736	306.55
373.117	296.38
373.498	283.04
373.879	294.79
374.26	294.57
374.641	305.19
375.021	302.7
375.402	282.82
375.783	308.81
376.163	305.87
376.544	296.83
376.925	316.71
377.305	291.86
377.686	314.23
378.066	320.56
378.447	320.33
378.827	300.9
379.208	301.57
379.588	291.86
379.968	303.38
380.349	297.96
380.729	315.13
381.109	317.17
381.489	321.46
381.87	308.81
382.25	302.48
382.63	313.78
383.01	301.12
383.39	312.2
383.77	296.6
384.15	312.87
384.53	323.72
384.91	321.01
385.29	301.35
385.67	319.65
386.049	342.02
386.429	304.06
386.809	316.49
387.189	320.78
387.568	316.04
387.948	343.15
388.328	339.77
388.707	345.87
389.087	319.88
389.466	323.04
389.846	327.79
390.225	349.48
390.605	331.18
390.984	345.87
391.363	339.54
391.743	336.6
392.122	362.14
392.501	343.15
392.881	336.15
393.26	335.47
393.639	352.42
394.018	342.25
394.397	359.2
394.776	350.39
395.155	345.41
395.534	367.11
395.913	361.01
396.292	339.09
396.671	367.11
397.05	346.77
397.429	357.84
397.808	342.25
398.186	343.61
398.565	342.02
398.944	354.45
399.323	360.78
399.701	350.39
400.08	357.17
400.458	361.69
400.837	359.43
401.215	369.82
401.594	358.07
401.972	362.82
402.351	375.02
402.729	378.18
403.107	349.71
403.486	375.24
403.864	359.2
404.242	359.65
404.62	376.15
404.999	369.82
405.377	385.87
405.755	380.89
406.133	374.79
406.511	363.04
406.889	373.44
407.267	391.52
407.645	397.39
408.023	413.89
408.401	415.02
408.779	411.4
409.156	399.65
409.534	403.27
409.912	414.11
410.29	421.12
410.667	406.66
411.045	410.72
411.422	406.43
411.8	427.9
412.178	422.25
412.555	427.22
412.933	424.06
413.31	424.73
413.687	423.6
414.065	424.28
414.442	433.1
414.819	442.81
415.197	417.5
415.574	413.66
415.951	436.26
416.328	445.07
416.705	420.89
417.082	446.65
417.46	439.2
417.837	455.69
418.214	441.23
418.591	436.49
418.967	463.6
419.344	458.63
419.721	455.02
420.098	466.99
420.475	467.67
420.852	472.42
421.228	475.81
421.605	464.96
421.982	479.2
422.358	473.55
422.735	478.52
423.111	475.81
423.488	473.77
423.864	484.17
424.241	498.86
424.617	516.71
424.994	491.4
425.37	495.47
425.746	471.51
426.123	490.95
426.499	499.99
426.875	508.12
427.251	484.85
427.627	502.92
428.003	510.38
428.379	495.69
428.756	505.41
429.132	532.75
429.507	527.78
429.883	539.31
430.259	549.7
430.635	534.34
431.011	535.69
431.387	544.51
431.763	572.53
432.138	553.54
432.514	560.55
432.89	581.79
433.265	563.26
433.641	579.31
434.016	571.85
434.392	593.54
434.767	598.97
435.143	581.79
435.518	578.4
435.894	605.07
436.269	613.43
436.644	623.83
437.02	624.05
437.395	609.59
437.77	612.53
438.145	638.74
438.52	622.24
438.895	653.43
439.271	638.74
439.646	628.12
440.021	657.95
440.395	668.8
440.77	671.51
441.145	668.8
441.52	639.42
441.895	660.21
442.27	688.91
442.645	669.02
443.019	681.9
443.394	659.08
443.769	684.61
444.143	680.1
444.518	704.73
444.892	706.31
445.267	701.11
445.641	693.2
446.016	690.26
446.39	706.76
446.764	713.77
447.139	732.52
447.513	729.13
447.887	724.16
448.262	705.63
448.636	719.42
449.01	721.45
449.384	726.87
449.758	724.61
450.132	734.56
450.506	746.99
450.88	755.57
451.254	770.26
451.628	753.99
452.002	753.77
452.376	778.4
452.75	771.62
453.123	773.43
453.497	789.47
453.871	796.7
454.244	798.06
454.618	802.58
454.992	812.07
455.365	816.14
455.739	836.02
456.112	832.18
456.486	842.35
456.859	870.37
457.232	862.01
457.606	873.76
457.979	858.62
458.352	884.16
458.725	870.37
459.099	898.85
459.472	897.72
459.845	904.27
460.218	903.59
460.591	898.62
460.964	902.69
461.337	929.58
461.71	951.73
462.083	945.85
462.456	941.78
462.829	961.44
463.201	970.03
463.574	1000.31
463.947	992.18
464.32	1033.98
464.692	1012.52
465.065	998.05
465.438	1031.95
465.81	1035.79
466.183	1080.31
466.555	1102.91
466.928	1088.67
467.3	1069.46
467.672	1092.51
468.045	1108.78
468.417	1105.39
468.789	1120.08
469.161	1138.84
469.534	1142.46
469.906	1175.9
470.278	1165.96
470.65	1194.66
471.022	1205.28
471.394	1227.88
471.766	1259.06
472.138	1245.73
472.51	1277.14
472.882	1294.54
473.253	1285.95
473.625	1324.6
473.997	1319.17
474.369	1335.22
474.74	1361.89
475.112	1398.49
475.484	1380.87
475.855	1416.57
476.227	1424.93
476.598	1450.7
476.97	1469.9
477.341	1523.46
477.713	1526.85
478.084	1517.59
478.455	1562.56
478.827	1541.99
479.198	1592.84
479.569	1608.21
479.94	1664.02
480.311	1641.88
480.682	1676.45
481.053	1758.94
481.424	1779.05
481.795	1773.17
482.166	1799.16
482.537	1831.93
482.908	1855.21
483.279	1866.96
483.65	1883
484.021	1936.33
484.391	1977.69
484.762	1960.97
485.133	2024.01
485.503	2012.72
485.874	2078.93
486.244	2100.62
486.615	2119.15
486.985	2135.88
487.356	2196.44
487.726	2171.36
488.097	2215.2
488.467	2282.31
488.837	2282.09
489.207	2312.82
489.578	2354.18
489.948	2411.35
490.318	2411.35
490.688	2438.47
491.058	2437.79
491.428	2491.35
491.798	2540.61
492.168	2553.49
492.538	2594.85
492.908	2616.32
493.278	2619.71
493.648	2643.89
494.017	2677.56
494.387	2728.4
494.757	2742.87
495.126	2737.22
495.496	2765.69
495.866	2807.95
496.235	2885.23
496.605	2886.36
496.974	2845.24
497.344	2923.88
497.713	2954.61
498.082	2979.92
498.452	3009.3
498.821	3016.76
499.19	3022.18
499.559	3092.91
499.928	3098.79
500.298	3122.74
500.667	3183.31
501.036	3166.36
501.405	3179.46
501.774	3264.43
502.143	3256.3
502.512	3247.26
502.88	3303.53
503.249	3328.39
503.618	3357.99
503.987	3369.52
504.356	3379.23
504.724	3392.57
505.093	3431.66
505.462	3448.84
505.83	3471.21
506.199	3516.86
506.567	3608.15
506.936	3592.11
507.304	3617.87
507.672	3626.68
508.041	3673.46
508.409	3696.96
508.777	3765.89
509.145	3771.09
509.514	3777.87
509.882	3826.23
510.25	3816.51
510.618	3827.81
510.986	3877.3
511.354	3937.86
511.722	3994.58
512.09	4036.62
512.458	4035.49
512.826	4069.84
513.193	4098.31
513.561	4121.59
513.929	4138.76
514.297	4212.21
514.664	4243.84
515.032	4281.81
515.4	4292.2
515.767	4329.04
516.135	4388.7
516.502	4387.79
516.869	4499.88
517.237	4503.05
517.604	4499.43
517.972	4534.91
518.339	4597.73
518.706	4603.16
519.073	4646.32
519.44	4731.06
519.808	4792.76
520.175	4726.54
520.542	4837.95
520.909	4824.17
521.276	4868.46
521.643	4934.9
522.009	4991.39
522.376	5005.63
522.743	5062.35
523.11	5128.34
523.477	5145.74
523.843	5217.83
524.21	5314.1
524.577	5339.41
524.943	5318.84
525.31	5418.73
525.676	5492.85
526.043	5512.51
526.409	5529.69
526.776	5606.52
527.142	5587.99
527.508	5678.16
527.874	5767.42
528.241	5761.54
528.607	5771.94
528.973	5856.46
529.339	5860.3
529.705	5923.8
530.071	6011.71
530.437	6053.51
530.803	6082.66
531.169	6156.34
531.535	6145.49
531.901	6173.96
532.267	6220.97
532.632	6209.89
532.998	6310.68
533.364	6370.79
533.73	6358.59
534.095	6458.93
534.461	6497.8
534.826	6495.99
535.192	6530.56
535.557	6619.83
535.923	6614.63
536.288	6659.37
536.653	6700.73
537.019	6708.19
537.384	6758.58
537.749	6838.35
538.114	6839.48
538.479	6840.84
538.845	6922.19
539.21	6973.49
539.575	7028.4
539.94	7062.53
540.305	7041.74
540.67	7095.29
541.034	7145.46
541.399	7142.75
541.764	7189.53
542.129	7259.58
542.494	7268.62
542.858	7332.35
543.223	7363.31
543.587	7460.71
543.952	7381.39
544.316	7495.96
544.681	7443.53
545.045	7580.03
545.41	7546.36
545.774	7548.62
546.138	7571.21
546.503	7673.13
546.867	7709.51
547.231	7768.72
547.595	7858.89
547.959	7852.34
548.324	7899.11
548.688	7875.16
549.052	7937.76
549.416	7969.39
549.779	8000.13
550.143	8045.33
550.507	8084.65
550.871	8167.58
551.235	8109.5
551.599	8258.43
551.962	8234.25
552.326	8257.3
552.689	8427.01
553.053	8345.43
553.417	8432.21
553.78	8524.41
554.143	8532.09
554.507	8531.64
554.87	8553.56
555.234	8736.15
555.597	8663.84
555.96	8742.93
556.323	8771.18
556.686	8855.02
557.05	8939.54
557.413	8954.68
557.776	8933.44
558.139	9089.59
558.502	9050.72
558.865	9070.83
559.228	9161.91
559.59	9203.26
559.953	9204.62
560.316	9336.82
560.679	9370.26
561.041	9433.09
561.404	9521.67
561.767	9583.36
562.129	9561.9
562.492	9715.11
562.854	9662.46
563.217	9709.46
563.579	9775.9
563.941	9845.28
564.304	9859.97
564.666	9967.76
565.028	10063.13
565.39	10062.22
565.753	10132.95
566.115	10247.08
566.477	10305.15
566.839	10226.28
567.201	10338.37
567.563	10330.46
567.925	10408.43
568.287	10480.74
568.648	10445.26
569.01	10579.95
569.372	10583.79
569.734	10576.33
570.095	10724.8
570.457	10769.55
570.819	10769.55
571.18	10823.56
571.542	10959.6
571.903	10965.93
572.265	10968.86
572.626	11051.8
572.987	11045.7
573.349	11085.7
573.71	11174.73
574.071	11184
574.432	11275.07
574.794	11369.98
575.155	11331.79
575.516	11403.2
575.877	11362.07
576.238	11500.83
576.599	11510.32
576.96	11515.97
577.32	11594.38
577.681	11609.3
578.042	11656.53
578.403	11718.67
578.763	11730.65
579.124	11823.3
579.485	11756.41
579.845	11807.03
580.206	11854.94
580.566	11771.55
580.927	11946.24
581.287	11915.96
581.648	11949.63
582.008	12004.32
582.368	12030.98
582.728	12017.42
583.089	12077.54
583.449	12043.86
583.809	12106.24
584.169	12208.61
584.529	12094.26
584.889	12235.05
585.249	12240.24
585.609	12152.56
585.969	12230.3
586.329	12325.66
586.688	12261.26
587.048	12284.08
587.408	12281.15
587.768	12321.6
588.127	12321.14
588.487	12267.14
588.846	12428.26
589.206	12368.15
589.565	12331.09
589.925	12434.36
590.284	12431.65
590.643	12571.53
591.003	12553.91
591.362	12605.21
591.721	12507.58
592.08	12583.74
592.44	12692.43
592.799	12641.59
593.158	12548.94
593.517	12622.15
593.876	12731.76
594.235	12661.47
594.593	12621.93
594.952	12750.51
595.311	12730.4
595.67	12656.73
596.029	12848.14
596.387	12869.83
596.746	12876.61
597.104	12810.17
597.463	12853.33
597.822	12916.61
598.18	12841.58
598.538	12864.41
598.897	12970.39
599.255	12818.76
599.613	13105.98
599.972	12948.02
600.33	13025.31
600.688	13017.85
601.046	12933.11
601.404	13101.46
601.762	13073.89
602.12	13123.38
602.478	13116.38
602.836	13146.66
603.194	13141.24
603.552	13176.26
603.91	13144.63
604.268	13251.52
604.625	13108.24
604.983	13250.39
605.341	13163.38
605.698	13303.94
606.056	13263.72
606.413	13353.21
606.771	13385.07
607.128	13376.26
607.485	13297.62
607.843	13403.38
608.2	13449.25
608.557	13505.29
608.914	13520.21
609.272	13582.35
609.629	13651.28
609.986	13632.3
610.343	13463.71
610.7	13602.47
611.057	13706.19
611.414	13716.14
611.771	13611.28
612.127	13712.29
612.484	13791.61
612.841	13818.96
613.198	13751.16
613.554	13809.47
613.911	13832.29
614.267	13939.18
614.624	13880.2
614.98	13928.33
615.337	14001.1
615.693	13998.61
616.05	13997.71
616.406	14100.31
616.762	14021.67
617.118	14063.25
617.475	14040.87
617.831	14046.3
618.187	14065.96
618.543	14124.94
618.899	14293.3
619.255	14244.48
619.611	14305.5
619.967	14310.47
620.323	14273.18
620.678	14300.08
621.034	14252.39
621.39	14296.46
621.746	14275.67
622.101	14466.63
622.457	14364.71
622.812	14353.41
623.168	14360.87
623.523	14452.61
623.879	14515.66
624.234	14533.29
624.589	14444.93
624.945	14505.49
625.3	14458.26
625.655	14581.65
626.01	14483.35
626.365	14521.31
626.72	14567.64
627.075	14587.75
627.43	14648.54
627.785	14517.25
628.14	14520.64
628.495	14626.17
628.85	14563.12
629.205	14491.26
629.559	14675.89
629.914	14532.16
630.269	14525.38
630.623	14521.31
630.978	14564.25
631.332	14619.62
631.687	14544.36
632.041	14488.09
632.396	14549.33
632.75	14511.6
633.104	14616.23
633.459	14539.62
633.813	14534.42
634.167	14483.12
634.521	14523.12
634.875	14496
635.229	14540.52
635.583	14566.28
635.937	14535.55
636.291	14473.18
636.645	14501.65
636.999	14425.04
637.352	14566.06
637.706	14430.24
638.06	14521.54
638.413	14460.75
638.767	14548.43
639.121	14513.86
639.474	14369.9
639.828	14443.8
640.181	14436.57
640.534	14510.69
640.888	14404.03
641.241	14391.37
641.594	14357.48
641.947	14441.09
642.301	14368.32
642.654	14498.71
643.007	14396.12
643.36	14469.11
643.713	14432.95
644.066	14486.96
644.419	14338.72
644.771	14257.59
645.124	14120.19
645.477	14113.64
645.83	14077.26
646.182	13977.6
646.535	13952.06
646.888	14035.45
647.24	13882.23
647.593	14011.27
647.945	14002
648.298	13911.39
648.65	13936.47
649.002	13853.76
649.355	13943.7
649.707	13917.04
650.059	13974.43
650.411	14200.64
650.763	14201.55
651.115	14350.02
651.467	14265.73
651.819	14293.97
652.171	14289.68
652.523	14251.04
652.875	14269.79
653.227	14275.9
653.578	14332.84
653.93	14310.92
654.282	14216.91
654.633	14276.12
654.985	14306.63
655.337	14211.26
655.688	14134.43
656.039	14248.1
656.391	14205.16
656.742	14164.26
657.094	14238.61
657.445	14277.25
657.796	14290.36
658.147	14264.37
658.498	14352.5
658.849	14307.99
659.2	14263.69
659.551	14166.75
659.902	14326.29
660.253	14276.57
660.604	14249
660.955	14250.36
661.306	14311.6
661.656	14259.63
662.007	14314.54
662.358	14196.58
662.708	14247.65
663.059	14198.84
663.409	14253.07
663.76	14202.45
664.11	14372.84
664.461	14269.12
664.811	14281.32
665.161	14353.41
665.511	14266.86
665.862	14293.52
666.212	14315.44
666.562	14336.46
666.912	14300.53
667.262	14307.08
667.612	14176.24
667.962	14264.37
668.312	14236.12
668.662	14405.16
669.011	14260.75
669.361	14283.35
669.711	14251.94
670.06	14205.62
670.41	14298.72
670.76	14293.97
671.109	14372.16
671.459	14328.32
671.808	14215.78
672.157	14312.28
672.507	14256.69
672.856	14217.59
673.205	14303.01
673.554	14252.39
673.904	14185.95
674.253	14375.33
674.602	14287.42
674.951	14088.1
675.3	13980.99
675.649	14318.38
675.998	14232.06
676.346	14265.73
676.695	14240.64
677.044	14199.29
677.393	14256.46
677.741	14199.06
678.09	14237.03
678.438	14188.21
678.787	14303.24
679.135	14318.15
679.484	14229.34
679.832	14270.7
680.181	14151.83
680.529	14175.11
680.877	14095.79
681.225	14130.59
681.573	14219.4
681.922	14115
682.27	14045.17
682.618	14125.62
682.966	14122
683.314	14153.64
683.661	14060.08
684.009	14035
684.357	14032.74
684.705	13977.82
685.053	14000.87
685.4	14039.52
685.748	13916.36
686.095	13942.8
686.443	13910.48
686.79	13863.93
687.138	13969.92
687.485	13933.76
687.832	13837.04
688.18	13864.16
688.527	13795
688.874	13779.19
689.221	13738.51
689.568	13772.63
689.915	13653.99
690.262	13681.79
690.609	13678.17
690.956	13654.9
691.303	13683.82
691.65	13546.65
691.997	13587.78
692.344	13553.65
692.69	13515.01
693.037	13510.72
693.383	13460.55
693.73	13484.73
694.077	13378.97
694.423	13376.48
694.769	13414.9
695.116	13468.46
695.462	13330.16
695.808	13268.01
696.155	13308.24
696.501	13183.5
696.847	13212.42
697.193	13162.48
697.539	13120.67
697.885	13039.54
698.231	13086.77
698.577	13044.74
698.923	12983.95
699.269	13014.46
699.614	12950.96
699.96	12896.5
700.306	12920.45
700.651	12951.41
700.997	12825.09
701.342	12870.74
701.688	12918.87
702.033	12876.61
702.379	12845.2
702.724	12756.84
703.069	12748.03
703.415	12636.16
703.76	12696.05
704.105	12658.99
704.45	12684.07
704.795	12538.31
705.14	12465.77
705.485	12556.84
705.83	12494.93
706.175	12484.3
706.52	12505.55
706.865	12493.34
707.209	12413.12
707.554	12437.53
707.899	12330.64
708.243	12411.09
708.588	12327.92
708.932	12281.82
709.277	12169.28
709.621	12324.31
709.966	12165.44
710.31	12261.26
710.654	12197.98
710.998	12122.05
711.342	12091.32
711.687	12108.72
712.031	12094.71
712.375	12040.02
712.719	12059.23
713.063	12104.88
713.407	12120.02
713.75	12018.78
714.094	12063.3
714.438	11939.91
714.782	11988.72
715.125	11873.93
715.469	11941.04
715.812	11876.18
716.156	11861.72
716.499	11858.78
716.843	11890.87
717.186	11843.42
717.53	11869.86
717.873	11831.89
718.216	11773.14
718.559	11850.65
718.902	11574.05
719.246	11793.93
719.589	11704.89
719.932	11704.89
720.275	11685.46
720.617	11711.22
720.96	11704.66
721.303	11711.67
721.646	11703.31
721.989	11630.77
722.331	11675.06
722.674	11635.97
723.016	11675.51
723.359	11645.91
723.701	11587.6
724.044	11587.6
724.386	11543.09
724.729	11622.18
725.071	11583.31
725.413	11581.05
725.755	11523.65
726.097	11508.28
726.439	11435.97
726.782	11479.59
727.124	11530.43
727.465	11529.08
727.807	11485.01
728.149	11487.27
728.491	11497.89
728.833	11501.73
729.175	11404.33
729.516	11421.06
729.858	11389.64
730.199	11441.17
730.541	11447.04
730.882	11403.43
731.224	11397.33
731.565	11318.46
731.906	11301.74
732.248	11336.09
732.589	11283.21
732.93	11202.53
733.271	11261.74
733.612	11353.49
733.953	11232.81
734.294	11275.52
734.635	11199.37
734.976	11300.15
735.317	11252.7
735.658	11211.34
735.999	11217.9
736.339	11264
736.68	11284.11
737.021	11160.05
737.361	11126.15
737.702	11233.49
738.042	11146.26
738.383	11150.33
738.723	11183.55
739.063	11132.7
739.404	11235.07
739.744	11117.79
740.084	11035.76
740.424	11153.94
740.764	11144.45
741.104	11156.66
741.444	11153.72
741.784	11094.28
742.124	11085.92
742.464	11133.83
742.804	11074.85
743.143	11018.35
743.483	11031.24
743.823	11037.56
744.162	11063.78
744.502	11074.62
744.841	10969.77
745.181	11014.51
745.52	11027.85
745.86	11074.85
746.199	11012.48
746.538	10976.55
746.877	11038.69
747.216	10997.11
747.556	10994.85
747.895	10985.81
748.234	11020.84
748.573	10903.1
748.911	10925.25
749.25	11008.19
749.589	10883.22
749.928	10916.44
750.267	10879.83
750.605	10932.93
750.944	10862.2
751.283	10871.92
751.621	10866.04
751.96	10822.88
752.298	10853.61
752.636	10857.68
752.975	10800.51
753.313	10746.27
753.651	10833.95
753.989	10801.86
754.327	10730.23
754.666	10724.35
755.004	10723.67
755.342	10809.32
755.679	10829.88
756.017	10713.05
756.355	10678.25
756.693	10674.63
757.031	10649.78
757.368	10567.74
757.706	10638.03
758.044	10605.03
758.381	10623.11
758.719	10582.66
759.056	10660.62
759.394	10501.98
759.731	10491.36
760.068	10546.95
