Data from cardboard_FLMS001491_008.txt Node
Date: Tue Feb 07 11:38:51 GMT 2017
User: dcchb
Spectrometer: FLMS00149
Trigger mode: 0
Integration Time (sec): 2.000000E-2
Scans to average: 10
Electric dark correction enabled: true
Nonlinearity correction enabled: false
Boxcar width: 0
XAxis mode: Wavelengths
Number of Pixels in Spectrum: 2048
>>>>>Begin Spectral Data<<<<<
341.393	-4.75
341.776	-4.75
342.16	-4.75
342.543	-59.43
342.927	-66.21
343.31	-73.9
343.693	-57.4
344.077	-65.54
344.46	-58.08
344.843	-62.37
345.226	-45.65
345.61	-34.35
345.993	-15.82
346.376	11.07
346.759	18.08
347.142	10.4
347.525	52.65
347.908	60.79
348.291	61.69
348.674	91.97
349.057	106.44
349.44	117.96
349.823	122.26
350.206	148.92
350.588	193.44
350.971	198.86
351.354	213.78
351.737	217.85
352.119	239.32
352.502	253.33
352.884	254.91
353.267	258.07
353.65	287
354.032	281.8
354.414	292.42
354.797	303.04
355.179	310.95
355.562	315.92
355.944	299.2
356.326	314.79
356.709	323.38
357.091	330.84
357.473	311.4
357.855	314.79
358.238	325.87
358.62	332.19
359.002	323.61
359.384	318.86
359.766	325.19
360.148	334.45
360.53	327
360.912	317.96
361.294	338.97
361.676	321.57
362.057	332.42
362.439	298.07
362.821	315.02
363.203	315.25
363.584	306.21
363.966	299.65
364.348	312.08
364.729	306.66
365.111	300.78
365.493	311.86
365.874	298.07
366.256	298.3
366.637	280.67
367.019	281.57
367.4	300.33
367.781	301.69
368.163	311.18
368.544	271.63
368.925	296.04
369.306	314.12
369.688	288.35
370.069	278.41
370.45	312.76
370.831	287.68
371.212	295.36
371.593	293.33
371.974	295.59
372.355	301.01
372.736	287.45
373.117	291.52
373.498	291.74
373.879	318.41
374.26	294.68
374.641	293.1
375.021	296.04
375.402	282.7
375.783	298.52
376.163	303.95
376.544	300.78
376.925	326.09
377.305	312.99
377.686	307.56
378.066	309.6
378.447	301.01
378.827	299.2
379.208	305.3
379.588	298.07
379.968	311.86
380.349	315.25
380.729	307.11
381.109	296.49
381.489	298.75
381.87	312.99
382.25	310.73
382.63	315.47
383.01	322.7
383.39	296.72
383.77	308.92
384.15	324.06
384.53	309.82
384.91	334.45
385.29	317.73
385.67	328.58
386.049	328.58
386.429	329.26
386.809	326.55
387.189	333.78
387.568	340.56
387.948	318.86
388.328	354.79
388.707	322.25
389.087	340.78
389.466	333.1
389.846	337.84
390.225	332.65
390.605	332.87
390.984	348.47
391.363	334.23
391.743	332.19
392.122	345.53
392.501	334.91
392.881	348.47
393.26	336.49
393.639	358.86
394.018	344.62
394.397	342.14
394.776	352.76
395.155	343.27
395.534	360.89
395.913	347.56
396.292	359.31
396.671	366.77
397.05	354.57
397.429	341.01
397.808	342.59
398.186	338.75
398.565	357.05
398.944	368.58
399.323	363.15
399.701	360.89
400.08	357.28
400.458	365.41
400.837	347.34
401.215	376.94
401.594	359.76
401.972	373.78
402.351	369.48
402.729	361.35
403.107	371.74
403.486	373.78
403.864	360.89
404.242	369.93
404.62	369.93
404.999	399.99
405.377	372.65
405.755	374.45
406.133	396.6
406.511	403.15
406.889	406.09
407.267	392.98
407.645	385.07
408.023	409.71
408.401	399.99
408.779	399.54
409.156	390.95
409.534	399.31
409.912	404.74
410.29	409.25
410.667	408.35
411.045	417.84
411.422	421.91
411.8	408.35
412.178	398.18
412.555	414
412.933	444.96
413.31	448.12
413.687	429.37
414.065	422.14
414.442	416.49
414.819	452.19
415.197	454.23
415.574	449.25
415.951	449.25
416.328	438.86
416.705	455.81
417.082	446.09
417.46	449.03
417.837	456.71
418.214	454.45
418.591	454.45
418.967	463.72
419.344	454.68
419.721	451.51
420.098	458.74
420.475	451.74
420.852	449.93
421.228	458.74
421.605	471.63
421.982	469.59
422.358	480.21
422.735	461.46
423.111	501
423.488	470.95
423.864	491.96
424.241	480.67
424.617	496.26
424.994	495.13
425.37	493.55
425.746	510.04
426.123	530.61
426.499	514.56
426.875	515.69
427.251	512.75
427.627	519.99
428.003	506.88
428.379	525.64
428.756	501.91
429.132	519.08
429.507	552.75
429.883	536.48
430.259	550.72
430.635	528.12
431.011	537.16
431.387	572.41
431.763	568.8
432.138	582.36
432.514	582.58
432.89	559.53
433.265	583.49
433.641	553.88
434.016	568.35
434.392	601.79
434.767	601.34
435.143	622.58
435.518	599.98
435.894	612.87
436.269	602.24
436.644	604.5
437.02	616.48
437.395	633.66
437.77	621.45
438.145	629.36
438.52	642.69
438.895	604.5
439.271	658.74
439.646	647.67
440.021	685.63
440.395	651.28
440.77	660.1
441.145	652.86
441.52	680.43
441.895	685.86
442.27	651.96
442.645	685.86
443.019	671.62
443.394	680.21
443.769	684.28
444.143	654.22
444.518	690.6
444.892	695.57
445.267	691.51
445.641	714.33
446.016	714.78
446.39	720.21
446.764	708.23
447.139	738.74
447.513	721.79
447.887	699.64
448.262	722.47
448.636	741
449.01	734.67
449.384	735.57
449.758	740.09
450.132	754.33
450.506	756.14
450.88	759.75
451.254	775.35
451.628	764.05
452.002	795.69
452.376	776.7
452.75	776.93
453.123	785.97
453.497	798.4
453.871	778.96
454.244	811.05
454.618	811.5
454.992	819.64
455.365	844.27
455.739	849.47
456.112	841.56
456.486	849.24
456.859	858.06
457.232	840.88
457.606	862.35
457.979	885.4
458.352	890.6
458.725	906.42
459.099	910.03
459.472	910.48
459.845	912.29
460.218	911.39
460.591	908.9
460.964	945.29
461.337	937.15
461.71	972.63
462.083	972.4
462.456	964.72
462.829	975.79
463.201	978.51
463.574	1014.44
463.947	1007.43
464.32	1019.41
464.692	1050.82
465.065	1015.11
465.438	1039.29
465.81	1049.46
466.183	1068.67
466.555	1091.95
466.928	1093.98
467.3	1108.9
467.672	1094.66
468.045	1121.78
468.417	1162.91
468.789	1157.26
469.161	1149.8
469.534	1178.73
469.906	1199.97
470.278	1213.98
470.65	1204.94
471.022	1189.57
471.394	1240.87
471.766	1237.03
472.138	1234.77
472.51	1259.4
472.882	1276.12
473.253	1305.28
473.625	1324.71
473.997	1348.21
474.369	1353.86
474.74	1369.68
475.112	1365.61
475.484	1400.64
475.855	1404.71
476.227	1415.78
476.598	1451.94
476.97	1507.08
477.341	1525.38
477.713	1517.7
478.084	1528.77
478.455	1566.96
478.827	1571.03
479.198	1629.79
479.569	1631.82
479.94	1652.39
480.311	1669.11
480.682	1719.73
481.053	1743.91
481.424	1791.14
481.795	1785.49
482.166	1803.57
482.537	1834.3
482.908	1861.42
483.279	1908.88
483.65	1938.71
484.021	1945.03
484.391	2006.27
484.762	2030
485.133	2000.63
485.503	2061.64
485.874	2133.96
486.244	2117.91
486.615	2135.99
486.985	2178.93
487.356	2202.65
487.726	2205.82
488.097	2243.1
488.467	2274.74
488.837	2358.58
489.207	2342.76
489.578	2378.24
489.948	2419.6
490.318	2456.43
490.688	2482.87
491.058	2465.92
491.428	2520.16
491.798	2576.2
492.168	2632.7
492.538	2636.09
492.908	2654.39
493.278	2662.53
493.648	2692.13
494.017	2740.72
494.387	2778.91
494.757	2808.29
495.126	2821.39
495.496	2816.88
495.866	2896.87
496.235	2878.57
496.605	2929.41
496.974	2919.25
497.344	2947.49
497.713	3049.86
498.082	3034.04
498.452	3059.13
498.821	3077.66
499.19	3111.1
499.559	3122.18
499.928	3138.22
500.298	3213.02
500.667	3181.61
501.036	3229.75
501.405	3284.43
501.774	3283.98
502.143	3333.7
502.512	3328.95
502.88	3398.33
503.249	3368.27
503.618	3395.62
503.987	3436.75
504.356	3446.46
504.724	3532.56
505.093	3511.09
505.462	3547.25
505.83	3610.07
506.199	3623.86
506.567	3711.99
506.936	3662.5
507.304	3694.59
507.672	3737.53
508.041	3764.42
508.409	3797.19
508.777	3855.49
509.145	3851.88
509.514	3888.71
509.882	3902.5
510.25	3929.39
510.618	4004.19
510.986	3978.65
511.354	4053
511.722	4022.72
512.09	4149.95
512.458	4122.38
512.826	4177.97
513.193	4223.39
513.561	4221.81
513.929	4281.24
514.297	4340.45
514.664	4359.89
515.032	4393.56
515.4	4418.19
515.767	4495.93
516.135	4538.86
516.502	4487.11
516.869	4573.89
517.237	4589.48
517.604	4610.73
517.972	4737.5
518.339	4723.27
518.706	4758.97
519.073	4795.58
519.44	4850.27
519.808	4899.76
520.175	4910.61
520.542	5005.29
520.909	5044.16
521.276	5008.91
521.643	5149.7
522.009	5172.97
522.376	5212.07
522.743	5235.34
523.11	5295
523.477	5361.21
523.843	5382.46
524.21	5490.7
524.577	5526.86
524.943	5543.13
525.31	5611.6
525.676	5671.04
526.043	5715.1
526.409	5776.12
526.776	5804.59
527.142	5855.89
527.508	5853.86
527.874	5972.05
528.241	6026.28
528.607	6105.6
528.973	6104.47
529.339	6124.36
529.705	6167.75
530.071	6242.55
530.437	6313.28
530.803	6346.27
531.169	6418.81
531.535	6441.86
531.901	6444.8
532.267	6523.22
532.632	6535.65
532.998	6550.11
533.364	6586.27
533.73	6669.2
534.095	6746.72
534.461	6744.23
534.826	6793.27
535.192	6827.62
535.557	6911
535.923	6904
536.288	6974.28
536.653	7025.35
537.019	7000.04
537.384	7145.57
537.749	7126.37
538.114	7140.83
538.479	7225.57
538.845	7246.36
539.21	7260.83
539.575	7368.62
539.94	7346.7
540.305	7482.29
540.67	7386.25
541.034	7494.94
541.399	7523.64
541.764	7661.49
542.129	7623.75
542.494	7651.1
542.858	7722.96
543.223	7776.97
543.587	7806.8
543.952	7842.96
544.316	7875.73
544.681	7880.47
545.045	7981.49
545.41	7983.52
545.774	8015.38
546.138	7999.56
546.503	8150.75
546.867	8126.57
547.231	8229.61
547.595	8241.37
547.959	8263.74
548.324	8350.51
548.688	8357.75
549.052	8374.02
549.416	8478.65
549.779	8418.76
550.143	8494.69
550.507	8627.12
550.871	8650.17
551.235	8653.78
551.599	8691.07
551.962	8769.26
552.326	8772.88
552.689	8773.1
553.053	8762.48
553.417	8925.19
553.78	8936.49
554.143	8940.33
554.507	9051.51
554.87	9169.02
555.234	9261.68
555.597	9209.02
555.96	9212.64
556.323	9334.22
556.686	9316.14
557.05	9412.63
557.413	9472.97
557.776	9557.71
558.139	9628.22
558.502	9637.94
558.865	9685.17
559.228	9771.04
559.59	9799.74
559.953	9820.53
560.316	9952.96
560.679	9974.65
561.041	10019.17
561.404	10084.25
561.767	10079.51
562.129	10165.38
562.492	10230.47
562.854	10281.99
563.217	10379.39
563.579	10379.16
563.941	10437.01
564.304	10505.71
564.666	10630.68
565.028	10623.68
565.39	10676.33
565.753	10770.11
566.115	10875.65
566.477	10869.32
566.839	10879.71
567.201	11063.66
567.563	11035.64
567.925	11114.96
568.287	11157.45
568.648	11171.68
569.01	11298.91
569.372	11373.49
569.734	11385.01
570.095	11504.1
570.457	11466.59
570.819	11503.88
571.18	11547.49
571.542	11695.96
571.903	11691.9
572.265	11788.39
572.626	11795.62
572.987	11804.89
573.349	11817.32
573.71	11927.6
574.071	12012.11
574.432	12070.64
574.794	12131.43
575.155	12153.35
575.516	12164.2
575.877	12184.31
576.238	12245.33
576.599	12316.06
576.96	12324.2
577.32	12360.8
577.681	12431.76
578.042	12507.24
578.403	12542.95
578.763	12566.9
579.124	12584.53
579.485	12640.8
579.845	12706.56
580.206	12698.42
580.566	12679.67
580.927	12714.69
581.287	12885.99
581.648	12854.8
582.008	12850.06
582.368	12880.34
582.728	12936.16
583.089	12877.63
583.449	12932.54
583.809	13050.5
584.169	12943.61
584.529	13062.71
584.889	13114.91
585.249	13104.51
585.609	13018.41
585.969	13203.27
586.329	13123.27
586.688	13154.46
587.048	13201.91
587.408	13155.59
587.768	13170.28
588.127	13204.62
588.487	13277.39
588.846	13426.54
589.206	13310.84
589.565	13361.68
589.925	13414.56
590.284	13331.4
590.643	13422.92
591.003	13545.86
591.362	13536.14
591.721	13522.36
592.08	13547.67
592.44	13610.49
592.799	13634.67
593.158	13586.54
593.517	13624.05
593.876	13652.75
594.235	13575.46
594.593	13738.85
594.952	13738.85
595.311	13666.31
595.67	13789.92
596.029	13840.99
596.387	13929.35
596.746	13854.55
597.104	13802.12
597.463	13934.77
597.822	13946.98
598.18	13881.44
598.538	13895
598.897	14013.42
599.255	13910.59
599.613	14118.95
599.972	14034.43
600.33	14093.87
600.688	14083.47
601.046	14198.95
601.404	14124.83
601.762	14229.23
602.12	14294.54
602.478	14290.7
602.836	14321.66
603.194	14215.22
603.552	14273.07
603.91	14164.6
604.268	14396.91
604.625	14297.93
604.983	14311.94
605.341	14295.67
605.698	14482.56
606.056	14508.32
606.413	14408.66
606.771	14535.66
607.128	14539.05
607.485	14418.83
607.843	14517.36
608.2	14599.62
608.557	14626.73
608.914	14575.89
609.272	14729.33
609.629	14694.98
609.986	14844.13
610.343	14699.27
610.7	14917.35
611.057	14838.71
611.414	14835.32
611.771	14835.99
612.127	14822.21
612.484	14857.01
612.841	15002.54
613.198	14876.44
613.554	15006.39
613.911	15024.01
614.267	15087.96
614.624	15046.61
614.98	15157.57
615.337	15151.47
615.693	15191.69
616.05	15209.09
616.406	15365.92
616.762	15250.45
617.118	15293.61
617.475	15268.3
617.831	15408.63
618.187	15329.09
618.543	15417.9
618.899	15497.45
619.255	15589.65
619.611	15473.04
619.967	15591.68
620.323	15518.24
620.678	15502.64
621.034	15491.12
621.39	15631
621.746	15531.12
622.101	15703.99
622.457	15556.65
622.812	15603.43
623.168	15662.19
623.523	15698.12
623.879	15747.38
624.234	15615.18
624.589	15708.06
624.945	15785.8
625.3	15650.66
625.655	15737.44
626.01	15773.82
626.365	15778.12
626.72	15810.43
627.075	15866.48
627.43	15803.43
627.785	15747.16
628.14	15797.1
628.495	15830.77
628.85	15903.99
629.205	15711
629.559	15863.54
629.914	15760.49
630.269	15879.58
630.623	15820.6
630.978	15766.14
631.332	15831
631.687	15885.46
632.041	15827.38
632.396	15876.19
632.75	15793.03
633.104	15878.23
633.459	15767.72
633.813	15710.1
634.167	15790.32
634.521	15786.93
634.875	15872.13
635.229	15840.04
635.583	15768.62
635.937	15827.61
636.291	15702.41
636.645	15824.22
636.999	15752.13
637.352	15864.22
637.706	15670.77
638.06	15745.57
638.413	15749.64
638.767	15700.6
639.121	15695.63
639.474	15684.79
639.828	15683.88
640.181	15758.68
640.534	15775.63
640.888	15727.27
641.241	15657.44
641.594	15743.99
641.947	15739.47
642.301	15654.5
642.654	15704.67
643.007	15778.57
643.36	15715.07
643.713	15680.27
644.066	15715.07
644.419	15621.74
644.771	15534.51
645.124	15324.79
645.477	15414.06
645.83	15255.42
646.182	15324.57
646.535	15206.83
646.888	15304.68
647.24	15159.15
647.593	15311.24
647.945	15212.93
648.298	15167.06
648.65	15240.28
649.002	15151.69
649.355	15245.25
649.707	15195.98
650.059	15265.36
650.411	15419.26
650.763	15431.23
651.115	15634.39
651.467	15525.47
651.819	15544.22
652.171	15657.22
652.523	15490.44
652.875	15550.1
653.227	15520.27
653.578	15593.49
653.93	15600.27
654.282	15518.46
654.633	15481.17
654.985	15553.49
655.337	15524.56
655.688	15553.04
656.039	15608.86
656.391	15487.05
656.742	15493.15
657.094	15566.14
657.445	15591.91
657.796	15584
658.147	15536.31
658.498	15528.41
658.849	15673.03
659.2	15548.07
659.551	15578.8
659.902	15588.52
660.253	15598.01
660.604	15607.73
660.955	15465.36
661.306	15618.12
661.656	15599.59
662.007	15690.89
662.358	15566.37
662.708	15545.13
663.059	15599.36
663.409	15529.54
663.76	15635.52
664.11	15596.88
664.461	15605.69
664.811	15633.26
665.161	15624.9
665.511	15568.4
665.862	15623.09
666.212	15762.98
666.562	15720.72
666.912	15638.46
667.262	15588.06
667.612	15634.84
667.962	15675.75
668.312	15609.08
668.662	15775.18
669.011	15614.28
669.361	15583.77
669.711	15772.24
670.06	15629.19
670.41	15531.57
670.76	15650.89
671.109	15729.08
671.459	15623.09
671.808	15561.85
672.157	15746.7
672.507	15525.02
672.856	15556.2
673.205	15598.46
673.554	15633.71
673.904	15508.97
674.253	15703.99
674.602	15586.03
674.951	15475.75
675.3	15355.98
675.649	15642.75
675.998	15598.01
676.346	15546.03
676.695	15619.93
677.044	15541.29
677.393	15615.63
677.741	15615.86
678.09	15465.58
678.438	15485.02
678.787	15618.57
679.135	15569.53
679.484	15486.6
679.832	15547.16
680.181	15405.24
680.529	15492.25
680.877	15529.08
681.225	15436.2
681.573	15576.31
681.922	15525.24
682.27	15361.18
682.618	15421.74
682.966	15418.8
683.314	15494.51
683.661	15284.34
684.009	15367.51
684.357	15297
684.705	15309.65
685.053	15310.33
685.4	15260.62
685.748	15184.01
686.095	15327.96
686.443	15138.58
686.79	15147.17
687.138	15213.39
687.485	15220.39
687.832	15150.56
688.18	15150.56
688.527	15131.35
688.874	15133.39
689.221	15007.97
689.568	14999.15
689.915	14920.29
690.262	15066.72
690.609	14878.03
690.956	14861.98
691.303	14872.83
691.65	14817.92
691.997	14818.14
692.344	14736.79
692.69	14779.95
693.037	14739.73
693.383	14579.05
693.73	14674.42
694.077	14562.78
694.423	14610.01
694.769	14599.16
695.116	14549.22
695.462	14570.24
695.808	14485.95
696.155	14598.94
696.501	14447.08
696.847	14514.65
697.193	14332.5
697.539	14442.78
697.885	14349.45
698.231	14320.08
698.577	14278.95
698.923	14291.6
699.269	14162.79
699.614	14087.31
699.96	14098.61
700.306	14135.22
700.651	14082.57
700.997	14092.28
701.342	14050.93
701.688	14018.39
702.033	13962.34
702.379	13963.7
702.724	13920.54
703.069	13922.8
703.415	13784.72
703.76	13845.06
704.105	13902.23
704.45	13763.93
704.795	13738.17
705.14	13669.92
705.485	13707.89
705.83	13650.49
706.175	13708.79
706.52	13589.25
706.865	13601.45
707.209	13584.28
707.554	13529.14
707.899	13566.2
708.243	13474.67
708.588	13485.75
708.932	13424.05
709.277	13391.29
709.621	13386.99
709.966	13328.46
710.31	13310.16
710.654	13333.66
710.998	13259.31
711.342	13228.13
711.687	13181.35
712.031	13197.39
712.375	13236.49
712.719	13224.06
713.063	13215.92
713.407	13185.64
713.75	13090.28
714.094	13139.77
714.438	13037.62
714.782	13142.48
715.125	13017.51
715.469	13041.01
715.812	13055.7
716.156	12943.84
716.499	12965.76
716.843	12870.4
717.186	12877.18
717.53	13012.77
717.873	12932.77
718.216	12801.47
718.559	12873.79
718.902	12752.89
719.246	12870.17
719.589	12766.22
719.932	12799.44
720.275	12789.49
720.617	12777.52
720.96	12720.34
721.303	12747.24
721.646	12774.58
721.989	12663.4
722.331	12747.46
722.674	12670.18
723.016	12718.54
723.359	12616.62
723.701	12716.05
724.044	12590.18
724.386	12556.05
724.729	12676.95
725.071	12565.55
725.413	12575.94
725.755	12558.99
726.097	12509.73
726.439	12530.29
726.782	12509.5
727.124	12535.26
727.465	12532.1
727.807	12480.35
728.149	12464.31
728.491	12456.62
728.833	12464.53
729.175	12535.49
729.516	12447.13
729.858	12437.41
730.199	12333.24
730.541	12387.47
730.882	12414.81
731.224	12412.1
731.565	12346.34
731.906	12420.46
732.248	12376.4
732.589	12237.19
732.93	12207.59
733.271	12318.77
733.612	12378.21
733.953	12351.31
734.294	12281.03
734.635	12225.44
734.976	12330.07
735.317	12216.85
735.658	12277.19
735.999	12230.64
736.339	12167.82
736.68	12274.25
737.021	12226.12
737.361	12203.52
737.702	12232.22
738.042	12269.51
738.383	12133.92
738.723	12225.89
739.063	12113.58
739.404	12210.53
739.744	12152.45
740.084	12141.38
740.424	12122.17
740.764	12188.83
741.104	12176.4
741.444	12077.42
741.784	12054.6
742.124	12133.92
742.464	12112.22
742.804	12140.7
743.143	12037.42
743.483	12096.41
743.823	12059.12
744.162	12089.85
744.502	12095.05
744.841	11960.82
745.181	12098.66
745.52	12048.5
745.86	12043.98
746.199	11987.48
746.538	12024.09
746.877	11994.49
747.216	12023.86
747.556	11977.31
747.895	11957.43
748.234	11972.34
748.573	11952.45
748.911	11912.91
749.25	11982.51
749.589	11897.54
749.928	11906.58
750.267	11937.09
750.605	11948.39
750.944	11915.17
751.283	11885.11
751.621	11910.65
751.96	11884.43
752.298	11799.24
752.636	11856.64
752.975	11740.26
753.313	11800.82
753.651	11852.34
753.989	11734.38
754.327	11793.81
754.666	11710.65
755.004	11703.87
755.342	11763.76
755.679	11656.19
756.017	11686.92
756.355	11672.69
756.693	11577.77
757.031	11666.81
757.368	11650.77
757.706	11548.4
758.044	11585.46
758.381	11601.05
758.719	11564.89
759.056	11563.31
759.394	11563.09
759.731	11461.85
760.068	11407.84
