Data from cardboard_FLMS001491_091.txt Node
Date: Tue Feb 07 11:40:25 GMT 2017
User: dcchb
Spectrometer: FLMS00149
Trigger mode: 0
Integration Time (sec): 2.000000E-2
Scans to average: 10
Electric dark correction enabled: true
Nonlinearity correction enabled: false
Boxcar width: 0
XAxis mode: Wavelengths
Number of Pixels in Spectrum: 2048
>>>>>Begin Spectral Data<<<<<
341.393	-11.74
341.776	-11.74
342.16	-11.74
342.543	-43.15
342.927	-58.97
343.31	-72.53
343.693	-74.56
344.077	-65.52
344.46	-71.17
344.843	-64.16
345.226	-35.47
345.61	-21.23
345.993	-7.67
346.376	0.69
346.759	20.58
347.142	15.83
347.525	34.59
347.908	72.1
348.291	92.22
348.674	79.11
349.057	97.19
349.44	123.63
349.823	143.97
350.206	163.17
350.588	181.48
350.971	218.77
351.354	208.6
351.737	212.21
352.119	235.04
352.502	274.36
352.884	282.27
353.267	295.37
353.65	296.96
354.032	297.86
354.414	317.97
354.797	324.75
355.179	310.51
355.562	320.23
355.944	330.17
356.326	324.3
356.709	334.24
357.091	341.7
357.473	334.92
357.855	330.4
358.238	337.18
358.62	341.02
359.002	340.57
359.384	329.5
359.766	342.6
360.148	341.93
360.53	348.25
360.912	331.76
361.294	353.68
361.676	331.76
362.057	332.89
362.439	320.91
362.821	336.95
363.203	330.4
363.584	325.66
363.966	341.02
364.348	328.37
364.729	343.51
365.111	317.97
365.493	316.39
365.874	321.36
366.256	306.9
366.637	314.36
367.019	304.19
367.4	318.65
367.781	312.55
368.163	320.91
368.544	311.64
368.925	291.08
369.306	331.53
369.688	320.23
370.069	325.88
370.45	295.6
370.831	294.7
371.212	304.19
371.593	316.39
371.974	297.86
372.355	322.94
372.736	318.2
373.117	314.58
373.498	336.95
373.879	325.43
374.26	315.71
374.641	323.17
375.021	304.64
375.402	322.94
375.783	333.79
376.163	315.71
376.544	332.43
376.925	331.76
377.305	334.47
377.686	332.66
378.066	319.78
378.447	340.12
378.827	327.69
379.208	321.81
379.588	335.15
379.968	335.15
380.349	318.88
380.729	320.91
381.109	349.16
381.489	350.51
381.87	325.66
382.25	342.83
382.63	327.69
383.01	362.04
383.39	358.2
383.77	350.06
384.15	360.68
384.53	341.7
384.91	353.23
385.29	385.99
385.67	346.67
386.049	346.67
386.429	359.33
386.809	348.48
387.189	373.11
387.568	363.39
387.948	363.62
388.328	349.38
388.707	359.33
389.087	356.16
389.466	390.29
389.846	355.94
390.225	367.91
390.605	367.24
390.984	367.91
391.363	380.57
391.743	382.6
392.122	395.94
392.501	383.05
392.881	360.68
393.26	382.6
393.639	382.6
394.018	378.99
394.397	371.53
394.776	370.85
395.155	398.42
395.534	388.25
395.913	403.85
396.292	368.82
396.671	382.83
397.05	382.15
397.429	418.08
397.808	398.65
398.186	398.2
398.565	383.96
398.944	401.13
399.323	404.07
399.701	399.33
400.08	411.53
400.458	408.82
400.837	403.17
401.215	409.95
401.594	398.2
401.972	446.78
402.351	411.3
402.729	421.7
403.107	434.58
403.486	436.39
403.864	427.35
404.242	443.17
404.62	443.84
404.999	457.63
405.377	452.21
405.755	427.35
406.133	451.75
406.511	456.5
406.889	473.67
407.267	466.44
407.645	474.35
408.023	477.97
408.401	476.61
408.779	477.74
409.156	470.51
409.534	462.37
409.912	480
410.29	488.59
410.667	483.39
411.045	484.75
411.422	492.88
411.8	485.88
412.178	488.59
412.555	515.48
412.933	512.54
413.31	507.35
413.687	538.98
414.065	539.21
414.442	527.68
414.819	550.51
415.197	534.24
415.574	536.5
415.951	531.98
416.328	521.58
416.705	550.51
417.082	555.03
417.46	569.04
417.837	552.77
418.214	548.93
418.591	572.43
418.967	571.3
419.344	559.1
419.721	585.31
420.098	591.19
420.475	594.8
420.852	581.02
421.228	602.26
421.605	577.17
421.982	601.81
422.358	604.52
422.735	610.39
423.111	592.09
423.488	602.71
423.864	627.79
424.241	626.66
424.617	618.08
424.994	655.59
425.37	623.5
425.746	636.61
426.123	649.71
426.499	653.56
426.875	644.06
427.251	663.73
427.627	666.66
428.003	639.09
428.379	665.08
428.756	675.93
429.132	724.06
429.507	700.11
429.883	707.11
430.259	702.59
430.635	737.85
431.011	720.9
431.387	693.78
431.763	731.52
432.138	752.08
432.514	781.46
432.89	756.83
433.265	758.41
433.641	778.98
434.016	804.29
434.392	799.77
434.767	795.02
435.143	805.42
435.518	816.04
435.894	796.15
436.269	821.91
436.644	818.3
437.02	849.71
437.395	831.86
437.77	830.73
438.145	871.63
438.52	831.63
438.895	861.01
439.271	856.49
439.646	881.8
440.021	888.8
440.395	896.04
440.77	859.88
441.145	892.42
441.52	916.37
441.895	906.66
442.27	931.29
442.645	910.72
443.019	928.35
443.394	940.55
443.769	924.06
444.143	908.92
444.518	958.18
444.892	951.63
445.267	945.53
445.641	953.44
446.016	947.33
446.39	974
446.764	970.84
447.139	976.94
447.513	992.53
447.887	966.99
448.262	1020.55
448.636	994.79
449.01	999.76
449.384	1023.04
449.758	1032.98
450.132	1047.22
450.506	1048.35
450.88	1049.48
451.254	1064.62
451.628	1062.13
452.002	1058.52
452.376	1069.59
452.75	1113.43
453.123	1089.48
453.497	1101.68
453.871	1122.24
454.244	1146.65
454.618	1147.33
454.992	1161.11
455.365	1138.97
455.739	1183.03
456.112	1203.6
456.486	1182.81
456.859	1196.59
457.232	1213.99
457.606	1220.32
457.979	1237.95
458.352	1254.44
458.725	1265.74
459.099	1284.95
459.472	1325.63
459.845	1311.62
460.218	1316.82
460.591	1347.55
460.964	1341.9
461.337	1339.64
461.71	1384.61
462.083	1416.93
462.456	1440.43
462.829	1412.63
463.201	1404.95
463.574	1411.73
463.947	1457.83
464.32	1484.04
464.692	1470.03
465.065	1491.73
465.438	1514.32
465.81	1542.8
466.183	1540.76
466.555	1597.26
466.928	1597.71
467.3	1593.42
467.672	1615.79
468.045	1687.2
468.417	1677.26
468.789	1660.08
469.161	1705.05
469.534	1706.64
469.906	1736.69
470.278	1749.35
470.65	1761.55
471.022	1820.76
471.394	1852.17
471.766	1878.83
472.138	1874.99
472.51	1910.7
472.882	1971.71
473.253	1982.56
473.625	1958.15
473.997	2007.87
474.369	2025.27
474.74	2073.63
475.112	2119.28
475.484	2142.78
475.855	2178.71
476.227	2181.43
476.598	2259.39
476.97	2232.5
477.341	2340.74
477.713	2348.2
478.084	2341.2
478.455	2414.64
478.827	2473.17
479.198	2528.08
479.569	2485.37
479.94	2596.56
480.311	2596.33
480.682	2652.15
481.053	2714.52
481.424	2747.74
481.795	2789.32
482.166	2831.35
482.537	2859.15
482.908	2931.46
483.279	2932.37
483.65	2989.54
484.021	3039.93
484.391	3114.51
484.762	3120.61
485.133	3184.79
485.503	3196.31
485.874	3288.52
486.244	3330.1
486.615	3398.79
486.985	3403.31
487.356	3456.19
487.726	3507.72
488.097	3527.83
488.467	3610.54
488.837	3674.72
489.207	3723.08
489.578	3810.76
489.948	3801.04
490.318	3871.55
490.688	3889.18
491.058	3937.99
491.428	4013.02
491.798	4071.77
492.168	4130.3
492.538	4158.32
492.908	4227.47
493.278	4287.81
493.648	4324.19
494.017	4388.15
494.387	4376.85
494.757	4441.25
495.126	4489.61
495.496	4499.1
495.866	4555.15
496.235	4658.42
496.605	4637.18
496.974	4693.68
497.344	4754.01
497.713	4824.97
498.082	4921.01
498.452	4898.42
498.821	4951.75
499.19	4949.26
499.559	5023.38
499.928	5048.24
500.298	5105.42
500.667	5172.76
501.036	5187.67
501.405	5250.05
501.774	5263.38
502.143	5330.04
502.512	5310.38
502.88	5414.34
503.249	5445.29
503.618	5486.42
503.987	5571.17
504.356	5612.97
504.724	5634.67
505.093	5650.49
505.462	5718.73
505.83	5792.4
506.199	5823.36
506.567	5919.41
506.936	5934.77
507.304	6026.07
507.672	6018.84
508.041	6086.63
508.409	6157.14
508.777	6266.06
509.145	6213.64
509.514	6268.1
509.882	6400.3
510.25	6391.48
510.618	6450.01
510.986	6482.78
511.354	6532.05
511.722	6595.55
512.09	6713.28
512.458	6696.56
512.826	6783.34
513.193	6813.39
513.561	6884.58
513.929	7007.06
514.297	7078.7
514.664	7093.39
515.032	7137.68
515.4	7272.59
515.767	7247.96
516.135	7318.92
516.502	7351.01
516.869	7503.77
517.237	7498.35
517.604	7595.75
517.972	7591.9
518.339	7707.38
518.706	7776.08
519.073	7841.62
519.44	7908.73
519.808	8004.1
520.175	8029.86
520.542	8180.36
520.909	8222.17
521.276	8240.25
521.643	8390.08
522.009	8477.76
522.376	8491.77
522.743	8596.17
523.11	8669.84
523.477	8752.55
523.843	8808.14
524.21	8975.82
524.577	9044.3
524.943	9074.35
525.31	9210.85
525.676	9290.17
526.043	9359.54
526.409	9444.29
526.776	9541.23
527.142	9605.19
527.508	9664.84
527.874	9792.75
528.241	9900.32
528.607	9931.28
528.973	10061.67
529.339	10053.99
529.705	10126.53
530.071	10329.69
530.437	10366.3
530.803	10441.55
531.169	10498.04
531.535	10502.11
531.901	10606.51
532.267	10641.32
532.632	10801.99
532.998	10895.32
533.364	10990.69
533.73	11015.09
534.095	11083.34
534.461	11142.32
534.826	11193.84
535.192	11302.32
535.557	11449.43
535.923	11546.83
536.288	11457.11
536.653	11637.67
537.019	11663.21
537.384	11665.02
537.749	11811
538.114	11898.68
538.479	11905.92
538.845	11960.6
539.21	11994.73
539.575	12122.18
539.94	12169.41
540.305	12272.91
540.67	12284.44
541.034	12416.64
541.399	12466.8
541.764	12571.89
542.129	12584.32
542.494	12677.65
542.858	12769.85
543.223	12789.28
543.587	12790.64
543.952	12897.98
544.316	13086.22
544.681	13003.06
545.045	13056.85
545.41	13230.17
545.774	13244.86
546.138	13279.89
546.503	13373.9
546.867	13321.92
547.231	13592.43
547.595	13571.18
547.959	13737.28
548.324	13676.49
548.688	13807.79
549.052	13834.45
549.416	13930.72
549.779	13939.76
550.143	14005.3
550.507	14052.53
550.871	14219.08
551.235	14194.44
551.599	14402.57
551.962	14414.1
552.326	14419.75
552.689	14602.34
553.053	14634.66
553.417	14755.33
553.78	14918.72
554.143	14852.96
554.507	15024.48
554.87	15041.88
555.234	15163.91
555.597	15132.72
555.96	15264.92
556.323	15353.51
556.686	15447.29
557.05	15588.53
557.413	15618.13
557.776	15653.16
558.139	15814.51
558.502	15901.97
558.865	15949.65
559.228	16079.59
559.59	16198.46
559.953	16231.45
560.316	16394.16
560.679	16450.43
561.041	16621.27
561.404	16743.98
561.767	16858.1
562.129	16746.92
562.492	17024.65
562.854	17061.71
563.217	17067.36
563.579	17188.26
563.941	17254.7
564.304	17396.62
564.666	17527.46
565.028	17607.46
565.39	17595.03
565.753	17900.56
566.115	17891.3
566.477	17957.73
566.839	17979.88
567.201	18232.76
567.563	18268.23
567.925	18427.55
568.287	18438.63
568.648	18456.03
569.01	18694.21
569.372	18744.15
569.734	18733.31
570.095	18862.57
570.457	19012.17
570.819	19138.04
571.18	19189.79
571.542	19270.69
571.903	19333.52
572.265	19506.85
572.626	19479.73
572.987	19514.08
573.349	19650.8
573.71	19852.15
574.071	19809.44
574.432	20041.97
574.794	20170.78
575.155	20178.92
575.516	20074.74
575.877	20176.66
576.238	20287.84
576.599	20395.86
576.96	20345.02
577.32	20427.27
577.681	20535.97
578.042	20637.66
578.403	20684.44
578.763	20808.05
579.124	20836.75
579.485	20923.08
579.845	21021.38
580.206	21049.4
580.566	21075.17
580.927	21167.37
581.287	21140.7
581.648	21203.75
582.008	21322.39
582.368	21238.33
582.728	21411.65
583.089	21372.11
583.449	21384.76
583.809	21521.93
584.169	21599.67
584.529	21549.28
584.889	21690.29
585.249	21643.74
585.609	21655.26
585.969	21855.26
586.329	21821.59
586.688	21862.72
587.048	21844.41
587.408	21950.4
587.768	21945.43
588.127	21944.3
588.487	21960.57
588.846	22186.78
589.206	22063.39
589.565	22078.53
589.925	22222.03
590.284	22165.53
590.643	22251.86
591.003	22332.31
591.362	22354
591.721	22440.33
592.08	22389.48
592.44	22506.32
592.799	22478.52
593.158	22656.59
593.517	22560.78
593.876	22650.04
594.235	22681
594.593	22671.28
594.952	22767.1
595.311	22693.43
595.67	22720.09
596.029	22965.51
596.387	22962.57
596.746	23003.03
597.104	22862.24
597.463	22953.31
597.822	23047.32
598.18	22961.44
598.538	23005.06
598.897	23185.62
599.255	22965.06
599.613	23329.8
599.972	23217.03
600.33	23222.23
600.688	23273.53
601.046	23426.52
601.404	23458.83
601.762	23479.17
602.12	23580.19
602.478	23567.3
602.836	23598.26
603.194	23643.23
603.552	23530.92
603.91	23492.5
604.268	23787.41
604.625	23671.93
604.983	23777.02
605.341	23703.8
605.698	23874.87
606.056	24031.02
606.413	23950.57
606.771	24067.86
607.128	24065.14
607.485	24026.5
607.843	24003.9
608.2	24160.06
608.557	24333.39
608.914	24233.05
609.272	24355.98
609.629	24430.33
609.986	24549.2
610.343	24501.29
610.7	24746.48
611.057	24531.8
611.414	24618.58
611.771	24673.49
612.127	24698.8
612.484	24743.09
612.841	24863.54
613.198	24837.55
613.554	24876.42
613.911	24982.18
614.267	24983.09
614.624	25098.34
614.98	25029.41
615.337	25204.55
615.693	25273.02
616.05	25040.03
616.406	25384.43
616.762	25222.18
617.118	25274.83
617.475	25349.4
617.831	25424.43
618.187	25452
618.543	25554.6
618.899	25606.57
619.255	25534.26
619.611	25625.56
619.967	25751.2
620.323	25654.93
620.678	25617.42
621.034	25761.82
621.39	25608.15
621.746	25695.16
622.101	25941.7
622.457	25739.68
622.812	25880.46
623.168	25908.26
623.523	25936.06
623.879	26162.04
624.234	25876.62
624.589	25996.62
624.945	25979.44
625.3	26077.97
625.655	25935.6
626.01	26070.52
626.365	26055.6
626.72	25934.93
627.075	26078.2
627.43	26155.03
627.785	25904.64
628.14	26148.25
628.495	26202.04
628.85	26191.42
629.205	26051.76
629.559	26226.44
629.914	26139.21
630.269	26090.4
630.623	25964.76
630.978	26038.43
631.332	26220.79
631.687	26303.28
632.041	26040.23
632.396	26147.35
632.75	26181.25
633.104	26139.89
633.459	26056.96
633.813	26147.12
634.167	26163.39
634.521	26148.93
634.875	26161.36
635.229	26179.44
635.583	25927.69
635.937	26105.32
636.291	26091.31
636.645	26039.1
636.999	25992.1
637.352	26066.9
637.706	25950.97
638.06	26049.5
638.413	26059.67
638.767	25979.67
639.121	25975.83
639.474	25871.65
639.828	25904.19
640.181	25921.14
640.534	25943.96
640.888	25961.82
641.241	25850.41
641.594	25902.16
641.947	25923.63
642.301	25752.11
642.654	25794.59
643.007	25948.71
643.36	25853.35
643.713	25711.65
644.066	26024.41
644.419	25706
644.771	25668.49
645.124	25435.96
645.477	25363.64
645.83	25148.96
646.182	25153.03
646.535	25098.56
646.888	25145.79
647.24	25093.82
647.593	25152.12
647.945	25114.16
648.298	25026.47
648.65	24972.46
649.002	24963.43
649.355	25035.29
649.707	24928.62
650.059	25124.78
650.411	25375.39
650.763	25438.44
651.115	25764.08
651.467	25610.64
651.819	25677.08
652.171	25639.79
652.523	25579.91
652.875	25628.94
653.227	25437.09
653.578	25714.14
653.93	25701.71
654.282	25489.51
654.633	25500.13
654.985	25680.92
655.337	25575.39
655.688	25668.27
656.039	25801.14
656.391	25354.83
656.742	25535.16
657.094	25461.94
657.445	25607.7
657.796	25581.04
658.147	25579.45
658.498	25635.27
658.849	25525.22
659.2	25554.6
659.551	25606.8
659.902	25662.39
660.253	25516.41
660.604	25609.28
660.955	25438.44
661.306	25604.99
661.656	25560.7
662.007	25586.01
662.358	25574.48
662.708	25452.68
663.059	25577.42
663.409	25476.18
663.76	25616.29
664.11	25684.99
664.461	25609.74
664.811	25665.33
665.161	25604.31
665.511	25715.04
665.862	25688.6
666.212	25743.74
666.562	25753.46
666.912	25633.46
667.262	25666.91
667.612	25658.1
667.962	25615.16
668.312	25683.41
668.662	25751.65
669.011	25672.79
669.361	25649.06
669.711	25611.54
670.06	25607.93
670.41	25642.96
670.76	25446.8
671.109	25696.51
671.459	25622.17
671.808	25571.55
672.157	25620.58
672.507	25607.02
672.856	25589.85
673.205	25582.84
673.554	25579.45
673.904	25493.58
674.253	25689.06
674.602	25504.2
674.951	25317.99
675.3	25096.08
675.649	25541.04
675.998	25584.88
676.346	25575.16
676.695	25696.97
677.044	25425.56
677.393	25529.06
677.741	25597.53
678.09	25472.34
678.438	25512.56
678.787	25557.99
679.135	25489.29
679.484	25347.82
679.832	25460.81
680.181	25309.63
680.529	25316.41
680.877	25348.95
681.225	25116.87
681.573	25445.9
681.922	25242.51
682.27	25344.43
682.618	25306.47
682.966	25185.57
683.314	25198.9
683.661	25179.01
684.009	25005.23
684.357	24998.45
684.705	24968.85
685.053	24988.96
685.4	25005.23
685.748	24885.24
686.095	24867.61
686.443	24845.91
686.79	24767.72
687.138	24802.07
687.485	24848.4
687.832	24663.32
688.18	24775.41
688.527	24595.98
688.874	24594.17
689.221	24604.56
689.568	24556.2
689.915	24449.09
690.262	24495.19
690.609	24322.31
690.956	24483.66
691.303	24337.68
691.65	24264.91
691.997	24257
692.344	24080.06
692.69	24064.24
693.037	24141.98
693.383	23818.37
693.73	24014.75
694.077	23844.36
694.423	23960.74
694.769	23850.46
695.116	23724.59
695.462	23727.07
695.808	23714.42
696.155	23799.61
696.501	23580.19
696.847	23559.85
697.193	23491.6
697.539	23540.86
697.885	23310.36
698.231	23283.02
698.577	23332.28
698.923	23241.44
699.269	23157.6
699.614	23036.24
699.96	23106.53
700.306	23125.96
700.651	23015
700.997	22875.12
701.342	22801.67
701.688	22924.61
702.033	22753.54
702.379	22674.22
702.724	22636.48
703.069	22710.6
703.415	22520.33
703.76	22553.32
704.105	22626.99
704.45	22537.5
704.795	22319.88
705.14	22274.91
705.485	22325.98
705.83	22198.75
706.175	22233.55
706.52	22111.98
706.865	22120.56
707.209	22154.69
707.554	22055.03
707.899	22067.46
708.243	21986.1
708.588	21963.96
708.932	21857.52
709.277	21824.75
709.621	21879.89
709.966	21728.03
710.31	21792.44
710.654	21610.97
710.998	21618.88
711.342	21653.91
711.687	21497.08
712.031	21511.54
712.375	21464.76
712.719	21474.03
713.063	21480.35
713.407	21454.59
713.75	21404.2
714.094	21370.3
714.438	21306.8
714.782	21285.78
715.125	21181.15
715.469	21287.14
715.812	21179.34
716.156	21096.86
716.499	21085.56
716.843	21174.82
717.186	21039.23
717.53	21103.19
717.873	21137.54
718.216	21009.41
718.559	20922.85
718.902	20840.6
719.246	20927.6
719.589	20762.41
719.932	20689.19
720.275	20739.13
720.617	20740.49
720.96	20789.52
721.303	20735.29
721.646	20694.16
721.989	20631.11
722.331	20720.15
722.674	20516.54
723.016	20671.11
723.359	20642.64
723.701	20640.83
724.044	20550.66
724.386	20387.05
724.729	20476.31
725.071	20369.87
725.413	20450.55
725.755	20499.14
726.097	20402.42
726.439	20289.42
726.782	20369.87
727.124	20342.76
727.465	20265.02
727.807	20313.83
728.149	20295.98
728.491	20217.11
728.833	20305.92
729.175	20166.72
729.516	20056.44
729.858	20184.34
730.199	20282.64
730.541	20101.18
730.882	20047.85
731.224	20171.01
731.565	19995.42
731.906	20140.05
732.248	20150.67
732.589	19982.54
732.93	19957.91
733.271	19983.67
733.612	19946.83
733.953	19976.89
734.294	19898.02
734.635	19901.19
734.976	20003.78
735.317	19813.5
735.658	19938.02
735.999	19835.65
736.339	19897.34
736.68	19862.32
737.021	19766.73
737.361	19760.17
737.702	19877.46
738.042	19741.19
738.383	19707.29
738.723	19795.88
739.063	19709.1
739.404	19753.85
739.744	19729.89
740.084	19647.86
740.424	19709.1
740.764	19597.69
741.104	19683.34
741.444	19648.99
741.784	19571.02
742.124	19601.98
742.464	19587.75
742.804	19541.42
743.143	19542.1
743.483	19657.58
743.823	19420.97
744.162	19468.88
744.502	19483.8
744.841	19399.73
745.181	19510.46
745.52	19471.59
745.86	19384.14
746.199	19524.02
746.538	19420.29
746.877	19365.61
747.216	19430.69
747.556	19392.95
747.895	19392.27
748.234	19278.15
748.573	19345.49
748.911	19325.83
749.25	19305.04
749.589	19292.84
749.928	19336.91
750.267	19390.69
750.605	19264.59
750.944	19338.26
751.283	19160.64
751.621	19273.86
751.96	19154.31
752.298	19149.12
752.636	19096.69
752.975	19113.41
753.313	19129.45
753.651	19133.3
753.989	19009.68
754.327	19036.58
754.666	18964.49
755.004	18939.63
755.342	19082.68
755.679	19107.31
756.017	18861.67
756.355	18907.77
756.693	18775.57
757.031	18905.28
757.368	18843.36
757.706	18764.27
