Data from cardboard_FLMS001491_038.txt Node
Date: Tue Feb 07 11:39:21 GMT 2017
User: dcchb
Spectrometer: FLMS00149
Trigger mode: 0
Integration Time (sec): 2.000000E-2
Scans to average: 10
Electric dark correction enabled: true
Nonlinearity correction enabled: false
Boxcar width: 0
XAxis mode: Wavelengths
Number of Pixels in Spectrum: 2048
>>>>>Begin Spectral Data<<<<<
341.393	14.7
341.776	14.7
342.16	14.7
342.543	-82.02
342.927	-66.42
343.31	-79.31
343.693	-70.72
344.077	-59.87
344.46	-67.1
344.843	-50.38
345.226	-51.51
345.61	-29.82
345.993	-13.77
346.376	-9.48
346.759	8.15
347.142	31.43
347.525	54.93
347.908	55.83
348.291	88.15
348.674	92.44
349.057	101.03
349.44	137.86
349.823	144.42
350.206	173.79
350.588	190.74
350.971	196.39
351.354	208.6
351.737	228.48
352.119	234.81
352.502	273.91
352.884	273.68
353.267	272.78
353.65	293.79
354.032	303.73
354.414	289.5
354.797	298.99
355.179	318.42
355.562	310.74
355.944	316.84
356.326	323.17
356.709	334.02
357.091	336.95
357.473	338.76
357.855	338.31
358.238	329.72
358.62	344.19
359.002	328.37
359.384	337.86
359.766	353.23
360.148	312.77
360.53	314.81
360.912	354.36
361.294	332.43
361.676	323.4
362.057	340.12
362.439	338.54
362.821	331.53
363.203	329.95
363.584	326.33
363.966	320.23
364.348	329.95
364.729	317.75
365.111	310.51
365.493	307.35
365.874	324.53
366.256	312.77
366.637	311.19
367.019	298.99
367.4	304.41
367.781	314.36
368.163	301.25
368.544	297.86
368.925	315.71
369.306	312.77
369.688	299.67
370.069	332.43
370.45	313.68
370.831	306.45
371.212	315.26
371.593	310.97
371.974	305.32
372.355	302.15
372.736	283.17
373.117	324.3
373.498	310.51
373.879	313
374.26	302.15
374.641	316.62
375.021	300.12
375.402	314.58
375.783	306.9
376.163	332.89
376.544	319.33
376.925	322.27
377.305	342.83
377.686	317.75
378.066	303.06
378.447	313
378.827	336.05
379.208	331.53
379.588	328.82
379.968	314.36
380.349	338.99
380.729	313
381.109	340.8
381.489	341.93
381.87	325.43
382.25	336.5
382.63	327.46
383.01	334.92
383.39	341.25
383.77	336.73
384.15	331.3
384.53	336.73
384.91	347.58
385.29	343.28
385.67	355.49
386.049	353.9
386.429	327.69
386.809	355.49
387.189	348.93
387.568	356.39
387.948	367.69
388.328	349.61
388.707	358.42
389.087	348.25
389.466	342.6
389.846	339.89
390.225	376.95
390.605	355.71
390.984	374.02
391.363	357.29
391.743	371.98
392.122	357.52
392.501	359.55
392.881	360.91
393.26	366.78
393.639	385.09
394.018	365.65
394.397	377.18
394.776	368.37
395.155	373.11
395.534	367.69
395.913	380.12
396.292	382.15
396.671	374.69
397.05	387.35
397.429	374.47
397.808	367.46
398.186	382.15
398.565	371.98
398.944	399.33
399.323	393.68
399.701	378.76
400.08	391.64
400.458	362.04
400.837	394.35
401.215	396.84
401.594	418.08
401.972	381.92
402.351	404.98
402.729	397.07
403.107	409.72
403.486	435.71
403.864	397.52
404.242	407.46
404.62	411.08
404.999	419.44
405.377	417.4
405.755	410.62
406.133	416.5
406.511	451.08
406.889	442.49
407.267	437.52
407.645	435.26
408.023	441.36
408.401	442.26
408.779	452.66
409.156	440.68
409.534	447.01
409.912	431.42
410.29	447.91
410.667	432.32
411.045	451.98
411.422	454.24
411.8	468.93
412.178	460.34
412.555	473.9
412.933	495.37
413.31	475.48
413.687	487.46
414.065	475.26
414.442	487.23
414.819	507.57
415.197	505.31
415.574	496.72
415.951	489.72
416.328	503.5
416.705	489.94
417.082	488.59
417.46	500.34
417.837	494.92
418.214	515.48
418.591	495.14
418.967	536.5
419.344	511.64
419.721	518.64
420.098	517.74
420.475	521.58
420.852	512.09
421.228	537.85
421.605	551.86
421.982	519.1
422.358	538.31
422.735	545.76
423.111	569.04
423.488	552.32
423.864	572.43
424.241	542.82
424.617	574.24
424.994	570.17
425.37	583.05
425.746	576.5
426.123	583.73
426.499	569.04
426.875	603.84
427.251	584.18
427.627	607
428.003	604.52
428.379	592.09
428.756	607.68
429.132	639.55
429.507	603.84
429.883	640.22
430.259	625.08
430.635	626.66
431.011	641.81
431.387	663.95
431.763	693.1
432.138	672.31
432.514	689.49
432.89	671.63
433.265	678.19
433.641	694.01
434.016	678.64
434.392	696.72
434.767	712.99
435.143	703.27
435.518	706.66
435.894	712.54
436.269	702.37
436.644	738.07
437.02	724.06
437.395	724.51
437.77	748.24
438.145	743.72
438.52	750.95
438.895	768.36
439.271	751.63
439.646	799.32
440.021	774.91
440.395	788.24
440.77	805.87
441.145	792.76
441.52	783.04
441.895	802.03
442.27	784.63
442.645	780.78
443.019	802.48
443.394	844.74
443.769	798.86
444.143	796.15
444.518	839.54
444.892	832.99
445.267	864.62
445.641	853.1
446.016	844.29
446.39	866.88
446.764	865.08
447.139	845.19
447.513	867.34
447.887	878.86
448.262	882.7
448.636	876.6
449.01	875.92
449.384	895.36
449.758	881.8
450.132	908.01
450.506	915.92
450.88	926.32
451.254	896.94
451.628	951.63
452.002	940.33
452.376	955.24
452.75	955.92
453.123	945.98
453.497	952.31
453.871	973.32
454.244	996.82
454.618	1023.94
454.992	999.31
455.365	1006.32
455.739	1051.06
456.112	1040.44
456.486	1034.34
456.859	1056.26
457.232	1069.82
457.606	1063.26
457.979	1073.43
458.352	1070.49
458.725	1088.35
459.099	1120.44
459.472	1113.66
459.845	1108.01
460.218	1153.2
460.591	1170.38
460.964	1148.46
461.337	1196.37
461.71	1201.79
462.083	1207.67
462.456	1216.71
462.829	1231.62
463.201	1212.64
463.574	1211.51
463.947	1269.81
464.32	1272.52
464.692	1265.29
465.065	1308.45
465.438	1326.31
465.81	1327.66
466.183	1335.8
466.555	1357.72
466.928	1363.59
467.3	1368.79
467.672	1406.08
468.045	1414.21
468.417	1445.85
468.789	1443.59
469.161	1483.36
469.534	1474.33
469.906	1490.14
470.278	1538.28
470.65	1536.47
471.022	1550.03
471.394	1567.66
471.766	1592.29
472.138	1585.96
472.51	1652.4
472.882	1668.9
473.253	1684.94
473.625	1677.94
473.997	1729.01
474.369	1714.77
474.74	1778.05
475.112	1804.26
475.484	1825.28
475.855	1825.73
476.227	1855.11
476.598	1884.26
476.97	1908.44
477.341	1959.06
477.713	1946.4
478.084	2009.68
478.455	2056.01
478.827	2039.28
479.198	2113.86
479.569	2150.24
479.94	2166.28
480.311	2199.73
480.682	2236.34
481.053	2308.65
481.424	2326.51
481.795	2348.88
482.166	2368.99
482.537	2416.45
482.908	2425.26
483.279	2496.22
483.65	2553.17
484.021	2572.15
484.391	2607.4
484.762	2586.61
485.133	2665.03
485.503	2704.35
485.874	2736.67
486.244	2786.61
486.615	2827.06
486.985	2894.4
487.356	2900.73
487.726	2932.37
488.097	3014.85
488.467	3026.6
488.837	3022.76
489.207	3124.23
489.578	3134.39
489.948	3186.6
490.318	3265.01
490.688	3276.99
491.058	3329.42
491.428	3424.56
491.798	3421.85
492.168	3476.76
492.538	3474.05
492.908	3553.59
493.278	3574.61
493.648	3598.11
494.017	3636.3
494.387	3674.27
494.757	3720.59
495.126	3731.22
495.496	3806.02
495.866	3821.16
496.235	3853.02
496.605	3932.11
496.974	3904.77
497.344	3996.97
497.713	4032
498.082	4082.17
498.452	4066.8
498.821	4110.64
499.19	4168.72
499.559	4198.1
499.928	4222.73
500.298	4236.51
500.667	4342.95
501.036	4310.41
501.405	4388.6
501.774	4419.78
502.143	4454.36
502.512	4494.36
502.88	4536.62
503.249	4570.06
503.618	4615.49
503.987	4655.26
504.356	4652.55
504.724	4721.47
505.093	4740.45
505.462	4735.71
505.83	4792.88
506.199	4875.37
506.567	4888.93
506.936	4943.39
507.304	5026.77
507.672	5071.52
508.041	5037.85
508.409	5106.55
508.777	5184.06
509.145	5219.09
509.514	5216.15
509.882	5301.8
510.25	5321.46
510.618	5400.32
510.986	5403.71
511.354	5448.23
511.722	5509.25
512.09	5568.23
512.458	5573.65
512.826	5669.02
513.193	5691.16
513.561	5775.91
513.929	5787.66
514.297	5869.69
514.664	5944.94
515.032	5958.95
515.4	6056.13
515.767	6086.41
516.135	6129.34
516.502	6096.58
516.869	6222.45
517.237	6305.61
517.604	6287.76
517.972	6397.59
518.339	6417.47
518.706	6499.28
519.073	6506.06
519.44	6575.21
519.808	6655.88
520.175	6696.56
520.542	6782.21
520.909	6825.6
521.276	6948.31
521.643	6976.1
522.009	6989.66
522.376	7102.88
522.743	7146.27
523.11	7208.64
523.477	7367.5
523.843	7342.42
524.21	7482.08
524.577	7588.97
524.943	7617.67
525.31	7661.06
525.676	7770.43
526.043	7846.14
526.409	7899.02
526.776	7911.9
527.142	8008.62
527.508	8066.92
527.874	8145.79
528.241	8205
528.607	8284.77
528.973	8416.97
529.339	8385.56
529.705	8579.45
530.071	8564.53
530.437	8651.31
530.803	8659.67
531.169	8818.31
531.535	8780.35
531.901	8897.18
532.267	8943.73
532.632	9040.91
532.998	9075.71
533.364	9173.78
533.73	9202.48
534.095	9275.7
534.461	9327.68
534.826	9412.87
535.192	9477.73
535.557	9603.83
535.923	9613.77
536.288	9630.04
536.653	9836.82
537.019	9726.99
537.384	9835.24
537.749	9928.11
538.114	9950.94
538.479	9954.33
538.845	10127.21
539.21	10063.48
539.575	10171.05
539.94	10237.94
540.305	10347.76
540.67	10311.16
541.034	10370.59
541.399	10487.65
541.764	10496.01
542.129	10552.96
542.494	10635.67
542.858	10716.12
543.223	10742.1
543.587	10839.73
543.952	10773.97
544.316	10919.73
544.681	10966.51
545.045	11013.06
545.41	11110.46
545.774	11150.68
546.138	11180.74
546.503	11208.76
546.867	11267.51
547.231	11500.95
547.595	11500.28
547.959	11523.1
548.324	11529.43
548.688	11579.6
549.052	11596.09
549.416	11728.07
549.779	11814.17
550.143	11884
550.507	12006.93
550.871	12021.62
551.235	12003.77
551.599	12205.34
551.962	12253.93
552.326	12248.51
552.689	12425.45
553.053	12343.42
553.417	12431.55
553.78	12643.75
554.143	12610.98
554.507	12726.46
554.87	12735.5
555.234	12886.45
555.597	12888.49
555.96	13015.72
556.323	13129.39
556.686	13086.68
557.05	13254.81
557.413	13295.94
557.776	13361.24
558.139	13408.25
558.502	13472.88
558.865	13491.86
559.228	13683.04
559.59	13798.3
559.953	13814.57
560.316	13980.21
560.679	14013.43
561.041	14119.19
561.404	14224.5
561.767	14276.47
562.129	14328.45
562.492	14453.42
562.854	14487.09
563.217	14535.23
563.579	14672.62
563.941	14702.23
564.304	14851.15
564.666	14939.73
565.028	14949
565.39	15083.01
565.753	15174.3
566.115	15333.85
566.477	15261.53
566.839	15359.38
567.201	15493.62
567.563	15583.56
567.925	15715.53
568.287	15742.88
568.648	15801.86
569.01	15993.49
569.372	16028.52
569.734	15974.06
570.095	16092.92
570.457	16304.22
570.819	16351
571.18	16308.74
571.542	16483.42
571.903	16540.37
572.265	16672.34
572.626	16697.2
572.987	16711.67
573.349	16880.25
573.71	16862.62
574.071	17008.38
574.432	17063.75
574.794	17241.59
575.155	17195.04
575.516	17212.22
575.877	17385.55
576.238	17378.09
576.599	17487.69
576.96	17490.85
577.32	17555.48
577.681	17714.12
578.042	17745.31
578.403	17851.97
578.763	17845.65
579.124	17899.66
579.485	17987.34
579.845	18084.28
580.206	18027.11
580.566	18098.3
580.927	18057.17
581.287	18271.4
581.648	18225.3
582.008	18271.62
582.368	18405.63
582.728	18300.55
583.089	18404.28
583.449	18483.6
583.809	18423.03
584.169	18627.55
584.529	18601.56
584.889	18763.14
585.249	18723.59
585.609	18562.92
585.969	18825.06
586.329	18784.83
586.688	18960.65
587.048	18930.59
587.408	18881.78
587.768	18900.99
588.127	18921.78
588.487	18942.34
588.846	19064.15
589.206	18983.47
589.565	19045.62
589.925	19100.53
590.284	19126.52
590.643	19204.93
591.003	19345.04
591.362	19393.4
591.721	19405.38
592.08	19370.58
592.44	19438.37
592.799	19431.82
593.158	19397.02
593.517	19514.98
593.876	19401.31
594.235	19454.42
594.593	19604.24
594.952	19634.3
595.311	19563.79
595.67	19701.87
596.029	19735.09
596.387	19876.78
596.746	19890.79
597.104	19788.87
597.463	19740.06
597.822	19875.65
598.18	19830.45
598.538	19942.54
598.897	20055.76
599.255	19941.64
599.613	20164.91
599.972	20086.72
600.33	20141.41
600.688	20206.04
601.046	20225.47
601.404	20293.27
601.762	20304.11
602.12	20420.04
602.478	20422.53
602.836	20472.24
603.194	20424.56
603.552	20470.66
603.91	20436.76
604.268	20493.49
604.625	20518.57
604.983	20640.15
605.341	20484.45
605.698	20670.21
606.056	20735.97
606.413	20793.37
606.771	20750.2
607.128	20899.13
607.485	20747.27
607.843	20836.08
608.2	20999.01
608.557	20975.96
608.914	20980.03
609.272	21111.55
609.629	21105.22
609.986	21226.57
610.343	21110.19
610.7	21252.56
611.057	21327.14
611.414	21357.19
611.771	21370.3
612.127	21457.53
612.484	21468.6
612.841	21501.6
613.198	21387.25
613.554	21561.03
613.911	21609.62
614.267	21652.78
614.624	21606.45
614.98	21657.98
615.337	21758.31
615.693	21723.06
616.05	21838.76
616.406	22068.81
616.762	21911.3
617.118	21895.26
617.475	21973.45
617.831	22060.45
618.187	22052.54
618.543	22040.34
618.899	22233.1
619.255	22225.87
619.611	22161.24
619.967	22219.09
620.323	22240.79
620.678	22193.33
621.034	22307.68
621.39	22333.89
621.746	22338.64
622.101	22634.45
622.457	22435.58
622.812	22473.32
623.168	22486.65
623.523	22421.35
623.879	22609.36
624.234	22523.94
624.589	22539.99
624.945	22556.94
625.3	22688.01
625.655	22605.75
626.01	22659.53
626.365	22713.77
626.72	22605.75
627.075	22702.69
627.43	22655.24
627.785	22696.14
628.14	22668.12
628.495	22742.24
628.85	22729.13
629.205	22567.78
629.559	22849.58
629.914	22682.58
630.269	22709.25
630.623	22623.83
630.978	22618.85
631.332	22836.93
631.687	22889.13
632.041	22772.75
632.396	22770.94
632.75	22712.41
633.104	22750.83
633.459	22702.24
633.813	22645.52
634.167	22732.3
634.521	22760.77
634.875	22718.96
635.229	22756.93
635.583	22655.92
635.937	22599.65
636.291	22606.88
636.645	22641
636.999	22626.09
637.352	22789.47
637.706	22571.4
638.06	22599.42
638.413	22683.26
638.767	22560.55
639.121	22559.42
639.474	22381.12
639.828	22558.07
640.181	22565.52
640.534	22662.24
640.888	22566.65
641.241	22434
641.594	22494.56
641.947	22471.97
642.301	22597.39
642.654	22484.39
643.007	22515.58
643.36	22579.99
643.713	22549.7
644.066	22616.14
644.419	22310.61
644.771	22267.45
645.124	22093.22
645.477	22042.6
645.83	22097.74
646.182	21947.23
646.535	21991.07
646.888	21848.48
647.24	21821.36
647.593	21885.54
647.945	21932.54
648.298	21805.32
648.65	21775.49
649.002	21629.5
649.355	21818.88
649.707	21795.15
650.059	21928.48
650.411	22164.4
650.763	22215.02
651.115	22508.35
651.467	22302.25
651.819	22381.35
652.171	22390.16
652.523	22322.14
652.875	22356.71
653.227	22294.34
653.578	22490.27
653.93	22310.16
654.282	22237.4
654.633	22176.15
654.985	22441.46
655.337	22236.72
655.688	22287.11
656.039	22362.36
656.391	22239.88
656.742	22243.5
657.094	22208.02
657.445	22400.33
657.796	22205.98
658.147	22296.38
658.498	22212.09
658.849	22336.38
659.2	22200.33
659.551	22202.14
659.902	22334.79
660.253	22325.53
660.604	22306.32
660.955	22147.91
661.306	22368.01
661.656	22324.17
662.007	22279.88
662.358	22283.95
662.708	22332.08
663.059	22294.57
663.409	22215.48
663.76	22335.02
664.11	22419.09
664.461	22327.11
664.811	22451.4
665.161	22502.25
665.511	22327.34
665.862	22396.71
666.212	22330.27
666.562	22479.88
666.912	22429.25
667.262	22354.91
667.612	22357.84
667.962	22383.83
668.312	22304.51
668.662	22400.33
669.011	22423.15
669.361	22289.6
669.711	22421.8
670.06	22376.15
670.41	22255.25
670.76	22346.09
671.109	22407.11
671.459	22232.2
671.808	22407.11
672.157	22419.09
672.507	22313.1
672.856	22237.4
673.205	22294.12
673.554	22457.95
673.904	22277.39
674.253	22511.96
674.602	22330.05
674.951	22044.18
675.3	21942.71
675.649	22289.15
675.998	22396.26
676.346	22302.03
676.695	22370.73
677.044	22196.27
677.393	22301.35
677.741	22232.42
678.09	22264.06
678.438	22265.64
678.787	22227.23
679.135	22241.92
679.484	22070.17
679.832	22287.34
680.181	22145.19
680.529	22161.69
680.877	22078.08
681.225	22137.74
681.573	22265.19
681.922	22132.99
682.27	22005.09
682.618	22051.19
682.966	21970.06
683.314	22092.54
683.661	22035.82
684.009	21807.58
684.357	21881.47
684.705	21858.87
685.053	21798.31
685.4	21873.11
685.748	21777.29
686.095	21732.1
686.443	21631.54
686.79	21709.05
687.138	21701.14
687.485	21691.42
687.832	21547.24
688.18	21568.71
688.527	21547.24
688.874	21571.88
689.221	21549.5
689.568	21504.53
689.915	21357.64
690.262	21519
690.609	21426.34
690.956	21359.9
691.303	21370.98
691.65	21198.55
691.997	21094.37
692.344	21173.69
692.69	21059.8
693.037	21020.93
693.383	20935.06
693.73	21133.92
694.077	20901.61
694.423	20895.06
694.769	20782.74
695.116	20881.72
695.462	20789.75
695.808	20757.66
696.155	20752.69
696.501	20659.36
696.847	20627.27
697.193	20495.75
697.539	20594.95
697.885	20446.03
698.231	20335.98
698.577	20333.72
698.923	20348.86
699.269	20325.58
699.614	20177.11
699.96	20104.34
700.306	20150.22
700.651	20069.54
700.997	19988.87
701.342	19980.73
701.688	19974.4
702.033	19948.87
702.379	19864.58
702.724	19759.27
703.069	19863.67
703.415	19686.73
703.76	19708.87
704.105	19680.4
704.45	19623
704.795	19568.77
705.14	19534.42
705.485	19543.23
705.83	19373.97
706.175	19419.39
706.52	19370.13
706.865	19257.13
707.209	19325.16
707.554	19289.68
707.899	19331.26
708.243	19234.54
708.588	19190.47
708.932	19067.31
709.277	19063.02
709.621	19052.17
709.966	18907.31
710.31	19057.37
710.654	18865.05
710.998	18910.7
711.342	18990.25
711.687	18850.59
712.031	18828.22
712.375	18695.34
712.719	18820.54
713.063	18761.55
713.407	18838.61
713.75	18706.87
714.094	18609.02
714.438	18664.83
714.782	18630.48
715.125	18612.18
715.469	18536.7
715.812	18558.17
716.156	18395.01
716.499	18385.29
716.843	18483.14
717.186	18311.62
717.53	18445.4
717.873	18358.85
718.216	18355.01
718.559	18348.01
718.902	18226.88
719.246	18267.33
719.589	18111.63
719.932	18042.03
720.275	18167.67
720.617	18086.77
720.96	18064.85
721.303	18129.25
721.646	18181.23
721.989	18009.94
722.331	18110.05
722.674	18119.54
723.016	18030.73
723.359	18043.61
723.701	18075.47
724.044	17736.27
724.386	17903.95
724.729	17867.11
725.071	17863.73
725.413	17896.72
725.755	17848.81
726.097	17840.45
726.439	17794.57
726.782	17729.94
727.124	17909.83
727.465	17735.37
727.807	17762.26
728.149	17667.57
728.491	17688.14
728.833	17757.51
729.175	17667.57
729.516	17589.61
729.858	17567.46
730.199	17639.32
730.541	17731.75
730.882	17616.95
731.224	17648.82
731.565	17523.62
731.906	17531.98
732.248	17560.91
732.589	17477.75
732.93	17480.91
733.271	17504.19
733.612	17574.69
733.953	17550.97
734.294	17461.02
734.635	17413.79
734.976	17402.72
735.317	17353.23
735.658	17376.51
735.999	17422.38
736.339	17366.34
736.68	17371.99
737.021	17410.4
737.361	17310.75
737.702	17516.84
738.042	17299.9
738.383	17310.29
738.723	17273.91
739.063	17291.76
739.404	17350.29
739.744	17295.83
740.084	17280.92
740.424	17229.17
740.764	17217.19
741.104	17292.21
741.444	17193.46
741.784	17124.54
742.124	17174.48
742.464	17181.26
742.804	17047.7
743.143	17135.83
743.483	17140.35
743.823	17114.37
744.162	17030.75
744.502	17088.83
744.841	16939.46
745.181	17028.27
745.52	16955.5
745.86	17085.89
746.199	17071.66
746.538	16990.98
746.877	17064.42
747.216	17065.33
747.556	16983.3
747.895	17048.38
748.234	16886.58
748.573	16904.65
748.911	16907.37
749.25	16952.11
749.589	16854.26
749.928	16962.05
750.267	16919.12
750.605	16862.85
750.944	16828.95
751.283	16781.95
751.621	16780.14
751.96	16744.66
752.298	16817.88
752.636	16760.7
752.975	16685
753.313	16590.99
753.651	16757.31
753.989	16669.86
754.327	16601.61
754.666	16558.45
755.004	16610.88
755.342	16612.91
755.679	16618.79
756.017	16597.32
756.355	16699.91
756.693	16502.86
757.031	16567.71
757.368	16449.53
757.706	16521.39
758.044	16292.69
758.381	16395.06
