Data from cardboard_FLMS001491_094.txt Node
Date: Tue Feb 07 11:40:26 GMT 2017
User: dcchb
Spectrometer: FLMS00149
Trigger mode: 0
Integration Time (sec): 2.000000E-2
Scans to average: 10
Electric dark correction enabled: true
Nonlinearity correction enabled: false
Boxcar width: 0
XAxis mode: Wavelengths
Number of Pixels in Spectrum: 2048
>>>>>Begin Spectral Data<<<<<
341.393	-3.84
341.776	-3.84
342.16	-3.84
342.543	-68.47
342.927	-74.57
343.31	-66.89
343.693	-75.03
344.077	-56.5
344.46	-46.55
344.843	-65.31
345.226	-47.68
345.61	-35.93
345.993	-26.21
346.376	4.52
346.759	13.78
347.142	25.99
347.525	36.16
347.908	61.02
348.291	79.09
348.674	97.62
349.057	101.92
349.44	138.3
349.823	139.66
350.206	174.01
350.588	194.35
350.971	203.16
351.354	228.47
351.737	240.9
352.119	240.9
352.502	247.9
352.884	267.34
353.267	290.16
353.65	291.07
354.032	272.99
354.414	291.07
354.797	306.88
355.179	319.77
355.562	325.87
355.944	330.16
356.326	353.44
356.709	336.71
357.091	345.08
357.473	333.1
357.855	347.34
358.238	341.46
358.62	348.92
359.002	333.78
359.384	342.59
359.766	353.89
360.148	333.78
360.53	347.56
360.912	350.95
361.294	334.45
361.676	329.71
362.057	340.33
362.439	327.68
362.821	327
363.203	330.16
363.584	318.18
363.966	310.73
364.348	329.03
364.729	321.8
365.111	312.08
365.493	335.13
365.874	328.35
366.256	319.09
366.637	304.85
367.019	307.11
367.4	315.7
367.781	313.21
368.163	335.58
368.544	324.74
368.925	320.67
369.306	316.38
369.688	320.9
370.069	306.43
370.45	308.24
370.831	303.49
371.212	320.67
371.593	324.96
371.974	310.27
372.355	298.07
372.736	326.32
373.117	317.05
373.498	322.48
373.879	311.86
374.26	328.13
374.641	324.96
375.021	323.83
375.402	338.75
375.783	335.36
376.163	335.81
376.544	324.29
376.925	325.19
377.305	315.47
377.686	329.93
378.066	315.92
378.447	333.55
378.827	341.46
379.208	330.39
379.588	342.59
379.968	344.62
380.349	345.98
380.729	327.45
381.109	333.32
381.489	343.72
381.87	337.39
382.25	340.56
382.63	358.41
383.01	329.03
383.39	338.52
383.77	348.47
384.15	338.75
384.53	333.1
384.91	348.69
385.29	363.83
385.67	334.23
386.049	358.86
386.429	345.75
386.809	374.45
387.189	375.13
387.568	370.39
387.948	357.73
388.328	349.14
388.707	378.75
389.087	366.09
389.466	364.96
389.846	385.3
390.225	348.69
390.605	345.53
390.984	376.49
391.363	404.06
391.743	385.07
392.122	390.27
392.501	370.61
392.881	381.23
393.26	371.06
393.639	405.87
394.018	380.55
394.397	381.46
394.776	391.63
395.155	397.96
395.534	350.95
395.913	375.58
396.292	411.97
396.671	390.05
397.05	400.44
397.429	421.23
397.808	404.28
398.186	410.84
398.565	393.66
398.944	420.1
399.323	419.88
399.701	407.22
400.08	413.55
400.458	404.51
400.837	419.2
401.215	445.19
401.594	423.49
401.972	421.01
402.351	434.34
402.729	438.63
403.107	451.51
403.486	432.98
403.864	450.61
404.242	438.86
404.62	433.21
404.999	442.93
405.377	446.32
405.755	447.45
406.133	467.33
406.511	449.03
406.889	458.07
407.267	470.72
407.645	471.17
408.023	459.87
408.401	453.32
408.779	477.95
409.156	466.43
409.534	476.15
409.912	472.53
410.29	503.26
410.667	467.56
411.045	509.37
411.422	512.53
411.8	502.81
412.178	506.2
412.555	513.66
412.933	506.2
413.31	530.38
413.687	498.97
414.065	535.58
414.442	535.35
414.819	525.86
415.197	542.81
415.574	536.94
415.951	540.78
416.328	555.24
416.705	558.18
417.082	541.23
417.46	550.04
417.837	559.99
418.214	568.8
418.591	553.21
418.967	583.26
419.344	569.93
419.721	576.26
420.098	570.15
420.475	574.67
420.852	578.97
421.228	595.24
421.605	609.25
421.982	584.84
422.358	588.23
422.735	626.2
423.111	625.97
423.488	628.01
423.864	637.27
424.241	620.77
424.617	646.76
424.994	647.44
425.37	608.12
425.746	631.4
426.123	658.29
426.499	643.82
426.875	661
427.251	653.99
427.627	634.11
428.003	658.74
428.379	656.93
428.756	689.25
429.132	716.14
429.507	705.97
429.883	710.49
430.259	731.05
430.635	706.42
431.011	709.59
431.387	741.9
431.763	750.94
432.138	762.92
432.514	757.04
432.89	717.72
433.265	762.92
433.641	752.3
434.016	773.99
434.392	777.15
434.767	827.77
435.143	799.98
435.518	802.69
435.894	790.94
436.269	809.24
436.644	806.31
437.02	831.84
437.395	844.5
437.77	832.52
438.145	840.43
438.52	850.37
438.895	861.22
439.271	853.08
439.646	907.32
440.021	896.25
440.395	887.89
440.77	894.89
441.145	884.04
441.52	900.99
441.895	916.59
442.27	925.17
442.645	903.93
443.019	929.02
443.394	954.55
443.769	936.92
444.143	928.34
444.518	964.04
444.892	941.22
445.267	964.95
445.641	1000.43
446.016	976.92
446.39	953.42
446.764	1006.3
447.139	955
447.513	983.7
447.887	967.88
448.262	995.23
448.636	990.48
449.01	1030.03
449.384	1014.89
449.758	1011.27
450.132	1037.03
450.506	1013.98
450.88	1065.73
451.254	1036.36
451.628	1052.85
452.002	1065.96
452.376	1072.51
452.75	1076.81
453.123	1109.58
453.497	1101.21
453.871	1105.96
454.244	1130.59
454.618	1152.06
454.992	1152.74
455.365	1155.22
455.739	1197.03
456.112	1191.16
456.486	1199.29
456.859	1220.98
457.232	1208.1
457.606	1233.41
457.979	1216.47
458.352	1252.4
458.725	1246.75
459.099	1303.92
459.472	1302.11
459.845	1291.94
460.218	1313.86
460.591	1345.73
460.964	1321.77
461.337	1357.7
461.71	1349.12
462.083	1410.13
462.456	1372.17
462.829	1424.6
463.201	1434.54
463.574	1438.61
463.947	1453.97
464.32	1511.15
464.692	1487.87
465.065	1500.3
465.438	1500.98
465.81	1548.43
466.183	1572.16
466.555	1594.76
466.928	1592.27
467.3	1604.93
467.672	1621.43
468.045	1649.45
468.417	1678.83
468.789	1674.98
469.161	1695.55
469.534	1722.67
469.906	1740.07
470.278	1738.71
470.65	1823.91
471.022	1816.22
471.394	1839.27
471.766	1879.05
472.138	1878.14
472.51	1932.15
472.882	1954.52
473.253	1956.11
473.625	2012.6
473.997	2007.86
474.369	2008.31
474.74	2093.5
475.112	2077.01
475.484	2109.32
475.855	2157.01
476.227	2184.8
476.598	2244.46
476.97	2248.98
477.341	2287.17
477.713	2322.42
478.084	2364.46
478.455	2424.34
478.827	2448.07
479.198	2519.26
479.569	2535.53
479.94	2556.09
480.311	2606.26
480.682	2659.37
481.053	2707.95
481.424	2752.92
481.795	2785.69
482.166	2794.73
482.537	2876.31
482.908	2886.03
483.279	2929.87
483.65	2997.89
484.021	3043.54
484.391	3109.97
484.762	3125.12
485.133	3164.21
485.503	3190.42
485.874	3279.01
486.244	3314.26
486.615	3361.72
486.985	3394.49
487.356	3442.17
487.726	3493.47
488.097	3577.53
488.467	3601.26
488.837	3683.74
489.207	3723.07
489.578	3795.15
489.948	3817.75
490.318	3833.8
490.688	3850.97
491.058	3951.76
491.428	3985.21
491.798	4052.1
492.168	4088.03
492.538	4202.83
492.908	4197.4
493.278	4229.72
493.648	4275.82
494.017	4319.43
494.387	4380.68
494.757	4429.04
495.126	4522.82
495.496	4506.32
495.866	4591.07
496.235	4595.81
496.605	4657.28
496.974	4735.92
497.344	4751.74
497.713	4763.49
498.082	4840.55
498.452	4900.44
498.821	4922.81
499.19	5004.16
499.559	5048.68
499.928	5051.84
500.298	5088.23
500.667	5190.82
501.036	5192.63
501.405	5250.48
501.774	5269.92
502.143	5283.7
502.512	5359.18
502.88	5468.1
503.249	5414.77
503.618	5502.91
503.987	5537.48
504.356	5559.18
504.724	5626.74
505.093	5677.14
505.462	5729.34
505.83	5727.53
506.199	5832.61
506.567	5899.28
506.936	5995.32
507.304	6021.76
507.672	6049.78
508.041	6098.82
508.409	6158.71
508.777	6224.02
509.145	6317.57
509.514	6284.81
509.882	6374.3
510.25	6398.93
510.618	6463.11
510.986	6499.26
511.354	6570.45
511.722	6634.63
512.09	6715.3
512.458	6702.65
512.826	6751.69
513.193	6870.55
513.561	6890.67
513.929	6923.89
514.297	7045.46
514.664	7121.39
515.032	7160.04
515.4	7227.83
515.767	7285.91
516.135	7396.19
516.502	7293.59
516.869	7500.37
517.237	7521.38
517.604	7540.37
517.972	7649.97
518.339	7739.68
518.706	7761.15
519.073	7866.01
519.44	7849.74
519.808	7997.53
520.175	8010.41
520.542	8124.53
520.909	8252.21
521.276	8300.8
521.643	8342.61
522.009	8413.56
522.376	8509.83
522.743	8553.9
523.11	8707.12
523.477	8820.11
523.843	8858.75
524.21	9007.67
524.577	9066.43
524.943	9103.49
525.31	9148.01
525.676	9279.98
526.043	9357.27
526.409	9498.28
526.776	9563.14
527.142	9607.66
527.508	9660.31
527.874	9773.53
528.241	9822.11
528.607	9879.29
528.973	10049.45
529.339	10084.71
529.705	10103.24
530.071	10270.69
530.437	10317.92
530.803	10409.22
531.169	10495.54
531.535	10539.38
531.901	10611.7
532.267	10648.08
532.632	10823.44
532.998	10830
533.364	10899.15
533.73	10971.91
534.095	11172.14
534.461	11119.03
534.826	11215.07
535.192	11324.67
535.557	11465.46
535.923	11474.05
536.288	11554.5
536.653	11624.1
537.019	11498
537.384	11653.25
537.749	11803.53
538.114	11799.92
538.479	11880.59
538.845	11947.93
539.21	11968.95
539.575	12016.63
539.94	12144.99
540.305	12177.76
540.67	12397.87
541.034	12321.26
541.399	12474.7
541.764	12541.59
542.129	12597.41
542.494	12634.24
542.858	12771.42
543.223	12768.03
543.587	12834.01
543.952	12866.33
544.316	12871.98
544.681	12910.62
545.045	13100.45
545.41	13195.13
545.774	13238.75
546.138	13242.82
546.503	13350.84
546.867	13418.4
547.231	13527.1
547.595	13592.64
547.959	13580.43
548.324	13724.61
548.688	13752.41
549.052	13889.58
549.416	13895.45
549.779	13991.27
550.143	13967.77
550.507	14054.09
550.871	14293.41
551.235	14259.51
551.599	14374.54
551.962	14423.35
552.326	14487.08
552.689	14646.85
553.053	14606.4
553.417	14709.9
553.78	14927.29
554.143	14774.98
554.507	14958.25
554.87	15030.11
555.234	15185.36
555.597	15198.47
555.96	15303.55
556.323	15355.75
556.686	15341.07
557.05	15624.67
557.413	15615.63
557.776	15725.24
558.139	15772.92
558.502	15852.92
558.865	16001.39
559.228	16099.46
559.59	16152.12
559.953	16294.26
560.316	16447.03
560.679	16392.79
561.041	16577.87
561.404	16681.82
561.767	16768.82
562.129	16725.21
562.492	17040.46
562.854	16983.51
563.217	17086.33
563.579	17151.19
563.941	17191.64
564.304	17439.77
564.666	17397.51
565.028	17637.95
565.39	17608.8
565.753	17809.48
566.115	17764.73
566.477	17956.82
566.839	18034.1
567.201	18174.89
567.563	18161.1
567.925	18306.64
568.287	18458.5
568.648	18510.25
569.01	18700.53
569.372	18813.97
569.734	18736.91
570.095	18939.39
570.457	18955.89
570.819	18986.39
571.18	19150
571.542	19280.17
571.903	19208.99
572.265	19331.24
572.626	19467.28
572.987	19584.12
573.349	19682.87
573.71	19783.89
574.071	19855.75
574.432	19897.56
574.794	20002.86
575.155	20191.56
575.516	19996.99
575.877	20236.98
576.238	20275.63
576.599	20345.68
576.96	20416.19
577.32	20398.56
577.681	20577.09
578.042	20620.93
578.403	20610.76
578.763	20764.88
579.124	20742.73
579.485	20984.76
579.845	20939.56
580.206	21049.62
580.566	21047.36
580.927	21050.52
581.287	21190.18
581.648	21050.29
582.008	21218.2
582.368	21264.75
582.728	21443.05
583.089	21409.83
583.449	21418.87
583.809	21436.5
584.169	21621.35
584.529	21582.26
584.889	21820.44
585.249	21641.24
585.609	21607.34
585.969	21732.99
586.329	21809.14
586.688	21815.92
587.048	21844.4
587.408	21845.75
587.768	21909.93
588.127	21935.02
588.487	21976.82
588.846	22142.69
589.206	22040.32
589.565	22117.84
589.925	22204.84
590.284	22249.13
590.643	22254.56
591.003	22317.83
591.362	22431.73
591.721	22356.02
592.08	22435.34
592.44	22482.12
592.799	22498.39
593.158	22597.15
593.517	22520.54
593.876	22695.45
594.235	22592.85
594.593	22633.53
594.952	22728.89
595.311	22739.97
595.67	22742.23
596.029	22883.01
596.387	22829
596.746	22970.92
597.104	22942.45
597.463	22870.13
597.822	22915.56
598.18	22879.62
598.538	22871.72
598.897	23212.72
599.255	22957.36
599.613	23345.83
599.972	23160.75
600.33	23252.72
600.688	23258.82
601.046	23232.61
601.404	23444.13
601.762	23434.64
602.12	23583.56
602.478	23473.51
602.836	23603.22
603.194	23477.35
603.552	23551.92
603.91	23461.76
604.268	23657.01
604.625	23676.89
604.983	23771.58
605.341	23666.95
605.698	23778.36
606.056	23942.2
606.413	23996.66
606.771	24095.64
607.128	24147.84
607.485	24006.83
607.843	23989.65
608.2	24195.97
608.557	24269.19
608.914	24164.56
609.272	24365.01
609.629	24331.79
609.986	24448.62
610.343	24400.49
610.7	24601.16
611.057	24549.64
611.414	24588.73
611.771	24575.4
612.127	24685
612.484	24780.82
612.841	24866.69
613.198	24790.99
613.554	24830.08
613.911	24868.5
614.267	24907.37
614.624	24893.58
614.98	25068.49
615.337	25240.01
615.693	25157.76
616.05	25153.24
616.406	25279.79
616.762	25163.41
617.118	25251.09
617.475	25313.68
617.831	25487.24
618.187	25413.12
618.543	25524.98
618.899	25559.1
619.255	25522.04
619.611	25580.57
619.967	25668.93
620.323	25625.77
620.678	25675.26
621.034	25578.54
621.39	25683.62
621.746	25725.2
622.101	25966.77
622.457	25748.02
622.812	25774.69
623.168	25963.39
623.523	25919.77
623.879	25988.47
624.234	25884.74
624.589	25973.55
624.945	25992.54
625.3	26048.81
625.655	25931.97
626.01	26117.73
626.365	26032.31
626.72	26047
627.075	25913.67
627.43	26069.6
627.785	26025.76
628.14	26076.6
628.495	26087.45
628.85	26093.55
629.205	25989.15
629.559	26269.59
629.914	26112.99
630.269	26156.6
630.623	26029.15
630.978	25993.89
631.332	26235.02
631.687	26285.64
632.041	26147.79
632.396	26132.87
632.75	26116.6
633.104	26203.83
633.459	26058.75
633.813	26106.21
634.167	26049.94
634.521	26113.66
634.875	26243.83
635.229	26066.66
635.583	25966.1
635.937	26076.6
636.291	25974.01
636.645	25988.7
636.999	25941.92
637.352	25967
637.706	25997.28
638.06	26010.62
638.413	25911.86
638.767	25833.9
639.121	25936.49
639.474	25842.94
639.828	25895.36
640.181	26068.69
640.534	25889.71
640.888	25850.39
641.241	25741.47
641.594	25844.07
641.947	25989.37
642.301	25723.62
642.654	25965.87
643.007	25732.88
643.36	25903.95
643.713	25796.61
644.066	25962.03
644.419	25739.21
644.771	25670.06
645.124	25356.17
645.477	25266.45
645.83	25189.62
646.182	25068.95
646.535	25204.31
646.888	25220.81
647.24	25044.77
647.593	25163.86
647.945	25133.35
648.298	25017.2
648.65	25070.08
649.002	24934.71
649.355	25101.94
649.707	25091.32
650.059	25174.93
650.411	25418.09
650.763	25477.75
651.115	25770.4
651.467	25691.08
651.819	25634.81
652.171	25609.27
652.523	25510.06
652.875	25551.87
653.227	25476.62
653.578	25704.41
653.93	25664.86
654.282	25574.92
654.633	25435.94
654.985	25532.44
655.337	25496.73
655.688	25459.22
656.039	25687.23
656.391	25378.32
656.742	25497.18
657.094	25561.81
657.445	25647.01
657.796	25702.38
658.147	25613.79
658.498	25512.32
658.849	25622.38
659.2	25605.43
659.551	25453.79
659.902	25630.96
660.253	25494.92
660.604	25596.62
660.955	25473.68
661.306	25543.06
661.656	25511.42
662.007	25559.1
662.358	25534.02
662.708	25542.61
663.059	25510.06
663.409	25412.67
663.76	25670.74
664.11	25603.17
664.461	25695.37
664.811	25710.96
665.161	25672.09
665.511	25527.69
665.862	25618.99
666.212	25595.49
666.562	25751.41
666.912	25663.05
667.262	25570.85
667.612	25699.89
667.962	25625.54
668.312	25657.86
668.662	25736.95
669.011	25672.09
669.361	25603.85
669.711	25718.42
670.06	25595.03
670.41	25593.68
670.76	25556.39
671.109	25696.5
671.459	25483.17
671.808	25488.37
672.157	25679.32
672.507	25433.23
672.856	25504.41
673.205	25568.37
673.554	25686.56
673.904	25533.34
674.253	25724.3
674.602	25646.33
674.951	25219.22
675.3	25209.96
675.649	25540.8
675.998	25499.44
676.346	25572.43
676.695	25698.53
677.044	25429.84
677.393	25458.99
677.741	25465.09
678.09	25439.78
678.438	25424.87
678.787	25421.7
679.135	25434.81
679.484	25288.83
679.832	25488.37
680.181	25291.54
680.529	25382.38
680.877	25293.35
681.225	25201.6
681.573	25403.4
681.922	25216.29
682.27	25223.52
682.618	25163.41
682.966	25165.67
683.314	25218.77
683.661	25148.94
684.009	24992.56
684.357	25007.03
684.705	25045.9
685.053	24992.56
685.4	25082.73
685.748	24762.96
686.095	24792.12
686.443	24847.93
686.79	24772.91
687.138	24739.01
687.485	24869.85
687.832	24650.43
688.18	24830.76
688.527	24628.05
688.874	24559.58
689.221	24501.5
689.568	24438.68
689.915	24398.91
690.262	24412.69
690.609	24409.08
690.956	24330.21
691.303	24286.14
691.65	24271.68
691.997	24224.9
692.344	24003.66
692.69	24091.8
693.037	24094.73
693.383	24001.4
693.73	24034.62
694.077	23929.77
694.423	23846.38
694.769	23912.59
695.116	23839.83
695.462	23854.97
695.808	23773.61
696.155	23617.23
696.501	23506.5
696.847	23487.29
697.193	23348.76
697.539	23535.2
697.885	23304.25
698.231	23290.69
698.577	23328.43
698.923	23296.79
699.269	23220.86
699.614	23233.51
699.96	23108.77
700.306	23050.47
700.651	22910.81
700.997	23012.5
701.342	22970.7
701.688	22870.13
702.033	22764.37
702.379	22912.17
702.724	22744.49
703.069	22704.26
703.415	22513.76
703.76	22519.18
704.105	22532.97
704.45	22519.18
704.795	22217.95
705.14	22347.44
705.485	22335.01
705.83	22212.75
706.175	22230.38
706.52	22061.34
706.865	22150.38
707.209	22081
707.554	22043.04
707.899	22043.04
708.243	21926.43
708.588	21885.3
708.932	21791.97
709.277	21827.9
709.621	21740.67
709.966	21647.79
710.31	21695.02
710.654	21548.59
710.998	21635.14
711.342	21632.43
711.687	21477.63
712.031	21449.61
712.375	21453.45
712.719	21442.6
713.063	21452.54
713.407	21545.2
713.75	21280.12
714.094	21362.15
714.438	21278.76
714.782	21279.44
715.125	21139.33
715.469	21288.93
715.812	21072.21
716.156	21069.5
716.499	21098.2
716.843	21053.23
717.186	21005.32
717.53	21088.49
717.873	20985.44
718.216	20972.78
718.559	20920.35
718.902	20732.11
719.246	20915.38
719.589	20802.16
719.932	20736.4
720.275	20763.3
720.617	20752.9
720.96	20683.98
721.303	20663.41
721.646	20786.12
721.989	20581.15
722.331	20659.8
722.674	20626.12
723.016	20623.19
723.359	20601.04
723.701	20538.22
724.044	20514.94
724.386	20391.55
724.729	20478.33
725.071	20464.55
725.413	20373.02
725.755	20447.15
726.097	20324.21
726.439	20315.85
726.782	20280.37
727.124	20483.08
727.465	20246.7
727.807	20337.09
728.149	20260.03
728.491	20211.67
728.833	20293.03
729.175	20204.21
729.516	20237.21
729.858	20106.36
730.199	20135.74
730.541	20166.48
730.882	20078.79
731.224	20179.36
731.565	20097.1
731.906	20058.23
732.248	20066.82
732.589	19976.88
732.93	19956.76
733.271	20015.07
733.612	19981.4
733.953	20008.97
734.294	19997.89
734.635	19886.93
734.976	20064.33
735.317	19950.21
735.658	19848.07
735.999	19808.29
736.339	19886.03
736.68	19838.12
737.021	19786.15
737.361	19641.29
737.702	19815.52
738.042	19799.71
738.383	19761.06
738.723	19832.7
739.063	19772.14
739.404	19848.52
739.744	19754.28
740.084	19705.02
740.424	19706.15
740.764	19696.21
741.104	19677.9
741.444	19691.69
741.784	19611.01
742.124	19667.51
742.464	19592.25
742.804	19595.87
743.143	19593.84
743.483	19632.48
743.823	19472.71
744.162	19456.89
744.502	19540.5
744.841	19478.81
745.181	19532.82
745.52	19422.99
745.86	19555.87
746.199	19470
746.538	19499.83
746.877	19406.04
747.216	19423.67
747.556	19436.33
747.895	19480.39
748.234	19397.46
748.573	19380.51
748.911	19285.59
749.25	19299.38
749.589	19273.84
749.928	19311.36
750.267	19343.22
750.605	19188.87
750.944	19212.38
751.283	19136.67
751.621	19195.2
751.96	19166.5
752.298	19178.7
752.636	19224.13
752.975	19108.42
753.313	18957.24
753.651	19216.9
753.989	18997.69
754.327	19043.57
754.666	18931.93
755.004	19013.74
755.342	19042.21
755.679	18996.79
756.017	18837.47
756.355	18934.87
756.693	18879.28
757.031	18891.03
757.368	18771.71
757.706	18865.72
