Data from cardboard_FLMS001491_047.txt Node
Date: Tue Feb 07 11:39:31 GMT 2017
User: dcchb
Spectrometer: FLMS00149
Trigger mode: 0
Integration Time (sec): 2.000000E-2
Scans to average: 10
Electric dark correction enabled: true
Nonlinearity correction enabled: false
Boxcar width: 0
XAxis mode: Wavelengths
Number of Pixels in Spectrum: 2048
>>>>>Begin Spectral Data<<<<<
341.393	-0.56
341.776	-0.56
342.16	-0.56
342.543	-62.03
342.927	-48.02
343.31	-64.29
343.693	-79.66
344.077	-70.17
344.46	-64.29
344.843	-54.12
345.226	-54.8
345.61	-32.88
345.993	-22.49
346.376	0.56
346.759	11.64
347.142	24.97
347.525	41.02
347.908	57.29
348.291	85.99
348.674	89.15
349.057	132.09
349.44	125.08
349.823	159.66
350.206	161.24
350.588	186.1
350.971	219.99
351.354	215.25
351.737	229.71
352.119	229.49
352.502	229.94
352.884	257.96
353.267	260.45
353.65	271.52
354.032	283.5
354.414	292.76
354.797	311.07
355.179	288.92
355.562	325.3
355.944	308.35
356.326	324.85
356.709	312.65
357.091	312.87
357.473	341.35
357.855	342.25
358.238	332.53
358.62	315.58
359.002	331.18
359.384	326.43
359.766	323.72
360.148	330.95
360.53	339.77
360.912	336.38
361.294	316.04
361.676	321.46
362.057	329.82
362.439	316.94
362.821	321.46
363.203	313.33
363.584	302.25
363.966	316.71
364.348	305.87
364.729	300.67
365.111	294.12
365.493	300.9
365.874	316.49
366.256	302.48
366.637	309.26
367.019	312.2
367.4	305.64
367.781	317.84
368.163	322.14
368.544	312.42
368.925	306.09
369.306	299.09
369.688	288.24
370.069	313.33
370.45	288.92
370.831	295.02
371.212	312.2
371.593	318.75
371.974	305.19
372.355	293.44
372.736	302.93
373.117	281.69
373.498	295.92
373.879	306.32
374.26	304.06
374.641	299.77
375.021	299.31
375.402	286.21
375.783	316.71
376.163	304.96
376.544	315.81
376.925	313.1
377.305	329.37
377.686	317.62
378.066	316.94
378.447	328.01
378.827	299.77
379.208	309.48
379.588	299.77
379.968	323.49
380.349	307.9
380.729	331.4
381.109	308.13
381.489	333.89
381.87	322.36
382.25	319.2
382.63	310.61
383.01	339.09
383.39	335.02
383.77	332.31
384.15	323.72
384.53	317.84
384.91	325.53
385.29	307.68
385.67	326.21
386.049	345.19
386.429	323.72
386.809	334.34
387.189	335.02
387.568	331.4
387.948	330.5
388.328	335.92
388.707	314.23
389.087	317.62
389.466	357.84
389.846	349.93
390.225	360.56
390.605	340.44
390.984	330.05
391.363	333.44
391.743	356.04
392.122	316.71
392.501	347.45
392.881	346.54
393.26	347.45
393.639	348.58
394.018	372.08
394.397	338.64
394.776	348.13
395.155	356.04
395.534	361.69
395.913	345.19
396.292	346.77
396.671	346.54
397.05	349.26
397.429	366.66
397.808	366.66
398.186	362.36
398.565	353.78
398.944	353.55
399.323	364.17
399.701	368.69
400.08	357.62
400.458	337.73
400.837	369.14
401.215	367.79
401.594	350.16
401.972	396.03
402.351	377.5
402.729	396.49
403.107	385.41
403.486	395.13
403.864	366.88
404.242	395.58
404.62	388.8
404.999	394.68
405.377	370.5
405.755	367.79
406.133	396.03
406.511	389.03
406.889	373.44
407.267	384.96
407.645	394.9
408.023	379.99
408.401	402.14
408.779	421.34
409.156	387.67
409.534	404.17
409.912	421.8
410.29	404.62
410.667	411.85
411.045	416.83
411.422	417.28
411.8	418.86
412.178	416.83
412.555	446.2
412.933	398.07
413.31	410.05
413.687	434.9
414.065	450.72
414.442	438.29
414.819	425.19
415.197	432.64
415.574	438.52
415.951	438.75
416.328	441.23
416.705	435.13
417.082	461.57
417.46	458.63
417.837	444.4
418.214	469.48
418.591	452.08
418.967	458.18
419.344	448.69
419.721	497.95
420.098	460.67
420.475	479.42
420.852	446.88
421.228	467.22
421.605	451.4
421.982	507.44
422.358	485.98
422.735	496.82
423.111	480.55
423.488	488.01
423.864	500.89
424.241	499.76
424.617	497.95
424.994	517.61
425.37	494.56
425.746	497.28
426.123	491.85
426.499	516.26
426.875	490.5
427.251	506.77
427.627	514.68
428.003	548.8
428.379	534.34
428.756	521.91
429.132	533.21
429.507	549.25
429.883	540.44
430.259	543.15
430.635	541.12
431.011	559.65
431.387	563.26
431.763	572.75
432.138	559.87
432.514	586.76
432.89	567.1
433.265	574.34
433.641	594.9
434.016	606.65
434.392	585.18
434.767	606.42
435.143	607.33
435.518	590.61
435.894	594
436.269	610.94
436.644	618.63
437.02	610.04
437.395	623.83
437.77	605.97
438.145	624.05
438.52	647.55
438.895	652.07
439.271	630.6
439.646	634.67
440.021	662.02
440.395	663.6
440.77	647.55
441.145	692.52
441.52	681.45
441.895	669.7
442.27	687.55
442.645	685.52
443.019	674.45
443.394	659.98
443.769	677.84
444.143	673.99
444.518	695.46
444.892	706.76
445.267	688.91
445.641	713.77
446.016	728.46
446.39	728.46
446.764	735.01
447.139	715.8
447.513	730.49
447.887	752.64
448.262	724.84
448.636	711.28
449.01	740.88
449.384	722.35
449.758	756.7
450.132	746.08
450.506	764.61
450.88	754.67
451.254	762.13
451.628	759.64
452.002	775.01
452.376	792.63
452.75	769.81
453.123	793.54
453.497	785.86
453.871	778.85
454.244	824.72
454.618	796.93
454.992	814.33
455.365	813.42
455.739	833.99
456.112	831.5
456.486	847.77
456.859	868.79
457.232	876.25
457.606	852.97
457.979	874.67
458.352	883.71
458.725	888.68
459.099	891.39
459.472	899.52
459.845	911.95
460.218	937.72
460.591	937.94
460.964	923.03
461.337	963.03
461.71	972.52
462.083	955.34
462.456	972.52
462.829	977.71
463.201	965.51
463.574	975.23
463.947	999.63
464.32	1010.48
464.692	1033.08
465.065	1021.78
465.438	1038.5
465.81	1064.94
466.183	1031.72
466.555	1085.73
466.928	1099.97
467.3	1081.89
467.672	1116.24
468.045	1130.48
468.417	1137.26
468.789	1132.51
469.161	1131.38
469.534	1158.73
469.906	1165.73
470.278	1201.89
470.65	1195.79
471.022	1214.09
471.394	1248.89
471.766	1224.26
472.138	1268.33
472.51	1276.92
472.882	1299.29
473.253	1302.9
473.625	1316.01
473.997	1338.38
474.369	1332.73
474.74	1389
475.112	1395.33
475.484	1376.12
475.855	1404.37
476.227	1421.09
476.598	1443.24
476.97	1473.75
477.341	1488.21
477.713	1516.46
478.084	1543.12
478.455	1563.24
478.827	1574.99
479.198	1603.91
479.569	1607.08
479.94	1655.44
480.311	1669.9
480.682	1692.5
481.053	1729.11
481.424	1750.58
481.795	1791.25
482.166	1793.51
482.537	1816.79
482.908	1869.89
483.279	1902.21
483.65	1922.55
484.021	1908.99
484.391	1975.88
484.762	1957.58
485.133	1977.01
485.503	2017.24
485.874	2079.38
486.244	2098.59
486.615	2138.59
486.985	2147.85
487.356	2222.43
487.726	2228.08
488.097	2252.48
488.467	2261.97
488.837	2274.63
489.207	2333.84
489.578	2356.21
489.948	2368.41
490.318	2417.68
490.688	2431.69
491.058	2459.94
491.428	2499.48
491.798	2505.58
492.168	2556.43
492.538	2596.43
492.908	2629.2
493.278	2634.17
493.648	2633.26
494.017	2691.12
494.387	2730.21
494.757	2752.58
495.126	2757.1
495.496	2774.5
495.866	2816.99
496.235	2838.91
496.605	2856.99
496.974	2893.82
497.344	2935.4
497.713	2954.61
498.082	2988.96
498.452	2987.15
498.821	3008.62
499.19	3030.54
499.559	3102.18
499.928	3153.02
500.298	3141.27
500.667	3172.91
501.036	3172.91
501.405	3211.55
501.774	3176.53
502.143	3201.61
502.512	3264.21
502.88	3273.47
503.249	3339.01
503.618	3347.6
503.987	3349.63
504.356	3381.94
504.724	3433.7
505.093	3462.39
505.462	3471.21
505.83	3513.92
506.199	3528.16
506.567	3580.58
506.936	3589.62
507.304	3656.29
507.672	3637.08
508.041	3667.81
508.409	3706
508.777	3723.86
509.145	3772.44
509.514	3789.39
509.882	3819.45
510.25	3846.34
510.618	3892.44
510.986	3859.45
511.354	3937.86
511.722	4004.53
512.09	4001.36
512.458	4032.32
512.826	4098.54
513.193	4097.18
513.561	4145.54
513.929	4119.78
514.297	4191.19
514.664	4284.07
515.032	4307.8
515.4	4334.91
515.767	4350.06
516.135	4346.89
516.502	4347.8
516.869	4478.41
517.237	4447.91
517.604	4510.28
517.972	4590.27
518.339	4599.31
518.706	4588.24
519.073	4723.6
519.44	4734.9
519.808	4765.86
520.175	4701.68
520.542	4841.79
520.909	4889.7
521.276	4861.23
521.643	4976.71
522.009	5024.84
522.376	5011.28
522.743	5073.88
523.11	5128.34
523.477	5154.1
523.843	5258.96
524.21	5276.81
524.577	5350.03
524.943	5363.81
525.31	5407.43
525.676	5488.33
526.043	5479.74
526.409	5560.87
526.776	5559.29
527.142	5655.78
527.508	5706.86
527.874	5752.96
528.241	5731.49
528.607	5755.44
528.973	5859.17
529.339	5857.36
529.705	5926.74
530.071	5985.72
530.437	6021.88
530.803	6089.22
531.169	6100.97
531.535	6177.35
531.901	6131.48
532.267	6211.48
532.632	6260.29
532.998	6326.5
533.364	6356.33
533.73	6365.82
534.095	6446.95
534.461	6540.05
534.826	6542.99
535.192	6573.5
535.557	6616.21
535.923	6656.21
536.288	6728.52
536.653	6674.74
537.019	6696.21
537.384	6750.67
537.749	6817.79
538.114	6871.57
538.479	6892.36
538.845	6975.3
539.21	6960.61
539.575	7019.36
539.94	6967.61
540.305	7137.55
540.67	7048.06
541.034	7133.94
541.399	7185.46
541.764	7232.92
542.129	7240.15
542.494	7327.38
542.858	7361.95
543.223	7305.01
543.587	7385.68
543.952	7377.09
544.316	7472.68
544.681	7433.59
545.045	7557.43
545.41	7612.34
545.774	7631.55
546.138	7635.39
546.503	7723.3
546.867	7761.26
547.231	7761.04
547.595	7775.05
547.959	7797.2
548.324	7886.01
548.688	7951.09
549.052	7981.6
549.416	7948.15
549.779	8011.88
550.143	8062.5
550.507	8131.65
550.871	8178.88
551.235	8193.8
551.599	8255.49
551.962	8273.79
552.326	8278.09
552.689	8387.01
553.053	8322.38
553.417	8420
553.78	8601.24
554.143	8499.78
554.507	8580.68
554.87	8635.14
555.234	8706.1
555.597	8631.75
555.96	8741.13
556.323	8795.81
556.686	8847.79
557.05	8890.5
557.413	8909.71
557.776	8919.2
558.139	9060.89
558.502	9083.04
558.865	9224.73
559.228	9170.95
559.59	9211.85
559.953	9264.28
560.316	9369.81
560.679	9359.64
561.041	9414.55
561.404	9542.23
561.767	9550.37
562.129	9541.11
562.492	9724.6
562.854	9714.89
563.217	9645.96
563.579	9758.27
563.941	9833.07
564.304	9818.16
564.666	9957.14
565.028	10016.57
565.39	10023.58
565.753	10109.45
566.115	10116.23
566.477	10198.71
566.839	10243.69
567.201	10368.2
567.563	10332.27
567.925	10447.75
568.287	10455.66
568.648	10442.1
569.01	10577.46
569.372	10621.3
569.734	10681.19
570.095	10700.17
570.457	10792.15
570.819	10779.72
571.18	10861.97
571.542	10861.75
571.903	10996.89
572.265	11041.86
572.626	11029.2
572.987	11025.59
573.349	11095.87
573.71	11212.25
574.071	11190.78
574.432	11232.36
574.794	11352.81
575.155	11381.51
575.516	11320.95
575.877	11429.42
576.238	11469.19
576.599	11459.47
576.96	11468.06
577.32	11601.16
577.681	11620.37
578.042	11684.78
578.403	11764.1
578.763	11697.21
579.124	11823.3
579.485	11756.87
579.845	11903.53
580.206	11826.02
580.566	11911.66
580.927	11859.24
581.287	11923.42
581.648	11991.44
582.008	12038.21
582.368	11997.31
582.728	12041.15
583.089	12006.35
583.449	12068.27
583.809	12148.49
584.169	12138.78
584.529	12104.65
584.889	12222.62
585.249	12209.28
585.609	12215.16
585.969	12281.37
586.329	12271.88
586.688	12319.56
587.048	12309.85
587.408	12324.53
587.768	12328.83
588.127	12313.24
588.487	12366.34
588.846	12490.86
589.206	12425.1
589.565	12395.72
589.925	12504.42
590.284	12387.13
590.643	12460.12
591.003	12566.56
591.362	12595.26
591.721	12532.21
592.08	12555.49
592.44	12601.82
592.799	12529.73
593.158	12635.04
593.517	12604.53
593.876	12714.58
594.235	12658.31
594.593	12630.52
594.952	12795.93
595.311	12717.97
595.67	12739.21
596.029	12854.01
596.387	12804.75
596.746	12867.57
597.104	12772.66
597.463	12737.18
597.822	12878.19
598.18	12904.41
598.538	12894.24
598.897	12920
599.255	12901.92
599.613	13057.85
599.972	12989.6
600.33	13067.34
600.688	12976.49
601.046	13039.54
601.404	13126.77
601.762	13001.13
602.12	13175.36
602.478	13150.5
602.836	13157.51
603.194	13115.02
603.552	13184.4
603.91	13093.55
604.268	13197.28
604.625	13171.52
604.983	13234.79
605.341	13310.5
605.698	13264.4
606.056	13393.21
606.413	13271.63
606.771	13420.78
607.128	13422.13
607.485	13341.46
607.843	13365.86
608.2	13485.63
608.557	13513.2
608.914	13496.26
609.272	13489.48
609.629	13587.55
609.986	13639.98
610.343	13514.79
610.7	13714.78
611.057	13733.09
611.414	13689.92
611.771	13701.9
612.127	13746.87
612.484	13771.5
612.841	13788.68
613.198	13782.8
613.554	13783.71
613.911	13899.41
614.267	13805.17
614.624	13830.48
614.98	13957.94
615.337	14022.34
615.693	13903.02
616.05	13922.01
616.406	14127.88
616.762	14042.68
617.118	14126.75
617.475	14045.85
617.831	14093.53
618.187	14166.29
618.543	14156.58
618.899	14287.87
619.255	14167.88
619.611	14246.97
619.967	14277.7
620.323	14319.28
620.678	14267.53
621.034	14304.37
621.39	14275.22
621.746	14288.78
622.101	14472.95
622.457	14305.73
622.812	14435.89
623.168	14433.63
623.523	14464.37
623.879	14474.76
624.234	14403.8
624.589	14514.76
624.945	14535.55
625.3	14569.67
625.655	14540.3
626.01	14590.92
626.365	14543.23
626.72	14562.67
627.075	14546.62
627.43	14476.79
627.785	14440.41
628.14	14611.03
628.495	14608.09
628.85	14626.85
629.205	14604.93
629.559	14643.57
629.914	14553.18
630.269	14542.1
630.623	14542.1
630.978	14566.28
631.332	14648.54
631.687	14572.61
632.041	14572.61
632.396	14636.11
632.75	14582.78
633.104	14621.88
633.459	14582.33
633.813	14608.54
634.167	14573.74
634.521	14473.4
634.875	14550.92
635.229	14557.24
635.583	14502.33
635.937	14495.1
636.291	14547.08
636.645	14423.69
636.999	14559.73
637.352	14557.92
637.706	14490.81
638.06	14554.53
638.413	14516.79
638.767	14430.24
639.121	14436.34
639.474	14425.95
639.828	14421.65
640.181	14493.29
640.534	14449.45
640.888	14387.31
641.241	14385.5
641.594	14390.47
641.947	14426.85
642.301	14378.27
642.654	14447.19
643.007	14442.67
643.36	14407.64
643.713	14364.03
644.066	14491.94
644.419	14254.88
644.771	14215.11
645.124	14156.35
645.477	14114.54
645.83	14077.48
646.182	13955.68
646.535	13927.66
646.888	13984.83
647.24	13910.48
647.593	13997.71
647.945	13951.61
648.298	13901.44
648.65	13860.77
649.002	13856.47
649.355	13944.15
649.707	13979.41
650.059	13995.45
650.411	14135.33
650.763	14142.79
651.115	14374.2
651.467	14324.03
651.819	14238.61
652.171	14302.79
652.523	14195.9
652.875	14289
653.227	14205.39
653.578	14204.49
653.93	14235.44
654.282	14155.67
654.633	14160.42
654.985	14246.29
655.337	14222.79
655.688	14269.57
656.039	14291.94
656.391	14152.28
656.742	14273.64
657.094	14204.94
657.445	14276.35
657.796	14218.04
658.147	14253.52
658.498	14172.85
658.849	14196.12
659.2	14300.3
659.551	14166.29
659.902	14237.25
660.253	14234.77
660.604	14271.83
660.955	14163.36
661.306	14205.62
661.656	14290.81
662.007	14275.22
662.358	14177.82
662.708	14213.75
663.059	14334.65
663.409	14176.92
663.76	14246.74
664.11	14242.22
664.461	14301.43
664.811	14367.64
665.161	14329.68
665.511	14258.04
665.862	14295.33
666.212	14329
666.562	14319.74
666.912	14276.8
667.262	14243.81
667.612	14324.48
667.962	14255.33
668.312	14314.76
668.662	14353.63
669.011	14309.79
669.361	14326.74
669.711	14264.14
670.06	14302.11
670.41	14319.74
670.76	14306.18
671.109	14289.68
671.459	14291.49
671.808	14300.3
672.157	14375.33
672.507	14274.09
672.856	14228.89
673.205	14300.08
673.554	14346.63
673.904	14219.85
674.253	14361.32
674.602	14384.59
674.951	14046.75
675.3	14029.12
675.649	14226.63
675.998	14234.09
676.346	14228.89
676.695	14335.56
677.044	14233.86
677.393	14241.77
677.741	14262.56
678.09	14199.06
678.438	14218.27
678.787	14215.78
679.135	14261.88
679.484	14137.82
679.832	14214.88
680.181	14122.68
680.529	14173.53
680.877	14078.39
681.225	14124.94
681.573	14217.82
681.922	14119.97
682.27	14095.34
682.618	14134.2
682.966	14005.39
683.314	14087.88
683.661	14069.35
684.009	13985.51
684.357	13976.92
684.705	14007.88
685.053	14139.4
685.4	13988.9
685.748	13913.19
686.095	13920.88
686.443	13920.2
686.79	13914.55
687.138	13921.33
687.485	13871.61
687.832	13808.34
688.18	13852.18
688.527	13853.99
688.874	13878.84
689.221	13797.04
689.568	13733.31
689.915	13730.37
690.262	13711.62
690.609	13669.36
690.956	13625.97
691.303	13662.58
691.65	13563.37
691.997	13600.66
692.344	13477.05
692.69	13463.26
693.037	13556.37
693.383	13358.41
693.73	13469.59
694.077	13334.23
694.423	13387.56
694.769	13370.38
695.116	13296.03
695.462	13304.85
695.808	13263.27
696.155	13285.87
696.501	13132.2
696.847	13247.9
697.193	13229.82
697.539	13202.03
697.885	13114.57
698.231	13112.99
698.577	13067.57
698.923	13104.4
699.269	13018.53
699.614	12926.1
699.96	12977.85
700.306	12937.63
700.651	12897.18
700.997	12844.97
701.342	12855.59
701.688	12817.86
702.033	12688.14
702.379	12790.74
702.724	12714.35
703.069	12939.66
703.415	12675.26
703.76	12679.55
704.105	12692.89
704.45	12631.42
704.795	12517.52
705.14	12590.06
705.485	12596.62
705.83	12496.06
706.175	12528.6
706.52	12509.61
706.865	12506.68
707.209	12454.7
707.554	12384.65
707.899	12406.79
708.243	12312.33
708.588	12328.6
708.932	12245.21
709.277	12252.9
709.621	12305.55
709.966	12199.11
710.31	12273.46
710.654	12156.63
710.998	12244.31
711.342	12134.71
711.687	12096.74
712.031	12071.89
712.375	12030.53
712.719	12010.19
713.063	12063.3
713.407	12057.2
713.75	12022.17
714.094	12046.35
714.438	12025.11
714.782	11942.85
715.125	11883.64
715.469	11933.58
715.812	11871.67
716.156	11846.81
716.499	11850.65
716.843	11882.74
717.186	11797.54
717.53	11856.75
717.873	11884.09
718.216	11827.15
718.559	11818.79
718.902	11703.08
719.246	11842.51
719.589	11766.13
719.932	11651.78
720.275	11702.4
720.617	11695.4
720.96	11697.21
721.303	11649.98
721.646	11703.76
721.989	11640.71
722.331	11720.48
722.674	11625.8
723.016	11695.62
723.359	11554.61
723.701	11720.93
724.044	11614.72
724.386	11550.54
724.729	11573.82
725.071	11627.38
725.413	11526.82
725.755	11541.96
726.097	11514.16
726.439	11522.52
726.782	11507.38
727.124	11576.31
727.465	11445.69
727.807	11423.32
728.149	11422.19
728.491	11483.65
728.833	11471.68
729.175	11431.68
729.516	11389.87
729.858	11344.22
730.199	11409.53
730.541	11358.46
730.882	11355.07
731.224	11350.77
731.565	11273.26
731.906	11294.96
732.248	11361.62
732.589	11295.41
732.93	11202.98
733.271	11261.29
733.612	11314.17
733.953	11329.08
734.294	11292.47
734.635	11235.98
734.976	11241.63
735.317	11276.88
735.658	11235.75
735.999	11259.25
736.339	11160.72
736.68	11252.02
737.021	11194.85
737.361	11098.8
737.702	11288.18
738.042	11198.01
738.383	11115.07
738.723	11162.08
739.063	11152.36
739.404	11220.83
739.744	11148.07
740.084	11139.03
740.424	11117.11
740.764	11141.74
741.104	11100.84
741.444	11170.21
741.784	11138.58
742.124	11069.43
742.464	11089.09
742.804	11091.8
743.143	11048.41
743.483	11045.47
743.823	10970.45
744.162	11048.18
744.502	11025.81
744.841	11009.77
745.181	11087.96
745.52	11053.61
745.86	11002.99
746.199	10980.39
746.538	11018.35
746.877	11052.25
747.216	10957.79
747.556	10933.16
747.895	10962.08
748.234	10939.71
748.573	10946.72
748.911	10911.01
749.25	11001.18
749.589	10890.67
749.928	10913.27
750.267	10984.23
750.605	10855.42
750.944	10874.86
751.283	10828.75
751.621	10870.79
751.96	10781.75
752.298	10826.72
752.636	10822.65
752.975	10785.82
753.313	10795.54
753.651	10839.38
753.989	10768.42
754.327	10783.78
754.666	10755.31
755.004	10758.7
755.342	10728.87
755.679	10762.54
756.017	10665.37
756.355	10730
756.693	10723.67
757.031	10648.19
757.368	10638.25
757.706	10617.23
758.044	10593.51
758.381	10693.84
758.719	10589.44
759.056	10542.89
759.394	10546.5
759.731	10459.05
760.068	10502.89
