Data from cardboard_FLMS001491_050.txt Node
Date: Tue Feb 07 11:39:31 GMT 2017
User: dcchb
Spectrometer: FLMS00149
Trigger mode: 0
Integration Time (sec): 2.000000E-2
Scans to average: 10
Electric dark correction enabled: true
Nonlinearity correction enabled: false
Boxcar width: 0
XAxis mode: Wavelengths
Number of Pixels in Spectrum: 2048
>>>>>Begin Spectral Data<<<<<
341.393	-12.37
341.776	-12.37
342.16	-12.37
342.543	-61.64
342.927	-70.68
343.31	-70.9
343.693	-81.3
344.077	-64.35
344.46	-56.89
344.843	-49.66
345.226	-63.9
345.61	-30.9
345.993	-6.27
346.376	10
346.759	21.07
347.142	34.18
347.525	52.26
347.908	38.47
348.291	77.79
348.674	79.83
349.057	110.56
349.44	121.86
349.823	144.91
350.206	168.87
350.588	195.53
350.971	202.31
351.354	212.25
351.737	219.94
352.119	226.94
352.502	251.12
352.884	264.68
353.267	249.77
353.65	271.91
354.032	291.12
354.414	273.27
354.797	295.19
355.179	306.26
355.562	314.17
355.944	330.9
356.326	303.78
356.709	318.24
357.091	325.7
357.473	315.53
357.855	324.57
358.238	331.12
358.62	326.6
359.002	330.67
359.384	341.06
359.766	355.53
360.148	302.65
360.53	341.29
360.912	339.71
361.294	311.23
361.676	322.31
362.057	318.01
362.439	321.4
362.821	326.6
363.203	303.33
363.584	307.39
363.966	288.86
364.348	320.27
364.729	308.75
365.111	305.81
365.493	308.3
365.874	306.72
366.256	316.66
366.637	287.73
367.019	309.2
367.4	313.72
367.781	288.18
368.163	284.57
368.544	288.18
368.925	280.28
369.306	317.11
369.688	304.46
370.069	304
370.45	296.77
370.831	293.38
371.212	308.3
371.593	286.15
371.974	296.77
372.355	292.48
372.736	317.34
373.117	314.85
373.498	301.97
373.879	315.53
374.26	302.42
374.641	285.47
375.021	296.55
375.402	310.1
375.783	307.85
376.163	326.6
376.544	301.52
376.925	301.52
377.305	310.1
377.686	299.03
378.066	299.94
378.447	320.05
378.827	317.56
379.208	324.12
379.588	307.85
379.968	319.6
380.349	316.43
380.729	311.23
381.109	344.23
381.489	318.47
381.87	309.88
382.25	329.31
382.63	310.1
383.01	333.16
383.39	332.93
383.77	332.93
384.15	327.28
384.53	334.51
384.91	320.73
385.29	313.95
385.67	322.31
386.049	322.31
386.429	337.67
386.809	343.32
387.189	312.14
387.568	307.85
387.948	301.74
388.328	330.44
388.707	338.35
389.087	330.9
389.466	342.19
389.846	353.49
390.225	355.98
390.605	320.27
390.984	328.64
391.363	342.19
391.743	354.62
392.122	371.12
392.501	343.32
392.881	324.12
393.26	339.71
393.639	365.24
394.018	351.01
394.397	339.48
394.776	369.76
395.155	359.82
395.534	354.4
395.913	357.79
396.292	357.79
396.671	341.74
397.05	359.82
397.429	386.49
397.808	369.99
398.186	358.92
398.565	364.34
398.944	360.27
399.323	359.14
399.701	354.85
400.08	362.76
400.458	369.99
400.837	378.35
401.215	383.78
401.594	366.6
401.972	362.98
402.351	377.9
402.729	358.01
403.107	380.84
403.486	369.76
403.864	392.14
404.242	384.68
404.62	387.39
404.999	402.53
405.377	385.58
405.755	393.72
406.133	381.52
406.511	395.3
406.889	394.4
407.267	405.47
407.645	401.85
408.023	399.82
408.401	401.4
408.779	407.05
409.156	409.31
409.534	426.71
409.912	401.85
410.29	401.63
410.667	413.38
411.045	440.04
411.422	417.67
411.8	400.72
412.178	431.23
412.555	402.76
412.933	417.45
413.31	407.96
413.687	440.95
414.065	428.75
414.442	421.29
414.819	439.82
415.197	451.12
415.574	425.58
415.951	439.37
416.328	449.08
416.705	464.9
417.082	442.08
417.46	446.37
417.837	467.16
418.214	467.39
418.591	456.77
418.967	433.04
419.344	452.93
419.721	460.16
420.098	462.64
420.475	461.51
420.852	476.2
421.228	476.65
421.605	493.6
421.982	490.89
422.358	474.39
422.735	473.26
423.111	475.98
423.488	489.08
423.864	498.12
424.241	476.2
424.617	487.28
424.994	512.81
425.37	489.76
425.746	501.96
426.123	502.87
426.499	507.84
426.875	504.68
427.251	501.29
427.627	524.11
428.003	501.29
428.379	518.46
428.756	524.11
429.132	523.43
429.507	543.55
429.883	522.3
430.259	538.8
430.635	548.97
431.011	543.55
431.387	575.18
431.763	559.59
432.138	544.9
432.514	561.85
432.89	562.08
433.265	578.12
433.641	591.91
434.016	581.28
434.392	589.19
434.767	605.92
435.143	585.58
435.518	586.71
435.894	632.58
436.269	616.09
436.644	628.06
437.02	624.45
437.395	633.94
437.77	653.6
438.145	614.05
438.52	637.55
438.895	631.23
439.271	661.51
439.646	654.5
440.021	654.95
440.395	649.76
440.77	658.12
441.145	658.57
441.52	668.97
441.895	679.36
442.27	691.56
442.645	670.32
443.019	684.11
443.394	681.17
443.769	693.37
444.143	689.53
444.518	701.96
444.892	676.2
445.267	692.69
445.641	692.47
446.016	676.2
446.39	704.44
446.764	720.72
447.139	739.92
447.513	711.22
447.887	752.58
448.262	724.56
448.636	754.61
449.01	749.19
449.384	743.77
449.758	735.4
450.132	742.86
450.506	752.35
450.88	767.27
451.254	750.32
451.628	784.44
452.002	765.46
452.376	783.99
452.75	779.92
453.123	792.58
453.497	798.45
453.871	819.7
454.244	791.22
454.618	816.53
454.992	832.58
455.365	835.06
455.739	859.47
456.112	824.89
456.486	835.06
456.859	848.17
457.232	866.47
457.606	871.9
457.979	848.85
458.352	893.37
458.725	892.46
459.099	912.12
459.472	897.66
459.845	913.25
460.218	887.04
460.591	918.45
460.964	922.74
461.337	956.19
461.71	972.46
462.083	960.26
462.456	990.54
462.829	959.35
463.201	991.67
463.574	986.47
463.947	1026.7
464.32	1011.78
464.692	1017.66
465.065	1061.05
465.438	1067.37
465.81	1049.07
466.183	1061.72
466.555	1077.54
466.928	1067.15
467.3	1081.84
467.672	1083.42
468.045	1114.83
468.417	1122.29
468.789	1117.09
469.161	1135.62
469.534	1180.36
469.906	1185.11
470.278	1181.72
470.65	1187.14
471.022	1212
471.394	1242.96
471.766	1247.26
472.138	1239.12
472.51	1283.64
472.882	1289.74
473.253	1298.33
473.625	1313.24
473.997	1354.15
474.369	1367.25
474.74	1364.99
475.112	1372.9
475.484	1393.92
475.855	1415.84
476.227	1401.6
476.598	1451.32
476.97	1465.78
477.341	1479.57
477.713	1524.54
478.084	1522.73
478.455	1566.34
478.827	1580.81
479.198	1618.09
479.569	1617.19
479.94	1651.31
480.311	1691.99
480.682	1691.54
481.053	1718.2
481.424	1767.92
481.795	1787.58
482.166	1815.6
482.537	1779.44
482.908	1855.83
483.279	1879.33
483.65	1925.66
484.021	1922.72
484.391	1958.42
484.762	1987.12
485.133	2002.26
485.503	2045.2
485.874	2075.71
486.244	2061.25
486.615	2121.81
486.985	2141.02
487.356	2156.16
487.726	2179.89
488.097	2217.63
488.467	2287
488.837	2265.76
489.207	2330.62
489.578	2356.38
489.948	2390.5
490.318	2406.77
490.688	2409.94
491.058	2481.12
491.428	2516.37
491.798	2515.7
492.168	2527.22
492.538	2566.54
492.908	2584.62
493.278	2631.63
493.648	2684.96
494.017	2686.31
494.387	2715.92
494.757	2735.35
495.126	2774.67
495.496	2812.41
495.866	2796.82
496.235	2839.3
496.605	2889.47
496.974	2888.34
497.344	2932.63
497.713	2944.61
498.082	2956.14
498.452	2992.52
498.821	3045.85
499.19	3057.15
499.559	3122.69
499.928	3106.19
500.298	3136.92
500.667	3185.28
501.036	3187.77
501.405	3229.12
501.774	3210.59
502.143	3256.69
502.512	3242.91
502.88	3297.6
503.249	3323.36
503.618	3342.79
503.987	3344.38
504.356	3369.69
504.724	3400.65
505.093	3418.27
505.462	3495.56
505.83	3511.15
506.199	3517.03
506.567	3514.54
506.936	3566.29
507.304	3613.52
507.672	3630.02
508.041	3656.46
508.409	3736.46
508.777	3763.57
509.145	3799.28
509.514	3786.4
509.882	3841.09
510.25	3847.64
510.618	3855.32
510.986	3914.53
511.354	3922.67
511.722	3973.51
512.09	4042.89
512.458	4009.44
512.826	4072.49
513.193	4084.47
513.561	4135.99
513.929	4187.07
514.297	4237.69
514.664	4282.66
515.032	4273.62
515.4	4333.05
515.767	4341.64
516.135	4422.54
516.502	4371.69
516.869	4477.68
517.237	4472.93
517.604	4498.92
517.972	4606.94
518.339	4580.05
518.706	4669.31
519.073	4652.14
519.44	4668.18
519.808	4755.19
520.175	4749.08
520.542	4869.31
520.909	4884.22
521.276	4872.02
521.643	4988.63
522.009	5015.07
522.376	5054.16
522.743	5095.52
523.11	5145.68
523.477	5161.73
523.843	5230.2
524.21	5224.33
524.577	5335.51
524.943	5355.62
525.31	5421.83
525.676	5411.89
526.043	5485.79
526.409	5556.75
526.776	5604.2
527.142	5617.76
527.508	5675.61
527.874	5712.67
528.241	5763.07
528.607	5726.23
528.973	5822.73
529.339	5892.1
529.705	5900.69
530.071	6024.76
530.437	6019.56
530.803	6115.6
531.169	6133.91
531.535	6133.91
531.901	6184.53
532.267	6223.4
532.632	6244.41
532.998	6385.43
533.364	6402.83
533.73	6421.81
534.095	6466.55
534.461	6501.58
534.826	6522.37
535.192	6542.94
535.557	6667.23
535.923	6628.36
536.288	6643.5
536.653	6770.27
537.019	6718.98
537.384	6744.29
537.749	6852.53
538.114	6814.57
538.479	6963.26
538.845	6951.29
539.21	6918.74
539.575	6955.58
539.94	7033.54
540.305	7114.22
540.67	7117.61
541.034	7137.95
541.399	7166.65
541.764	7195.35
542.129	7207.1
542.494	7292.97
542.858	7369.81
543.223	7360.99
543.587	7427.66
543.952	7441.22
544.316	7462.46
544.681	7494.77
545.045	7528.9
545.41	7600.08
545.774	7609.12
546.138	7634.21
546.503	7635.11
546.867	7728.21
547.231	7756.24
547.595	7762.34
547.959	7817.93
548.324	7880.98
548.688	7958.27
549.052	7950.36
549.416	8004.59
549.779	8033.52
550.143	8090.01
550.507	8111.93
550.871	8231.03
551.235	8196.45
551.599	8216.11
551.962	8266.73
552.326	8302.66
552.689	8417.91
553.053	8336.79
553.417	8408.87
553.78	8502.66
554.143	8506.27
554.507	8568.42
554.87	8608.64
555.234	8671.24
555.597	8629.43
555.96	8725.7
556.323	8758.47
556.686	8804.34
557.05	8894.96
557.413	8952.14
557.776	8921.4
558.139	9024.23
558.502	9130.21
558.865	9125.47
559.228	9138.8
559.59	9174.05
559.953	9328.85
560.316	9415.63
560.679	9340.83
561.041	9441.84
561.404	9459.02
561.767	9565.45
562.129	9502.41
562.492	9700.37
562.854	9602.06
563.217	9705.34
563.579	9801.15
563.941	9839.57
564.304	9904.65
564.666	9973.35
565.028	10007.48
565.39	10082.96
565.753	10079.11
566.115	10186.23
566.477	10215.61
566.839	10249.28
567.201	10322.95
567.563	10351.65
567.925	10453.79
568.287	10513.23
568.648	10504.41
569.01	10607.01
569.372	10691.53
569.734	10667.12
570.095	10742.15
570.457	10826.21
570.819	10727.23
571.18	10843.84
571.542	10894.46
571.903	10912.31
572.265	11003.83
572.626	10982.59
572.987	11112.98
573.349	11165.41
573.71	11166.99
574.071	11169.03
574.432	11334.45
574.794	11324.5
575.155	11347.55
575.516	11376.71
575.877	11368.8
576.238	11514.56
576.599	11521.79
576.96	11544.39
577.32	11577.61
577.681	11585.51
578.042	11646.08
578.403	11623.48
578.763	11661.44
579.124	11742.8
579.485	11785.28
579.845	11822.12
580.206	11821.89
580.566	11853.98
580.927	11859.86
581.287	11970.36
581.648	12001.77
582.008	12023.92
582.368	12027.08
582.728	12008.33
583.089	12095.33
583.449	12105.05
583.809	12150.47
584.169	12160.64
584.529	12130.13
584.889	12206.74
585.249	12170.13
585.609	12203.8
585.969	12277.93
586.329	12270.92
586.688	12301.88
587.048	12306.85
587.408	12279.28
587.768	12379.39
588.127	12281.54
588.487	12408.09
588.846	12473.4
589.206	12355.44
589.565	12410.8
589.925	12533.29
590.284	12456.23
590.643	12550.23
591.003	12506.62
591.362	12528.54
591.721	12533.96
592.08	12645.15
592.44	12590.91
592.799	12663.23
593.158	12578.03
593.517	12653.06
593.876	12647.86
594.235	12705.94
594.593	12733.96
594.952	12739.83
595.311	12703.9
595.67	12732.83
596.029	12794.52
596.387	12817.12
596.746	12888.98
597.104	12793.84
597.463	12836.56
597.822	12876.1
598.18	12903.45
598.538	12832.71
598.897	12951.81
599.255	12894.86
599.613	13040.39
599.972	12929.43
600.33	12991.58
600.688	13051.69
601.046	13050.11
601.404	13098.47
601.762	13054.85
602.12	13136.66
602.478	13175.98
602.836	13184.79
603.194	13148.19
603.552	13113.38
603.91	13191.8
604.268	13275.19
604.625	13225.92
604.983	13227.73
605.341	13218.92
605.698	13343.89
606.056	13315.86
606.413	13284.68
606.771	13342.98
607.128	13414.62
607.485	13347.05
607.843	13421.62
608.2	13500.49
608.557	13516.31
608.914	13415.07
609.272	13495.75
609.629	13526.71
609.986	13581.17
610.343	13599.25
610.7	13624.56
611.057	13606.93
611.414	13620.04
611.771	13718.11
612.127	13740.94
612.484	13751.79
612.841	13802.18
613.198	13759.24
613.554	13798.79
613.911	13877.43
614.267	13899.8
614.624	13955.62
614.98	13941.38
615.337	13955.62
615.693	13960.59
616.05	13976.86
616.406	13999.24
616.762	13972.57
617.118	14023.19
617.475	14103.41
617.831	14080.59
618.187	14212.34
618.543	14219.34
618.899	14234.03
619.255	14155.39
619.611	14188.38
619.967	14299.79
620.323	14308.83
620.678	14347.48
621.034	14251.43
621.39	14306.35
621.746	14236.97
622.101	14474.03
622.457	14360.58
622.812	14387.02
623.168	14417.3
623.523	14525.1
623.879	14486.91
624.234	14412.78
624.589	14519
624.945	14498.21
625.3	14557.87
625.655	14516.51
626.01	14544.31
626.365	14611.2
626.72	14505.44
627.075	14545.89
627.43	14519.9
627.785	14501.37
628.14	14566
628.495	14577.53
628.85	14519.22
629.205	14542.95
629.559	14717.41
629.914	14564.19
630.269	14616.4
630.623	14551.31
630.978	14535.72
631.332	14601.03
631.687	14630.86
632.041	14501.6
632.396	14587.24
632.75	14564.42
633.104	14587.02
633.459	14548.37
633.813	14513.8
634.167	14557.19
634.521	14513.57
634.875	14548.37
635.229	14521.03
635.583	14453.24
635.937	14555.15
636.291	14499.11
636.645	14476.51
636.999	14489.84
637.352	14467.02
637.706	14431.77
638.06	14519.45
638.413	14418.21
638.767	14510.18
639.121	14525.1
639.474	14333.92
639.828	14400.13
640.181	14410.53
640.534	14495.27
640.888	14393.12
641.241	14307.7
641.594	14472.22
641.947	14441.94
642.301	14363.29
642.654	14398.77
643.007	14389.51
643.36	14329.17
643.713	14343.41
644.066	14440.81
644.419	14345.89
644.771	14307.02
645.124	14159.91
645.477	14119.69
645.83	13987.49
646.182	14019.8
646.535	13966.24
646.888	13911.56
647.24	13946.36
647.593	14062.51
647.945	13940.93
648.298	13897.77
648.65	13950.42
649.002	13873.59
649.355	13911.33
649.707	13882.86
650.059	13934.38
650.411	14141.61
650.763	14142.74
651.115	14349.06
651.467	14227.48
651.819	14230.64
652.171	14261.15
652.523	14210.76
652.875	14258.21
653.227	14185.45
653.578	14313.58
653.93	14225.9
654.282	14197.65
654.633	14190.64
654.985	14302.05
655.337	14293.24
655.688	14254.37
656.039	14327.82
656.391	14212.34
656.742	14270.64
657.094	14190.19
657.445	14262.28
657.796	14199.46
658.147	14264.09
658.498	14174.83
658.849	14241.94
659.2	14211.89
659.551	14268.16
659.902	14276.74
660.253	14218.67
660.604	14295.5
660.955	14251.89
661.306	14285.78
661.656	14274.03
662.007	14269.29
662.358	14266.12
662.708	14239.23
663.059	14274.48
663.409	14192
663.76	14320.36
664.11	14245.33
664.461	14214.15
664.811	14237.42
665.161	14213.02
665.511	14275.84
665.862	14323.3
666.212	14294.37
666.562	14337.98
666.912	14206.24
667.262	14199.46
667.612	14233.13
667.962	14287.36
668.312	14256.86
668.662	14303.18
669.011	14229.29
669.361	14274.03
669.711	14346.35
670.06	14255.5
670.41	14298.21
670.76	14266.35
671.109	14259.34
671.459	14227.93
671.808	14240.59
672.157	14313.58
672.507	14245.11
672.856	14253.69
673.205	14240.13
673.554	14261.6
673.904	14218.21
674.253	14343.63
674.602	14351.09
674.951	14103.87
675.3	14098.89
675.649	14233.35
675.998	14323.07
676.346	14173.92
676.695	14299.79
677.044	14195.16
677.393	14181.38
677.741	14277.42
678.09	14215.28
678.438	14181.6
678.787	14279.46
679.135	14170.98
679.484	14122.85
679.832	14110.19
680.181	14142.74
680.529	14196.52
680.877	14113.58
681.225	14123.98
681.573	14215.73
681.922	14136.41
682.27	14102.51
682.618	14067.26
682.966	14025
683.314	14170.08
683.661	14003.53
684.009	14041.5
684.357	14019.8
684.705	14040.14
685.053	13951.33
685.4	13944.55
685.748	13860.03
686.095	13973.47
686.443	13858.22
686.79	13882.86
687.138	13943.87
687.485	13914.27
687.832	13903.42
688.18	13863.87
688.527	13862.74
688.874	13772.8
689.221	13751.56
689.568	13688.28
689.915	13709.98
690.262	13758.79
690.609	13690.54
690.956	13677.44
691.303	13624.33
691.65	13560.38
691.997	13631.34
692.344	13441.74
692.69	13495.29
693.037	13474.05
693.383	13391.79
693.73	13476.99
694.077	13358.58
694.423	13487.16
694.769	13369.65
695.116	13396.09
695.462	13377.33
695.808	13209.88
696.155	13369.42
696.501	13206.71
696.847	13271.57
697.193	13146.6
697.539	13160.61
697.885	13080.16
698.231	13098.24
698.577	13144.8
698.923	13018.92
699.269	13038.13
699.614	13048.98
699.96	12980.73
700.306	12907.97
700.651	12923.78
700.997	12882.88
701.342	12891.47
701.688	12873.84
702.033	12865.93
702.379	12787.97
702.724	12738.48
703.069	12797.23
703.415	12695.32
703.76	12701.42
704.105	12689.44
704.45	12684.02
704.795	12577.58
705.14	12529.67
705.485	12565.6
705.83	12509.33
706.175	12499.39
706.52	12522.67
706.865	12456
707.209	12470.92
707.554	12358.6
707.899	12394.98
708.243	12331.26
708.588	12341.88
708.932	12366.29
709.277	12256.01
709.621	12305.27
709.966	12170.81
710.31	12250.58
710.654	12158.61
710.998	12199.74
711.342	12167.19
711.687	12155.67
712.031	12024.83
712.375	12068.67
712.719	12050.36
713.063	12112.51
713.407	12056.01
713.75	12038.38
714.094	12020.31
714.438	12000.87
714.782	11976.46
715.125	11902.79
715.469	11878.39
715.812	11935.34
716.156	11818.73
716.499	11857.82
716.843	11889.91
717.186	11769.92
717.53	11848.78
717.873	11936.24
718.216	11794.55
718.559	11858.5
718.902	11718.17
719.246	11797.26
719.589	11723.82
719.932	11634.33
720.275	11760.88
720.617	11729.24
720.96	11681.33
721.303	11652.18
721.646	11684.5
721.989	11582.35
722.331	11605.4
722.674	11665.96
723.016	11625.29
723.359	11675
723.701	11664.16
724.044	11681.56
724.386	11595.68
724.729	11589.58
725.071	11647.43
725.413	11504.84
725.755	11579.41
726.097	11529.7
726.439	11471.85
726.782	11482.47
727.124	11599.53
727.465	11495.8
727.807	11472.3
728.149	11421.9
728.491	11446.76
728.833	11404.05
729.175	11435.01
729.516	11394.79
729.858	11345.75
730.199	11438.63
730.541	11352.75
730.882	11345.07
731.224	11302.58
731.565	11277.95
731.906	11350.72
732.248	11348.23
732.589	11270.27
732.93	11235.24
733.271	11278.86
733.612	11210.61
733.953	11307.1
734.294	11250.83
734.635	11247.67
734.976	11257.84
735.317	11253.09
735.658	11159.31
735.999	11248.12
736.339	11202.25
736.68	11248.8
737.021	11170.61
737.361	11182.81
737.702	11264.62
738.042	11195.92
738.383	11180.78
738.723	11178.75
739.063	11116.6
739.404	11202.47
739.744	11135.81
740.084	11138.52
740.424	11195.24
740.764	11183.49
741.104	11121.35
741.444	11123.61
741.784	11055.36
742.124	11093.32
742.464	11122.25
742.804	11058.52
743.143	10986.89
743.483	11046.55
743.823	11023.95
744.162	11061.23
744.502	11041.57
744.841	11003.83
745.181	11105.98
745.52	11021.01
745.86	10997.28
746.199	11010.16
746.538	10943.95
746.877	11019.2
747.216	10976.27
747.556	10972.42
747.895	10971.75
748.234	10983.72
748.573	10837.06
748.911	10947.11
749.25	10969.26
749.589	10858.3
749.928	10926.1
750.267	10950.5
750.605	10945.76
750.944	10893.33
751.283	10847.68
751.621	10860.34
751.96	10749.38
752.298	10788.02
752.636	10838.42
752.975	10834.12
753.313	10684.97
753.651	10827.57
753.989	10850.39
754.327	10742.37
754.666	10698.76
755.004	10771.07
755.342	10743.05
755.679	10735.59
756.017	10665.09
756.355	10703.05
756.693	10657.18
757.031	10741.24
757.368	10605.88
757.706	10615.37
758.044	10651.53
758.381	10620.34
758.719	10579.67
759.056	10524.3
759.394	10635.26
759.731	10456.96
760.068	10459.89
