Data from cardboard_FLMS001491_036.txt Node
Date: Tue Feb 07 11:39:21 GMT 2017
User: dcchb
Spectrometer: FLMS00149
Trigger mode: 0
Integration Time (sec): 2.000000E-2
Scans to average: 10
Electric dark correction enabled: true
Nonlinearity correction enabled: false
Boxcar width: 0
XAxis mode: Wavelengths
Number of Pixels in Spectrum: 2048
>>>>>Begin Spectral Data<<<<<
341.393	-21.52
341.776	-21.52
342.16	-21.52
342.543	-54.07
342.927	-49.09
343.31	-71.24
343.693	-70.11
344.077	-64.91
344.46	-35.08
344.843	-37.57
345.226	-33.05
345.61	-34.63
345.993	-24.46
346.376	-18.81
346.759	-0.51
347.142	28.64
347.525	43.33
347.908	60.73
348.291	62.54
348.674	78.81
349.057	116.32
349.44	101.18
349.823	136.21
350.206	149.54
350.588	190.67
350.971	206.04
351.354	228.86
351.737	218.02
352.119	255.08
352.502	241.29
352.884	272.03
353.267	291.46
353.65	286.26
354.032	296.43
354.414	292.37
354.797	312.48
355.179	312.03
355.562	329.65
355.944	304.79
356.326	313.83
356.709	328.97
357.091	347.28
357.473	357.45
357.855	326.94
358.238	323.1
358.62	328.3
359.002	338.92
359.384	338.24
359.766	349.09
360.148	333.72
360.53	337.34
360.912	330.1
361.294	335.98
361.676	330.56
362.057	317.9
362.439	357.9
362.821	312.25
363.203	324
363.584	306.15
363.966	316.09
364.348	318.58
364.729	328.97
365.111	316.55
365.493	320.84
365.874	287.17
366.256	293.95
366.637	298.92
367.019	314.74
367.4	322.42
367.781	321.97
368.163	326.71
368.544	303.89
368.925	314.96
369.306	313.61
369.688	319.94
370.069	287.85
370.45	313.61
370.831	298.92
371.212	321.07
371.593	312.48
371.974	304.79
372.355	294.4
372.736	327.17
373.117	314.29
373.498	317.68
373.879	308.18
374.26	322.42
374.641	323.1
375.021	310.22
375.402	309.09
375.783	314.51
376.163	332.14
376.544	342.76
376.925	320.39
377.305	332.36
377.686	321.74
378.066	287.17
378.447	316.77
378.827	315.87
379.208	322.42
379.588	310.22
379.968	346.38
380.349	326.26
380.729	345.25
381.109	341.86
381.489	314.51
381.87	326.04
382.25	329.88
382.63	345.25
383.01	322.65
383.39	343.21
383.77	336.88
384.15	338.47
384.53	348.63
384.91	314.74
385.29	331.69
385.67	348.63
386.049	338.24
386.429	343.66
386.809	368.07
387.189	358.35
387.568	333.95
387.948	355.41
388.328	364
388.707	355.41
389.087	365.36
389.466	343.89
389.846	361.97
390.225	357.22
390.605	376.66
390.984	382.76
391.363	336.43
391.743	353.61
392.122	364.91
392.501	357
392.881	357.45
393.26	361.06
393.639	375.07
394.018	360.16
394.397	406.71
394.776	378.01
395.155	374.62
395.534	374.85
395.913	360.39
396.292	384.11
396.671	374.4
397.05	371.23
397.429	376.43
397.808	377.11
398.186	386.15
398.565	385.02
398.944	385.7
399.323	392.25
399.701	380.5
400.08	386.83
400.458	408.29
400.837	392.02
401.215	392.02
401.594	411.91
401.972	405.36
402.351	410.78
402.729	401.29
403.107	401.51
403.486	411.23
403.864	389.76
404.242	420.27
404.62	394.96
404.999	409.42
405.377	420.72
405.755	414.85
406.133	441.06
406.511	444.23
406.889	426.15
407.267	427.05
407.645	426.37
408.023	441.06
408.401	441.74
408.779	434.96
409.156	441.74
409.534	449.42
409.912	452.81
410.29	465.69
410.667	456.2
411.045	462.53
411.422	451.23
411.8	456.88
412.178	495.07
412.555	480.16
412.933	481.74
413.31	487.84
413.687	502.53
414.065	484
414.442	484
414.819	488.07
415.197	485.35
415.574	488.52
415.951	501.4
416.328	511.57
416.705	523.55
417.082	511.57
417.46	515.41
417.837	530.1
418.214	521.74
418.591	540.95
418.967	521.96
419.344	520.83
419.721	528.29
420.098	524.9
420.475	539.14
420.852	544.11
421.228	543.21
421.605	546.82
421.982	564.22
422.358	545.01
422.735	560.61
423.111	567.61
423.488	574.39
423.864	571.23
424.241	572.81
424.617	582.08
424.994	577.78
425.37	582.3
425.746	586.37
426.123	571
426.499	568.29
426.875	566.48
427.251	604.67
427.627	609.19
428.003	605.13
428.379	624.33
428.756	616.65
429.132	625.01
429.507	631.57
429.883	622.75
430.259	615.29
430.635	644.9
431.011	642.86
431.387	660.04
431.763	640.83
432.138	666.37
432.514	679.93
432.89	643.54
433.265	681.28
433.641	670.21
434.016	691.22
434.392	706.37
434.767	734.84
435.143	703.2
435.518	705.69
435.894	711.11
436.269	710.66
436.644	746.82
437.02	733.71
437.395	715.86
437.77	721.28
438.145	766.7
438.52	752.24
438.895	770.32
439.271	762.64
439.646	797.21
440.021	775.06
440.395	803.99
440.77	764.67
441.145	775.06
441.52	775.97
441.895	785.23
442.27	813.71
442.645	811.45
443.019	825.23
443.394	830.43
443.769	845.8
444.143	840.37
444.518	831.79
444.892	835.18
445.267	847.38
445.641	860.71
446.016	839.02
446.39	865.46
446.764	854.38
447.139	873.37
447.513	882.18
447.887	857.1
448.262	861.62
448.636	886.02
449.01	914.27
449.384	899.35
449.758	894.38
450.132	887.83
450.506	905
450.88	914.5
451.254	924.44
451.628	923.76
452.002	950.88
452.376	934.38
452.75	945
453.123	927.15
453.497	972.35
453.871	983.42
454.244	979.13
454.618	1006.92
454.992	1011.89
455.365	1024.1
455.739	1028.62
456.112	1018.22
456.486	1024.55
456.859	1062.74
457.232	1085.34
457.606	1065
457.979	1087.6
458.352	1095.28
458.725	1112.91
459.099	1126.47
459.472	1109.52
459.845	1149.52
460.218	1130.08
460.591	1146.13
460.964	1139.8
461.337	1180.25
461.71	1203.53
462.083	1198.1
462.456	1196.75
462.829	1228.61
463.201	1255.96
463.574	1230.87
463.947	1261.83
464.32	1276.29
464.692	1291.21
465.065	1279.23
465.438	1325.78
465.81	1333.47
466.183	1338.21
466.555	1352.68
466.928	1382.51
467.3	1367.14
467.672	1392.22
468.045	1414.14
468.417	1441.71
468.789	1463.41
469.161	1455.05
469.534	1509.51
469.906	1484.65
470.278	1525.33
470.65	1528.26
471.022	1534.59
471.394	1587.25
471.766	1585.66
472.138	1632.22
472.51	1621.6
472.882	1673.35
473.253	1657.53
473.625	1714.47
473.997	1739.78
474.369	1733.01
474.74	1786.79
475.112	1766
475.484	1821.36
475.855	1866.34
476.227	1864.75
476.598	1897.29
476.97	1908.82
477.341	1941.36
477.713	1977.29
478.084	1978.65
478.455	2055.71
478.827	2050.29
479.198	2105.42
479.569	2156.27
479.94	2169.83
480.311	2216.38
480.682	2230.85
481.053	2303.61
481.424	2315.81
481.795	2350.39
482.166	2413.44
482.537	2391.75
482.908	2453.66
483.279	2512.42
483.65	2515.36
484.021	2576.6
484.391	2583.6
484.762	2632.19
485.133	2666.54
485.503	2703.38
485.874	2748.8
486.244	2771.17
486.615	2848.68
486.985	2847.1
487.356	2913.09
487.726	2929.36
488.097	3027.43
488.467	2987.66
488.837	3118.96
489.207	3099.97
489.578	3191.27
489.948	3212.29
490.318	3237.82
490.688	3231.5
491.058	3347.43
491.428	3388.33
491.798	3422
492.168	3486.41
492.538	3523.69
492.908	3540.87
493.278	3585.84
493.648	3614.76
494.017	3678.49
494.387	3660.19
494.757	3756.45
495.126	3733.4
495.496	3753.07
495.866	3863.57
496.235	3886.85
496.605	3913.96
496.974	3936.79
497.344	4002.78
497.713	3976.56
498.082	4063.79
498.452	4081.19
498.821	4095.66
499.19	4147.18
499.559	4206.84
499.928	4240.51
500.298	4234.63
500.667	4304.24
501.036	4323.45
501.405	4392.6
501.774	4365.7
502.143	4450.67
502.512	4547.39
502.88	4513.95
503.249	4556.89
503.618	4560.5
503.987	4620.84
504.356	4664.91
504.724	4689.09
505.093	4707.16
505.462	4755.75
505.83	4817.67
506.199	4901.06
506.567	4922.07
506.936	4952.36
507.304	5022.41
507.672	5022.18
508.041	5106.93
508.409	5149.86
508.777	5172.91
509.145	5256.98
509.514	5223.53
509.882	5293.82
510.25	5350.09
510.618	5399.35
510.986	5442.51
511.354	5441.61
511.722	5480.48
512.09	5616.29
512.458	5625.11
512.826	5665.11
513.193	5706.91
513.561	5734.93
513.929	5801.6
514.297	5923.4
514.664	5981.26
515.032	5966.79
515.4	6038.43
515.767	6017.19
516.135	6141.7
516.502	6129.05
516.869	6237.29
517.237	6270.06
517.604	6261.02
517.972	6354.35
518.339	6444.97
518.706	6511.41
519.073	6555.25
519.44	6603.84
519.808	6677.96
520.175	6671.18
520.542	6791.63
520.909	6805.41
521.276	6886.32
521.643	6924.51
522.009	7031.62
522.376	7077.27
522.743	7150.94
523.11	7297.6
523.477	7257.83
523.843	7368.56
524.21	7489.92
524.577	7518.16
524.943	7594.32
525.31	7707.31
525.676	7752.06
526.043	7841.55
526.409	7843.81
526.776	8019.62
527.142	8093.97
527.508	8061.43
527.874	8129.22
528.241	8230.46
528.607	8289.67
528.973	8354.53
529.339	8453.51
529.705	8496.9
530.071	8642.2
530.437	8582.99
530.803	8682.2
531.169	8840.62
531.535	8816.66
531.901	8844.23
532.267	8975.3
532.632	8998.12
532.998	9172.36
533.364	9206.48
533.73	9213.94
534.095	9319.47
534.461	9424.78
534.826	9446.93
535.192	9508.17
535.557	9526.7
535.923	9583.19
536.288	9667.03
536.653	9675.62
537.019	9698.45
537.384	9829.97
537.749	9937.99
538.114	9978.21
538.479	9965.11
538.845	10057.08
539.21	10072
539.575	10096.85
539.94	10180.24
540.305	10271.76
540.67	10330.29
541.034	10317.41
541.399	10469.05
541.764	10504.75
542.129	10560.8
542.494	10678.53
542.858	10700
543.223	10769.6
543.587	10758.76
543.952	10882.6
544.316	10954.91
544.681	10902.93
545.045	11082.59
545.41	11092.76
545.774	11182.7
546.138	11120.56
546.503	11241.23
546.867	11303.83
547.231	11466.08
547.595	11444.84
547.959	11495.91
548.324	11540.43
548.688	11625.17
549.052	11685.74
549.416	11692.07
549.779	11765.51
550.143	11888.22
550.507	11936.13
550.871	12082.34
551.235	12027.65
551.599	12114.2
551.962	12244.59
552.326	12281.65
552.689	12344.48
553.053	12400.3
553.417	12463.34
553.78	12640.97
554.143	12622.44
554.507	12641.19
554.87	12722.77
555.234	12866.72
555.597	12819.72
555.96	12996.21
556.323	13007.74
556.686	13091.58
557.05	13185.59
557.413	13228.3
557.776	13294.74
558.139	13440.04
558.502	13494.73
558.865	13531.34
559.228	13677.55
559.59	13736.08
559.953	13801.16
560.316	13927.71
560.679	13985.34
561.041	14132.68
561.404	14099.01
561.767	14236.41
562.129	14244.77
562.492	14414.71
562.854	14438.43
563.217	14513.69
563.579	14611.08
563.941	14732.21
564.304	14934.69
564.666	14964.75
565.028	14925.65
565.39	15018.31
565.753	15123.39
566.115	15312.54
566.477	15303.27
566.839	15476.82
567.201	15569.93
567.563	15590.49
567.925	15735.12
568.287	15745.74
568.648	15846.98
569.01	15891.73
569.372	16012.63
569.734	15932.41
570.095	16184.38
570.457	16269.57
570.819	16319.51
571.18	16341.66
571.542	16439.06
571.903	16600.64
572.265	16565.16
572.626	16653.74
572.987	16702.78
573.349	16836.56
573.71	16917.01
574.071	17004.24
574.432	17104.8
574.794	17261.41
575.155	17240.39
575.516	17170.79
575.877	17348.41
576.238	17370.79
576.599	17488.98
576.96	17494.4
577.32	17522.42
577.681	17637.9
578.042	17701.85
578.403	17824.79
578.763	17794.5
579.124	17893.26
579.485	17971.45
579.845	18063.65
580.206	18088.73
580.566	18117.89
580.927	18201.5
581.287	18231.55
581.648	18288.5
582.008	18391.78
582.368	18397.88
582.728	18435.16
583.089	18463.86
583.449	18432.45
583.809	18490.53
584.169	18573.69
584.529	18658.89
584.889	18803.52
585.249	18627.48
585.609	18640.58
585.969	18722.62
586.329	18704.99
586.688	18867.02
587.048	18910.41
587.408	18895.49
587.768	18969.16
588.127	18924.87
588.487	18859.11
588.846	19142.49
589.206	18983.4
589.565	19063.17
589.925	19152.89
590.284	19150.63
590.643	19209.16
591.003	19245.77
591.362	19316.27
591.721	19267.91
592.08	19289.83
592.44	19432.65
592.799	19390.39
593.158	19420.9
593.517	19515.14
593.876	19468.36
594.235	19548.58
594.593	19565.98
594.952	19605.98
595.311	19606.43
595.67	19714.23
596.029	19784.73
596.387	19845.07
596.746	19796.26
597.104	19723.94
597.463	19812.53
597.822	19998.51
598.18	19865.18
598.538	19848.46
598.897	20033.54
599.255	19857.27
599.613	20230.37
599.972	20096.36
600.33	20071.51
600.688	20186.08
601.046	20232.18
601.404	20283.48
601.762	20268.11
602.12	20308.79
602.478	20459.29
602.836	20443.47
603.194	20405.73
603.552	20503.36
603.91	20407.32
604.268	20580.19
604.625	20507.65
604.983	20481.44
605.341	20416.13
605.698	20661.77
606.056	20734.99
606.413	20701.09
606.771	20823.12
607.128	20808.21
607.485	20774.09
607.843	20891.15
608.2	21042.1
608.557	21095.43
608.914	20964.14
609.272	21104.02
609.629	21231.25
609.986	21235.77
610.343	21116.68
610.7	21307.41
611.057	21228.54
611.414	21342.89
611.771	21390.12
612.127	21387.4
612.484	21417.91
612.841	21536.1
613.198	21443.45
613.554	21570.9
613.911	21633.72
614.267	21597.34
614.624	21648.19
614.98	21692.03
615.337	21758.24
615.693	21790.78
616.05	21807.51
616.406	22006.14
616.762	21869.42
617.118	21856.54
617.475	21924.11
617.831	21974.51
618.187	21998.46
618.543	22093.6
618.899	22269.19
619.255	22165.01
619.611	22173.82
619.967	22341.28
620.323	22327.94
620.678	22180.15
621.034	22152.58
621.39	22370.65
621.746	22312.58
622.101	22533.81
622.457	22274.61
622.812	22492.46
623.168	22496.08
623.523	22495.4
623.879	22548.73
624.234	22461.5
624.589	22610.42
624.945	22554.15
625.3	22692
625.655	22597.54
626.01	22637.09
626.365	22666.47
626.72	22712.57
627.075	22696.97
627.43	22744.43
627.785	22605.22
628.14	22794.15
628.495	22736.07
628.85	22735.39
629.205	22637.77
629.559	22922.73
629.914	22757.99
630.269	22719.57
630.623	22603.64
630.978	22732.23
631.332	22656.3
631.687	22788.72
632.041	22707.37
632.396	22753.47
632.75	22656.52
633.104	22819.68
633.459	22710.53
633.813	22659.46
634.167	22683.41
634.521	22573.14
634.875	22764.32
635.229	22712.79
635.583	22605.22
635.937	22624.89
636.291	22696.97
636.645	22687.71
636.999	22622.63
637.352	22690.42
637.706	22582.85
638.06	22715.28
638.413	22604.09
638.767	22425.57
639.121	22529.07
639.474	22472.35
639.828	22451.33
640.181	22642.06
640.534	22591.21
640.888	22525.68
641.241	22385.34
641.594	22530.2
641.947	22495.4
642.301	22347.83
642.654	22614.94
643.007	22500.59
643.36	22602.74
643.713	22461.95
644.066	22495.62
644.419	22432.12
644.771	22318.45
645.124	22109.87
645.477	22120.94
645.83	21998.46
646.182	21951.91
646.535	21899.93
646.888	21894.06
647.24	21741.97
647.593	21946.03
647.945	21967.73
648.298	21786.04
648.65	21822.42
649.002	21744.91
649.355	21848.86
649.707	21857.45
650.059	21939.71
650.411	22127.5
650.763	22280.71
651.115	22395.29
651.467	22355.29
651.819	22354.16
652.171	22240.04
652.523	22345.8
652.875	22300.15
653.227	22214.73
653.578	22428.73
653.93	22290.2
654.282	22363.2
654.633	22184.67
654.985	22242.3
655.337	22302.18
655.688	22363.65
656.039	22419.02
656.391	22206.14
656.742	22266.93
657.094	22152.58
657.445	22448.84
657.796	22238.45
658.147	22219.7
658.498	22308.28
658.849	22343.31
659.2	22341.05
659.551	22265.8
659.902	22391.9
660.253	22353.25
660.604	22330.43
660.955	22280.94
661.306	22398.68
661.656	22330.2
662.007	22273.93
662.358	22327.04
662.708	22285.46
663.059	22473.02
663.409	22272.8
663.76	22376.3
664.11	22417.21
664.461	22445.91
664.811	22339.92
665.161	22370.88
665.511	22346.02
665.862	22357.55
666.212	22464.89
666.562	22429.64
666.912	22464.21
667.262	22367.26
667.612	22478.67
667.962	22268.28
668.312	22335.63
668.662	22437.55
669.011	22410.43
669.361	22340.83
669.711	22298.34
670.06	22343.54
670.41	22309.41
670.76	22407.26
671.109	22450.88
671.459	22376.76
671.808	22308.74
672.157	22320.26
672.507	22260.38
672.856	22235.52
673.205	22299.02
673.554	22374.95
673.904	22326.59
674.253	22459.47
674.602	22256.99
674.951	22033.26
675.3	21971.12
675.649	22355.29
675.998	22235.29
676.346	22331.11
676.695	22459.69
677.044	22231.9
677.393	22291.33
677.741	22379.47
678.09	22177.21
678.438	22208.63
678.787	22242.3
679.135	22364.1
679.484	22120.04
679.832	22197.33
680.181	22072.36
680.529	22110.1
680.877	22035.52
681.225	22151.45
681.573	22169.08
681.922	22048.63
682.27	21981.29
682.618	22012.02
682.966	21958.01
683.314	22005.92
683.661	22016.99
684.009	21924.56
684.357	21850.67
684.705	21837.79
685.053	21838.92
685.4	21827.84
685.748	21749.88
686.095	21751.24
686.443	21723.89
686.79	21661.07
687.138	21793.27
687.485	21715.3
687.832	21611.35
688.18	21551.92
688.527	21576.78
688.874	21555.08
689.221	21507.4
689.568	21507.63
689.915	21464.01
690.262	21387.63
690.609	21363.22
690.956	21296.78
691.303	21281.19
691.65	21189.44
691.997	21214.98
692.344	21120.52
692.69	21016.11
693.037	21148.09
693.383	20874.2
693.73	21029.9
694.077	20789.91
694.423	20946.51
694.769	20828.77
695.116	20755.1
695.462	20797.59
695.808	20638.5
696.155	20789.23
696.501	20613.86
696.847	20612.06
697.193	20377.71
697.539	20560.98
697.885	20502
698.231	20342.69
698.577	20336.58
698.923	20347.21
699.269	20191.73
699.614	20152.63
699.96	20150.15
700.306	20158.28
700.651	20037.83
700.997	20026.08
701.342	19953.09
701.688	19960.77
702.033	19852.08
702.379	19872.87
702.724	19751.74
703.069	19928.69
703.415	19681.23
703.76	19681.01
704.105	19641.23
704.45	19673.32
704.795	19496.15
705.14	19475.14
705.485	19505.19
705.83	19435.59
706.175	19464.52
706.52	19437.4
706.865	19349.04
707.209	19288.02
707.554	19231.98
707.899	19227.91
708.243	19091.87
708.588	19220
708.932	19032.21
709.277	19054.58
709.621	19035.38
709.966	18951.08
710.31	19101.59
710.654	18862.5
710.998	18895.72
711.342	18958.32
711.687	18895.72
712.031	18836.28
712.375	18711.32
712.719	18798.77
713.063	18691.43
713.407	18861.82
713.75	18763.52
714.094	18725.33
714.438	18588.16
714.782	18653.24
715.125	18476.07
715.469	18632.67
715.812	18511.55
716.156	18397.88
716.499	18419.35
716.843	18503.19
717.186	18332.79
717.53	18408.73
717.873	18508.38
718.216	18342.74
718.559	18265
718.902	18248.96
719.246	18340.03
719.589	18236.07
719.932	18130.77
720.275	18180.48
720.617	18110.88
720.96	18068.62
721.303	18150.43
721.646	18050.99
721.989	17978.45
722.331	18079.02
722.674	18062.07
723.016	17982.07
723.359	18072.01
723.701	18083.08
724.044	17956.08
724.386	17800.38
724.729	18016.19
725.071	17903.88
725.413	17842.86
725.755	17920.38
726.097	17750.44
726.439	17756.76
726.782	17825.01
727.124	17832.69
727.465	17794.05
727.807	17783.43
728.149	17669.54
728.491	17740.27
728.833	17761.51
729.175	17716.31
729.516	17781.85
729.858	17697.56
730.199	17591.12
730.541	17637.45
730.882	17644.9
731.224	17617.33
731.565	17511.57
731.906	17634.73
732.248	17597.67
732.589	17476.32
732.93	17439.03
733.271	17496.88
733.612	17550.89
733.953	17507.96
734.294	17491.46
734.635	17455.76
734.976	17589.76
735.317	17465.25
735.658	17403.78
735.999	17458.02
736.339	17384.12
736.68	17451.91
737.021	17320.17
737.361	17329.88
737.702	17390.67
738.042	17314.97
738.383	17282.88
738.723	17333.27
739.063	17266.16
739.404	17398.13
739.744	17253.05
740.084	17214.41
740.424	17196.33
740.764	17224.8
741.104	17320.62
741.444	17134.18
741.784	17181.41
742.124	17235.87
742.464	17137.12
742.804	17140.28
743.143	17133.96
743.483	17131.02
743.823	17071.36
744.162	17030.23
744.502	17063.9
744.841	17041.3
745.181	17122.88
745.52	17010.8
745.86	17107.74
746.199	17022.32
746.538	17013.73
746.877	17144.8
747.216	17085.37
747.556	17014.86
747.895	16999.5
748.234	16926.28
748.573	16968.08
748.911	16802.44
749.25	16979.38
749.589	16866.17
749.928	16871.14
750.267	16889.44
750.605	16820.97
750.944	16825.04
751.283	16821.42
751.621	16872.49
751.96	16709.79
752.298	16751.82
752.636	16805.38
752.975	16736.45
753.313	16700.52
753.651	16812.38
753.989	16637.02
754.327	16625.95
754.666	16543.46
755.004	16668.66
755.342	16646.96
755.679	16636.34
756.017	16472.05
756.355	16616.46
756.693	16441.77
757.031	16505.05
757.368	16409
757.706	16509.34
758.044	16432.05
758.381	16465.95
758.719	16346.86
