Data from cardboard_FLMS001491_039.txt Node
Date: Tue Feb 07 11:39:22 GMT 2017
User: dcchb
Spectrometer: FLMS00149
Trigger mode: 0
Integration Time (sec): 2.000000E-2
Scans to average: 10
Electric dark correction enabled: true
Nonlinearity correction enabled: false
Boxcar width: 0
XAxis mode: Wavelengths
Number of Pixels in Spectrum: 2048
>>>>>Begin Spectral Data<<<<<
341.393	-8.14
341.776	-8.14
342.16	-8.14
342.543	-69.83
342.927	-58.3
343.31	-74.35
343.693	-63.05
344.077	-60.79
344.46	-53.33
344.843	-58.53
345.226	-32.77
345.61	-41.13
345.993	-19.21
346.376	-15.14
346.759	26.44
347.142	28.7
347.525	47
347.908	50.39
348.291	84.97
348.674	87.91
349.057	92.88
349.44	108.02
349.823	126.32
350.206	164.97
350.588	187.57
350.971	211.52
351.354	203.61
351.737	242.48
352.119	235.25
352.502	239.99
352.884	284.29
353.267	282.7
353.65	275.47
354.032	299.43
354.414	311.63
354.797	302.59
355.179	306.88
355.562	308.01
355.944	329.93
356.326	331.06
356.709	320.44
357.091	327.67
357.473	346.43
357.855	331.97
358.238	331.06
358.62	338.97
359.002	333.78
359.384	346.66
359.766	334
360.148	327.68
360.53	341.23
360.912	331.74
361.294	325.87
361.676	322.03
362.057	329.03
362.439	319.54
362.821	329.26
363.203	328.8
363.584	324.06
363.966	308.01
364.348	310.95
364.729	330.39
365.111	313.21
365.493	309.37
365.874	314.79
366.256	320.44
366.637	304.62
367.019	332.19
367.4	301.24
367.781	304.62
368.163	312.08
368.544	291.97
368.925	280.44
369.306	305.75
369.688	313.89
370.069	306.43
370.45	299.88
370.831	305.75
371.212	299.43
371.593	313.21
371.974	282.7
372.355	321.57
372.736	317.73
373.117	317.96
373.498	287.45
373.879	315.92
374.26	315.47
374.641	307.56
375.021	313.66
375.402	301.46
375.783	316.38
376.163	312.53
376.544	321.35
376.925	334
377.305	324.06
377.686	322.48
378.066	344.4
378.447	336.71
378.827	327.9
379.208	312.99
379.588	327.22
379.968	317.28
380.349	313.44
380.729	306.21
381.109	324.74
381.489	330.61
381.87	335.81
382.25	343.72
382.63	322.7
383.01	327.68
383.39	336.04
383.77	330.61
384.15	337.17
384.53	330.39
384.91	357.28
385.29	352.76
385.67	367
386.049	336.26
386.429	354.11
386.809	331.06
387.189	344.17
387.568	358.41
387.948	343.27
388.328	352.99
388.707	351.4
389.087	342.59
389.466	334.45
389.846	352.76
390.225	339.88
390.605	334.23
390.984	354.79
391.363	353.66
391.743	360.89
392.122	370.16
392.501	355.92
392.881	375.13
393.26	376.26
393.639	355.24
394.018	363.61
394.397	379.65
394.776	369.48
395.155	367.9
395.534	371.06
395.913	379.65
396.292	389.82
396.671	381.46
397.05	368.35
397.429	381.01
397.808	390.27
398.186	383.94
398.565	379.88
398.944	380.1
399.323	390.5
399.701	392.31
400.08	383.04
400.458	407.45
400.837	414.23
401.215	403.61
401.594	412.64
401.972	398.18
402.351	392.76
402.729	409.48
403.107	400.89
403.486	406.77
403.864	417.84
404.242	411.74
404.62	388.24
404.999	427.79
405.377	416.94
405.755	411.29
406.133	427.56
406.511	412.64
406.889	422.14
407.267	416.71
407.645	428.92
408.023	439.31
408.401	454.23
408.779	445.19
409.156	447.45
409.534	450.16
409.912	457.39
410.29	446.99
410.667	443.6
411.045	463.94
411.422	446.32
411.8	467.11
412.178	464.62
412.555	484.73
412.933	445.41
413.31	476.6
413.687	459.2
414.065	472.53
414.442	475.47
414.819	478.18
415.197	486.99
415.574	506.88
415.951	510.95
416.328	498.74
416.705	505.52
417.082	509.14
417.46	513.66
417.837	500.1
418.214	507.78
418.591	526.77
418.967	528.35
419.344	525.64
419.721	523.83
420.098	546.65
420.475	527.44
420.852	524.51
421.228	549.36
421.605	534.22
421.982	558.18
422.358	553.43
422.735	546.43
423.111	555.24
423.488	543.49
423.864	559.53
424.241	542.36
424.617	558.4
424.994	553.43
425.37	577.39
425.746	574.67
426.123	577.84
426.499	576.93
426.875	591.4
427.251	582.58
427.627	626.42
428.003	595.69
428.379	596.14
428.756	618.51
429.132	618.74
429.507	627.1
429.883	648.8
430.259	640.89
430.635	633.88
431.011	624.84
431.387	634.56
431.763	646.08
432.138	658.29
432.514	655.35
432.89	667.78
433.265	682.02
433.641	697.83
434.016	675.46
434.392	696.7
434.767	701.68
435.143	712.07
435.518	697.38
435.894	706.42
436.269	723.14
436.644	721.11
437.02	732.64
437.395	745.97
437.77	742.13
438.145	750.04
438.52	773.54
438.895	743.71
439.271	763.6
439.646	785.29
440.021	792.52
440.395	798.4
440.77	785.29
441.145	796.59
441.52	812.63
441.895	821
442.27	819.19
442.645	805.4
443.019	818.06
443.394	823.71
443.769	850.6
444.143	817.61
444.518	844.72
444.892	831.62
445.267	830.49
445.641	856.93
446.016	833.88
446.39	853.31
446.764	860.77
447.139	853.76
447.513	884.72
447.887	903.25
448.262	855.8
448.636	882.46
449.01	870.71
449.384	896.02
449.758	875.91
450.132	905.06
450.506	918.17
450.88	909.58
451.254	924.72
451.628	915
452.002	944.83
452.376	930.82
452.75	947.77
453.123	959.3
453.497	978.05
453.871	991.84
454.244	974.21
454.618	969.92
454.992	1007.88
455.365	1023.02
455.739	1034.1
456.112	1023.48
456.486	1019.18
456.859	1055.11
457.232	1056.92
457.606	1044.27
457.979	1059.86
458.352	1112.51
458.725	1108.45
459.099	1103.25
459.472	1123.59
459.845	1155
460.218	1139.63
460.591	1155.22
460.964	1132.17
461.337	1175.79
461.71	1204.94
462.083	1186.86
462.456	1205.62
462.829	1228.22
463.201	1188.67
463.574	1212.85
463.947	1245.84
464.32	1265.5
464.692	1274.99
465.065	1284.49
465.438	1303.69
465.81	1313.41
466.183	1340.53
466.555	1357.93
466.928	1376.01
467.3	1380.98
467.672	1392.05
468.045	1416.23
468.417	1457.14
468.789	1449.68
469.161	1453.52
469.534	1458.72
469.906	1502.11
470.278	1506.63
470.65	1525.61
471.022	1541.65
471.394	1573.52
471.766	1578.04
472.138	1631.82
472.51	1633.18
472.882	1679.05
473.253	1671.37
473.625	1693.97
473.997	1724.93
474.369	1727.19
474.74	1764.25
475.112	1778.94
475.484	1814.19
475.855	1808.31
476.227	1845.6
476.598	1894.64
476.97	1932.15
477.341	1974.19
477.713	1984.58
478.084	2022.32
478.455	2034.75
478.827	2071.13
479.198	2126.95
479.569	2116.33
479.94	2147.51
480.311	2195.65
480.682	2245.14
481.053	2268.87
481.424	2296.44
481.795	2341.18
482.166	2375.53
482.537	2416.66
482.908	2491.23
483.279	2478.13
483.65	2513.38
484.021	2590.21
484.391	2579.82
484.762	2636.09
485.133	2677.22
485.503	2699.14
485.874	2748.18
486.244	2781.85
486.615	2845.35
486.985	2862.75
487.356	2902.52
487.726	2966.7
488.097	3002.18
488.467	3048.73
488.837	3095.74
489.207	3125.79
489.578	3197.43
489.948	3203.98
490.318	3229.07
490.688	3253.47
491.058	3339.35
491.428	3360.59
491.798	3410.76
492.168	3443.75
492.538	3450.08
492.908	3524.88
493.278	3609.85
493.648	3593.35
494.017	3632.22
494.387	3688.94
494.757	3735.95
495.126	3783.4
495.496	3822.5
495.866	3821.37
496.235	3860.24
496.605	3902.27
496.974	3956.05
497.344	3948.37
497.713	3988.82
498.082	4058.2
498.452	4155.37
498.821	4123.96
499.19	4143.62
499.559	4207.57
499.928	4206.22
500.298	4285.31
500.667	4332.77
501.036	4322.6
501.405	4371.86
501.774	4359.43
502.143	4455.02
502.512	4494.12
502.88	4570.28
503.249	4491.63
503.618	4552.65
503.987	4619.31
504.356	4627.9
504.724	4706.32
505.093	4711.51
505.462	4726.43
505.83	4795.35
506.199	4814.11
506.567	4935.69
506.936	4935.69
507.304	4987.21
507.672	5003.71
508.041	5082.58
508.409	5081.45
508.777	5145.4
509.145	5216.13
509.514	5203.93
509.882	5257.04
510.25	5331.61
510.618	5393.76
510.986	5383.81
511.354	5465.84
511.722	5522.11
512.09	5570.02
512.458	5618.38
512.826	5643.02
513.193	5668.33
513.561	5736.12
513.929	5817.02
514.297	5876.23
514.664	5893.86
515.032	5960.52
515.4	6043
515.767	6056.34
516.135	6061.99
516.502	6116.45
516.869	6220.4
517.237	6261.98
517.604	6294.3
517.972	6340.85
518.339	6391.24
518.706	6424.92
519.073	6528.19
519.44	6557.34
519.808	6695.64
520.175	6677.11
520.542	6855.41
520.909	6866.71
521.276	6853.15
521.643	6942.64
522.009	7040.94
522.376	7086.14
522.743	7107.84
523.11	7221.05
523.477	7315.29
523.843	7383.76
524.21	7485.45
524.577	7561.38
524.943	7588.28
525.31	7635.96
525.676	7786.46
526.043	7842.51
526.409	7884.76
526.776	7981.49
527.142	8056.29
527.508	8087.47
527.874	8163.63
528.241	8255.15
528.607	8301.7
528.973	8373.57
529.339	8445.43
529.705	8494.92
530.071	8666.89
530.437	8708.92
530.803	8726.55
531.169	8807.45
531.535	8776.94
531.901	8957.5
532.267	8952.31
532.632	9035.24
532.998	9109.82
533.364	9139.42
533.73	9193.66
534.095	9386.87
534.461	9409.02
534.826	9419.87
535.192	9539.41
535.557	9636.36
535.923	9597.71
536.288	9710.25
536.653	9733.3
537.019	9739.4
537.384	9829.57
537.749	9881.32
538.114	9982.79
538.479	9945.28
538.845	10047.65
539.21	10089.9
539.575	10065.72
539.94	10209.22
540.305	10274.53
540.67	10344.13
541.034	10348.88
541.399	10497.58
541.764	10546.16
542.129	10540.06
542.494	10592.26
542.858	10566.95
543.223	10686.27
543.587	10860.05
543.952	10829.55
544.316	10946.38
544.681	10946.6
545.045	11012.59
545.41	11091.46
545.774	11168.97
546.138	11232.25
546.503	11231.57
546.867	11296.2
547.231	11415.07
547.595	11397.21
547.959	11480.38
548.324	11553.14
548.688	11559.7
549.052	11658.22
549.416	11695.06
549.779	11757.66
550.143	11900.03
550.507	11985.22
550.871	12059.57
551.235	12043.98
551.599	12236.51
551.962	12267.47
552.326	12268.15
552.689	12422.27
553.053	12392.22
553.417	12495.72
553.78	12674.69
554.143	12607.8
554.507	12662.49
554.87	12763.51
555.234	12963.73
555.597	12849.38
555.96	12979.55
556.323	13046.44
556.686	13143.16
557.05	13200.56
557.413	13330.5
557.776	13294.79
558.139	13403.72
558.502	13396.94
558.865	13593.54
559.228	13700.88
559.59	13739.98
559.953	13735.91
560.316	14025.17
560.679	13993.53
561.041	14021.55
561.404	14236.46
561.767	14349
562.129	14276.46
562.492	14456.8
562.854	14465.16
563.217	14522.1
563.579	14541.99
563.941	14703.57
564.304	14773.62
564.666	14878.03
565.028	14961.19
565.39	15054.52
565.753	15135.42
566.115	15186.95
566.477	15401.4
566.839	15472.36
567.201	15540.83
567.563	15574.96
567.925	15688.85
568.287	15723.43
568.648	15861.5
569.01	15930.2
569.372	16014.95
569.734	16017.21
570.095	16192.34
570.457	16191.21
570.819	16378.55
571.18	16357.08
571.542	16452
571.903	16495.84
572.265	16682.5
572.626	16711.43
572.987	16786.23
573.349	16859.67
573.71	16936.96
574.071	16931.53
574.432	17017.86
574.794	17220.34
575.155	17162.26
575.516	17221.47
575.877	17408.13
576.238	17399.54
576.599	17429.37
576.96	17429.82
577.32	17541.01
577.681	17666.88
578.042	17729.48
578.403	17733.09
578.763	17789.81
579.124	17825.52
579.485	17944.16
579.845	17989.13
580.206	17989.36
580.566	18118.62
580.927	18186.19
581.287	18240.65
581.648	18241.1
582.008	18376.92
582.368	18375.79
582.728	18485.62
583.089	18378.73
583.449	18570.36
583.809	18437.93
584.169	18599.96
584.529	18604.03
584.889	18677.25
585.249	18669.57
585.609	18669.34
585.969	18827.75
586.329	18811.03
586.688	18845.83
587.048	18885.83
587.408	18892.84
587.768	18962.44
588.127	18949.56
588.487	18948.43
588.846	19108.88
589.206	19047.86
589.565	19094.41
589.925	19273.84
590.284	19118.82
590.643	19274.3
591.003	19360.17
591.362	19273.62
591.721	19309.77
592.08	19444.46
592.44	19335.08
592.799	19427.74
593.158	19410.79
593.517	19474.74
593.876	19481.3
594.235	19523.33
594.593	19527.62
594.952	19520.84
595.311	19554.97
595.67	19705.47
596.029	19756.54
596.387	19789.54
596.746	19789.54
597.104	19779.82
597.463	19837.44
597.822	19891.23
598.18	19876.77
598.538	19880.38
598.897	20094.61
599.255	19823.66
599.613	20184.78
599.972	20089.42
600.33	20082.41
600.688	20054.39
601.046	20203.76
601.404	20359.92
601.762	20300.03
602.12	20400.59
602.478	20417.77
602.836	20412.12
603.194	20291.22
603.552	20398.56
603.91	20389.97
604.268	20432.23
604.625	20564.21
604.983	20589.74
605.341	20505
605.698	20742.73
606.056	20731.66
606.413	20730.98
606.771	20804.65
607.128	20806.68
607.485	20785.89
607.843	20905.21
608.2	21003.29
608.557	21032.67
608.914	20990.41
609.272	21064.08
609.629	21156.05
609.986	21189.5
610.343	21074.93
610.7	21312.66
611.057	21215.04
611.414	21271.31
611.771	21383.17
612.127	21470.4
612.484	21428.59
612.841	21511.52
613.198	21455.93
613.554	21422.94
613.911	21614.12
614.267	21610.96
614.624	21543.16
614.98	21558.53
615.337	21700.67
615.693	21757.17
616.05	21857.28
616.406	21961.68
616.762	21822.7
617.118	21955.13
617.475	21819.77
617.831	22041.91
618.187	21982.02
618.543	21998.97
618.899	22138.17
619.255	22218.62
619.611	22169.59
619.967	22207.1
620.323	22368.9
620.678	22299.3
621.034	22296.14
621.39	22245.29
621.746	22246.87
622.101	22448.9
622.457	22376.13
622.812	22446.64
623.168	22567.54
623.523	22617.26
623.879	22600.31
624.234	22505.17
624.589	22593.53
624.945	22621.78
625.3	22620.65
625.655	22587.2
626.01	22607.32
626.365	22605.06
626.72	22688.44
627.075	22639.4
627.43	22733.87
627.785	22719.85
628.14	22671.04
628.495	22700.65
628.85	22705.62
629.205	22624.49
629.559	22868.33
629.914	22763.02
630.269	22831.04
630.623	22657.71
630.978	22573.42
631.332	22862.22
631.687	22854.31
632.041	22716.46
632.396	22764.15
632.75	22660.2
633.104	22791.72
633.459	22629.24
633.813	22704.71
634.167	22667.43
634.521	22723.24
634.875	22704.26
635.229	22678.95
635.583	22713.53
635.937	22638.27
636.291	22620.42
636.645	22680.99
636.999	22645.51
637.352	22771.6
637.706	22582.68
638.06	22657.71
638.413	22613.42
638.767	22463.59
639.121	22605.28
639.474	22416.36
639.828	22417.49
640.181	22536.58
640.534	22532.29
640.888	22574.32
641.241	22464.95
641.594	22520.99
641.947	22561.89
642.301	22318.74
642.654	22466.98
643.007	22609.57
643.36	22518.28
643.713	22513.98
644.066	22652.06
644.419	22463.36
644.771	22269.47
645.124	22161.68
645.477	22105.18
645.83	21954.45
646.182	21914.23
646.535	21867.45
646.888	21991.96
647.24	21750.16
647.593	21981.12
647.945	21906.09
648.298	21795.59
648.65	21798.97
649.002	21799.2
649.355	21842.36
649.707	21774.79
650.059	21979.08
650.411	22147.21
650.763	22277.38
651.115	22405.29
651.467	22500.43
651.819	22434.89
652.171	22401.67
652.523	22385.17
652.875	22341.33
653.227	22248
653.578	22312.41
653.93	22385.85
654.282	22333.2
654.633	22206.2
654.985	22226.08
655.337	22213.65
655.688	22314.22
656.039	22346.98
656.391	22186.76
656.742	22343.37
657.094	22317.61
657.445	22332.52
657.796	22282.58
658.147	22380.43
658.498	22340.88
658.849	22388.34
659.2	22165.29
659.551	22272.86
659.902	22295.23
660.253	22283.93
660.604	22329.13
660.955	22324.16
661.306	22393.76
661.656	22261.11
662.007	22233.09
662.358	22362.58
662.708	22287.78
663.059	22405.29
663.409	22191.73
663.76	22408.9
664.11	22358.28
664.461	22393.08
664.811	22412.29
665.161	22397.6
665.511	22375.46
665.862	22323.71
666.212	22522.8
666.562	22445.29
666.912	22400.54
667.262	22471.27
667.612	22401.9
667.962	22522.8
668.312	22336.59
668.662	22460.2
669.011	22459.3
669.361	22337.04
669.711	22341.11
670.06	22362.58
670.41	22332.29
670.76	22270.83
671.109	22449.81
671.459	22345.85
671.808	22385.63
672.157	22437.38
672.507	22301.79
672.856	22343.59
673.205	22285.74
673.554	22389.69
673.904	22331.84
674.253	22450.48
674.602	22300.66
674.951	22054.79
675.3	21882.14
675.649	22226.76
675.998	22298.85
676.346	22270.83
676.695	22284.16
677.044	22238.74
677.393	22289.13
677.741	22321.45
678.09	22260.21
678.438	22215.46
678.787	22232.41
679.135	22233.77
679.484	22198.51
679.832	22136.37
680.181	21993.09
680.529	22231.96
680.877	22026.09
681.225	21995.81
681.573	22186.76
681.922	21996.26
682.27	22061.57
682.618	22053.88
682.966	22055.92
683.314	22047.33
683.661	21984.28
684.009	21966.65
684.357	21822.48
684.705	21852.76
685.053	21829.93
685.4	21802.82
685.748	21761.69
686.095	21714.91
686.443	21677.4
686.79	21633.78
687.138	21797.84
687.485	21765.76
687.832	21526.21
688.18	21631.3
688.527	21535.03
688.874	21499.77
689.221	21460
689.568	21374.58
689.915	21425.43
690.262	21372.32
690.609	21390.4
690.956	21267.24
691.303	21292.77
691.65	21289.84
691.997	21273.56
692.344	21133.68
692.69	21054.36
693.037	21131.2
693.383	20943.18
693.73	20932.78
694.077	20844.2
694.423	20952.44
694.769	20830.19
695.116	20868.15
695.462	20763.52
695.808	20763.75
696.155	20789.96
696.501	20566.24
696.847	20516.75
697.193	20406.02
697.539	20499.8
697.885	20414.6
698.231	20432.68
698.577	20375.28
698.923	20406.92
699.269	20311.78
699.614	20084.67
699.96	20043.09
700.306	20217.1
700.651	20064.78
700.997	20078.12
701.342	20029.53
701.688	19942.3
702.033	19956.54
702.379	19978.46
702.724	19792.7
703.069	19853.26
703.415	19656.21
703.76	19740.27
704.105	19772.14
704.45	19655.98
704.795	19559.71
705.14	19512.03
705.485	19504.35
705.83	19472.26
706.175	19485.14
706.52	19393.16
706.865	19456.21
707.209	19367.4
707.554	19303.22
707.899	19334.63
708.243	19149.1
708.588	19227.97
708.932	19040.63
709.277	19095.32
709.621	19089.44
709.966	18914.98
710.31	19041.53
710.654	18888.99
710.998	18805.16
711.342	18906.4
711.687	18770.13
712.031	18805.38
712.375	18792.27
712.719	18865.04
713.063	18672.96
713.407	18763.8
713.75	18701.88
714.094	18636.12
714.438	18601.09
714.782	18662.11
715.125	18499.63
715.469	18593.18
715.812	18506.41
716.156	18395
716.499	18397.26
716.843	18460.76
717.186	18300.54
717.53	18508.67
717.873	18417.82
718.216	18359.74
718.559	18236.13
718.902	18231.16
719.246	18267.32
719.589	18193.87
719.932	18111.16
720.275	18190.48
720.617	18074.78
720.96	18068.9
721.303	18126.3
721.646	18092.63
721.989	17978.06
722.331	18160.65
722.674	18091.5
723.016	17998.17
723.359	18026.64
723.701	18047.89
724.044	17883.37
724.386	17872.75
724.729	17896.7
725.071	17864.84
725.413	17900.32
725.755	17882.69
726.097	17788.68
726.439	17760.66
726.782	17776.26
727.124	17859.42
727.465	17703.49
727.807	17785.97
728.149	17726.54
728.491	17712.98
728.833	17745.3
729.175	17700.33
729.516	17679.76
729.858	17608.8
730.199	17727.44
730.541	17679.08
730.882	17600.44
731.224	17607.67
731.565	17570.39
731.906	17504.62
732.248	17578.29
732.589	17488.58
732.93	17445.19
733.271	17484.06
733.612	17508.69
733.953	17585.3
734.294	17420.56
734.635	17420.11
734.976	17549.82
735.317	17418.3
735.658	17408.13
735.999	17473.21
736.339	17281.58
736.68	17375.59
737.021	17401.12
737.361	17235.03
737.702	17364.29
738.042	17255.14
738.383	17360.45
738.723	17329.49
739.063	17302.6
739.404	17381.01
739.744	17280.22
740.084	17238.64
740.424	17289.49
740.764	17243.84
741.104	17330.62
741.444	17230.96
741.784	17155.26
742.124	17159.55
742.464	17131.3
742.804	17168.59
743.143	17193.67
743.483	17160.23
743.823	17050.85
744.162	17072.32
744.502	17091.08
744.841	17025.32
745.181	17024.86
745.52	17127.46
745.86	17077.97
746.199	17059.66
746.538	16948.93
746.877	17082.94
747.216	16959.33
747.556	16946.9
747.895	17007.46
748.234	16897.18
748.573	16880.46
748.911	16886.34
749.25	16924.98
749.589	16925.66
749.928	16864.64
750.267	16876.39
750.605	16935.15
750.944	16917.3
751.283	16818.99
751.621	16861.03
751.96	16697.64
752.298	16790.07
752.636	16821.03
752.975	16686.11
753.313	16619.68
753.651	16795.26
753.989	16717.07
754.327	16699
754.666	16572.45
755.004	16595.27
755.342	16580.13
755.679	16627.36
756.017	16487.02
756.355	16581.48
756.693	16589.39
757.031	16533.12
757.368	16531.32
757.706	16444.77
758.044	16360.02
758.381	16379.23
758.719	16313.92
