Data from cardboard_FLMS001491_021.txt Node
Date: Tue Feb 07 11:39:10 GMT 2017
User: dcchb
Spectrometer: FLMS00149
Trigger mode: 0
Integration Time (sec): 2.000000E-2
Scans to average: 10
Electric dark correction enabled: true
Nonlinearity correction enabled: false
Boxcar width: 0
XAxis mode: Wavelengths
Number of Pixels in Spectrum: 2048
>>>>>Begin Spectral Data<<<<<
341.393	-3.22
341.776	-3.22
342.16	-3.22
342.543	-67.4
342.927	-74.4
343.31	-70.34
343.693	-57
344.077	-76.66
344.46	-59.49
344.843	-46.83
345.226	-42.54
345.61	-40.28
345.993	-23.33
346.376	-19.72
346.759	11.69
347.142	31.58
347.525	56.21
347.908	49.43
348.291	77
348.674	112.03
349.057	98.25
349.44	124.23
349.823	154.74
350.206	156.32
350.588	179.37
350.971	179.83
351.354	216.21
351.737	239.03
352.119	238.13
352.502	257.56
352.884	253.5
353.267	261.41
353.65	268.19
354.032	298.47
354.414	305.47
354.797	321.97
355.179	307.73
355.562	318.35
355.944	319.94
356.326	327.39
356.709	317
357.091	326.04
357.473	330.33
357.855	313.38
358.238	310.22
358.62	318.35
359.002	323.55
359.384	361.74
359.766	318.81
360.148	322.65
360.53	325.81
360.912	335.53
361.294	306.38
361.676	324.68
362.057	327.39
362.439	312.03
362.821	314.74
363.203	325.36
363.584	316.09
363.966	290.33
364.348	317.45
364.729	296.66
365.111	300.05
365.493	289.43
365.874	309.31
366.256	297.34
366.637	301.86
367.019	293.5
367.4	306.6
367.781	293.72
368.163	311.8
368.544	295.98
368.925	289.88
369.306	308.64
369.688	277
370.069	305.7
370.45	292.82
370.831	313.38
371.212	303.66
371.593	298.47
371.974	312.25
372.355	293.27
372.736	307.05
373.117	295.53
373.498	294.85
373.879	301.4
374.26	287.85
374.641	299.6
375.021	319.71
375.402	304.57
375.783	307.05
376.163	283.78
376.544	311.12
376.925	309.77
377.305	292.59
377.686	319.94
378.066	300.05
378.447	303.21
378.827	305.02
379.208	302.08
379.588	321.07
379.968	306.15
380.349	306.6
380.729	318.58
381.109	301.4
381.489	329.88
381.87	310.67
382.25	316.09
382.63	319.94
383.01	315.64
383.39	331.91
383.77	332.59
384.15	324.23
384.53	343.66
384.91	334.17
385.29	333.04
385.67	334.62
386.049	339.6
386.429	314.29
386.809	316.55
387.189	328.97
387.568	317
387.948	323.32
388.328	343.21
388.707	347.5
389.087	343.21
389.466	331.46
389.846	352.25
390.225	330.1
390.605	323.78
390.984	328.07
391.363	338.92
391.743	346.6
392.122	343.44
392.501	351.57
392.881	344.79
393.26	348.63
393.639	331.46
394.018	334.85
394.397	361.06
394.776	340.05
395.155	345.7
395.534	357.22
395.913	343.89
396.292	335.75
396.671	335.08
397.05	357.22
397.429	347.96
397.808	329.43
398.186	356.77
398.565	355.64
398.944	353.38
399.323	373.94
399.701	365.36
400.08	366.26
400.458	377.33
400.837	365.58
401.215	389.09
401.594	368.52
401.972	380.72
402.351	370.1
402.729	394.74
403.107	363.78
403.486	371.01
403.864	369.88
404.242	393.38
404.62	397.22
404.999	381.4
405.377	365.81
405.755	394.06
406.133	376.66
406.511	393.61
406.889	380.05
407.267	395.87
407.645	389.54
408.023	395.64
408.401	403.77
408.779	410.1
409.156	391.12
409.534	401.97
409.912	415.07
410.29	410.55
410.667	412.59
411.045	418.92
411.422	414.17
411.8	408.97
412.178	439.25
412.555	419.14
412.933	442.87
413.31	427.73
413.687	429.31
414.065	428.86
414.442	427.28
414.819	444.45
415.197	436.54
415.574	435.86
415.951	440.61
416.328	432.25
416.705	451.68
417.082	440.84
417.46	433.83
417.837	459.14
418.214	453.26
418.591	466.37
418.967	469.76
419.344	444
419.721	481.29
420.098	455.52
420.475	469.54
420.852	446.49
421.228	453.26
421.605	479.7
421.982	460.72
422.358	485.81
422.735	478.57
423.111	480.61
423.488	502.98
423.864	488.52
424.241	504.11
424.617	484.68
424.994	518.35
425.37	523.09
425.746	487.84
426.123	498.69
426.499	501.4
426.875	507.95
427.251	496.88
427.627	541.17
428.003	522.87
428.379	533.94
428.756	528.97
429.132	526.48
429.507	534.62
429.883	539.36
430.259	542.53
430.635	546.37
431.011	534.84
431.387	531.45
431.763	554.05
432.138	564.9
432.514	573.04
432.89	580.49
433.265	559.93
433.641	582.98
434.016	582.08
434.392	581.85
434.767	583.43
435.143	588.63
435.518	595.18
435.894	595.63
436.269	597.44
436.644	593.37
437.02	603.32
437.395	605.13
437.77	629.76
438.145	617.33
438.52	629.76
438.895	617.78
439.271	618.23
439.646	643.77
440.021	658.46
440.395	654.16
440.77	632.24
441.145	659.14
441.52	669.76
441.895	681.06
442.27	639.7
442.645	680.38
443.019	672.47
443.394	675.86
443.769	676.76
444.143	672.92
444.518	672.24
444.892	686.03
445.267	683.32
445.641	694.16
446.016	700.72
446.39	703.65
446.764	724.22
447.139	716.99
447.513	713.15
447.887	716.31
448.262	707.27
448.636	716.99
449.01	724.22
449.384	720.6
449.758	736.42
450.132	751.11
450.506	744.33
450.88	759.02
451.254	758.34
451.628	745.69
452.002	741.62
452.376	770.54
452.75	760.15
453.123	794.72
453.497	786.36
453.871	792.92
454.244	796.53
454.618	819.36
454.992	826.81
455.365	827.04
455.739	832.46
456.112	854.84
456.486	845.35
456.859	837.21
457.232	860.71
457.606	875.63
457.979	866.36
458.352	851.22
458.725	890.99
459.099	891.22
459.472	920.15
459.845	892.12
460.218	912.24
460.591	928.73
460.964	940.48
461.337	921.28
461.71	939.58
462.083	941.16
462.456	950.43
462.829	962.63
463.201	1002.85
463.574	971.9
463.947	1004.66
464.32	1029.97
464.692	1008.05
465.065	1013.48
465.438	1052.12
465.81	1005.57
466.183	1057.32
466.555	1057.99
466.928	1078.79
467.3	1074.27
467.672	1106.58
468.045	1107.03
468.417	1116.07
468.789	1143.87
469.161	1145.22
469.534	1142.51
469.906	1187.71
470.278	1186.13
470.65	1197.88
471.022	1205.34
471.394	1205.11
471.766	1221.38
472.138	1244.2
472.51	1269.06
472.882	1273.13
473.253	1310.87
473.625	1301.6
473.997	1346.57
474.369	1329.17
474.74	1348.61
475.112	1373.92
475.484	1402.62
475.855	1423.41
476.227	1460.02
476.598	1454.14
476.97	1451.43
477.341	1489.4
477.713	1543.18
478.084	1530.75
478.455	1564.87
478.827	1569.39
479.198	1597.64
479.569	1615.27
479.94	1641.93
480.311	1680.35
480.682	1696.85
481.053	1715.83
481.424	1744.3
481.795	1764.42
482.166	1796.73
482.537	1789.5
482.908	1866.11
483.279	1850.52
483.65	1878.09
484.021	1912.44
484.391	1919.22
484.762	2003.96
485.133	2003.51
485.503	2011.64
485.874	2087.12
486.244	2085.09
486.615	2097.06
486.985	2181.13
487.356	2180.23
487.726	2170.06
488.097	2240.11
488.467	2246.66
488.837	2289.37
489.207	2321.92
489.578	2358.53
489.948	2350.39
490.318	2454.12
490.688	2416.15
491.058	2453.21
491.428	2497.5
491.798	2471.74
492.168	2579.54
492.538	2579.76
492.908	2611.63
493.278	2648.24
493.648	2667.22
494.017	2724.39
494.387	2720.55
494.757	2749.25
495.126	2742.47
495.496	2792.86
495.866	2804.16
496.235	2838.96
496.605	2861.34
496.974	2917.38
497.344	2927.78
497.713	2934.78
498.082	2972.07
498.452	2997.15
498.821	3045.51
499.19	3052.29
499.559	3091.84
499.928	3087.32
500.298	3120.99
500.667	3169.13
501.036	3153.98
501.405	3204.38
501.774	3208.22
502.143	3281.89
502.512	3287.09
502.88	3331.61
503.249	3338.61
503.618	3346.75
503.987	3366.41
504.356	3428.78
504.724	3438.27
505.093	3457.71
505.462	3457.25
505.83	3478.5
506.199	3537.93
506.567	3574.76
506.936	3593.07
507.304	3619.06
507.672	3668.32
508.041	3670.13
508.409	3710.13
508.777	3785.15
509.145	3758.71
509.514	3826.51
509.882	3846.4
510.25	3892.72
510.618	3876.45
510.986	3922.1
511.354	3963.46
511.722	3951.48
512.09	4040.52
512.458	4074.19
512.826	4111.25
513.193	4107.86
513.561	4181.08
513.929	4251.58
514.297	4223.34
514.664	4268.76
515.032	4277.12
515.4	4329.55
515.767	4333.84
516.135	4419.94
516.502	4400.96
516.869	4496.77
517.237	4524.12
517.604	4532.48
517.972	4594.85
518.339	4626.04
518.706	4662.19
519.073	4655.87
519.44	4716.88
519.808	4821.96
520.175	4774.51
520.542	4867.61
520.909	4864.22
521.276	4944.45
521.643	5004.33
522.009	5063.09
522.376	5116.42
522.743	5081.39
523.11	5165.68
523.477	5227.38
523.843	5248.62
524.21	5367.03
524.577	5423.08
524.943	5391.21
525.31	5410.2
525.676	5511.21
526.043	5517.99
526.409	5595.05
526.776	5701.49
527.142	5622.39
527.508	5686.57
527.874	5802.95
528.241	5853.57
528.607	5862.61
528.973	5882.5
529.339	5921.6
529.705	6014.47
530.071	6041.82
530.437	6104.42
530.803	6131.53
531.169	6206.33
531.535	6152.32
531.901	6211.31
532.267	6241.81
532.632	6350.96
532.998	6381.92
533.364	6442.49
533.73	6419.21
534.095	6552.77
534.461	6597.74
534.826	6624.4
535.192	6731.52
535.557	6704.17
535.923	6718.64
536.288	6763.83
536.653	6827.11
537.019	6846.32
537.384	6850.61
537.749	6921.34
538.114	6973.09
538.479	6982.13
538.845	7033.88
539.21	7079.98
539.575	7117.04
539.94	7176.03
540.305	7197.72
540.67	7239.75
541.034	7259.19
541.399	7287.89
541.764	7348.45
542.129	7310.49
542.494	7431.84
542.858	7432.06
543.223	7462.57
543.587	7603.13
543.952	7605.85
544.316	7583.7
544.681	7582.57
545.045	7740.98
545.41	7701.89
545.774	7765.84
546.138	7821.43
546.503	7845.16
546.867	7902.56
547.231	7979.17
547.595	7978.72
547.959	8017.13
548.324	8028.43
548.688	8070.92
549.052	8126.28
549.416	8169.9
549.779	8160.86
550.143	8179.39
550.507	8300.97
550.871	8274.98
551.235	8369.21
551.599	8445.82
551.962	8496.22
552.326	8523.11
552.689	8563.56
553.053	8623.45
553.417	8582.54
553.78	8723.1
554.143	8752.71
554.507	8806.94
554.87	8799.94
555.234	8932.14
555.597	8930.56
555.96	8996.54
556.323	8956.54
556.686	8983.66
557.05	9130.78
557.413	9182.53
557.776	9165.35
558.139	9285.35
558.502	9331.22
558.865	9386.59
559.228	9451.9
559.59	9416.42
559.953	9549.3
560.316	9575.51
560.679	9551.1
561.041	9672.68
561.404	9786.58
561.767	9862.74
562.129	9803.98
562.492	9933.02
562.854	9906.58
563.217	9968.04
563.579	10001.26
563.941	10019.12
564.304	10170.07
564.666	10262.5
565.028	10261.37
565.39	10367.13
565.753	10382.5
566.115	10446.22
566.477	10567.35
566.839	10519.21
567.201	10623.62
567.563	10656.16
567.925	10735.03
568.287	10784.97
568.648	10868.36
569.01	10937.06
569.372	10993.55
569.734	10983.84
570.095	11079.2
570.457	11137.28
570.819	11131.4
571.18	11166.2
571.542	11243.04
571.903	11296.82
572.265	11321.68
572.626	11345.18
572.987	11393.54
573.349	11511.51
573.71	11548.79
574.071	11561.22
574.432	11635.8
574.794	11755.79
575.155	11753.53
575.516	11753.08
575.877	11847.09
576.238	11812.51
576.599	11960.08
576.96	11911.49
577.32	11914.88
577.681	11994.43
578.042	11968.67
578.403	12083.24
578.763	11993.53
579.124	12118.27
579.485	12156.46
579.845	12240.07
580.206	12284.82
580.566	12318.26
580.927	12317.81
581.287	12338.6
581.648	12364.59
582.008	12400.97
582.368	12424.48
582.728	12437.13
583.089	12525.04
583.449	12474.42
583.809	12549.22
584.169	12606.39
584.529	12630.12
584.889	12677.8
585.249	12654.3
585.609	12613.4
585.969	12665.15
586.329	12699.5
586.688	12741.3
587.048	12745.82
587.408	12757.57
587.768	12685.94
588.127	12756.44
588.487	12728.2
588.846	12844.35
589.206	12800.51
589.565	12879.83
589.925	12936.55
590.284	12858.81
590.643	12885.71
591.003	13061.07
591.362	13029.43
591.721	13043.67
592.08	13037.79
592.44	13214.74
592.799	13111.69
593.158	13113.72
593.517	13086.61
593.876	13187.39
594.235	13173.83
594.593	13195.53
594.952	13210.22
595.311	13165.47
595.67	13218.35
596.029	13269.88
596.387	13313.94
596.746	13267.62
597.104	13346.71
597.463	13311.46
597.822	13394.39
598.18	13366.82
598.538	13260.61
598.897	13476.43
599.255	13348.07
599.613	13554.16
599.972	13491.79
600.33	13437.78
600.688	13476.43
601.046	13575.18
601.404	13634.16
601.762	13678
602.12	13722.97
602.478	13635.29
602.836	13693.37
603.194	13693.82
603.552	13717.77
603.91	13716.64
604.268	13772.01
604.625	13757.32
604.983	13809.75
605.341	13741.28
605.698	13880.03
606.056	13914.38
606.413	13927.49
606.771	14007.48
607.128	14047.71
607.485	13917.54
607.843	13997.77
608.2	14039.12
608.557	14109.4
608.914	14033.25
609.272	14193.69
609.629	14227.37
609.986	14205.67
610.343	14139.01
610.7	14356.63
611.057	14205.45
611.414	14246.12
611.771	14372.22
612.127	14404.99
612.484	14363.63
612.841	14387.81
613.198	14317.76
613.554	14444.99
613.911	14460.35
614.267	14546.91
614.624	14516.62
614.98	14587.13
615.337	14640.01
615.693	14667.35
616.05	14683.85
616.406	14727.01
616.762	14705.32
617.118	14573.57
617.475	14659.45
617.831	14730.18
618.187	14840.68
618.543	14742.61
618.899	14898.31
619.255	14828.48
619.611	14834.58
619.967	14930.4
620.323	14870.06
620.678	14830.97
621.034	14818.54
621.39	14933.34
621.746	14832.32
622.101	15090.62
622.457	14934.47
622.812	14966.1
623.168	15061.69
623.523	15056.95
623.879	15114.12
624.234	14969.27
624.589	15039.55
624.945	15057.63
625.3	15114.8
625.655	15097.4
626.01	15161.13
626.365	15161.58
626.72	15168.81
627.075	15095.59
627.43	15041.58
627.785	15110.96
628.14	15185.08
628.495	15188.7
628.85	15153.67
629.205	15065.76
629.559	15198.19
629.914	15171.97
630.269	15159.54
630.623	15112.77
630.978	15098.3
631.332	15202.71
631.687	15213.33
632.041	15118.42
632.396	15167.23
632.75	15117.29
633.104	15201.35
633.459	15091.98
633.813	15140.34
634.167	15159.54
634.521	15137.62
634.875	15223.05
635.229	15102.15
635.583	15025.54
635.937	15088.36
636.291	15149.6
636.645	15174.01
636.999	15091.52
637.352	15135.36
637.706	15006.33
638.06	15148.25
638.413	15072.09
638.767	15050.85
639.121	15121.13
639.474	14960.68
639.828	14960.68
640.181	15057.4
640.534	15089.49
640.888	15076.84
641.241	14996.84
641.594	14967.69
641.947	15003.16
642.301	15072.99
642.654	15074.8
643.007	15038.19
643.36	15060.79
643.713	14973.56
644.066	14982.6
644.419	15005.88
644.771	14849.72
645.124	14810.63
645.477	14842.94
645.83	14741.02
646.182	14623.29
646.535	14588.26
646.888	14669.84
647.24	14556.62
647.593	14655.6
647.945	14608.82
648.298	14594.36
648.65	14602.5
649.002	14506.68
649.355	14581.93
649.707	14517.08
650.059	14562.95
650.411	14842.04
650.763	14882.49
651.115	14896.73
651.467	14894.02
651.819	14960.45
652.171	14992.32
652.523	15015.59
652.875	14862.6
653.227	14848.59
653.578	15016.72
653.93	14936.27
654.282	14920.46
654.633	14863.06
654.985	14869.84
655.337	14927.01
655.688	14954.13
656.039	14976.5
656.391	14825.54
656.742	14878.65
657.094	14848.59
657.445	14885.43
657.796	14830.51
658.147	14840.46
658.498	14870.74
658.849	14949.38
659.2	14881.81
659.551	14915.48
659.902	14858.08
660.253	14899.44
660.604	14952.54
660.955	14883.17
661.306	14935.82
661.656	14901.7
662.007	14884.52
662.358	14948.25
662.708	14934.24
663.059	14914.58
663.409	14859.89
663.76	14932.88
664.11	14915.03
664.461	15013.79
664.811	14954.58
665.161	14952.54
665.511	14849.95
665.862	14933.79
666.212	14960.23
666.562	14983.05
666.912	14941.25
667.262	14894.47
667.612	14917.07
667.962	14974.92
668.312	14992.09
668.662	14994.13
669.011	14981.47
669.361	14881.13
669.711	15058.08
670.06	14963.84
670.41	14945.99
670.76	14868.03
671.109	15037.97
671.459	14861.02
671.808	14923.39
672.157	15081.35
672.507	14864.64
672.856	14903.51
673.205	14825.54
673.554	14979.89
673.904	14930.17
674.253	14972.43
674.602	14897.86
674.951	14732.44
675.3	14708.71
675.649	14962.04
675.998	14909.38
676.346	14919.1
676.695	15011.75
677.044	14861.7
677.393	14935.37
677.741	14994.8
678.09	14887.91
678.438	14930.4
678.787	14932.88
679.135	14917.97
679.484	14768.59
679.832	14869.16
680.181	14806.33
680.529	14823.06
680.877	14785.54
681.225	14783.74
681.573	14928.36
681.922	14785.09
682.27	14690.86
682.618	14737.86
682.966	14798.42
683.314	14759.33
683.661	14754.13
684.009	14680.01
684.357	14610.63
684.705	14520.01
685.053	14720.91
685.4	14615.83
685.748	14540.13
686.095	14595.27
686.443	14482.73
686.79	14448.15
687.138	14549.62
687.485	14638.2
687.832	14483.18
688.18	14439.56
688.527	14409.96
688.874	14442.95
689.221	14423.52
689.568	14364.76
689.915	14360.47
690.262	14358.21
690.609	14229.85
690.956	14297.19
691.303	14193.02
691.65	14171.32
691.997	14170.87
692.344	14183.53
692.69	14200.93
693.037	14099.23
693.383	14061.27
693.73	14083.19
694.077	14038.67
694.423	13996.64
694.769	13966.58
695.116	13944.44
695.462	13985.79
695.808	13905.79
696.155	13906.92
696.501	13810.65
696.847	13825.79
697.193	13782.63
697.539	13837.55
697.885	13613.37
698.231	13702.86
698.577	13682.3
698.923	13627.83
699.269	13656.76
699.614	13512.13
699.96	13477.1
700.306	13622.41
700.651	13455.63
700.997	13425.81
701.342	13395.98
701.688	13406.14
702.033	13299.48
702.379	13345.13
702.724	13275.3
703.069	13357.33
703.415	13153.72
703.76	13217.22
704.105	13246.83
704.45	13194.17
704.795	13106.94
705.14	13116.21
705.485	13068.07
705.83	13076.44
706.175	12945.37
706.52	13043.67
706.865	13009.32
707.209	13033.95
707.554	12965.25
707.899	12998.47
708.243	12925.71
708.588	12982.43
708.932	12810
709.277	12785.82
709.621	12813.84
709.966	12824.24
710.31	12876.22
710.654	12661.31
710.998	12676.45
711.342	12699.95
711.687	12639.84
712.031	12647.52
712.375	12637.35
712.719	12647.29
713.063	12650.01
713.407	12652.49
713.75	12489.56
714.094	12557.35
714.438	12444.14
714.782	12489.11
715.125	12464.93
715.469	12460.18
715.812	12345.16
716.156	12407.75
716.499	12381.54
716.843	12389.9
717.186	12342.22
717.53	12360.07
717.873	12352.61
718.216	12351.48
718.559	12285.27
718.902	12230.13
719.246	12243.46
719.589	12247.76
719.932	12230.36
720.275	12180.64
720.617	12158.95
720.96	12186.52
721.303	12174.99
721.646	12201.2
721.989	12103.58
722.331	12202.56
722.674	12122.79
723.016	12054.99
723.359	12076.24
723.701	12158.04
724.044	12086.86
724.386	11980.65
724.729	12106.74
725.071	11987.2
725.413	11977.71
725.755	12044.15
726.097	11967.76
726.439	11926.41
726.782	11994.2
727.124	11921.44
727.465	11961.89
727.807	11966.63
728.149	11929.35
728.491	11869.91
728.833	11971.38
729.175	11909.01
729.516	11847.54
729.858	11842.8
730.199	11834.43
730.541	11811.84
730.882	11856.58
731.224	11853.64
731.565	11772.97
731.906	11755.79
732.248	11806.86
732.589	11725.51
732.93	11741.33
733.271	11803.7
733.612	11773.65
733.953	11799.18
734.294	11723.7
734.635	11763.02
734.976	11793.31
735.317	11683.25
735.658	11694.78
735.999	11656.81
736.339	11632.86
736.68	11790.37
737.021	11714.21
737.361	11622.46
737.702	11693.65
738.042	11707.21
738.383	11632.86
738.723	11677.6
739.063	11689.58
739.404	11660.65
739.744	11583.59
740.084	11530.94
740.424	11609.58
740.764	11635.34
741.104	11608.45
741.444	11659.3
741.784	11524.61
742.124	11586.76
742.464	11564.84
742.804	11604.38
743.143	11490.71
743.483	11530.49
743.823	11460.21
744.162	11490.04
744.502	11508.34
744.841	11407.1
745.181	11489.36
745.52	11458.85
745.86	11476.25
746.199	11478.29
746.538	11421.56
746.877	11400.1
747.216	11512.86
747.556	11442.35
747.895	11564.39
748.234	11353.09
748.573	11448.91
748.911	11422.47
749.25	11351.96
749.589	11364.16
749.928	11358.74
750.267	11386.54
750.605	11342.7
750.944	11332.07
751.283	11298.18
751.621	11382.02
751.96	11280.55
752.298	11314.67
752.636	11308.8
752.975	11245.07
753.313	11230.83
753.651	11239.2
753.989	11222.93
754.327	11207.56
754.666	11217.95
755.004	11210.04
755.342	11198.52
755.679	11189.93
756.017	11145.64
756.355	11066.77
756.693	11167.33
757.031	11087.34
757.368	11018.86
757.706	11029.48
758.044	10994.68
758.381	10986.32
758.719	10988.81
759.056	11029.71
759.394	10989.94
759.731	10925.98
