Data from cardboard_FLMS001491_004.txt Node
Date: Tue Feb 07 11:38:50 GMT 2017
User: dcchb
Spectrometer: FLMS00149
Trigger mode: 0
Integration Time (sec): 2.000000E-2
Scans to average: 10
Electric dark correction enabled: true
Nonlinearity correction enabled: false
Boxcar width: 0
XAxis mode: Wavelengths
Number of Pixels in Spectrum: 2048
>>>>>Begin Spectral Data<<<<<
341.393	0.48
341.776	0.48
342.16	0.48
342.543	-55.34
342.927	-73.19
343.31	-68.67
343.693	-63.02
344.077	-58.95
344.46	-66.41
344.843	-53.3
345.226	-46.75
345.61	-47.88
345.993	-30.25
346.376	-9.46
346.759	22.63
347.142	28.28
347.525	63.3
347.908	59.69
348.291	79.57
348.674	79.35
349.057	111.89
349.44	132.91
349.823	153.24
350.206	153.02
350.588	187.59
350.971	203.41
351.354	204.09
351.737	233.02
352.119	238.89
352.502	249.06
352.884	277.76
353.267	280.25
353.65	256.97
354.032	301.26
354.414	287.7
354.797	308.72
355.179	321.6
355.562	313.24
355.944	328.83
356.326	324.31
356.709	320.02
357.091	342.17
357.473	341.26
357.855	338.32
358.238	334.93
358.62	333.35
359.002	319.79
359.384	326.12
359.766	341.49
360.148	321.83
360.53	319.12
360.912	306.46
361.294	335.61
361.676	323.64
362.057	334.03
362.439	321.15
362.821	316.4
363.203	313.24
363.584	317.53
363.966	324.99
364.348	336.74
364.729	299.46
365.111	316.63
365.493	305.56
365.874	302.85
366.256	302.39
366.637	300.36
367.019	329.51
367.4	294.48
367.781	327.25
368.163	281.38
368.544	288.83
368.925	301.94
369.306	315.95
369.688	296.52
370.069	285.44
370.45	308.49
370.831	312.56
371.212	303.52
371.593	284.54
371.974	311.66
372.355	332
372.736	287.7
373.117	307.59
373.498	283.41
373.879	302.62
374.26	303.3
374.641	288.38
375.021	301.49
375.402	318.44
375.783	324.99
376.163	301.49
376.544	301.94
376.925	304.65
377.305	316.18
377.686	304.65
378.066	301.72
378.447	315.05
378.827	322.28
379.208	299.23
379.588	308.04
379.968	322.96
380.349	335.16
380.729	326.57
381.109	313.01
381.489	340.13
381.87	312.34
382.25	338.78
382.63	315.05
383.01	319.34
383.39	339.45
383.77	302.39
384.15	321.15
384.53	334.71
384.91	324.09
385.29	316.63
385.67	340.81
386.049	332.45
386.429	328.61
386.809	334.93
387.189	345.56
387.568	329.96
387.948	361.6
388.328	330.87
388.707	336.74
389.087	346.46
389.466	337.42
389.846	308.49
390.225	343.97
390.605	348.27
390.984	337.65
391.363	339
391.743	340.81
392.122	340.58
392.501	343.75
392.881	340.81
393.26	352.79
393.639	330.19
394.018	364.76
394.397	381.04
394.776	365.22
395.155	357.31
395.534	352.79
395.913	354.14
396.292	361.83
396.671	384.2
397.05	364.09
397.429	366.57
397.808	362.96
398.186	376.52
398.565	368.83
398.944	355.5
399.323	372.45
399.701	377.65
400.08	348.49
400.458	381.04
400.837	378.32
401.215	395.72
401.594	359.11
401.972	386.23
402.351	390.3
402.729	391.88
403.107	367.48
403.486	365.67
403.864	386.01
404.242	399.57
404.62	394.82
404.999	393.24
405.377	390.3
405.755	383.3
406.133	402.96
406.511	389.62
406.889	383.97
407.267	394.59
407.645	421.49
408.023	393.69
408.401	405.44
408.779	404.76
409.156	415.38
409.534	394.59
409.912	418.55
410.29	454.25
410.667	411.09
411.045	402.28
411.422	435.72
411.8	435.27
412.178	435.5
412.555	446.8
412.933	433.92
413.31	456.74
413.687	451.99
414.065	454.25
414.442	432.11
414.819	419.45
415.197	456.97
415.574	441.6
415.951	455.61
416.328	457.42
416.705	460.81
417.082	453.58
417.46	444.08
417.837	452.67
418.214	461.03
418.591	459.9
418.967	461.49
419.344	469.39
419.721	482.05
420.098	472.33
420.475	470.07
420.852	469.62
421.228	483.41
421.605	465.78
421.982	495.83
422.358	494.25
422.735	490.41
423.111	488.38
423.488	494.7
423.864	490.18
424.241	481.15
424.617	479.79
424.994	498.55
425.37	498.09
425.746	509.39
426.123	506.46
426.499	522.95
426.875	524.99
427.251	519.34
427.627	526.57
428.003	538.55
428.379	549.39
428.756	508.94
429.132	530.64
429.507	522.5
429.883	542.39
430.259	565.66
430.635	557.98
431.011	563.63
431.387	544.65
431.763	549.39
432.138	572.67
432.514	587.36
432.89	582.84
433.265	588.49
433.641	591.65
434.016	594.81
434.392	592.56
434.767	619.45
435.143	593.46
435.518	605.21
435.894	601.37
436.269	601.37
436.644	630.52
437.02	610.41
437.395	612.44
437.77	630.07
438.145	613.57
438.52	637.3
438.895	661.71
439.271	643.4
439.646	658.09
440.021	642.05
440.395	660.58
440.77	659.9
441.145	674.13
441.52	676.39
441.895	674.36
442.27	671.65
442.645	687.69
443.019	665.77
443.394	690.86
443.769	677.3
444.143	692.67
444.518	696.96
444.892	705.77
445.267	692.21
445.641	688.37
446.016	722.5
446.39	711.65
446.764	724.3
447.139	721.59
447.513	709.84
447.887	727.47
448.262	748.48
448.636	739.22
449.01	745.09
449.384	747.35
449.758	761.36
450.132	762.72
450.506	757.07
450.88	775.38
451.254	760.46
451.628	761.14
452.002	783.06
452.376	776.51
452.75	786.9
453.123	810.18
453.497	777.18
453.871	810.18
454.244	826.45
454.618	807.46
454.992	823.06
455.365	825.09
455.739	843.62
456.112	871.64
456.486	829.84
456.859	901.47
457.232	833.68
457.606	868.25
457.979	888.82
458.352	901.02
458.725	888.14
459.099	910.06
459.472	929.95
459.845	940.79
460.218	926.78
460.591	936.5
460.964	929.04
461.337	938.99
461.71	982.6
462.083	977.63
462.456	972.43
462.829	994.58
463.201	1015.14
463.574	993.67
463.947	1010.85
464.32	1025.54
464.692	1023.73
465.065	1046.55
465.438	1051.07
465.81	1060.57
466.183	1063.73
466.555	1098.98
466.928	1085.88
467.3	1110.28
467.672	1125.65
468.045	1086.1
468.417	1084.07
468.789	1128.59
469.161	1163.16
469.534	1172.2
469.906	1191.18
470.278	1225.31
470.65	1186.21
471.022	1204.97
471.394	1249.49
471.766	1267.11
472.138	1253.55
472.51	1296.94
472.882	1292.65
473.253	1316.83
473.625	1356.83
473.997	1343.27
474.369	1349.82
474.74	1378.75
475.112	1397.73
475.484	1437.5
475.855	1418.52
476.227	1453.55
476.598	1478.63
476.97	1509.14
477.341	1530.84
477.713	1548.69
478.084	1556.6
478.455	1567.44
478.827	1577.61
479.198	1635.69
479.569	1636.14
479.94	1668.46
480.311	1696.71
480.682	1737.61
481.053	1793.88
481.424	1790.94
481.795	1802.47
482.166	1807.66
482.537	1833.88
482.908	1875.69
483.279	1899.19
483.65	1937.38
484.021	1983.93
484.391	1971.05
484.762	1997.94
485.133	2009.92
485.503	2049.92
485.874	2124.94
486.244	2131.27
486.615	2155.23
486.985	2176.47
487.356	2204.04
487.726	2240.2
488.097	2302.11
488.467	2301.66
488.837	2320.42
489.207	2344.83
489.578	2380.53
489.948	2427.08
490.318	2459.17
490.688	2450.36
491.058	2503.69
491.428	2520.64
491.798	2547.53
492.168	2578.94
492.538	2614.42
492.908	2651.03
493.278	2686.06
493.648	2709.11
494.017	2751.82
494.387	2744.36
494.757	2773.06
495.126	2867.07
495.496	2869.33
495.866	2850.8
496.235	2891.03
496.605	2911.36
496.974	2940.97
497.344	2979.38
497.713	3005.6
498.082	3065.48
498.452	3062.32
498.821	3063.45
499.19	3100.96
499.559	3134.64
499.928	3195.65
500.298	3230.23
500.667	3231.58
501.036	3234.52
501.405	3284.24
501.774	3267.74
502.143	3315.87
502.512	3339.83
502.88	3424.12
503.249	3410.79
503.618	3360.39
503.987	3438.81
504.356	3477.68
504.724	3534.17
505.093	3536.21
505.462	3570.1
505.83	3614.4
506.199	3632.02
506.567	3677.67
506.936	3648.97
507.304	3731.46
507.672	3736.65
508.041	3764.45
508.409	3800.38
508.777	3802.87
509.145	3885.8
509.514	3943.88
509.882	3915.63
510.25	3932.35
510.618	3981.62
510.986	4003.31
511.354	4049.87
511.722	4113.37
512.09	4155.4
512.458	4103.2
512.826	4189.3
513.193	4199.69
513.561	4260.71
513.929	4337.99
514.297	4366.24
514.664	4399.69
515.032	4398.1
515.4	4467.93
515.767	4469.97
516.135	4525.56
516.502	4493.02
516.869	4602.39
517.237	4592.45
517.604	4643.52
517.972	4688.27
518.339	4775.72
518.706	4808.04
519.073	4782.95
519.44	4900.46
519.808	4940.01
520.175	4935.04
520.542	4990.41
520.909	5014.81
521.276	5042.83
521.643	5131.64
522.009	5163.96
522.376	5213
522.743	5247.8
523.11	5294.58
523.477	5329.38
523.843	5391.52
524.21	5456.38
524.577	5516.72
524.943	5553.55
525.31	5615.02
525.676	5649.37
526.043	5698.18
526.409	5720.56
526.776	5826.99
527.142	5863.83
527.508	5856.82
527.874	5983.83
528.241	6039.64
528.607	5985.63
528.973	6120.09
529.339	6100.66
529.705	6147.21
530.071	6293.42
530.437	6272.86
530.803	6360.76
531.169	6425.85
531.535	6391.72
531.901	6437.6
532.267	6475.56
532.632	6591.04
532.998	6600.53
533.364	6664.49
533.73	6686.86
534.095	6756.23
534.461	6737.03
534.826	6831.26
535.192	6865.38
535.557	6921.43
535.923	6939.73
536.288	6973.18
536.653	7029.67
537.019	6986.96
537.384	7093.4
537.749	7093.18
538.114	7202.55
538.479	7235.32
538.845	7299.27
539.21	7269.22
539.575	7383.56
539.94	7391.25
540.305	7416.1
540.67	7464.01
541.034	7489.1
541.399	7536.78
541.764	7646.15
542.129	7645.02
542.494	7674.4
542.858	7674.4
543.223	7734.97
543.587	7814.29
543.952	7837.79
544.316	7839.82
544.681	7918.92
545.045	8000.27
545.41	7984.23
545.774	8044.11
546.138	8069.19
546.503	8140.15
546.867	8138.35
547.231	8189.64
547.595	8284.33
547.959	8266.03
548.324	8321.84
548.688	8405.46
549.052	8440.48
549.416	8396.87
549.779	8406.36
550.143	8511.67
550.507	8607.26
550.871	8635.73
551.235	8657.65
551.599	8731.55
551.962	8720.25
552.326	8739.01
552.689	8809.74
553.053	8816.52
553.417	8888.38
553.78	9033.24
554.143	8986.46
554.507	9103.29
554.87	9084.54
555.234	9214.25
555.597	9223.51
555.96	9251.76
556.323	9321.37
556.686	9335.15
557.05	9441.81
557.413	9421.93
557.776	9481.13
558.139	9606.56
558.502	9620.57
558.865	9643.16
559.228	9750.96
559.59	9813.33
559.953	9839.09
560.316	9916.83
560.679	9914.57
561.041	9958.86
561.404	10099.2
561.767	10150.72
562.129	10183.49
562.492	10233.88
562.854	10290.38
563.217	10277.05
563.579	10357.04
563.941	10456.48
564.304	10531.05
564.666	10652.63
565.028	10615.79
565.39	10651.05
565.753	10731.72
566.115	10826.86
566.477	10823.7
566.839	10957.93
567.201	11043.81
567.563	11041.09
567.925	11123.8
568.287	11145.72
568.648	11197.7
569.01	11257.36
569.372	11405.83
569.734	11356.11
570.095	11518.6
570.457	11538.03
570.819	11445.83
571.18	11575.09
571.542	11736.67
571.903	11743.9
572.265	11738.25
572.626	11699.83
572.987	11860.96
573.349	11812.15
573.71	11923.56
574.071	12027.06
574.432	12090.33
574.794	12199.48
575.155	12107.51
575.516	12118.35
575.877	12247.16
576.238	12232.93
576.599	12331.91
576.96	12356.77
577.32	12394.28
577.681	12396.54
578.042	12537.33
578.403	12488.74
578.763	12560.6
579.124	12536.87
579.485	12658.23
579.845	12715.17
580.206	12722.63
580.566	12669.98
580.927	12779.58
581.287	12754.04
581.648	12756.98
582.008	12926.69
582.368	12886.47
582.728	12980.03
583.089	12893.47
583.449	12928.73
583.809	13008.95
584.169	13060.48
584.529	13025.22
584.889	13137.76
585.249	13087.37
585.609	13119.46
585.969	13186.57
586.329	13161.04
586.688	13196.29
587.048	13211.66
587.408	13128.95
587.768	13183.64
588.127	13164.65
588.487	13280.36
588.846	13367.81
589.206	13347.93
589.565	13375.5
589.925	13408.04
590.284	13408.26
590.643	13453.23
591.003	13513.35
591.362	13557.19
591.721	13537.53
592.08	13577.98
592.44	13582.5
592.799	13590.41
593.158	13609.61
593.517	13624.53
593.876	13599.44
594.235	13642.38
594.593	13651.87
594.952	13727.58
595.311	13669.05
595.67	13679.44
596.029	13823.62
596.387	13818.2
596.746	13951.75
597.104	13880.34
597.463	13834.69
597.822	14009.38
598.18	13932.32
598.538	13949.72
598.897	14007.12
599.255	14008.25
599.613	14105.42
599.972	14015.7
600.33	14082.14
600.688	14070.39
601.046	14063.61
601.404	14169.83
601.762	14152.2
602.12	14252.31
602.478	14206.21
602.836	14268.13
603.194	14258.41
603.552	14276.04
603.91	14250.95
604.268	14253.89
604.625	14311.97
604.983	14389.25
605.341	14281.69
605.698	14363.49
606.056	14449.59
606.413	14504.96
606.771	14439.65
607.128	14493.88
607.485	14508.12
607.843	14423.83
608.2	14564.17
608.557	14601.23
608.914	14635.35
609.272	14660.21
609.629	14768.23
609.986	14793.31
610.343	14700.66
610.7	14827.66
611.057	14861.56
611.414	14850.26
611.771	14807.1
612.127	14923.25
612.484	14985.4
612.841	15032.18
613.198	14941.56
613.554	14998.28
613.911	15045.51
614.267	15102.23
614.624	15105.17
614.98	15170.93
615.337	15216.13
615.693	15234.66
616.05	15250.25
616.406	15281.21
616.762	15280.76
617.118	15246.63
617.475	15299.51
617.831	15419.28
618.187	15392.17
618.543	15418.83
618.899	15496.8
619.255	15495.44
619.611	15473.97
619.967	15536.34
620.323	15531.15
620.678	15493.18
621.034	15557.13
621.39	15516.91
621.746	15520.98
622.101	15718.49
622.457	15603.23
622.812	15591.93
623.168	15703.8
623.523	15592.39
623.879	15751.03
624.234	15686.62
624.589	15709.22
624.945	15764.81
625.3	15766.85
625.655	15732.04
626.01	15712.38
626.365	15755.77
626.72	15813.4
627.075	15876.67
627.43	15743.57
627.785	15718.03
628.14	15844.81
628.495	15793.96
628.85	15744.92
629.205	15862.66
629.559	15934.52
629.914	15777.92
630.269	15880.97
630.623	15744.92
630.978	15849.1
631.332	15892.72
631.687	15923.9
632.041	15859.27
632.396	15887.07
632.75	15824.24
633.104	15822.44
633.459	15830.12
633.813	15807.3
634.167	15781.31
634.521	15851.59
634.875	15838.26
635.229	15799.16
635.583	15758.94
635.937	15821.08
636.291	15761.87
636.645	15683.23
636.999	15706.73
637.352	15824.47
637.706	15752.61
638.06	15780.4
638.413	15726.17
638.767	15784.02
639.121	15721.87
639.474	15687.53
639.828	15693.17
640.181	15695.43
640.534	15733.85
640.888	15632.16
641.241	15645.94
641.594	15672.84
641.947	15711.48
642.301	15725.26
642.654	15716.68
643.007	15704.93
643.36	15715.55
643.713	15673.51
644.066	15669.22
644.419	15665.61
644.771	15522.56
645.124	15371.83
645.477	15423.35
645.83	15381.09
646.182	15329.34
646.535	15253.41
646.888	15337.48
647.24	15213.64
647.593	15202.57
647.945	15243.02
648.298	15192.4
648.65	15139.74
649.002	15125.96
649.355	15165.05
649.707	15180.19
650.059	15246.63
650.411	15482.33
650.763	15510.13
651.115	15688.66
651.467	15569.34
651.819	15590.8
652.171	15518.72
652.523	15504.93
652.875	15542.44
653.227	15507.19
653.578	15732.72
653.93	15608.43
654.282	15494.54
654.633	15564.36
654.985	15461.99
655.337	15528.21
655.688	15553.74
656.039	15570.01
656.391	15405.5
656.742	15500.86
657.094	15549
657.445	15609.11
657.796	15612.95
658.147	15457.02
658.498	15597.13
658.849	15573.18
659.2	15604.14
659.551	15549.45
659.902	15666.73
660.253	15560.75
660.604	15610.24
660.955	15553.07
661.306	15623.8
661.656	15573.18
662.007	15647.75
662.358	15610.01
662.708	15549.68
663.059	15649.33
663.409	15542.67
663.76	15636.91
664.11	15643.01
664.461	15694.76
664.811	15578.38
665.161	15571.6
665.511	15574.99
665.862	15686.85
666.212	15640.75
666.562	15636.91
666.912	15686.4
667.262	15657.47
667.612	15575.44
667.962	15597.13
668.312	15582.9
668.662	15689.56
669.011	15694.98
669.361	15588.54
669.711	15646.62
670.06	15595.55
670.41	15502.22
670.76	15525.04
671.109	15660.41
671.459	15539.73
671.808	15561.88
672.157	15612.73
672.507	15501.09
672.856	15583.12
673.205	15628.77
673.554	15618.83
673.904	15659.96
674.253	15658.15
674.602	15592.61
674.951	15404.14
675.3	15268.1
675.649	15600.52
675.998	15634.19
676.346	15579.28
676.695	15614.53
677.044	15476.68
677.393	15612.05
677.741	15586.29
678.09	15521.2
678.438	15485.95
678.787	15584.25
679.135	15562.78
679.484	15406.63
679.832	15604.59
680.181	15476.68
680.529	15515.78
680.877	15514.2
681.225	15395.78
681.573	15518.94
681.922	15542.9
682.27	15438.94
682.618	15440.75
682.966	15349.46
683.314	15350.13
683.661	15333.18
684.009	15321.66
684.357	15205.73
684.705	15207.76
685.053	15389.45
685.4	15266.97
685.748	15185.17
686.095	15162.79
686.443	15187.88
686.79	15114.43
687.138	15148.56
687.485	15153.75
687.832	15163.92
688.18	15178.39
688.527	15031.72
688.874	15073.3
689.221	15047.54
689.568	14991.72
689.915	14980.88
690.262	14969.8
690.609	14960.31
690.956	14884.16
691.303	14916.92
691.65	14729.13
691.997	14860.65
692.344	14740.88
692.69	14732.52
693.037	14782.01
693.383	14621.34
693.73	14750.37
694.077	14538.63
694.423	14539.31
694.769	14537.05
695.116	14504.96
695.462	14569.14
695.808	14455.92
696.155	14482.13
696.501	14418.18
696.847	14424.96
697.193	14374.34
697.539	14435.81
697.885	14301.8
698.231	14294.34
698.577	14265.19
698.923	14225.87
699.269	14165.53
699.614	14105.19
699.96	14128.92
700.306	14135.25
700.651	14134.12
700.997	14041.69
701.342	14052.54
701.688	14061.13
702.033	14070.62
702.379	13941.13
702.724	13933.67
703.069	13944.75
703.415	13780
703.76	13857.29
704.105	13821.36
704.45	13851.87
704.795	13721.7
705.14	13708.82
705.485	13662.04
705.83	13596.73
706.175	13666.11
706.52	13608.03
706.865	13602.61
707.209	13528.03
707.554	13554.02
707.899	13536.17
708.243	13534.36
708.588	13577.3
708.932	13364.87
709.277	13374.14
709.621	13362.16
709.966	13310.41
710.31	13391.54
710.654	13287.81
710.998	13246.23
711.342	13296.63
711.687	13249.62
712.031	13220.25
712.375	13106.35
712.719	13240.58
713.063	13169.63
713.407	13168.5
713.75	13223.18
714.094	13140.47
714.438	13074.71
714.782	13116.97
715.125	13007.14
715.469	13076.97
715.812	12966.69
716.156	12944.32
716.499	12954.49
716.843	12992.23
717.186	12903.87
717.53	12993.58
717.873	12902.74
718.216	12933.93
718.559	12883.08
718.902	12832.01
719.246	12794.27
719.589	12796.98
719.932	12811.22
720.275	12755.63
720.617	12800.82
720.96	12721.5
721.303	12734.61
721.646	12792.46
721.989	12659.58
722.331	12700.03
722.674	12665.68
723.016	12613.26
723.359	12655.97
723.701	12747.04
724.044	12574.84
724.386	12542.07
724.729	12633.37
725.071	12571
725.413	12586.14
725.755	12587.72
726.097	12447.61
726.439	12440.38
726.782	12448.74
727.124	12570.09
727.465	12455.52
727.807	12573.26
728.149	12490.55
728.491	12434.96
728.833	12467.95
729.175	12389.76
729.516	12447.84
729.858	12411.45
730.199	12403.77
730.541	12338.23
730.882	12366.71
731.224	12399.93
731.565	12322.64
731.906	12436.54
732.248	12402.87
732.589	12321.51
732.93	12174.17
733.271	12335.75
733.612	12357.9
733.953	12324.22
734.294	12248.75
734.635	12309.54
734.976	12292.13
735.317	12252.81
735.658	12292.81
735.999	12303.43
736.339	12191.12
736.68	12286.03
737.021	12224.34
737.361	12242.19
737.702	12256.66
738.042	12216.2
738.383	12183.89
738.723	12220.27
739.063	12122.2
739.404	12142.99
739.744	12199.03
740.084	12182.31
740.424	12105.92
740.764	12092.82
741.104	12165.13
741.444	12145.47
741.784	12069.77
742.124	12185.24
742.464	12103.44
742.804	12140.05
743.143	12111.57
743.483	12112.48
743.823	12004.23
744.162	12106.15
744.502	12013.05
744.841	11978.24
745.181	12060.05
745.52	11985.02
745.86	12072.71
746.199	12001.07
746.538	11941.64
746.877	12055.3
747.216	12025.7
747.556	12029.32
747.895	11977.34
748.234	11955.65
748.573	11933.5
748.911	11892.6
749.25	11914.07
749.589	11952.71
749.928	11929.43
750.267	11942.77
750.605	11928.53
750.944	11838.59
751.283	11830.68
751.621	11829.1
751.96	11847.17
752.298	11776.44
752.636	11853.05
752.975	11784.8
753.313	11735.54
753.651	11856.44
753.989	11785.71
754.327	11874.52
754.666	11667.97
755.004	11768.53
755.342	11818.02
755.679	11751.81
756.017	11612.6
756.355	11678.37
756.693	11649.21
757.031	11678.82
757.368	11671.59
757.706	11641.3
758.044	11560.85
758.381	11618.03
758.719	11561.08
759.056	11527.18
759.394	11491.93
759.731	11497.35
