Data from cardboard_FLMS001491_045.txt Node
Date: Tue Feb 07 11:39:30 GMT 2017
User: dcchb
Spectrometer: FLMS00149
Trigger mode: 0
Integration Time (sec): 2.000000E-2
Scans to average: 10
Electric dark correction enabled: true
Nonlinearity correction enabled: false
Boxcar width: 0
XAxis mode: Wavelengths
Number of Pixels in Spectrum: 2048
>>>>>Begin Spectral Data<<<<<
341.393	-31.13
341.776	-31.13
342.16	-31.13
342.543	-67.74
342.927	-67.06
343.31	-71.58
343.693	-77.91
344.077	-65.48
344.46	-34.07
344.843	-38.81
345.226	-36.78
345.61	-24.12
345.993	-17.34
346.376	-17.8
346.759	-0.4
347.142	26.04
347.525	46.16
347.908	42.77
348.291	68.53
348.674	71.24
349.057	129.54
349.44	122.99
349.823	127.74
350.206	171.13
350.588	155.08
350.971	188.75
351.354	195.08
351.737	215.87
352.119	208.86
352.502	253.61
352.884	254.74
353.267	268.07
353.65	266.26
354.032	287.28
354.414	285.25
354.797	299.48
355.179	298.81
355.562	309.88
355.944	316.88
356.326	290.22
356.709	316.66
357.091	316.88
357.473	308.52
357.855	308.3
358.238	326.15
358.62	318.01
359.002	314.85
359.384	328.41
359.766	307.62
360.148	312.82
360.53	312.82
360.912	293.38
361.294	303.1
361.676	311.69
362.057	317.11
362.439	322.99
362.821	300.84
363.203	303.33
363.584	301.52
363.966	301.52
364.348	297.9
364.729	312.59
365.111	308.52
365.493	305.81
365.874	286.15
366.256	314.62
366.637	281.18
367.019	282.76
367.4	294.29
367.781	285.47
368.163	282.31
368.544	279.37
368.925	297.9
369.306	285.25
369.688	289.31
370.069	299.26
370.45	310.56
370.831	299.48
371.212	298.58
371.593	280.73
371.974	294.29
372.355	310.1
372.736	293.16
373.117	289.77
373.498	289.77
373.879	289.77
374.26	320.5
374.641	304.23
375.021	306.04
375.402	290.22
375.783	291.8
376.163	299.71
376.544	302.65
376.925	304.46
377.305	301.52
377.686	319.14
378.066	295.42
378.447	290.9
378.827	292.25
379.208	294.74
379.588	305.13
379.968	315.3
380.349	306.49
380.729	318.69
381.109	301.52
381.489	318.01
381.87	292.25
382.25	312.36
382.63	325.7
383.01	310.33
383.39	327.51
383.77	312.14
384.15	309.65
384.53	311.69
384.91	318.69
385.29	323.44
385.67	317.56
386.049	309.2
386.429	320.27
386.809	323.21
387.189	306.04
387.568	324.57
387.948	317.79
388.328	327.51
388.707	330.67
389.087	320.73
389.466	330.44
389.846	344.91
390.225	330.9
390.605	313.49
390.984	334.28
391.363	358.24
391.743	346.71
392.122	341.06
392.501	336.32
392.881	339.26
393.26	315.98
393.639	339.03
394.018	356.43
394.397	333.38
394.776	332.93
395.155	347.62
395.534	340.16
395.913	350.33
396.292	369.54
396.671	362.53
397.05	341.74
397.429	354.85
397.808	359.82
398.186	372.93
398.565	355.3
398.944	339.48
399.323	351.69
399.701	353.95
400.08	353.04
400.458	361.4
400.837	360.72
401.215	357.56
401.594	359.82
401.972	371.35
402.351	367.73
402.729	377.45
403.107	382.42
403.486	360.27
403.864	372.7
404.242	378.8
404.62	405.02
404.999	370.22
405.377	369.54
405.755	364.34
406.133	378.13
406.511	382.19
406.889	404.79
407.267	373.61
407.645	391.23
408.023	388.07
408.401	388.97
408.779	407.73
409.156	399.37
409.534	408.86
409.912	360.27
410.29	386.04
410.667	389.2
411.045	403.89
411.422	406.83
411.8	391.46
412.178	412.7
412.555	416.09
412.933	419.71
413.31	423.1
413.687	406.83
414.065	420.61
414.442	423.55
414.819	417.9
415.197	458.35
415.574	449.54
415.951	454.96
416.328	442.76
416.705	412.93
417.082	407.73
417.46	459.03
417.837	445.92
418.214	474.85
418.591	469.2
418.967	473.72
419.344	467.84
419.721	461.29
420.098	467.61
420.475	452.93
420.852	455.64
421.228	462.87
421.605	451.34
421.982	473.72
422.358	482.08
422.735	464.9
423.111	476.88
423.488	481.4
423.864	479.59
424.241	491.12
424.617	478.24
424.994	498.35
425.37	482.76
425.746	496.54
426.123	483.43
426.499	519.82
426.875	509.87
427.251	485.02
427.627	506.71
428.003	527.95
428.379	523.88
428.756	496.09
429.132	521.62
429.507	535.18
429.883	524.79
430.259	541.29
430.635	557.78
431.011	561.17
431.387	561.62
431.763	541.51
432.138	544.67
432.514	566.37
432.89	555.75
433.265	564.56
433.641	568.18
434.016	584
434.392	555.75
434.767	583.77
435.143	602.98
435.518	590.78
435.894	603.2
436.269	602.75
436.644	621.28
437.02	596.2
437.395	630.77
437.77	611.79
438.145	626.93
438.52	621.96
438.895	635.75
439.271	643.66
439.646	641.62
440.021	636.65
440.395	643.66
440.77	664.9
441.145	638.23
441.52	688.17
441.895	662.41
442.27	672.58
442.645	649.53
443.019	674.84
443.394	678.23
443.769	665.35
444.143	653.82
444.518	683.88
444.892	677.55
445.267	694.73
445.641	689.53
446.016	687.27
446.39	699.93
446.764	712.81
447.139	680.49
447.513	694.95
447.887	699.25
448.262	701.73
448.636	708.06
449.01	734.95
449.384	730.88
449.758	713.71
450.132	739.02
450.506	751.45
450.88	724.56
451.254	722.3
451.628	755.29
452.002	746.48
452.376	757.1
452.75	759.81
453.123	776.31
453.497	781.5
453.871	811.79
454.244	791
454.618	814.95
454.992	803.65
455.365	824.67
455.739	853.14
456.112	813.82
456.486	829.64
456.859	826.93
457.232	868.96
457.606	873.25
457.979	848.85
458.352	877.1
458.725	884.55
459.099	870.32
459.472	923.65
459.845	922.07
460.218	926.59
460.591	915.51
460.964	955.74
461.337	948.51
461.71	943.08
462.083	975.62
462.456	980.82
462.829	962.07
463.201	983.31
463.574	961.84
463.947	989.86
464.32	1036.41
464.692	990.99
465.065	989.18
465.438	1019.46
465.81	1055.85
466.183	1063.08
466.555	1052.01
466.928	1075.06
467.3	1078.45
467.672	1113.93
468.045	1122.06
468.417	1128.16
468.789	1103.98
469.161	1141.72
469.534	1162.51
469.906	1160.03
470.278	1188.5
470.65	1192.79
471.022	1205.67
471.394	1226.01
471.766	1232.79
472.138	1260.14
472.51	1277.31
472.882	1280.93
473.253	1306.69
473.625	1324.32
473.997	1322.06
474.369	1339.23
474.74	1328.16
475.112	1399.79
475.484	1375.16
475.855	1404.09
476.227	1422.17
476.598	1471.88
476.97	1444.31
477.341	1508.27
477.713	1525.21
478.084	1507.14
478.455	1581.48
478.827	1565.89
479.198	1600.69
479.569	1604.31
479.94	1646.11
480.311	1660.58
480.682	1699.9
481.053	1733.8
481.424	1761.14
481.795	1737.64
482.166	1784.19
482.537	1835.71
482.908	1882.94
483.279	1838.43
483.65	1911.87
484.021	1955.49
484.391	1955.71
484.762	2003.85
485.133	1983.51
485.503	2049.72
485.874	2051.3
486.244	2100.57
486.615	2090.17
486.985	2123.62
487.356	2166.55
487.726	2185.76
488.097	2238.19
488.467	2249.49
488.837	2259.88
489.207	2329.71
489.578	2362.48
489.948	2365.19
490.318	2389.6
490.688	2385.3
491.058	2431.18
491.428	2523.15
491.798	2534.23
492.168	2570.84
492.538	2639.54
492.908	2609.25
493.278	2655.13
493.648	2648.8
494.017	2709.82
494.387	2718.86
494.757	2753.43
495.126	2768.57
495.496	2783.49
495.866	2788.68
496.235	2839.3
496.605	2851.96
496.974	2880.66
497.344	2930.6
497.713	2938.51
498.082	2954.33
498.452	3005.18
498.821	2996.59
499.19	3053.76
499.559	3100.09
499.928	3115.91
500.298	3104.83
500.667	3157.94
501.036	3175.34
501.405	3182.8
501.774	3202.68
502.143	3205.85
502.512	3231.84
502.88	3312.96
503.249	3305.51
503.618	3334.88
503.987	3393.19
504.356	3367.65
504.724	3385.73
505.093	3398.84
505.462	3464.6
505.83	3486.52
506.199	3510.25
506.567	3541.88
506.936	3580.53
507.304	3569.45
507.672	3641.77
508.041	3692.39
508.409	3704.14
508.777	3688.77
509.145	3802.44
509.514	3760.86
509.882	3855.55
510.25	3838.6
510.618	3901.42
510.986	3896.68
511.354	3947.07
511.722	4016
512.09	4053.74
512.458	4029.78
512.826	4087.18
513.193	4092.6
513.561	4153.17
513.929	4179.61
514.297	4230.45
514.664	4260.96
515.032	4270.45
515.4	4305.25
515.767	4350.45
516.135	4380.96
516.502	4332.82
516.869	4469.77
517.237	4465.93
517.604	4465.48
517.972	4520.39
518.339	4580.95
518.706	4632.93
519.073	4629.31
519.44	4637
519.808	4743.89
520.175	4760.61
520.542	4846.26
520.909	4880.38
521.276	4933.49
521.643	4952.02
522.009	4953.6
522.376	5060.49
522.743	5086.48
523.11	5152.24
523.477	5144.33
523.843	5238.56
524.21	5290.76
524.577	5328.96
524.943	5368.28
525.31	5380.03
525.676	5461.16
526.043	5499.35
526.409	5506.8
526.776	5575.96
527.142	5615.5
527.508	5601.49
527.874	5670.87
528.241	5747.7
528.607	5809.85
528.973	5827.02
529.339	5861.15
529.705	5968.49
530.071	6013.23
530.437	6034.93
530.803	6114.25
531.169	6111.08
531.535	6096.62
531.901	6176.17
532.267	6233.11
532.632	6307.24
532.998	6335.94
533.364	6344.3
533.73	6389.49
534.095	6476.04
534.461	6495.7
534.826	6564.63
535.192	6559.21
535.557	6627.68
535.923	6693.89
536.288	6633.1
536.653	6729.15
537.019	6696.38
537.384	6763.49
537.749	6810.95
538.114	6915.81
538.479	6854.57
538.845	6933.66
539.21	6976.14
539.575	6971.62
539.94	6983.6
540.305	7022.47
540.67	6994
541.034	7142.02
541.399	7138.63
541.764	7182.01
542.129	7286.87
542.494	7256.14
542.858	7342.69
543.223	7332.07
543.587	7353.76
543.952	7358.28
544.316	7427.21
544.681	7475.11
545.045	7527.54
545.41	7572.29
545.774	7568.9
546.138	7603.92
546.503	7627.43
546.867	7654.09
547.231	7738.61
547.595	7777.71
547.959	7894.54
548.324	7902.67
548.688	7847.53
549.052	7951.94
549.416	7971.6
549.779	7967.08
550.143	8019.28
550.507	8083.69
550.871	8167.98
551.235	8141.99
551.599	8202.1
551.962	8262.89
552.326	8222.67
552.689	8378.14
553.053	8340.18
553.417	8386.95
553.78	8525.93
554.143	8465.14
554.507	8550.11
554.87	8633.95
555.234	8705.59
555.597	8690.45
555.96	8763.44
556.323	8843.89
556.686	8888.41
557.05	8859.26
557.413	8969.76
557.776	9008.18
558.139	9069.87
558.502	9029.65
558.865	9099.03
559.228	9169.53
559.59	9214.96
559.953	9250.66
560.316	9348.96
560.679	9320.04
561.041	9414.72
561.404	9476.42
561.767	9579.69
562.129	9536.98
562.492	9631.67
562.854	9634.83
563.217	9740.59
563.579	9697.43
563.941	9802.28
564.304	9820.59
564.666	10010.87
565.028	9997.76
565.39	10078.44
565.753	10069.62
566.115	10186.68
566.477	10219.45
566.839	10208.38
567.201	10323.4
567.563	10318.66
567.925	10414.7
568.287	10445.66
568.648	10531.31
569.01	10543.73
569.372	10583.06
569.734	10621.25
570.095	10694.92
570.457	10778.08
570.819	10857.4
571.18	10819.66
571.542	10922.26
571.903	10931.75
572.265	11024.17
572.626	10994.12
572.987	11038.41
573.349	11120.67
573.71	11177.39
574.071	11152.53
574.432	11182.36
574.794	11310.27
575.155	11330.83
575.516	11337.16
575.877	11360.66
576.238	11467.33
576.599	11446.54
576.96	11534.67
577.32	11499.19
577.681	11566.53
578.042	11644.5
578.403	11653.08
578.763	11625.51
579.124	11768.11
579.485	11795.68
579.845	11823.47
580.206	11827.09
580.566	11849.01
580.927	11866.64
581.287	11940.08
581.648	11963.58
582.008	11973.08
582.368	12037.71
582.728	12067.31
583.089	12075.22
583.449	12061.66
583.809	12173.75
584.169	12166.29
584.529	12174.88
584.889	12249.45
585.249	12216.23
585.609	12176.01
585.969	12313.18
586.329	12182.79
586.688	12265.04
587.048	12312.95
587.408	12329.68
587.768	12343.01
588.127	12396.11
588.487	12335.33
588.846	12431.37
589.206	12366.06
589.565	12368.54
589.925	12486.51
590.284	12392.72
590.643	12416
591.003	12472.27
591.362	12570.8
591.721	12523.57
592.08	12553.85
592.44	12578.26
592.799	12627.97
593.158	12607.18
593.517	12677.24
593.876	12682.89
594.235	12692.38
594.593	12705.49
594.952	12703.45
595.311	12759.72
595.67	12751.36
596.029	12833.84
596.387	12830
596.746	12882.88
597.104	12854.86
597.463	12811.02
597.822	12941.41
598.18	12838.81
598.538	12898.47
598.897	13051.46
599.255	12820.28
599.613	13031.8
599.972	12926.72
600.33	13074.06
600.688	13014.18
601.046	12953.16
601.404	13099.6
601.762	12997.68
602.12	13123.78
602.478	13141.41
602.836	13190.22
603.194	13138.92
603.552	13163.55
603.91	13052.37
604.268	13250.78
604.625	13195.42
604.983	13308.63
605.341	13220.73
605.698	13268.41
606.056	13357.45
606.413	13193.38
606.771	13356.54
607.128	13410.55
607.485	13285.81
607.843	13349.54
608.2	13529.64
608.557	13458.91
608.914	13388.63
609.272	13461.85
609.629	13620.49
609.986	13521.96
610.343	13474.5
610.7	13689.41
611.057	13641.28
611.414	13636.99
611.771	13698.91
612.127	13759.69
612.484	13742.97
612.841	13782.97
613.198	13767.83
613.554	13755.18
613.911	13846.25
614.267	13892.57
614.624	13890.54
614.98	13935.06
615.337	13952.68
615.693	13905.68
616.05	13977.09
616.406	14030.65
616.762	14067.94
617.118	14020.7
617.475	14132.11
617.831	14109.29
618.187	14072.23
618.543	14163.75
618.899	14176.63
619.255	14218.44
619.611	14183.41
619.967	14309.06
620.323	14297.99
620.678	14318.55
621.034	14260.25
621.39	14308.15
621.746	14314.03
622.101	14522.39
622.457	14316.06
622.812	14421.82
623.168	14438.77
623.523	14342.73
623.879	14536.85
624.234	14399.68
624.589	14497.53
624.945	14497.3
625.3	14535.27
625.655	14524.42
626.01	14518.32
626.365	14610.97
626.72	14582.5
627.075	14608.49
627.43	14574.14
627.785	14508.38
628.14	14534.59
628.495	14590.63
628.85	14552.22
629.205	14546.11
629.559	14608.26
629.914	14521.03
630.269	14562.84
630.623	14534.82
630.978	14452.78
631.332	14562.61
631.687	14591.76
632.041	14545.21
632.396	14548.37
632.75	14518.09
633.104	14536.85
633.459	14487.81
633.813	14536.17
634.167	14539.34
634.521	14557.87
634.875	14577.75
635.229	14565.55
635.583	14498.88
635.937	14448.94
636.291	14489.62
636.645	14536.85
636.999	14506.79
637.352	14482.16
637.706	14487.59
638.06	14529.62
638.413	14549.28
638.767	14448.26
639.121	14472.44
639.474	14414.37
639.828	14367.14
640.181	14443.97
640.534	14422.95
640.888	14387.93
641.241	14304.99
641.594	14406.23
641.947	14448.04
642.301	14407.14
642.654	14394.48
643.007	14433.8
643.36	14351.32
643.713	14362.84
644.066	14394.03
644.419	14356.06
644.771	14310.41
645.124	14148.39
645.477	14072.23
645.83	14080.59
646.182	14001.95
646.535	13927.15
646.888	13893.93
647.24	13919.69
647.593	13986.58
647.945	14008.5
648.298	13868.84
648.65	13882.4
649.002	13869.52
649.355	13991.78
649.707	13952.91
650.059	13985
650.411	14149.97
650.763	14154.71
651.115	14286.23
651.467	14278.78
651.819	14245.33
652.171	14192.23
652.523	14269.74
652.875	14256.4
653.227	14182.96
653.578	14313.35
653.93	14290.08
654.282	14144.09
654.633	14195.62
654.985	14165.79
655.337	14297.53
655.688	14202.62
656.039	14269.51
656.391	14177.76
656.742	14219.8
657.094	14202.85
657.445	14309.06
657.796	14166.92
658.147	14248.5
658.498	14256.4
658.849	14241.94
659.2	14254.37
659.551	14227.93
659.902	14254.37
660.253	14234.03
660.604	14224.32
660.955	14183.19
661.306	14263.18
661.656	14246.91
662.007	14206.01
662.358	14236.07
662.708	14287.36
663.059	14208.95
663.409	14154.71
663.76	14242.39
664.11	14253.02
664.461	14366.91
664.811	14301.6
665.161	14212.56
665.511	14223.64
665.862	14373.24
666.212	14286.23
666.562	14323.07
666.912	14281.49
667.262	14245.33
667.612	14330.53
667.962	14295.95
668.312	14173.02
668.662	14333.24
669.011	14333.24
669.361	14315.84
669.711	14252.34
670.06	14236.29
670.41	14294.82
670.76	14296.18
671.109	14314.48
671.459	14232.9
671.808	14250.53
672.157	14212.11
672.507	14215.05
672.856	14239.23
673.205	14311.32
673.554	14259.57
673.904	14253.47
674.253	14317.65
674.602	14277.87
674.951	14073.81
675.3	14010.99
675.649	14267.48
675.998	14238.1
676.346	14239.46
676.695	14226.58
677.044	14149.51
677.393	14318.1
677.741	14250.98
678.09	14299.79
678.438	14269.29
678.787	14222.28
679.135	14235.84
679.484	14165.33
679.832	14223.86
680.181	14157.42
680.529	14199.23
680.877	14177.31
681.225	14137.09
681.573	14213.92
681.922	14165.79
682.27	14126.24
682.618	14118.56
682.966	14003.76
683.314	14047.82
683.661	14073.81
684.009	14013.25
684.357	13907.94
684.705	13927.15
685.053	13939.8
685.4	14007.6
685.748	13908.84
686.095	13955.17
686.443	13820.71
686.79	13846.47
687.138	13860.71
687.485	13895.74
687.832	13876.75
688.18	13904.1
688.527	13757.66
688.874	13853.48
689.221	13771.9
689.568	13694.16
689.915	13757.66
690.262	13714.72
690.609	13738.45
690.956	13613.26
691.303	13558.8
691.65	13640.6
691.997	13556.76
692.344	13494.39
692.69	13502.53
693.037	13497.1
693.383	13293.72
693.73	13446.26
694.077	13341.63
694.423	13398.8
694.769	13420.04
695.116	13418.69
695.462	13363.09
695.808	13313.83
696.155	13311.34
696.501	13149.54
696.847	13299.59
697.193	13158.13
697.539	13146.15
697.885	13135.98
698.231	13080.62
698.577	13056.89
698.923	12976.66
699.269	13009.43
699.614	12974.4
699.96	12922.2
700.306	12985.93
700.651	12820.74
700.997	12867.29
701.342	12884.69
701.688	12819.83
702.033	12828.19
702.379	12793.62
702.724	12782.55
703.069	12735.77
703.415	12574.87
703.76	12666.39
704.105	12656.45
704.45	12595.88
704.795	12600.18
705.14	12547.52
705.485	12521.08
705.83	12487.41
706.175	12520.86
706.52	12450.8
706.865	12407.87
707.209	12430.92
707.554	12397.92
707.899	12430.24
708.243	12376.45
708.588	12383.01
708.932	12188.44
709.277	12329.45
709.621	12254.65
709.966	12157.02
710.31	12244.25
710.654	12166.52
710.998	12126.97
711.342	12173.07
711.687	12084.71
712.031	12090.59
712.375	12039.51
712.719	12067.76
713.063	12047.65
713.407	12041.32
713.75	12084.03
714.094	12063.02
714.438	11976.92
714.782	12008.55
715.125	11997.26
715.469	11954.09
715.812	11934.21
716.156	11924.49
716.499	11849.91
716.843	11877.03
717.186	11816.92
717.53	11842.01
717.873	11851.95
718.216	11774.44
718.559	11818.05
718.902	11682.01
719.246	11799.75
719.589	11743.48
719.932	11677.04
720.275	11675.23
720.617	11741.89
720.96	11677.26
721.303	11668.68
721.646	11649.69
721.989	11629.13
722.331	11623.93
722.674	11701.44
723.016	11680.65
723.359	11677.94
723.701	11744.61
724.044	11576.25
724.386	11506.19
724.729	11618.96
725.071	11555.91
725.413	11538.74
725.755	11557.49
726.097	11560.2
726.439	11483.82
726.782	11476.59
727.124	11596.36
727.465	11497.83
727.807	11541
728.149	11484.95
728.491	11438.85
728.833	11452.86
729.175	11413.32
729.516	11403.6
729.858	11359.08
730.199	11390.49
730.541	11394.33
730.882	11348.46
731.224	11403.6
731.565	11372.19
731.906	11330.15
732.248	11338.29
732.589	11303.94
732.93	11255.58
733.271	11290.38
733.612	11284.28
733.953	11304.17
734.294	11201.8
734.635	11163.38
734.976	11257.39
735.317	11181.23
735.658	11208.8
735.999	11172.19
736.339	11179.65
736.68	11237.28
737.021	11205.86
737.361	11180.33
737.702	11262.59
738.042	11177.62
738.383	11214.22
738.723	11168.8
739.063	11191.85
739.404	11157.28
739.744	11141.01
740.084	11044.06
740.424	11236.15
740.764	11104.17
741.104	11138.75
741.444	11157.73
741.784	11074.34
742.124	11039.31
742.464	11114.79
742.804	11042.03
743.143	11039.31
743.483	11074.57
743.823	11014.46
744.162	11032.31
744.502	11031.63
744.841	10992.31
745.181	11075.25
745.52	11061.01
745.86	11017.39
746.199	11024.85
746.538	10979.2
746.877	11068.47
747.216	10971.07
747.556	10984.85
747.895	10952.08
748.234	10897.4
748.573	10879.32
748.911	10917.74
749.25	10879.09
749.589	10925.19
749.928	10872.76
750.267	10940.79
750.605	10880
750.944	10818.08
751.283	10797.74
751.621	10883.84
751.96	10846.1
752.298	10863.27
752.636	10804.07
752.975	10755.25
753.313	10811.52
753.651	10869.38
753.989	10782.37
754.327	10715.93
754.666	10705.09
755.004	10718.87
755.342	10709.83
755.679	10689.72
756.017	10682.26
756.355	10720
756.693	10643.39
757.031	10623.51
757.368	10648.36
757.706	10638.87
758.044	10593.45
758.381	10587.12
758.719	10647.01
759.056	10548.03
759.394	10513.45
759.731	10496.73
760.068	10438.2
