Data from cardboard_FLMS001491_014.txt Node
Date: Tue Feb 07 11:39:01 GMT 2017
User: dcchb
Spectrometer: FLMS00149
Trigger mode: 0
Integration Time (sec): 2.000000E-2
Scans to average: 10
Electric dark correction enabled: true
Nonlinearity correction enabled: false
Boxcar width: 0
XAxis mode: Wavelengths
Number of Pixels in Spectrum: 2048
>>>>>Begin Spectral Data<<<<<
341.393	-18.97
341.776	-18.97
342.16	-18.97
342.543	-56.71
342.927	-58.06
343.31	-68.23
343.693	-66.42
344.077	-63.49
344.46	-78.85
344.843	-40.21
345.226	-53.09
345.61	-26.43
345.993	-12.87
346.376	3.63
346.759	3.18
347.142	27.81
347.525	39.56
347.908	56.28
348.291	66.23
348.674	102.38
349.057	110.52
349.44	125.43
349.823	150.97
350.206	169.95
350.588	188.94
350.971	184.64
351.354	199.1
351.737	229.84
352.119	255.15
352.502	262.61
352.884	268.71
353.267	291.08
353.65	287.92
354.032	292.89
354.414	307.12
354.797	329.27
355.179	312.1
355.562	322.72
355.944	299.89
356.326	296.28
356.709	324.07
357.091	315.94
357.473	332.21
357.855	323.62
358.238	327.92
358.62	348.25
359.002	318.88
359.384	364.07
359.766	334.24
360.148	313.45
360.53	345.32
360.912	323.4
361.294	315.49
361.676	331.98
362.057	322.72
362.439	330.17
362.821	303.96
363.203	320.68
363.584	310.29
363.966	302.61
364.348	324.98
364.729	313.68
365.111	298.31
365.493	313.9
365.874	286.33
366.256	321.36
366.637	306.22
367.019	313
367.4	308.93
367.781	317.75
368.163	319.1
368.544	288.37
368.925	303.51
369.306	301.93
369.688	303.51
370.069	299.44
370.45	294.47
370.831	284.07
371.212	291.98
371.593	306.67
371.974	317.29
372.355	298.76
372.736	317.52
373.117	307.58
373.498	313.9
373.879	330.63
374.26	323.4
374.641	315.49
375.021	306.9
375.402	326.79
375.783	308.48
376.163	309.84
376.544	289.95
376.925	336.95
377.305	324.75
377.686	324.07
378.066	322.04
378.447	335.82
378.827	330.17
379.208	329.5
379.588	332.43
379.968	322.72
380.349	338.76
380.729	311.42
381.109	328.59
381.489	330.63
381.87	317.07
382.25	335.37
382.63	348.93
383.01	338.76
383.39	336.5
383.77	305.32
384.15	331.53
384.53	334.24
384.91	364.52
385.29	336.73
385.67	355.71
386.049	335.6
386.429	338.99
386.809	336.05
387.189	332.89
387.568	339.21
387.948	355.03
388.328	359.1
388.707	359.1
389.087	351.87
389.466	359.33
389.846	357.97
390.225	349.16
390.605	358.42
390.984	352.32
391.363	394.58
391.743	382.15
392.122	352.77
392.501	377.41
392.881	390.96
393.26	368.82
393.639	357.29
394.018	386.22
394.397	381.47
394.776	367.46
395.155	373.56
395.534	373.34
395.913	379.89
396.292	368.37
396.671	377.41
397.05	405.43
397.429	387.8
397.808	403.85
398.186	389.38
398.565	386.44
398.944	400
399.323	389.38
399.701	403.85
400.08	389.38
400.458	400.46
400.837	406.78
401.215	399.33
401.594	416.05
401.972	409.72
402.351	400.68
402.729	413.11
403.107	421.47
403.486	401.36
403.864	404.98
404.242	426.9
404.62	435.48
404.999	423.05
405.377	424.64
405.755	423.96
406.133	431.87
406.511	448.59
406.889	437.52
407.267	464.41
407.645	440.23
408.023	448.14
408.401	446.33
408.779	469.38
409.156	463.96
409.534	452.43
409.912	454.92
410.29	477.06
410.667	453.34
411.045	462.6
411.422	491.3
411.8	480.68
412.178	483.62
412.555	489.49
412.933	491.98
413.31	488.59
413.687	484.52
414.065	505.09
414.442	519.1
414.819	520.68
415.197	525.2
415.574	522.03
415.951	520.45
416.328	516.38
416.705	529.72
417.082	528.14
417.46	563.16
417.837	557.51
418.214	536.05
418.591	522.94
418.967	540.56
419.344	535.14
419.721	545.76
420.098	562.03
420.475	542.6
420.852	560.45
421.228	568.59
421.605	561.36
421.982	562.71
422.358	602.48
422.735	585.99
423.111	605.2
423.488	593.22
423.864	575.59
424.241	597.29
424.617	601.81
424.994	612.88
425.37	610.62
425.746	604.52
426.123	612.2
426.499	615.82
426.875	631.86
427.251	623.95
427.627	632.77
428.003	647
428.379	632.54
428.756	644.29
429.132	644.29
429.507	665.08
429.883	651.97
430.259	670.28
430.635	679.32
431.011	689.49
431.387	680.22
431.763	696.72
432.138	696.94
432.514	733.33
432.89	707.34
433.265	741.01
433.641	727.45
434.016	741.69
434.392	751.86
434.767	740.11
435.143	774.46
435.518	753.44
435.894	755.47
436.269	773.1
436.644	803.16
437.02	782.14
437.395	784.63
437.77	807.68
438.145	815.36
438.52	823.27
438.895	834.57
439.271	845.19
439.646	842.93
440.021	844.51
440.395	826.43
440.77	817.39
441.145	850.84
441.52	863.04
441.895	841.57
442.27	875.47
442.645	877.28
443.019	888.13
443.394	873.89
443.769	885.64
444.143	856.49
444.518	886.77
444.892	899.88
445.267	911.63
445.641	901.46
446.016	919.31
446.39	907.33
446.764	934.45
447.139	914.57
447.513	928.35
447.887	942.14
448.262	937.84
448.636	952.08
449.01	964.28
449.384	979.42
449.758	964.51
450.132	1004.06
450.506	967.45
450.88	978.75
451.254	998.41
451.628	1013.55
452.002	1012.19
452.376	1040.89
452.75	1016.71
453.123	1048.8
453.497	1059.87
453.871	1054.68
454.244	1082.02
454.618	1104.84
454.992	1109.14
455.365	1100.32
455.739	1147.78
456.112	1123.15
456.486	1133.77
456.859	1146.88
457.232	1160.66
457.606	1161.57
457.979	1184.39
458.352	1174.22
458.725	1212.41
459.099	1237.27
459.472	1220.1
459.845	1272.3
460.218	1252.86
460.591	1264.61
460.964	1280.88
461.337	1299.41
461.71	1314.78
462.083	1354.1
462.456	1329.02
462.829	1329.02
463.201	1364.72
463.574	1348.91
463.947	1369.02
464.32	1402.92
464.692	1410.15
465.065	1425.51
465.438	1464.38
465.81	1447.43
466.183	1500.54
466.555	1503.7
466.928	1513.42
467.3	1511.39
467.672	1547.77
468.045	1575.34
468.417	1561.33
468.789	1578.5
469.161	1610.82
469.534	1636.13
469.906	1643.81
470.278	1666.86
470.65	1671.16
471.022	1702.79
471.394	1749.8
471.766	1765.39
472.138	1772.4
472.51	1787.76
472.882	1841.55
473.253	1836.8
473.625	1867.08
473.997	1938.27
474.369	1910.47
474.74	1953.41
475.112	1992.28
475.484	2018.94
475.855	2053.97
476.227	2050.58
476.598	2156.12
476.97	2117.92
477.341	2193.63
477.713	2203.57
478.084	2213.97
478.455	2259.84
478.827	2293.51
479.198	2371.25
479.569	2357.69
479.94	2432.27
480.311	2418.03
480.682	2502.55
481.053	2565.6
481.424	2600.4
481.795	2609.89
482.166	2643.56
482.537	2707.74
482.908	2757.91
483.279	2785.7
483.65	2815.76
484.021	2894.18
484.391	2946.38
484.762	2927.62
485.133	2978.69
485.503	3013.95
485.874	3067.05
486.244	3110.67
486.615	3156.32
486.985	3199.93
487.356	3250.55
487.726	3323.09
488.097	3359.47
488.467	3394.5
488.837	3459.58
489.207	3473.37
489.578	3519.7
489.948	3613.7
490.318	3621.84
490.688	3649.86
491.058	3697.32
491.428	3737.09
491.798	3830.87
492.168	3880.36
492.538	3895.73
492.908	3921.94
493.278	4014.82
493.648	4049.4
494.017	4078.78
494.387	4133.24
494.757	4173.01
495.126	4215.5
495.496	4248.26
495.866	4327.58
496.235	4359.67
496.605	4390.63
496.974	4383.18
497.344	4524.64
497.713	4470.86
498.082	4560.35
498.452	4627.92
498.821	4666.56
499.19	4642.15
499.559	4745.65
499.928	4750.85
500.298	4781.36
500.667	4863.16
501.036	4898.64
501.405	4869.26
501.774	4970.73
502.143	5043.5
502.512	5008.24
502.88	5105.64
503.249	5149.94
503.618	5134.12
503.987	5232.42
504.356	5250.5
504.724	5319.65
505.093	5348.12
505.462	5360.33
505.83	5387.67
506.199	5422.24
506.567	5582.47
506.936	5569.13
507.304	5663.14
507.672	5668.79
508.041	5785.4
508.409	5784.72
508.777	5842.57
509.145	5915.79
509.514	5916.47
509.882	5952.85
510.25	5976.58
510.618	6103.13
510.986	6147.42
511.354	6184.48
511.722	6216.57
512.09	6280.75
512.458	6329.57
512.826	6428.09
513.193	6487.08
513.561	6505.61
513.929	6587.64
514.297	6614.53
514.664	6669.44
515.032	6693.4
515.4	6793.06
515.767	6835.54
516.135	6940.17
516.502	6939.94
516.869	7078.47
517.237	7128.19
517.604	7078.47
517.972	7197.56
518.339	7255.64
518.706	7320.05
519.073	7350.1
519.44	7446.15
519.808	7539.7
520.175	7577.67
520.542	7645.46
520.909	7715.07
521.276	7819.7
521.643	7887.04
522.009	7871.9
522.376	8041.84
522.743	8045.23
523.11	8159.35
523.477	8297.2
523.843	8343.98
524.21	8458.55
524.577	8497.42
524.943	8567.25
525.31	8590.97
525.676	8776.05
526.043	8709.16
526.409	8932.66
526.776	9000.68
527.142	9000.23
527.508	9138.08
527.874	9207
528.241	9349.6
528.607	9363.84
528.973	9497.62
529.339	9423.72
529.705	9635.69
530.071	9729.93
530.437	9783.94
530.803	9889.02
531.169	9869.13
531.535	9986.64
531.901	10035.46
532.267	10074.78
532.632	10135.34
532.998	10264.6
533.364	10376.24
533.73	10333.98
534.095	10449.91
534.461	10557.93
534.826	10600.87
535.192	10670.02
535.557	10809.9
535.923	10828.88
536.288	10853.97
536.653	10919.28
537.019	10946.62
537.384	11024.36
537.749	11055.77
538.114	11171.25
538.479	11230.45
538.845	11298.47
539.21	11329.89
539.575	11385.25
539.94	11500.28
540.305	11597.45
540.67	11619.14
541.034	11676.09
541.399	11712.7
541.764	11836.31
542.129	11786.82
542.494	11918.34
542.858	12071.34
543.223	12053.03
543.587	12094.84
543.952	12100.71
544.316	12309.75
544.681	12272.69
545.045	12348.39
545.41	12440.36
545.774	12462.06
546.138	12496.41
546.503	12556.07
546.867	12698.44
547.231	12843.97
547.595	12816.17
547.959	12887.13
548.324	12942.5
548.688	12969.84
549.052	13107.47
549.416	13147.69
549.779	13248.71
550.143	13279.66
550.507	13372.77
550.871	13368.25
551.235	13406.22
551.599	13611.63
551.962	13655.25
552.326	13714.91
552.689	13787
553.053	13784.96
553.417	13886.65
553.78	14085.52
554.143	14066.76
554.507	14156.48
554.87	14283.93
555.234	14354.44
555.597	14316.7
555.96	14485.28
556.323	14511.72
556.686	14543.81
557.05	14743.81
557.413	14789.68
557.776	14829
558.139	14891.37
558.502	15027.87
558.865	15064.25
559.228	15267.86
559.59	15244.13
559.953	15421.08
560.316	15515.09
560.679	15528.65
561.041	15624.46
561.404	15803.89
561.767	15885.02
562.129	15978.13
562.492	16059.25
562.854	16091.79
563.217	16090.66
563.579	16201.85
563.941	16431.9
564.304	16491.78
564.666	16576.08
565.028	16594.83
565.39	16661.27
565.753	16817.65
566.115	16921.83
566.477	16980.81
566.839	17157.3
567.201	17211.31
567.563	17230.52
567.925	17342.61
568.287	17457.63
568.648	17430.29
569.01	17593.68
569.372	17827.34
569.734	17762.48
570.095	17910.73
570.457	17935.81
570.819	17980.78
571.18	18103.04
571.542	18122.25
571.903	18215.81
572.265	18304.84
572.626	18446.53
572.987	18444.05
573.349	18578.96
573.71	18692.63
574.071	18786.19
574.432	18831.16
574.794	19070.47
575.155	19039.74
575.516	19133.75
575.877	19098.72
576.238	19129.45
576.599	19269.56
576.96	19299.17
577.32	19358.15
577.681	19543
578.042	19445.15
578.403	19520.86
578.763	19651.02
579.124	19666.16
579.485	19775.99
579.845	19892.37
580.206	19896.67
580.566	19927.85
580.927	19934.86
581.287	20018.24
581.648	20080.16
582.008	20243.55
582.368	20154.51
582.728	20231.35
583.089	20295.07
583.449	20166.04
583.809	20337.78
584.169	20467.5
584.529	20431.79
584.889	20516.76
585.249	20432.02
585.609	20378.69
585.969	20674.72
586.329	20629.98
586.688	20557.67
587.048	20592.47
587.408	20730.54
587.768	20705.46
588.127	20726.7
588.487	20682.86
588.846	20903.87
589.206	20875.85
589.565	20819.81
589.925	20937.32
590.284	20902.29
590.643	21011.21
591.003	21049.4
591.362	21079.01
591.721	21043.3
592.08	21076.3
592.44	21222.05
592.799	21208.95
593.158	21192.9
593.517	21299.57
593.876	21347.02
594.235	21311.54
594.593	21371.2
594.952	21497.3
595.311	21430.19
595.67	21544.76
596.029	21616.17
596.387	21696.39
596.746	21624.3
597.104	21571.42
597.463	21685.32
597.822	21798.76
598.18	21702.72
598.538	21667.92
598.897	21901.81
599.255	21679.9
599.613	22049.6
599.972	21864.07
600.33	21973
600.688	21844.19
601.046	21968.7
601.404	22007.35
601.762	22110.39
602.12	22215.7
602.478	22265.42
602.836	22271.74
603.194	22079.21
603.552	22264.74
603.91	22196.49
604.268	22289.15
604.625	22243.5
604.983	22380.44
605.341	22292.54
605.698	22516.94
606.056	22464.28
606.413	22469.71
606.771	22657.95
607.128	22639.64
607.485	22563.26
607.843	22569.14
608.2	22756.7
608.557	22800.54
608.914	22739.98
609.272	22928.22
609.629	22891.16
609.986	23113.76
610.343	23001.9
610.7	23078.28
611.057	23108.11
611.414	23150.82
611.771	23299.06
612.127	23207.77
612.484	23132.06
612.841	23390.59
613.198	23299.51
613.554	23278.95
613.911	23522.33
614.267	23404.14
614.624	23488.66
614.98	23595.78
615.337	23606.17
615.693	23685.49
616.05	23664.48
616.406	23775.21
616.762	23747.64
617.118	23661.99
617.475	23800.74
617.831	23922.1
618.187	23909.44
618.543	24013.85
618.899	24119.38
619.255	24034.41
619.611	24000.06
619.967	24104.01
620.323	24129.78
620.678	24153.28
621.034	24097.01
621.39	24206.84
621.746	24190.34
622.101	24412.71
622.457	24293.16
622.812	24355.76
623.168	24304.46
623.523	24441.18
623.879	24441.41
624.234	24290.9
624.589	24506.26
624.945	24428.98
625.3	24459.26
625.655	24447.73
626.01	24477.79
626.365	24584.45
626.72	24481.86
627.075	24496.32
627.43	24503.55
627.785	24571.12
628.14	24584.23
628.495	24616.32
628.85	24606.15
629.205	24519.82
629.559	24591.91
629.914	24589.42
630.269	24542.19
630.623	24535.41
630.978	24474.17
631.332	24614.28
631.687	24732.25
632.041	24559.82
632.396	24626.71
632.75	24534.28
633.104	24563.66
633.459	24399.6
633.813	24489.77
634.167	24431.91
634.521	24506.26
634.875	24467.17
635.229	24501.97
635.583	24448.41
635.937	24532.48
636.291	24521.63
636.645	24480.5
636.999	24381.52
637.352	24557.11
637.706	24434.17
638.06	24456.55
638.413	24428.3
638.767	24359.6
639.121	24372.93
639.474	24254.97
639.828	24278.92
640.181	24431.69
640.534	24363.67
640.888	24248.19
641.241	24334.97
641.594	24315.98
641.947	24296.55
642.301	24164.35
642.654	24401.63
643.007	24362.76
643.36	24336.55
643.713	24234.63
644.066	24327.28
644.419	24166.16
644.771	24028.31
645.124	23838.26
645.477	23901.98
645.83	23633.74
646.182	23669
646.535	23592.61
646.888	23618.38
647.24	23427.87
647.593	23579.28
647.945	23570.92
648.298	23538.6
648.65	23381.09
649.002	23444.37
649.355	23513.75
649.707	23512.62
650.059	23625.83
650.411	23827.41
650.763	23864.47
651.115	24172.94
651.467	24076.9
651.819	24172.71
652.171	24061.3
652.523	24023.56
652.875	24090.68
653.227	23887.07
653.578	24148.53
653.93	24073.73
654.282	23936.79
654.633	23991.25
654.985	24038.48
655.337	23987.86
655.688	24001.64
656.039	24195.54
656.391	23846.84
656.742	24040.06
657.094	23988.08
657.445	24003
657.796	23992.83
658.147	24024.24
658.498	23906.05
658.849	24012.72
659.2	23980.4
659.551	23902.21
659.902	24068.99
660.253	24000.29
660.604	23998.71
660.955	23997.8
661.306	24121.64
661.656	24093.17
662.007	24035.99
662.358	24125.48
662.708	23996.67
663.059	24012.04
663.409	23945.15
663.76	24094.97
664.11	24023.79
664.461	24045.48
664.811	24107.85
665.161	24137.01
665.511	24038.03
665.862	24179.72
666.212	24184.91
666.562	24120.96
666.912	24172.49
667.262	23994.64
667.612	24022.66
667.962	24123.67
668.312	24013.17
668.662	24201.64
669.011	24114.86
669.361	24001.19
669.711	24188.08
670.06	24102.21
670.41	24003.22
670.76	24112.83
671.109	24174.75
671.459	24106.72
671.808	24118.7
672.157	24169.77
672.507	24020.4
672.856	24120.28
673.205	24051.13
673.554	24110.11
673.904	24059.49
674.253	24188.53
674.602	24187.85
674.951	23804.59
675.3	23599.62
675.649	24036.44
675.998	24018.82
676.346	24054.52
676.695	24102.66
677.044	23901.08
677.393	24009.78
677.741	23996.22
678.09	23891.14
678.438	23935.43
678.787	23985.6
679.135	23876.9
679.484	23904.92
679.832	23989.44
680.181	23752.16
680.529	23911.02
680.877	23698.6
681.225	23808.88
681.573	23983.34
681.922	23886.39
682.27	23688.88
682.618	23872.38
682.966	23761.65
683.314	23877.35
683.661	23755.32
684.009	23581.54
684.357	23558.49
684.705	23507.87
685.053	23610.24
685.4	23582.44
685.748	23439.4
686.095	23483.46
686.443	23371.83
686.79	23302.68
687.138	23370.02
687.485	23429.23
687.832	23308.33
688.18	23282.34
688.527	23247.09
688.874	23154.43
689.221	23145.17
689.568	23120.99
689.915	23033.76
690.262	23183.36
690.609	23125.28
690.956	22986.98
691.303	22965.29
691.65	22899.07
691.997	22839.41
692.344	22782.92
692.69	22713.77
693.037	22710.83
693.383	22466.54
693.73	22579.99
694.077	22487.11
694.423	22533.43
694.769	22468.12
695.116	22378.63
695.462	22382.48
695.808	22339.31
696.155	22241.69
696.501	22176.83
696.847	22188.58
697.193	22037.85
697.539	22228.58
697.885	22021.81
698.231	21860.46
698.577	21960.79
698.923	21917.86
699.269	21779.1
699.614	21698.65
699.96	21690.07
700.306	21740.01
700.651	21549.96
700.997	21575.49
701.342	21509.51
701.688	21473.8
702.033	21499.56
702.379	21477.19
702.724	21342.73
703.069	21335.05
703.415	21089.63
703.76	21146.58
704.105	21240.13
704.45	21168.05
704.795	21021.38
705.14	20956.98
705.485	20950.42
705.83	20884.66
706.175	20883.31
706.52	20820.71
706.865	20739.36
707.209	20787.72
707.554	20600.6
707.899	20599.02
708.243	20696.42
708.588	20614.39
708.932	20476.31
709.277	20461.62
709.621	20600.6
709.966	20465.69
710.31	20447.84
710.654	20305.92
710.998	20295.75
711.342	20402.64
711.687	20299.59
712.031	20144.34
712.375	20214.17
712.719	20294.85
713.063	20132.14
713.407	20245.13
713.75	20083.1
714.094	20138.24
714.438	20001.07
714.782	20010.11
715.125	19895.54
715.469	19915.65
715.812	19890.56
716.156	19783.22
716.499	19828.87
716.843	19838.81
717.186	19688.76
717.53	19836.1
717.873	19765.6
718.216	19722.43
718.559	19650.12
718.902	19533.06
719.246	19658.71
719.589	19533.96
719.932	19546.62
720.275	19418.49
720.617	19545.71
720.96	19393.63
721.303	19373.74
721.646	19427.53
721.989	19377.13
722.331	19503.46
722.674	19424.59
723.016	19388.88
723.359	19319.96
723.701	19353.4
724.044	19313.4
724.386	19204.71
724.729	19303.91
725.071	19144.82
725.413	19284.93
725.755	19175.78
726.097	19123.35
726.439	19084.03
726.782	19120.87
727.124	19105.5
727.465	19092.85
727.807	19135.1
728.149	19008.33
728.491	19029.34
728.833	19120.42
729.175	19002.23
729.516	19043.81
729.858	18961.78
730.199	19025.28
730.541	18896.69
730.882	18978.95
731.224	18958.39
731.565	18834.32
731.906	18906.18
732.248	18922.23
732.589	18784.15
732.93	18789.35
733.271	18801.1
733.612	18815.11
733.953	18834.1
734.294	18762.23
734.635	18618.96
734.976	18820.54
735.317	18614.89
735.658	18622.35
735.999	18676.81
736.339	18607.66
736.68	18721.1
737.021	18587.1
737.361	18563.59
737.702	18668
738.042	18617.6
738.383	18520.21
738.723	18584.38
739.063	18535.12
739.404	18584.38
739.744	18482.24
740.084	18444.73
740.424	18533.54
740.764	18484.05
741.104	18578.73
741.444	18491.73
741.784	18546.42
742.124	18398.17
742.464	18495.35
742.804	18416.25
743.143	18331.96
743.483	18366.54
743.823	18322.24
744.162	18280.89
744.502	18336.03
744.841	18376.25
745.181	18361.34
745.52	18350.94
745.86	18393.65
746.199	18388.23
746.538	18256.48
746.877	18410.38
747.216	18280.66
747.556	18271.17
747.895	18226.65
748.234	18215.58
748.573	18234.34
748.911	18138.07
749.25	18238.63
749.589	18166.54
749.928	18213.32
750.267	18145.53
750.605	18146.66
750.944	18106.66
751.283	18065.98
751.621	18150.5
751.96	18079.31
752.298	17997.06
752.636	18092.65
752.975	18006.77
753.313	17953.67
753.651	18097.84
753.989	18004.06
754.327	17934.01
754.666	17879.32
755.004	17943.72
755.342	17983.95
755.679	17855.36
756.017	17845.65
756.355	17870.28
756.693	17777.63
757.031	17852.65
757.368	17792.77
757.706	17748.25
758.044	17709.83
