Data from cardboard_FLMS001491_081.txt Node
Date: Tue Feb 07 11:40:15 GMT 2017
User: dcchb
Spectrometer: FLMS00149
Trigger mode: 0
Integration Time (sec): 2.000000E-2
Scans to average: 10
Electric dark correction enabled: true
Nonlinearity correction enabled: false
Boxcar width: 0
XAxis mode: Wavelengths
Number of Pixels in Spectrum: 2048
>>>>>Begin Spectral Data<<<<<
341.393	-8.25
341.776	-8.25
342.16	-8.25
342.543	-55.03
342.927	-62.71
343.31	-62.48
343.693	-71.07
344.077	-74.91
344.46	-42.6
344.843	-42.37
345.226	-36.5
345.61	-34.69
345.993	-24.75
346.376	-3.95
346.759	26.78
347.142	7.34
347.525	52.99
347.908	49.6
348.291	55.48
348.674	94.35
349.057	106.78
349.44	115.59
349.823	131.86
350.206	186.32
350.588	186.32
350.971	214.57
351.354	212.76
351.737	248.24
352.119	261.12
352.502	264.51
352.884	291.63
353.267	267.45
353.65	286.66
354.032	297.28
354.414	306.55
354.797	307
355.179	326.88
355.562	323.72
355.944	315.13
356.326	321.69
356.709	342.02
357.091	339.31
357.473	343.83
357.855	317.39
358.238	344.96
358.62	347.22
359.002	345.64
359.384	333.66
359.766	337.05
360.148	334.57
360.53	340.44
360.912	351.06
361.294	330.95
361.676	327.34
362.057	333.66
362.439	314.46
362.821	334.34
363.203	316.94
363.584	329.82
363.966	304.29
364.348	308.35
364.729	327.11
365.111	294.12
365.493	320.33
365.874	311.07
366.256	319.88
366.637	310.84
367.019	309.03
367.4	327.11
367.781	308.81
368.163	314.46
368.544	313.1
368.925	326.43
369.306	335.47
369.688	299.77
370.069	307.9
370.45	339.31
370.831	318.07
371.212	318.07
371.593	302.48
371.974	325.53
372.355	287.79
372.736	330.95
373.117	316.94
373.498	318.52
373.879	313.55
374.26	330.27
374.641	321.91
375.021	330.5
375.402	340.67
375.783	333.66
376.163	331.18
376.544	337.73
376.925	337.28
377.305	339.99
377.686	325.75
378.066	341.57
378.447	348.13
378.827	342.02
379.208	350.61
379.588	329.82
379.968	332.53
380.349	348.35
380.729	334.12
381.109	332.76
381.489	328.69
381.87	368.01
382.25	347
382.63	361.01
383.01	347.9
383.39	345.64
383.77	354.91
384.15	356.71
384.53	368.24
384.91	342.93
385.29	357.62
385.67	342.93
386.049	361.01
386.429	364.62
386.809	373.44
387.189	373.44
387.568	366.21
387.948	380.89
388.328	382.48
388.707	367.11
389.087	373.66
389.466	389.03
389.846	388.58
390.225	377.05
390.605	374.11
390.984	382.7
391.363	399.88
391.743	381.57
392.122	383.15
392.501	401.23
392.881	388.8
393.26	409.82
393.639	423.6
394.018	401.91
394.397	396.03
394.776	385.87
395.155	398.52
395.534	422.02
395.913	413.44
396.292	416.15
396.671	412.76
397.05	423.6
397.429	419.54
397.808	436.03
398.186	409.82
398.565	448.24
398.944	436.71
399.323	437.16
399.701	450.95
400.08	424.28
400.458	430.38
400.837	438.52
401.215	437.62
401.594	437.62
401.972	438.29
402.351	442.14
402.729	462.25
403.107	467.67
403.486	466.77
403.864	447.33
404.242	470.61
404.62	475.13
404.999	451.85
405.377	452.3
405.755	488.01
406.133	491.17
406.511	479.42
406.889	501.57
407.267	480.33
407.645	490.27
408.023	486.43
408.401	494.79
408.779	523.94
409.156	531.4
409.534	512.42
409.912	535.69
410.29	517.39
410.667	518.52
411.045	535.92
411.422	540.66
411.8	553.09
412.178	532.53
412.555	553.09
412.933	579.76
413.31	575.92
413.687	563.49
414.065	559.87
414.442	568.23
414.819	555.58
415.197	594.45
415.574	568.23
415.951	586.76
416.328	593.77
416.705	603.94
417.082	604.16
417.46	591.96
417.837	610.27
418.214	603.03
418.591	643.26
418.967	624.05
419.344	599.65
419.721	641.68
420.098	623.15
420.475	645.29
420.852	651.17
421.228	653.2
421.605	670.83
421.982	673.54
422.358	680.77
422.735	665.41
423.111	654.33
423.488	649.81
423.864	693.43
424.241	709.25
424.617	727.1
424.994	693.43
425.37	700.89
425.746	701.56
426.123	708.34
426.499	696.82
426.875	713.54
427.251	729.36
427.627	740.66
428.003	753.77
428.379	747.21
428.756	759.87
429.132	770.71
429.507	781.34
429.883	786.76
430.259	799.87
430.635	804.61
431.011	776.59
431.387	809.81
431.763	823.82
432.138	851.16
432.514	815.23
432.89	821.33
433.265	828.11
433.641	869.47
434.016	863.14
434.392	884.16
434.767	887.77
435.143	882.12
435.518	886.19
435.894	895
436.269	903.59
436.644	932.29
437.02	937.72
437.395	941.78
437.77	959.86
438.145	928.22
438.52	972.52
438.895	983.82
439.271	983.82
439.646	1002.12
440.021	1018.62
440.395	997.15
440.77	987.21
441.145	1006.41
441.52	1033.31
441.895	1031.05
442.27	1030.82
442.645	1035.11
443.019	1050.25
443.394	1037.37
443.769	1058.84
444.143	1055
444.518	1074.66
444.892	1067.66
445.267	1061.55
445.641	1090.48
446.016	1090.71
446.39	1104.72
446.764	1104.72
447.139	1125.06
447.513	1131.38
447.887	1143.81
448.262	1134.09
448.636	1152.85
449.01	1189.69
449.384	1163.02
449.758	1175.68
450.132	1194.66
450.506	1162.12
450.88	1200.99
451.254	1212.06
451.628	1229.69
452.002	1227.43
452.376	1248.67
452.75	1255.45
453.123	1243.7
453.497	1252.74
453.871	1255.67
454.244	1302.23
454.618	1295.67
454.992	1330.47
455.365	1311.26
455.739	1322.56
456.112	1361.66
456.486	1374.09
456.859	1373.86
457.232	1403.24
457.606	1448.66
457.979	1419.51
458.352	1434.2
458.725	1475.78
459.099	1487.08
459.472	1462.9
459.845	1499.06
460.218	1506.74
460.591	1565.27
460.964	1582.9
461.337	1573.86
461.71	1610.92
462.083	1608.88
462.456	1631.48
462.829	1652.95
463.201	1679.39
463.574	1684.59
463.947	1673.52
464.32	1714.42
464.692	1743.8
465.065	1762.1
465.438	1774.98
465.81	1788.54
466.183	1832.83
466.555	1847.07
466.928	1859.05
467.3	1847.07
467.672	1931.59
468.045	1967.29
468.417	1971.36
468.789	1942.43
469.161	1966.84
469.534	2026.05
469.906	2019.04
470.278	2063.56
470.65	2114.18
471.022	2121.19
471.394	2163.22
471.766	2191.47
472.138	2183.78
472.51	2233.95
472.882	2274.4
473.253	2297
473.625	2357.11
473.997	2420.39
474.369	2394.4
474.74	2455.42
475.112	2469.2
475.484	2525.92
475.855	2574.51
476.227	2579.71
476.598	2659.48
476.97	2689.31
477.341	2745.8
477.713	2727.27
478.084	2791.68
478.455	2862.86
478.827	2863.31
479.198	2972.24
479.569	3000.03
479.94	3061.28
480.311	3101.73
480.682	3156.87
481.053	3176.75
481.424	3226.02
481.795	3285.22
482.166	3345.56
482.537	3397.76
482.908	3469.63
483.279	3511.89
483.65	3554.37
484.021	3613.8
484.391	3682.05
484.762	3702.39
485.133	3744.65
485.503	3798.21
485.874	3894.25
486.244	3914.81
486.615	4001.36
486.985	4041.14
487.356	4127.69
487.726	4204.07
488.097	4282.03
488.467	4274.12
488.837	4402.26
489.207	4400.22
489.578	4476.38
489.948	4516.6
490.318	4595.47
490.688	4631.4
491.058	4700.55
491.428	4738.07
491.798	4855.35
492.168	4979.87
492.538	4937.16
492.908	5017.16
493.278	5082.69
493.648	5118.62
494.017	5183.48
494.387	5206.53
494.757	5248.11
495.126	5360.88
495.496	5397.49
495.866	5421.21
496.235	5463.02
496.605	5582.79
496.974	5600.19
497.344	5658.95
497.713	5724.48
498.082	5763.13
498.452	5802.9
498.821	5847.19
499.19	5859.85
499.559	5960.41
499.928	6012.84
500.298	6012.16
500.667	6144.36
501.036	6155.88
501.405	6226.62
501.774	6264.58
502.143	6345.71
502.512	6368.31
502.88	6469.32
503.249	6442.2
503.618	6573.27
503.987	6564.91
504.356	6602.43
504.724	6661.18
505.093	6701.86
505.462	6775.75
505.83	6825.47
506.199	6907.73
506.567	7060.94
506.936	7002.64
507.304	7138.46
507.672	7212.35
508.041	7240.37
508.409	7321.05
508.777	7382.97
509.145	7459.58
509.514	7458.67
509.882	7593.13
510.25	7617.99
510.618	7690.98
510.986	7728.27
511.354	7846.46
511.722	7923.75
512.09	7983.86
512.458	7993.35
512.826	8092.78
513.193	8140.46
513.561	8238.77
513.929	8311.53
514.297	8384.3
514.664	8477.63
515.032	8524.63
515.4	8571.87
515.767	8689.6
516.135	8732.99
516.502	8764.18
516.869	8891.4
517.237	9021.34
517.604	9002.59
517.972	9092.76
518.339	9161.23
518.706	9186.76
519.073	9311.05
519.44	9363.26
519.808	9450.71
520.175	9470.37
520.542	9619.75
520.909	9777.03
521.276	9798.5
521.643	9933.86
522.009	10055.44
522.376	10079.62
522.743	10142.45
523.11	10339.95
523.477	10437.35
523.843	10439.16
524.21	10608.2
524.577	10643.22
524.943	10720.06
525.31	10911.46
525.676	10932.03
526.043	11024.68
526.409	11200.04
526.776	11249.76
527.142	11419.47
527.508	11463.77
527.874	11580.83
528.241	11652.46
528.607	11739.69
528.973	11855.62
529.339	11870.08
529.705	12064.88
530.071	12204.99
530.437	12276.85
530.803	12353.91
531.169	12428.94
531.535	12489.95
531.901	12549.61
532.267	12667.58
532.632	12793.22
532.998	12865.09
533.364	12989.6
533.73	12997.29
534.095	13128.81
534.461	13228.01
534.826	13336.71
535.192	13363.15
535.557	13506.88
535.923	13556.14
536.288	13558.85
536.653	13776.25
537.019	13717.27
537.384	13821.44
537.749	13913.65
538.114	13970.82
538.479	14058.5
538.845	14091.72
539.21	14217.37
539.575	14397.25
539.94	14325.16
540.305	14480.64
540.67	14478.38
541.034	14580.07
541.399	14723.57
541.764	14742.1
542.129	14908.42
542.494	15048.53
542.858	14988.65
543.223	15062.54
543.587	15188.87
543.952	15299.37
544.316	15191.58
544.681	15336.66
545.045	15473.83
545.41	15582.98
545.774	15620.95
546.138	15651.68
546.503	15802.86
546.867	15768.29
547.231	15919.92
547.595	15982.74
547.959	16044.66
548.324	16149.52
548.688	16201.95
549.052	16344.99
549.416	16349.74
549.779	16413.92
550.143	16478.55
550.507	16657.3
550.871	16708.6
551.235	16865.21
551.599	16913.34
551.962	17079.66
552.326	17075.6
552.689	17165.31
553.053	17199.66
553.417	17231.75
553.78	17521.01
554.143	17446.66
554.507	17616.6
554.87	17699.08
555.234	17854.78
555.597	17757.39
555.96	17938.85
556.323	18067.89
556.686	18145.17
557.05	18248.9
557.413	18379.29
557.776	18347.65
558.139	18582.9
558.502	18583.35
558.865	18700.19
559.228	18836
559.59	18881.65
559.953	18995.32
560.316	19270.79
560.679	19309.21
561.041	19373.84
561.404	19493.16
561.767	19694.51
562.129	19679.82
562.492	19922.98
562.854	19914.17
563.217	20095.86
563.579	20095.18
563.941	20289.52
564.304	20356.41
564.666	20664.43
565.028	20655.84
565.39	20705.56
565.753	20841.15
566.115	20946.45
566.477	20992.78
566.839	21138.99
567.201	21304.86
567.563	21424.18
567.925	21522.71
568.287	21565.2
568.648	21792.53
569.01	21791.86
569.372	21985.98
569.734	21984.85
570.095	22138.74
570.457	22204.73
570.819	22351.62
571.18	22401.11
571.542	22483.14
571.903	22605.39
572.265	22787.08
572.626	22816.46
572.987	22834.54
573.349	23010.81
573.71	23077.47
574.071	23218.94
574.432	23267.52
574.794	23604.46
575.155	23499.16
575.516	23498.93
575.877	23603.11
576.238	23557.91
576.599	23821.41
576.96	23839.71
577.32	23936.21
577.681	24049.88
578.042	24016.88
578.403	24177.56
578.763	24128.07
579.124	24307.95
579.485	24430.21
579.845	24479.24
580.206	24635.85
580.566	24463.88
580.927	24649.86
581.287	24703.64
581.648	24679.92
582.008	24872.45
582.368	24767.82
582.728	24975.28
583.089	24909.29
583.449	24859.57
583.809	24958.55
584.169	25086.46
584.529	24971.89
584.889	25263.86
585.249	25119
585.609	25028.38
585.969	25313.35
586.329	25259.11
586.688	25437.64
587.048	25307.92
587.408	25348.6
587.768	25469.73
588.127	25441.93
588.487	25301.82
588.846	25714.01
589.206	25548.82
589.565	25577.29
589.925	25758.31
590.284	25735.93
590.643	25786.78
591.003	25838.76
591.362	25923.95
591.721	25860.68
592.08	25866.55
592.44	25988.81
592.799	26035.36
593.158	25893.67
593.517	26070.39
593.876	26154.23
594.235	26039.65
594.593	26171.85
594.952	26380.44
595.311	26173.44
595.67	26381.34
596.029	26507.21
596.387	26541.11
596.746	26632.86
597.104	26459.3
597.463	26474.22
597.822	26605.97
598.18	26535.46
598.538	26556.48
598.897	26845.51
599.255	26582.01
599.613	26984.49
599.972	26757.15
600.33	26862.91
600.688	26811.39
601.046	26928.67
601.404	27132.28
601.762	27085.05
602.12	27049.35
602.478	27205.95
602.836	27185.16
603.194	27141.55
603.552	27170.7
603.91	27152.62
604.268	27313.97
604.625	27225.84
604.983	27333.63
605.341	27150.13
605.698	27422.44
606.056	27498.37
606.413	27468.32
606.771	27556
607.128	27579.5
607.485	27583.12
607.843	27702.21
608.2	27745.15
608.557	27885.03
608.914	27778.14
609.272	27963.22
609.629	27999.15
609.986	28183.78
610.343	28002.99
610.7	28219.71
611.057	28145.81
611.414	28275.08
611.771	28221.29
612.127	28394.17
612.484	28468.07
612.841	28506.26
613.198	28405.47
613.554	28430.1
613.911	28603.88
614.267	28492.47
614.624	28709.19
614.98	28671.22
615.337	28812.01
615.693	28789.64
616.05	28852.01
616.406	28956.19
616.762	28858.11
617.118	28881.39
617.475	28926.13
617.831	28994.38
618.187	29080.03
618.543	29131.1
618.899	29399.11
619.255	29270.76
619.611	29176.52
619.967	29460.81
620.323	29303.75
620.678	29388.94
621.034	29274.37
621.39	29386.91
621.746	29326.8
622.101	29768.14
622.457	29456.29
622.812	29637.75
623.168	29506.68
623.523	29593.46
623.879	29819.44
624.234	29512.56
624.589	29650.63
624.945	29694.25
625.3	29652.44
625.655	29693.57
626.01	29884.75
626.365	29699.45
626.72	29656.96
627.075	29749.39
627.43	29659.22
627.785	29542.61
628.14	29794.13
628.495	29773.79
628.85	29797.07
629.205	29817.63
629.559	29946.67
629.914	29797.97
630.269	29867.12
630.623	29720.91
630.978	29622.16
631.332	29804.3
631.687	29941.92
632.041	29818.09
632.396	29792.55
632.75	29678.43
633.104	29771.31
633.459	29710.07
633.813	29664.19
634.167	29814.02
634.521	29724.53
634.875	29790.74
635.229	29658.99
635.583	29540.58
635.937	29653.57
636.291	29577.87
636.645	29611.54
636.999	29545.1
637.352	29615.83
637.706	29516.63
638.06	29512.78
638.413	29452.67
638.767	29399.57
639.121	29593.46
639.474	29385.1
639.828	29338.78
640.181	29464.2
640.534	29461.49
640.888	29407.02
641.241	29357.76
641.594	29313.92
641.947	29463.52
642.301	29373.35
642.654	29448.38
643.007	29390.07
643.36	29348.49
643.713	29348.27
644.066	29456.74
644.419	29143.75
644.771	29032.57
645.124	28770.43
645.477	28809.3
645.83	28645.46
646.182	28459.93
646.535	28401.63
646.888	28593.03
647.24	28348.52
647.593	28492.7
647.945	28458.12
648.298	28375.41
648.65	28330.22
649.002	28214.74
649.355	28352.59
649.707	28273.72
650.059	28556.42
650.411	28784.67
650.763	28844.33
651.115	29193.92
651.467	29020.59
651.819	28974.04
652.171	29112.12
652.523	29021.95
652.875	29069.41
653.227	28913.25
653.578	29105.11
653.93	29078.67
654.282	28931.33
654.633	28814.27
654.985	28805.91
655.337	28869.18
655.688	28976.75
656.039	29073.47
656.391	28868.28
656.742	28954.15
657.094	29010.65
657.445	29020.82
657.796	29040.71
658.147	28960.26
658.498	28865.12
658.849	29156.63
659.2	28878.45
659.551	28851.33
659.902	28980.14
660.253	28911.44
660.604	28934.95
660.955	28779.92
661.306	28958
661.656	29005.23
662.007	29023.08
662.358	28963.65
662.708	28954.15
663.059	28999.35
663.409	28796.42
663.76	29085.45
664.11	29108.95
664.461	29128.39
664.811	28951.22
665.161	28939.69
665.511	29056.3
665.862	28962.74
666.212	29090.2
666.562	29206.35
666.912	29043.42
667.262	28961.84
667.612	29069.86
667.962	28972.46
668.312	28994.6
668.662	29102.62
669.011	29021.27
669.361	28975.85
669.711	28872.57
670.06	29024.21
670.41	28950.31
670.76	28757.55
671.109	28966.58
671.459	28913.48
671.808	28952.35
672.157	28909.41
672.507	28767.27
672.856	28859.24
673.205	28806.81
673.554	28951.89
673.904	28796.64
674.253	28971.55
674.602	28948.73
674.951	28439.59
675.3	28368.63
675.649	28867.15
675.998	28790.54
676.346	28725.46
676.695	28879.81
677.044	28619.25
677.393	28777.66
677.741	28826.25
678.09	28702.41
678.438	28718.23
678.787	28758.9
679.135	28817.66
679.484	28626.7
679.832	28737.21
680.181	28473.71
680.529	28635.29
680.877	28518.23
681.225	28619.25
681.573	28659.47
681.922	28567.72
682.27	28507.39
682.618	28491.57
682.966	28407.5
683.314	28481.4
683.661	28319.59
684.009	28288.86
684.357	28249.77
684.705	28064.46
685.053	28136.1
685.4	28206.15
685.748	28085.25
686.095	28126.15
686.443	27927.51
686.79	27891.81
687.138	28019.04
687.485	28011.13
687.832	27936.1
688.18	27945.59
688.527	27773.17
688.874	27729.55
689.221	27713.06
689.568	27825.6
689.915	27666.96
690.262	27619.05
690.609	27501.99
690.956	27447.3
691.303	27430.58
691.65	27332.5
691.997	27338.83
692.344	27139.06
692.69	27181.32
693.037	27172.96
693.383	26997.37
693.73	27001.89
694.077	26937.48
694.423	26926.86
694.769	26858.16
695.116	26836.47
695.462	26697.26
695.808	26592.18
696.155	26766.64
696.501	26338.86
696.847	26566.42
697.193	26429.7
697.539	26531.17
697.885	26288.24
698.231	26220.44
698.577	26197.39
698.923	26088.47
699.269	26113.32
699.614	26007.56
699.96	25899.54
700.306	25963.5
700.651	25792.43
700.997	25694.13
701.342	25742.71
701.688	25634.69
702.033	25591.3
702.379	25582.72
702.724	25495.71
703.069	25480.57
703.415	25333.01
703.76	25271.54
704.105	25358.54
704.45	25267.7
704.795	25071.77
705.14	25039.68
705.485	25025.22
705.83	24959.91
706.175	24869.29
706.52	24887.59
706.865	24856.41
707.209	24827.03
707.554	24700.48
707.899	24810.53
708.243	24682.85
708.588	24568.28
708.932	24528.06
709.277	24403.99
709.621	24506.81
709.966	24297.33
710.31	24361.28
710.654	24226.37
710.998	24235.63
711.342	24212.36
711.687	24041.51
712.031	23995.19
712.375	23995.41
712.719	24042.19
713.063	24033.61
713.407	24113.15
713.75	23995.87
714.094	23973.04
714.438	23795.19
714.782	23935.08
715.125	23818.24
715.469	23862.31
715.812	23714.29
716.156	23592.04
716.499	23567.85
716.843	23660.96
717.186	23479.72
717.53	23618.25
717.873	23615.99
718.216	23558.59
718.559	23375.54
718.902	23320.4
719.246	23322.89
719.589	23335.09
719.932	23267.75
720.275	23127.41
720.617	23188.2
720.96	23157.24
721.303	23230.91
721.646	23181.42
721.989	23057.81
722.331	23137.36
722.674	23013.07
723.016	23087.19
723.359	23053.29
723.701	23092.16
724.044	22950.7
724.386	22808.55
724.729	22979.62
725.071	22919.06
725.413	22857.59
725.755	22848.55
726.097	22833.41
726.439	22724.49
726.782	22712.51
727.124	22821.89
727.465	22574.21
727.807	22678.16
728.149	22725.39
728.491	22635.22
728.833	22687.43
729.175	22572.17
729.516	22545.06
729.858	22494.89
730.199	22566.53
730.541	22500.76
730.882	22427.09
731.224	22494.44
731.565	22413.53
731.906	22453.99
732.248	22389.58
732.589	22354.78
732.93	22402.91
733.271	22353.88
733.612	22480.2
733.953	22404.27
734.294	22212.86
734.635	22318.4
734.976	22314.33
735.317	22151.85
735.658	22138.06
735.999	22190.26
736.339	22141.23
736.68	22224.16
737.021	22136.71
737.361	22065.07
737.702	22141.68
738.042	22161.79
738.383	22023.49
738.723	22040.89
739.063	22061.91
739.404	22099.64
739.744	21985.52
740.084	21936.71
740.424	22099.42
740.764	22098.06
741.104	22101.9
741.444	22008.57
741.784	21888.35
742.124	22024.84
742.464	21924.06
742.804	21965.64
743.143	21962.02
743.483	21966.32
743.823	21764.74
744.162	21767
744.502	21846.54
744.841	21837.96
745.181	21854.23
745.52	21711.41
745.86	21907.33
746.199	21794.79
746.538	21658.75
746.877	21821.23
747.216	21889.93
747.556	21689.49
747.895	21750.73
748.234	21729.26
748.573	21638.64
748.911	21696.72
749.25	21714.34
749.589	21693.78
749.928	21710.73
750.267	21714.34
750.605	21655.14
750.944	21487.23
751.283	21563.61
751.621	21488.14
751.96	21496.04
752.298	21619.88
752.636	21509.15
752.975	21418.31
753.313	21433.45
753.651	21431.64
753.989	21354.35
754.327	21444.29
754.666	21234.13
755.004	21368.59
755.342	21387.12
755.679	21419.89
756.017	21217.86
756.355	21315.48
