Data from cardboard_FLMS001491_075.txt Node
Date: Tue Feb 07 11:40:07 GMT 2017
User: dcchb
Spectrometer: FLMS00149
Trigger mode: 0
Integration Time (sec): 2.000000E-2
Scans to average: 10
Electric dark correction enabled: true
Nonlinearity correction enabled: false
Boxcar width: 0
XAxis mode: Wavelengths
Number of Pixels in Spectrum: 2048
>>>>>Begin Spectral Data<<<<<
341.393	-25.39
341.776	-25.39
342.16	-25.39
342.543	-63.59
342.927	-71.5
343.31	-67.88
343.693	-68.56
344.077	-70.14
344.46	-54.32
344.843	-54.09
345.226	-33.53
345.61	-24.26
345.993	-22.01
346.376	-20.65
346.759	9.86
347.142	21.61
347.525	40.14
347.908	63.87
348.291	78.33
348.674	102.29
349.057	99.35
349.44	128.5
349.823	140.7
350.206	167.82
350.588	201.49
350.971	209.4
351.354	231.77
351.737	233.81
352.119	236.75
352.502	269.74
352.884	272.45
353.267	278.78
353.65	275.61
354.032	292.56
354.414	310.87
354.797	320.58
355.179	311.09
355.562	322.39
355.944	308.83
356.326	331.43
356.709	349.96
357.091	321.04
357.473	319.23
357.855	333.92
358.238	323.07
358.62	336.86
359.002	324.65
359.384	342.51
359.766	349.96
360.148	330.98
360.53	335.05
360.912	316.29
361.294	330.08
361.676	303.18
362.057	316.74
362.439	341.83
362.821	315.84
363.203	328.27
363.584	301.38
363.966	318.32
364.348	319.91
364.729	319.91
365.111	304.09
365.493	308.16
365.874	312.22
366.256	300.25
366.637	314.26
367.019	310.87
367.4	297.99
367.781	309.51
368.163	297.76
368.544	314.94
368.925	307.48
369.306	312.9
369.688	305.44
370.069	287.14
370.45	300.02
370.831	301.83
371.212	311.32
371.593	304.77
371.974	286.69
372.355	306.57
372.736	311.55
373.117	320.81
373.498	307.03
373.879	316.29
374.26	308.61
374.641	306.12
375.021	295.27
375.402	308.61
375.783	298.66
376.163	308.38
376.544	302.73
376.925	306.57
377.305	294.82
377.686	330.08
378.066	319.45
378.447	333.92
378.827	332.79
379.208	321.26
379.588	332.34
379.968	301.6
380.349	338.21
380.729	333.24
381.109	326.69
381.489	339.12
381.87	324.88
382.25	323.75
382.63	331.21
383.01	323.52
383.39	333.69
383.77	320.36
384.15	326.01
384.53	327.59
384.91	334.82
385.29	364.43
385.67	350.19
386.049	347.25
386.429	359.91
386.809	352.67
387.189	344.31
387.568	371.88
387.948	357.19
388.328	359.68
388.707	359.91
389.087	353.8
389.466	356.29
389.846	365.1
390.225	343.18
390.605	357.19
390.984	336.86
391.363	343.41
391.743	353.8
392.122	344.76
392.501	382.5
392.881	370.75
393.26	357.42
393.639	380.02
394.018	373.24
394.397	379.79
394.776	382.73
395.155	378.89
395.534	372.56
395.913	383.41
396.292	394.03
396.671	380.02
397.05	399.68
397.429	397.42
397.808	369.4
398.186	391.54
398.565	387.93
398.944	397.19
399.323	388.38
399.701	395.16
400.08	387.93
400.458	394.26
400.837	391.54
401.215	371.2
401.594	380.92
401.972	404.65
402.351	413.69
402.729	392.45
403.107	415.27
403.486	418.66
403.864	424.31
404.242	406.91
404.62	427.25
404.999	414.14
405.377	423.41
405.755	436.74
406.133	426.34
406.511	429.28
406.889	425.21
407.267	448.94
407.645	450.07
408.023	431.99
408.401	423.18
408.779	427.47
409.156	450.07
409.534	458.66
409.912	437.64
410.29	455.5
410.667	453.24
411.045	443.97
411.422	453.46
411.8	507.02
412.178	475.16
412.555	474.25
412.933	488.04
413.31	467.02
413.687	471.99
414.065	489.39
414.442	480.35
414.819	521.94
415.197	502.27
415.574	511.99
415.951	516.96
416.328	501.15
416.705	510.18
417.082	525.55
417.46	504.76
417.837	529.84
418.214	517.64
418.591	516.06
418.967	526.46
419.344	538.21
419.721	537.98
420.098	536.4
420.475	548.15
420.852	536.85
421.228	568.49
421.605	540.01
421.982	546.79
422.358	535.49
422.735	576.4
423.111	556.96
423.488	576.4
423.864	564.87
424.241	593.8
424.617	583.63
424.994	596.51
425.37	582.95
425.746	598.77
426.123	581.37
426.499	596.74
426.875	594.7
427.251	620.24
427.627	604.87
428.003	629.28
428.379	629.05
428.756	647.58
429.132	638.77
429.507	641.25
429.883	649.39
430.259	649.84
430.635	663.4
431.011	653.68
431.387	653.23
431.763	655.94
432.138	670.41
432.514	666.34
432.89	707.24
433.265	705.89
433.641	696.85
434.016	716.51
434.392	710.63
434.767	741.36
435.143	736.17
435.518	711.76
435.894	751.08
436.269	711.53
436.644	765.77
437.02	767.58
437.395	760.12
437.77	751.08
438.145	770.06
438.52	749.5
438.895	780.01
439.271	761.25
439.646	790.18
440.021	762.16
440.395	825.66
440.77	796.73
441.145	808.71
441.52	798.31
441.895	813.23
442.27	809.16
442.645	851.64
443.019	830.4
443.394	835.83
443.769	829.95
444.143	837.63
444.518	846.22
444.892	853
445.267	843.51
445.641	885.09
446.016	873.34
446.39	878.76
446.764	883.28
447.139	855.49
447.513	885.09
447.887	886.22
448.262	896.84
448.636	909.95
449.01	915.82
449.384	900.23
449.758	923.05
450.132	944.75
450.506	938.2
450.88	950.85
451.254	947.23
451.628	984.75
452.002	950.4
452.376	958.99
452.75	998.31
453.123	983.84
453.497	1023.17
453.871	1015.48
454.244	1019.55
454.618	1024.52
454.992	1028.59
455.365	1027.46
455.739	1023.62
456.112	1080.79
456.486	1080.34
456.859	1072.43
457.232	1092.09
457.606	1091.19
457.979	1119.89
458.352	1112.2
458.725	1150.62
459.099	1149.04
459.472	1145.42
459.845	1157.4
460.218	1179.55
460.591	1183.16
460.964	1183.61
461.337	1239.2
461.71	1212.99
462.083	1276.72
462.456	1262.25
462.829	1263.16
463.201	1245.08
463.574	1273.33
463.947	1295.7
464.32	1324.85
464.692	1330.5
465.065	1355.36
465.438	1343.61
465.81	1373.44
466.183	1389.26
466.555	1390.84
466.928	1436.94
467.3	1452.31
467.672	1434.68
468.045	1485.98
468.417	1474
468.789	1474.9
469.161	1483.72
469.534	1516.26
469.906	1556.03
470.278	1563.72
470.65	1579.53
471.022	1580.44
471.394	1640.1
471.766	1653.88
472.138	1666.31
472.51	1688.68
472.882	1720.77
473.253	1745.86
473.625	1751.51
473.997	1770.72
474.369	1766.2
474.74	1841
475.112	1830.6
475.484	1879.41
475.855	1915.8
476.227	1920.54
476.598	1984.95
476.97	1971.84
477.341	2012.07
477.713	2038.05
478.084	2077.37
478.455	2126.41
478.827	2119.63
479.198	2185.17
479.569	2219.52
479.94	2242.34
480.311	2262.45
480.682	2336.35
481.053	2379.97
481.424	2374.99
481.795	2443.24
482.166	2429.46
482.537	2501.54
482.908	2520.98
483.279	2547.42
483.65	2629.68
484.021	2626.96
484.391	2663.35
484.762	2728.21
485.133	2759.62
485.503	2771.59
485.874	2837.13
486.244	2865.15
486.615	2921.42
486.985	2940.63
487.356	2984.02
487.726	3066.05
488.097	3073.05
488.467	3118.03
488.837	3144.92
489.207	3210.45
489.578	3261.75
489.948	3304.91
490.318	3388.53
490.688	3409.09
491.058	3447.06
491.428	3513.95
491.798	3535.87
492.168	3586.94
492.538	3602.76
492.908	3644.11
493.278	3703.55
493.648	3732.92
494.017	3810.89
494.387	3852.24
494.757	3827.84
495.126	3941.05
495.496	3946.93
495.866	3999.81
496.235	4032.35
496.605	4033.03
496.974	4110.77
497.344	4119.58
497.713	4170.65
498.082	4205.91
498.452	4259.24
498.821	4282.74
499.19	4323.19
499.559	4350.76
499.928	4372.46
500.298	4419.46
500.667	4491.32
501.036	4525.22
501.405	4523.19
501.774	4539.46
502.143	4659.68
502.512	4615.39
502.88	4716.18
503.249	4716.18
503.618	4758.43
503.987	4791.43
504.356	4836.4
504.724	4890.86
505.093	4914.36
505.462	4927.24
505.83	4985.32
506.199	5045.43
506.567	5061.48
506.936	5113.91
507.304	5177.41
507.672	5249.72
508.041	5275.03
508.409	5337.18
508.777	5406.78
509.145	5397.74
509.514	5473.44
509.882	5499.66
510.25	5551.18
510.618	5564.51
510.986	5634.12
511.354	5726.32
511.722	5745.07
512.09	5829.59
512.458	5827.56
512.826	5878.63
513.193	5895.81
513.561	6004.28
513.929	6049.02
514.297	6143.48
514.664	6200.88
515.032	6188.45
515.4	6179.19
515.767	6263.93
516.135	6371.05
516.502	6372.86
516.869	6469.58
517.237	6562.68
517.604	6508.9
517.972	6556.8
518.339	6670.7
518.706	6705.5
519.073	6781.88
519.44	6819.4
519.808	6901.2
520.175	6921.54
520.542	7056.9
520.909	7078.83
521.276	7131.71
521.643	7227.75
522.009	7351.13
522.376	7397.23
522.743	7415.77
523.11	7555.2
523.477	7652.6
523.843	7626.61
524.21	7752.03
524.577	7818.69
524.943	7891.69
525.31	7953.6
525.676	8076.99
526.043	8099.14
526.409	8143.43
526.776	8319.24
527.142	8317.89
527.508	8420.48
527.874	8459.81
528.241	8569.63
528.607	8635.39
528.973	8742.74
529.339	8684.43
529.705	8830.42
530.071	8943.18
530.437	9046.23
530.803	9032.9
531.169	9150.18
531.535	9191.54
531.901	9217.07
532.267	9321.48
532.632	9430.85
532.998	9434.02
533.364	9497.97
533.73	9613.45
534.095	9695.03
534.461	9724.41
534.826	9759.21
535.192	9832.88
535.557	9968.92
535.923	9949.03
536.288	10040.33
536.653	10082.59
537.019	10149.25
537.384	10197.16
537.749	10289.14
538.114	10267.89
538.479	10313.09
538.845	10452.07
539.21	10450.26
539.575	10558.51
539.94	10585.17
540.305	10671.27
540.67	10678.73
541.034	10771.61
541.399	10819.74
541.764	10837.6
542.129	10939.51
542.494	10960.98
542.858	11052.51
543.223	11148.55
543.587	11236.23
543.952	11196.91
544.316	11308.54
544.681	11262.67
545.045	11464.92
545.41	11455.89
545.774	11511.48
546.138	11547.86
546.503	11585.83
546.867	11701.98
547.231	11799.15
547.595	11852.26
547.959	11904.46
548.324	11934.52
548.688	11948.53
549.052	12132.7
549.416	12123.66
549.779	12180.61
550.143	12238.92
550.507	12327.5
550.871	12351.45
551.235	12392.13
551.599	12522.07
551.962	12562.07
552.326	12651.33
552.689	12747.38
553.053	12799.58
553.417	12860.14
553.78	12933.59
554.143	12995.96
554.507	13062.4
554.87	13131.55
555.234	13295.38
555.597	13231.43
555.96	13369.96
556.323	13426.68
556.686	13424.65
557.05	13612.21
557.413	13651.76
557.776	13701.02
558.139	13797.97
558.502	13846.78
558.865	13948.93
559.228	14038.87
559.59	14171.07
559.953	14255.36
560.316	14384.4
560.679	14342.81
561.041	14392.08
561.404	14545.97
561.767	14692.86
562.129	14580.55
562.492	14798.85
562.854	14885.85
563.217	14958.84
563.579	14951.39
563.941	15081.78
564.304	15247.65
564.666	15370.58
565.028	15339.62
565.39	15426.4
565.753	15577.58
566.115	15561.54
566.477	15671.59
566.839	15815.77
567.201	15949.33
567.563	15957.69
567.925	16236.78
568.287	16165.59
568.648	16214.63
569.01	16279.94
569.372	16437.68
569.734	16364
570.095	16571.68
570.457	16604.45
570.819	16646.71
571.18	16795.41
571.542	16801.06
571.903	16858
572.265	16969.86
572.626	16982.75
572.987	17120.14
573.349	17187.94
573.71	17220.25
574.071	17310.65
574.432	17440.13
574.794	17521.26
575.155	17557.87
575.516	17426.35
575.877	17645.33
576.238	17621.82
576.599	17740.24
576.96	17878.09
577.32	17879.67
577.681	17970.29
578.042	18003.74
578.403	18016.62
578.763	18202.6
579.124	18074.47
579.485	18192.43
579.845	18310.17
580.206	18290.06
580.566	18281.92
580.927	18477.17
581.287	18476.94
581.648	18368.47
582.008	18629.26
582.368	18535.02
582.728	18646.66
583.089	18640.33
583.449	18619.76
583.809	18792.42
584.169	18794.68
584.529	18754.45
584.889	18932.3
585.249	18764.39
585.609	18897.95
585.969	18966.65
586.329	18859.53
586.688	18894.33
587.048	18997.61
587.408	18896.59
587.768	19025.86
588.127	19098.17
588.487	19022.24
588.846	19290.03
589.206	19127.32
589.565	19211.39
589.925	19304.94
590.284	19262.46
590.643	19309.01
591.003	19478.95
591.362	19500.19
591.721	19409.8
592.08	19487.09
592.44	19569.57
592.799	19520.98
593.158	19590.36
593.517	19628.55
593.876	19514.88
594.235	19607.31
594.593	19613.41
594.952	19685.05
595.311	19617.03
595.67	19737.25
596.029	19833.29
596.387	19819.51
596.746	19957.58
597.104	19829.68
597.463	19829.22
597.822	19896.34
598.18	19909.9
598.538	19871.03
598.897	20102.44
599.255	19847.08
599.613	20192.38
599.972	20010.24
600.33	20236.9
600.688	20172.94
601.046	20229.67
601.404	20234.19
601.762	20316.9
602.12	20361.19
602.478	20366.61
602.836	20341.3
603.194	20276.22
603.552	20379.49
603.91	20382.2
604.268	20538.13
604.625	20403.67
604.983	20552.14
605.341	20450.68
605.698	20627.85
606.056	20725.02
606.413	20647.28
606.771	20678.69
607.128	20816.09
607.485	20771.35
607.843	20818.35
608.2	20946.48
608.557	20956.65
608.914	21006.59
609.272	21024.45
609.629	20975.41
609.986	21213.37
610.343	21119.36
610.7	21188.51
611.057	21179.02
611.414	21283.65
611.771	21219.47
612.127	21387.15
612.484	21355.51
612.841	21449.75
613.198	21412.46
613.554	21421.72
613.911	21594.6
614.267	21509.41
614.624	21598.22
614.98	21657.88
615.337	21692.23
615.693	21680.25
616.05	21734.71
616.406	21878.66
616.762	21746.46
617.118	21766.8
617.475	21797.99
617.831	21905.55
618.187	21740.36
618.543	21988.72
618.899	22114.59
619.255	22061.48
619.611	22130.18
619.967	22140.58
620.323	22171.54
620.678	22139.67
621.034	22145.77
621.39	22141.93
621.746	22137.86
622.101	22381.02
622.457	22192.55
622.812	22291.76
623.168	22346.67
623.523	22300.57
623.879	22482.94
624.234	22236.39
624.589	22431.19
624.945	22420.57
625.3	22510.74
625.655	22489.72
626.01	22456.05
626.365	22490.62
626.72	22536.5
627.075	22487.23
627.43	22519.55
627.785	22481.81
628.14	22470.96
628.495	22533.56
628.85	22452.88
629.205	22435.71
629.559	22629.83
629.914	22427.57
630.269	22542.6
630.623	22419.89
630.978	22454.01
631.332	22544.41
631.687	22658.3
632.041	22518.65
632.396	22627.12
632.75	22498.31
633.104	22560.23
633.459	22387.8
633.813	22356.16
634.167	22526.55
634.521	22433
634.875	22455.37
635.229	22489.72
635.583	22341.93
635.937	22314.36
636.291	22375.37
636.645	22416.95
636.999	22353.23
637.352	22388.03
637.706	22372.66
638.06	22319.1
638.413	22304.19
638.767	22214.7
639.121	22286.33
639.474	22200.69
639.828	22163.85
640.181	22317.07
640.534	22281.36
640.888	22203.17
641.241	22229.61
641.594	22199.78
641.947	22253.12
642.301	22207.69
642.654	22254.47
643.007	22342.15
643.36	22123.85
643.713	22164.3
644.066	22201.82
644.419	22057.64
644.771	22053.12
645.124	21845.67
645.477	21880.47
645.83	21717.08
646.182	21568.39
646.535	21505.56
646.888	21688.61
647.24	21538.78
647.593	21605.9
647.945	21652.23
648.298	21503.3
648.65	21438
649.002	21345.57
649.355	21419.69
649.707	21420.14
650.059	21589.18
650.411	21767.48
650.763	21864.65
651.115	22062.84
651.467	22001.37
651.819	22090.86
652.171	21994.14
652.523	21880.02
652.875	21922.5
653.227	21974.48
653.578	22025.32
653.93	21984.65
654.282	21910.07
654.633	21917.08
654.985	21939.45
655.337	22041.37
655.688	21929.06
656.039	22003.63
656.391	21869.4
656.742	21830.53
657.094	21830.3
657.445	22001.82
657.796	21912.11
658.147	21890.64
658.498	21894.71
658.849	21891.77
659.2	21877.53
659.551	21922.28
659.902	21998.43
660.253	21948.04
660.604	22004.99
660.955	21840.02
661.306	21924.99
661.656	21946.68
662.007	22025.78
662.358	21962.5
662.708	21960.92
663.059	21955.72
663.409	21813.35
663.76	21997.98
664.11	21913.24
664.461	22024.19
664.811	21995.04
665.161	22054.48
665.511	22053.35
665.862	22010.86
666.212	22063.97
666.562	22091.09
666.912	21989.85
667.262	21919.34
667.612	22082.5
667.962	22068.04
668.312	22110.07
668.662	22040.69
669.011	22102.38
669.361	22035.04
669.711	22063.06
670.06	22031.88
670.41	22105.77
670.76	22102.84
671.109	22066.68
671.459	21969.51
671.808	21941.49
672.157	22055.15
672.507	21954.37
672.856	21942.62
673.205	21994.59
673.554	22002.5
673.904	21917.98
674.253	22086.34
674.602	21942.62
674.951	21650.87
675.3	21604.77
675.649	21946.46
675.998	21837.53
676.346	21882.5
676.695	22051.76
677.044	21825.78
677.393	21869.85
677.741	21998.88
678.09	21832.79
678.438	21781.94
678.787	21900.36
679.135	21886.57
679.484	21673.92
679.832	21816.97
680.181	21628.5
680.529	21822.84
680.877	21734.94
681.225	21671.44
681.573	21825.56
681.922	21737.2
682.27	21633.92
682.618	21566.81
682.966	21555.73
683.314	21717.08
683.661	21490.42
684.009	21518.67
684.357	21325.46
684.705	21382.4
685.053	21516.19
685.4	21350.31
685.748	21362.29
686.095	21452.68
686.443	21184.89
686.79	21188.06
687.138	21335.4
687.485	21327.49
687.832	21214.27
688.18	21273.25
688.527	21111.9
688.874	21114.39
689.221	21097.21
689.568	20995.07
689.915	20952.58
690.262	21044.56
690.609	20983.09
690.956	20881.63
691.303	20824.23
691.65	20878.91
691.997	20852.47
692.344	20704.91
692.69	20645.93
693.037	20682.31
693.383	20524.35
693.73	20489.09
694.077	20429.21
694.423	20424.46
694.769	20425.82
695.116	20440.73
695.462	20379.49
695.808	20365.71
696.155	20376.33
696.501	20163.45
696.847	20164.13
697.193	20139.72
697.539	20186.5
697.885	20034.42
698.231	19899.73
698.577	19922.56
698.923	19850.01
699.269	19748.32
699.614	19853.18
699.96	19858.38
700.306	19746.06
700.651	19748.77
700.997	19622.68
701.342	19587.65
701.688	19553.75
702.033	19511.27
702.379	19525.28
702.724	19458.61
703.069	19568.89
703.415	19228.79
703.76	19278.28
704.105	19264.04
704.45	19301.1
704.795	19092.07
705.14	19076.93
705.485	19075.57
705.83	18986.53
706.175	19078.28
706.52	19048.91
706.865	18952.19
707.209	18847.56
707.554	18819.53
707.899	18912.86
708.243	18798.07
708.588	18820.44
708.932	18736.37
709.277	18730.95
709.621	18741.8
709.966	18610.5
710.31	18610.27
710.654	18551.97
710.998	18462.71
711.342	18441.46
711.687	18518.98
712.031	18320.79
712.375	18326.67
712.719	18421.58
713.063	18347.46
713.407	18383.84
713.75	18243.05
714.094	18193.34
714.438	18255.25
714.782	18218.87
715.125	18056.62
715.469	18087.58
715.812	18039.44
716.156	17920.8
716.499	18060.68
716.843	18079.21
717.186	17918.09
717.53	18091.42
717.873	17948.37
718.216	17925.32
718.559	17956.51
718.902	17778.66
719.246	17847.58
719.589	17775.72
719.932	17760.35
720.275	17748.38
720.617	17618.89
720.96	17648.04
721.303	17700.24
721.646	17740.92
721.989	17559
722.331	17647.59
722.674	17551.77
723.016	17587.25
723.359	17548.38
723.701	17626.34
724.044	17496.63
724.386	17430.42
724.729	17534.82
725.071	17487.82
725.413	17496.18
725.755	17486.91
726.097	17422.06
726.439	17295.96
726.782	17316.52
727.124	17434.03
727.465	17341.61
727.807	17324.88
728.149	17272.68
728.491	17303.19
728.833	17311.78
729.175	17231.1
729.516	17193.14
729.858	17251.21
730.199	17141.39
730.541	17216.41
730.882	17200.14
731.224	17156.53
731.565	17185.23
731.906	17152.46
732.248	17121.05
732.589	16938.45
732.93	17022.07
733.271	17049.86
733.612	17153.59
733.953	17076.98
734.294	16981.16
734.635	16924.44
734.976	16984.33
735.317	16939.81
735.658	16944.55
735.999	16977.55
736.339	16942.75
736.68	16942.75
737.021	16872.47
737.361	16869.98
737.702	16978.23
738.042	16877.89
738.383	16914.72
738.723	16928.51
739.063	16790.89
739.404	16862.97
739.744	16912.24
740.084	16820.72
740.424	16843.99
740.764	16903.2
741.104	16901.62
741.444	16770.77
741.784	16705.92
742.124	16804.45
742.464	16669.76
742.804	16721.51
743.143	16768.06
743.483	16635.86
743.823	16688.06
744.162	16609.2
744.502	16664.11
744.841	16628.63
745.181	16662.3
745.52	16582.98
745.86	16624.56
746.199	16639.48
746.538	16601.29
746.877	16585.02
747.216	16565.36
747.556	16550.44
747.895	16654.84
748.234	16583.89
748.573	16502.53
748.911	16568.52
749.25	16500.05
749.589	16478.58
749.928	16575.98
750.267	16514.96
750.605	16412.82
750.944	16371.46
751.283	16474.06
751.621	16377.56
751.96	16316.55
752.298	16320.62
752.636	16348.64
752.975	16368.52
753.313	16213.27
753.651	16356.32
753.989	16307.06
754.327	16210.34
754.666	16157.23
755.004	16171.92
755.342	16230.67
755.679	16093.96
756.017	16164.91
756.355	16280.17
756.693	16085.59
757.031	16090.79
757.368	16048.98
757.706	16119.72
