Data from cardboard_FLMS001491_057.txt Node
Date: Tue Feb 07 11:39:44 GMT 2017
User: dcchb
Spectrometer: FLMS00149
Trigger mode: 0
Integration Time (sec): 2.000000E-2
Scans to average: 10
Electric dark correction enabled: true
Nonlinearity correction enabled: false
Boxcar width: 0
XAxis mode: Wavelengths
Number of Pixels in Spectrum: 2048
>>>>>Begin Spectral Data<<<<<
341.393	-18.12
341.776	-18.12
342.16	-18.12
342.543	-64.45
342.927	-64.67
343.31	-64.22
343.693	-84.11
344.077	-65.13
344.46	-73.49
344.843	-44.11
345.226	-46.82
345.61	-25.58
345.993	-5.69
346.376	-8.4
346.759	9.67
347.142	8.77
347.525	30.24
347.908	63.01
348.291	74.98
348.674	110.69
349.057	120.18
349.44	109.56
349.823	135.1
350.206	168.31
350.588	185.94
350.971	193.85
351.354	219.39
351.737	235.88
352.119	234.53
352.502	243.34
352.884	256.22
353.267	275.2
353.65	284.24
354.032	276.33
354.414	312.94
354.797	299.38
355.179	317.92
355.562	318.37
355.944	316.33
356.326	332.83
356.709	333.96
357.091	326.05
357.473	351.13
357.855	330.8
358.238	313.85
358.62	363.34
359.002	351.36
359.384	317.92
359.766	327.86
360.148	335.77
360.53	335.99
360.912	332.38
361.294	330.12
361.676	330.12
362.057	333.06
362.439	316.79
362.821	304.13
363.203	298.25
363.584	334.19
363.966	331.02
364.348	314.98
364.729	297.58
365.111	308.65
365.493	313.17
365.874	312.27
366.256	311.59
366.637	342.77
367.019	294.87
367.4	300.06
367.781	308.42
368.163	299.61
368.544	297.35
368.925	310.68
369.306	314.75
369.688	303.23
370.069	306.62
370.45	309.55
370.831	281.98
371.212	310.01
371.593	301.64
371.974	301.87
372.355	291.48
372.736	302.55
373.117	309.78
373.498	314.53
373.879	318.82
374.26	298.25
374.641	288.76
375.021	318.59
375.402	333.51
375.783	322.66
376.163	300.74
376.544	319.5
376.925	319.72
377.305	325.6
377.686	324.47
378.066	316.11
378.447	339.16
378.827	316.33
379.208	308.88
379.588	324.02
379.968	322.66
380.349	337.8
380.729	323.34
381.109	312.04
381.489	316.33
381.87	313.85
382.25	313.85
382.63	310.01
383.01	335.54
383.39	326.73
383.77	335.09
384.15	346.39
384.53	319.5
384.91	334.64
385.29	338.93
385.67	344.13
386.049	338.25
386.429	347.75
386.809	344.13
387.189	320.63
387.568	343.68
387.948	353.85
388.328	361.3
388.707	350.46
389.087	322.66
389.466	361.98
389.846	375.09
390.225	345.03
390.605	353.17
390.984	368.54
391.363	338.71
391.743	353.85
392.122	365.15
392.501	343.23
392.881	371.7
393.26	373.96
393.639	347.52
394.018	343.9
394.397	354.52
394.776	350.23
395.155	369.89
395.534	365.82
395.913	350.46
396.292	377.8
396.671	373.06
397.05	400.63
397.429	381.19
397.808	381.42
398.186	376.44
398.565	408.99
398.944	375.99
399.323	393.62
399.701	378.48
400.08	383.22
400.458	393.17
400.837	389.33
401.215	403.11
401.594	368.76
401.972	403.56
402.351	405.82
402.729	415.99
403.107	395.65
403.486	405.82
403.864	417.35
404.242	395.88
404.62	380.06
404.999	398.37
405.377	389.33
405.755	406.27
406.133	408.08
406.511	414.86
406.889	424.81
407.267	415.09
407.645	425.48
408.023	409.89
408.401	418.25
408.779	435.88
409.156	442.66
409.534	454.86
409.912	448.53
410.29	440.17
410.667	435.43
411.045	430.23
411.422	457.8
411.8	477.46
412.178	431.81
412.555	457.8
412.933	468.42
413.31	453.96
413.687	467.29
414.065	449.89
414.442	463.67
414.819	455.54
415.197	470.68
415.574	490.34
415.951	487.63
416.328	462.09
416.705	495.99
417.082	502.32
417.46	490.34
417.837	491.92
418.214	508.19
418.591	517.91
418.967	513.62
419.344	515.65
419.721	516.78
420.098	528.53
420.475	500.74
420.852	515.88
421.228	510.45
421.605	512.71
421.982	531.7
422.358	516.33
422.735	526.05
423.111	533.95
423.488	524.46
423.864	547.06
424.241	547.51
424.617	542.09
424.994	535.54
425.37	541.41
425.746	551.36
426.123	547.97
426.499	569.21
426.875	564.69
427.251	571.92
427.627	557.68
428.003	582.54
428.379	573.73
428.756	597.68
429.132	585.48
429.507	604.01
429.883	601.98
430.259	627.06
430.635	628.42
431.011	638.13
431.387	618.92
431.763	656.44
432.138	626.38
432.514	618.92
432.89	643.33
433.265	652.6
433.641	661.18
434.016	666.15
434.392	650.34
434.767	659.83
435.143	673.84
435.518	678.13
435.894	692.82
436.269	691.46
436.644	696.21
437.02	689.21
437.395	695.98
437.77	705.25
438.145	712.71
438.52	735.98
438.895	723.78
439.271	752.25
439.646	740.05
440.021	754.06
440.395	777.11
440.77	761.75
441.145	759.03
441.52	747.73
441.895	766.94
442.27	756.55
442.645	766.72
443.019	779.37
443.394	790.67
443.769	794.96
444.143	777.11
444.518	786.15
444.892	798.35
445.267	775.3
445.641	784.34
446.016	811.46
446.39	822.31
446.764	816.66
447.139	828.18
447.513	821.63
447.887	826.83
448.262	833.61
448.636	808.3
449.01	839.48
449.384	858.92
449.758	864.79
450.132	842.87
450.506	857.34
450.88	875.64
451.254	861.4
451.628	878.13
452.002	884.91
452.376	895.53
452.75	887.39
453.123	903.44
453.497	922.65
453.871	909.99
454.244	926.71
454.618	938.46
454.992	948.18
455.365	959.25
455.739	972.59
456.112	1000.61
456.486	1000.38
456.859	1011.91
457.232	1034.28
457.606	1010.33
457.979	1017.56
458.352	1027.28
458.725	1035.86
459.099	1033.83
459.472	1042.87
459.845	1072.25
460.218	1077.44
460.591	1080.16
460.964	1106.37
461.337	1115.18
461.71	1115.63
462.083	1146.82
462.456	1152.92
462.829	1132.36
463.201	1166.03
463.574	1198.34
463.947	1182.3
464.32	1216.42
464.692	1221.39
465.065	1228.17
465.438	1212.13
465.81	1242.18
466.183	1251.45
466.555	1290.32
466.928	1319.7
467.3	1328.06
467.672	1315.63
468.045	1349.98
468.417	1335.52
468.789	1362.63
469.161	1392.01
469.534	1410.54
469.906	1415.97
470.278	1423.65
470.65	1438.11
471.022	1478.56
471.394	1493.7
471.766	1497.77
472.138	1518.56
472.51	1540.26
472.882	1564.89
473.253	1566.47
473.625	1597.66
473.997	1620.93
474.369	1625.23
474.74	1658.9
475.112	1688.05
475.484	1693.02
475.855	1711.33
476.227	1753.81
476.598	1776.18
476.97	1767.82
477.341	1818.44
477.713	1837.88
478.084	1877.65
478.455	1940.47
478.827	1912.9
479.198	1997.65
479.569	2011.88
479.94	2034.48
480.311	2079.9
480.682	2084.2
481.053	2137.75
481.424	2166.91
481.795	2177.75
482.166	2235.15
482.537	2254.59
482.908	2326.22
483.279	2278.77
483.65	2343.17
484.021	2448.03
484.391	2420.68
484.762	2483.28
485.133	2471.53
485.503	2507.24
485.874	2555.82
486.244	2565.09
486.615	2636.5
486.985	2665.88
487.356	2691.41
487.726	2717.4
488.097	2799.21
488.467	2840.79
488.837	2911.29
489.207	2918.75
489.578	2953.1
489.948	2986.32
490.318	3043.04
490.688	3009.37
491.058	3089.59
491.428	3135.69
491.798	3188.8
492.168	3230.16
492.538	3257.05
492.908	3306.76
493.278	3351.06
493.648	3361.68
494.017	3395.57
494.387	3477.61
494.757	3487.1
495.126	3551.5
495.496	3528.9
495.866	3586.53
496.235	3632.63
496.605	3676.7
496.974	3680.54
497.344	3723.25
497.713	3758.95
498.082	3762.8
498.452	3827.43
498.821	3804.6
499.19	3866.07
499.559	3952.62
499.928	3941.32
500.298	4010.47
500.667	4092.05
501.036	4030.81
501.405	4150.81
501.774	4066.74
502.143	4147.19
502.512	4206.63
502.88	4246.63
503.249	4254.99
503.618	4306.74
503.987	4328.21
504.356	4365.94
504.724	4435.32
505.093	4425.83
505.462	4470.35
505.83	4476.9
506.199	4542.89
506.567	4590.12
506.936	4649.1
507.304	4699.95
507.672	4742.21
508.041	4735.2
508.409	4780.85
508.777	4812.49
509.145	4882.77
509.514	4934.52
509.882	4984.91
510.25	5038.02
510.618	5022.2
510.986	5040.05
511.354	5137.9
511.722	5144.23
512.09	5222.87
512.458	5246.83
512.826	5316.88
513.193	5349.2
513.561	5365.92
513.929	5454.05
514.297	5566.14
514.664	5573.82
515.032	5548.96
515.4	5668.96
515.767	5664.44
516.135	5734.95
516.502	5729.3
516.869	5805.91
517.237	5837.54
517.604	5906.92
517.972	6005.68
518.339	6016.07
518.706	6054.71
519.073	6152.79
519.44	6134.71
519.808	6273.92
520.175	6283.63
520.542	6343.97
520.909	6442.5
521.276	6419.68
521.643	6517.3
522.009	6564.76
522.376	6659.9
522.743	6719.55
523.11	6788.71
523.477	6847.69
523.843	6832.77
524.21	7041.58
524.577	7037.51
524.943	7079.32
525.31	7188.24
525.676	7200.45
526.043	7356.37
526.409	7370.84
526.776	7521.34
527.142	7493.55
527.508	7626.88
527.874	7656.93
528.241	7681.56
528.607	7778.51
528.973	7827.32
529.339	7862.58
529.705	7939.18
530.071	8060.31
530.437	8075.68
530.803	8166.52
531.169	8236.13
531.535	8205.39
531.901	8367.2
532.267	8438.15
532.632	8441.09
532.998	8502.33
533.364	8569.22
533.73	8636.11
534.095	8726.73
534.461	8735.77
534.826	8848.76
535.192	8824.58
535.557	8942.1
535.923	8995.2
536.288	9018.25
536.653	9108.42
537.019	9101.87
537.384	9167.63
537.749	9253.5
538.114	9338.92
538.479	9332.59
538.845	9408.75
539.21	9382.54
539.575	9455.3
539.94	9547.96
540.305	9641.51
540.67	9667.05
541.034	9719.25
541.399	9792.92
541.764	9850.09
542.129	9866.82
542.494	9956.76
542.858	10043.54
543.223	10041.73
543.587	10078.34
543.952	10149.52
544.316	10210.31
544.681	10222.29
545.045	10295.51
545.41	10420.02
545.774	10429.29
546.138	10434.49
546.503	10548.15
546.867	10548.38
547.231	10705.21
547.595	10796.51
547.959	10848.71
548.324	10838.32
548.688	10843.06
549.052	10921.48
549.416	10993.79
549.779	11032.21
550.143	11105.2
550.507	11213.22
550.871	11266.33
551.235	11285.31
551.599	11426.78
551.962	11444.63
552.326	11502.25
552.689	11577.05
553.053	11573.21
553.417	11587.68
553.78	11796.94
554.143	11768.69
554.507	11876.26
554.87	11982.02
555.234	12024.73
555.597	11996.93
555.96	12162.8
556.323	12247.32
556.686	12299.07
557.05	12316.24
557.413	12402.57
557.776	12434.43
558.139	12539.29
558.502	12590.81
558.865	12652.51
559.228	12790.13
559.59	12835.78
559.953	12910.35
560.316	13123
560.679	13081.2
561.041	13117.35
561.404	13294.75
561.767	13415.2
562.129	13354.63
562.492	13547.17
562.854	13483.9
563.217	13626.72
563.579	13694.29
563.941	13829.42
564.304	13853.6
564.666	13962.53
565.028	13992.36
565.39	14093.6
565.753	14153.71
566.115	14189.42
566.477	14357.09
566.839	14411.78
567.201	14511.44
567.563	14575.17
567.925	14710.08
568.287	14725.45
568.648	14725.22
569.01	14884.76
569.372	14968.38
569.734	14974.71
570.095	15067.81
570.457	15210.41
570.819	15216.51
571.18	15288.82
571.542	15295.83
571.903	15354.13
572.265	15496.27
572.626	15532.66
572.987	15625.76
573.349	15685.19
573.71	15770.16
574.071	15865.08
574.432	15950.95
574.794	16007.9
575.155	16122.92
575.516	16049.25
575.877	16115.92
576.238	16120.21
576.599	16270.04
576.96	16296.03
577.32	16382.8
577.681	16470.26
578.042	16549.35
578.403	16586.19
578.763	16550.26
579.124	16757.71
579.485	16739.63
579.845	16831.15
580.206	16792.96
580.566	16787.54
580.927	16849.46
581.287	16921.77
581.648	16923.35
582.008	17045.39
582.368	17030.7
582.728	17065.95
583.089	17096.91
583.449	17069.34
583.809	17192.5
584.169	17271.14
584.529	17248.77
584.889	17425.04
585.249	17292.84
585.609	17308.66
585.969	17433.62
586.329	17426.62
586.688	17467.29
587.048	17493.96
587.408	17471.59
587.768	17604.92
588.127	17462.32
588.487	17561.76
588.846	17637.91
589.206	17597.01
589.565	17707.51
589.925	17746.38
590.284	17666.16
590.643	17744.58
591.003	17805.82
591.362	17835.87
591.721	17828.87
592.08	17876.55
592.44	17854.18
592.799	17929.88
593.158	17957.23
593.517	17966.49
593.876	18016.89
594.235	18015.08
594.593	18062.53
594.952	18113.38
595.311	17919.49
595.67	18150.44
596.029	18247.84
596.387	18281.06
596.746	18329.19
597.104	18226.6
597.463	18247.16
597.822	18452.58
598.18	18357.22
598.538	18253.71
598.897	18491.22
599.255	18281.96
599.613	18653.93
599.972	18516.08
600.33	18614.61
600.688	18511.11
601.046	18634.04
601.404	18719.92
601.762	18642.63
602.12	18839.01
602.478	18827.94
602.836	18804.43
603.194	18768.73
603.552	18811.21
603.91	18841.04
604.268	18937.09
604.625	18899.35
604.983	18937.54
605.341	18938.44
605.698	19034.71
606.056	19071.77
606.413	19032.68
606.771	19175.05
607.128	19169.17
607.485	19169.62
607.843	19257.98
608.2	19371.43
608.557	19451.42
608.914	19315.83
609.272	19485.77
609.629	19568.93
609.986	19591.76
610.343	19444.64
610.7	19649.38
611.057	19616.17
611.414	19611.87
611.771	19738.42
612.127	19776.16
612.484	19744.75
612.841	19818.65
613.198	19682.38
613.554	19818.19
613.911	19902.03
614.267	20040.56
614.624	19970.51
614.98	19991.75
615.337	20059.77
615.693	20134.12
616.05	20110.62
616.406	20238.07
616.762	20173.21
617.118	20252.76
617.475	20288.46
617.831	20242.14
618.187	20320.1
618.543	20405.97
618.899	20536.14
619.255	20459.31
619.611	20431.28
619.967	20567.78
620.323	20623.37
620.678	20536.82
621.034	20513.77
621.39	20639.41
621.746	20563.94
622.101	20799.86
622.457	20584.05
622.812	20705.4
623.168	20727.1
623.523	20872.4
623.879	20814.1
624.234	20747.89
624.589	20845.96
624.945	20742.46
625.3	20883.93
625.655	20882.12
626.01	20957.82
626.365	20833.08
626.72	20935.45
627.075	20923.48
627.43	20948.79
627.785	20892.74
628.14	21016.13
628.495	21007.77
628.85	21034.88
629.205	20892.52
629.559	21170.7
629.914	21008.9
630.269	20979.74
630.623	20861.1
630.978	20935.23
631.332	20980.42
631.687	21124.37
632.041	21026.52
632.396	21095.45
632.75	20951.27
633.104	20978.16
633.459	20932.97
633.813	20949.46
634.167	20940.42
634.521	21022.91
634.875	20937.94
635.229	21045.51
635.583	20963.93
635.937	20860.2
636.291	20950.37
636.645	20986.98
636.999	20952.18
637.352	20983.81
637.706	20770.48
638.06	21068.1
638.413	20863.36
638.767	20796.47
639.121	20903.81
639.474	20846.87
639.828	20822.23
640.181	20824.27
640.534	20876.02
640.888	20937.49
641.241	20757.83
641.594	20672.63
641.947	20910.14
642.301	20828.11
642.654	20849.13
643.007	20804.83
643.36	20720.32
643.713	20800.09
644.066	20919.18
644.419	20635.57
644.771	20562.58
645.124	20419.53
645.477	20389.7
645.83	20342.47
646.182	20229.03
646.535	20238.97
646.888	20255.7
647.24	20065.42
647.593	20211.63
647.945	20196.26
648.298	20117.39
648.65	20066.1
649.002	20036.27
649.355	20137.06
649.707	20143.61
650.059	20202.82
650.411	20514.67
650.763	20570.94
651.115	20687.78
651.467	20690.94
651.819	20656.82
652.171	20720.32
652.523	20718.51
652.875	20640.77
653.227	20619.75
653.578	20796.92
653.93	20610.04
654.282	20647.1
654.633	20537.5
654.985	20618.4
655.337	20719.41
655.688	20651.62
656.039	20693.42
656.391	20561
656.742	20606.65
657.094	20549.02
657.445	20603.26
657.796	20621.34
658.147	20587.44
658.498	20653.88
658.849	20603.03
659.2	20647.78
659.551	20658.62
659.902	20691.16
660.253	20656.82
660.604	20728
660.955	20651.62
661.306	20740.2
661.656	20727.32
662.007	20712.63
662.358	20641.9
662.708	20729.81
663.059	20651.39
663.409	20522.81
663.76	20765.74
664.11	20718.06
664.461	20775.46
664.811	20736.14
665.161	20761.45
665.511	20666.98
665.862	20711.5
666.212	20696.14
666.562	20696.36
666.912	20726.64
667.262	20738.4
667.612	20676.7
667.962	20715.12
668.312	20729.36
668.662	20907.43
669.011	20756.47
669.361	20690.04
669.711	20777.94
670.06	20693.2
670.41	20723.93
670.76	20601.45
671.109	20876.7
671.459	20676.02
671.808	20644.84
672.157	20763.48
672.507	20578.85
672.856	20680.77
673.205	20810.48
673.554	20846.42
673.904	20710.83
674.253	20681.67
674.602	20695.91
674.951	20474
675.3	20300.89
675.649	20653.43
675.998	20553.77
676.346	20577.95
676.695	20691.84
677.044	20520.77
677.393	20641.22
677.741	20670.83
678.09	20565.07
678.438	20545.86
678.787	20529.81
679.135	20716.48
679.484	20492.75
679.832	20587.89
680.181	20433.09
680.529	20526.88
680.877	20501.34
681.225	20542.47
681.573	20576.14
681.922	20479.65
682.27	20344.06
682.618	20416.37
682.966	20376.37
683.314	20316.03
683.661	20336.15
684.009	20321.91
684.357	20346.32
684.705	20205.75
685.053	20217.96
685.4	20191.97
685.748	20096.83
686.095	20122.14
686.443	20130.73
686.79	20129.37
687.138	20142.25
687.485	20066.32
687.832	20045.31
688.18	20116.04
688.527	20047.34
688.874	19960.34
689.221	19974.8
689.568	19840.57
689.915	19805.76
690.262	19884.63
690.609	19788.82
690.956	19789.49
691.303	19649.61
691.65	19569.16
691.997	19732.55
692.344	19575.04
692.69	19557.18
693.037	19524.42
693.383	19309.05
693.73	19497.98
694.077	19373.46
694.423	19299.56
694.769	19317.87
695.116	19341.37
695.462	19317.19
695.808	19284.65
696.155	19263.41
696.501	19192.9
696.847	19104.54
697.193	18910.19
697.539	19058.67
697.885	18943.64
698.231	18867.71
698.577	18849.41
698.923	18889.63
699.269	18877.88
699.614	18758.11
699.96	18650.54
700.306	18747.94
700.651	18657.09
700.997	18621.84
701.342	18632.01
701.688	18518.11
702.033	18559.7
702.379	18548.62
702.724	18432.24
703.069	18392.92
703.415	18267.05
703.76	18332.58
704.105	18332.81
704.45	18282.41
704.795	18133.27
705.14	18134.4
705.485	18162.87
705.83	18007.39
706.175	18050.78
706.52	18051.01
706.865	17872.48
707.209	17961.29
707.554	17832.48
707.899	17966.94
708.243	17853.05
708.588	17743.67
708.932	17771.24
709.277	17619.83
709.621	17687.18
709.966	17573.73
710.31	17613.28
710.654	17427.97
710.998	17617.35
711.342	17488.76
711.687	17505.71
712.031	17450.57
712.375	17419.39
712.719	17394.08
713.063	17423.23
713.407	17529.89
713.75	17288.77
714.094	17332.38
714.438	17299.84
714.782	17333.51
715.125	17221.65
715.469	17286.06
715.812	17216.68
716.156	17158.83
716.499	17163.12
716.843	17154.99
717.186	17027.98
717.53	17085.84
717.873	17148.43
718.216	17075.21
718.559	16969.45
718.902	16886.75
719.246	17023.92
719.589	16962
719.932	16830.25
720.275	16905.5
720.617	16930.13
720.96	16788.67
721.303	16812.4
721.646	16802.91
721.989	16720.65
722.331	16741.44
722.674	16703.02
723.016	16685.62
723.359	16754.77
723.701	16751.38
724.044	16729.24
724.386	16599.75
724.729	16701.89
725.071	16585.06
725.413	16635.45
725.755	16597.04
726.097	16694.21
726.439	16513.65
726.782	16520.65
727.124	16655.79
727.465	16437.27
727.807	16505.06
728.149	16476.36
728.491	16406.53
728.833	16472.97
729.175	16409.02
729.516	16410.37
729.858	16415.57
730.199	16396.14
730.541	16302.35
730.882	16356.14
731.224	16333.31
731.565	16316.82
731.906	16284.95
732.248	16348.91
732.589	16246.08
732.93	16279.08
733.271	16299.42
733.612	16274.33
733.953	16289.7
734.294	16231.62
734.635	16190.04
734.976	16274.11
735.317	16183.03
735.658	16138.52
735.999	16242.47
736.339	16199.53
736.68	16146.2
737.021	16110.72
737.361	16121.79
737.702	16216.03
738.042	16124.96
738.383	16097.61
738.723	16195.92
739.063	16040.44
739.404	16079.08
739.744	16047.9
740.084	16094
740.424	16059.42
740.764	15943.95
741.104	16086.77
741.444	15986.43
741.784	16012.87
742.124	16061
742.464	15950.72
742.804	15882.93
743.143	15917.96
743.483	15918.41
743.823	15938.97
744.162	15910.73
744.502	15952.08
744.841	15872.76
745.181	15989.59
745.52	15890.61
745.86	15850.84
746.199	15891.52
746.538	15859.65
746.877	15860.11
747.216	15915.92
747.556	15785.76
747.895	15864.4
748.234	15795.02
748.573	15781.46
748.911	15788.02
749.25	15783.95
749.589	15668.92
749.928	15617.85
750.267	15802.03
750.605	15712.99
750.944	15675.03
751.283	15671.64
751.621	15786.89
751.96	15577.4
752.298	15709.83
752.636	15560.68
752.975	15605.65
753.313	15553.45
753.651	15664.4
753.989	15485.2
754.327	15486.1
754.666	15531.98
755.004	15573.79
755.342	15549.38
755.679	15517.29
756.017	15477.97
756.355	15452.43
756.693	15439.55
757.031	15370.17
757.368	15435.03
757.706	15335.37
758.044	15310.74
758.381	15227.58
