Data from carpet_green_FLMS001491_00068.txt Node
Date: Wed Feb 08 10:35:42 GMT 2017
User: dcchb
Spectrometer: FLMS00149
Trigger mode: 0
Integration Time (sec): 2.000000E-2
Scans to average: 10
Electric dark correction enabled: true
Nonlinearity correction enabled: false
Boxcar width: 0
XAxis mode: Wavelengths
Number of Pixels in Spectrum: 2048
>>>>>Begin Spectral Data<<<<<
341.393	-6.47
341.776	-6.47
342.16	-6.47
342.543	-52.8
342.927	-84.21
343.31	-83.98
343.693	-74.49
344.077	-66.13
344.46	-58.9
344.843	-33.36
345.226	-35.62
345.61	-32.23
345.993	-13.7
346.376	9.12
346.759	12.06
347.142	30.14
347.525	32.4
347.908	54.09
348.291	79.63
348.674	83.92
349.057	97.03
349.44	116.47
349.823	130.25
350.206	142.91
350.588	202.57
350.971	195.79
351.354	197.82
351.737	196.46
352.119	226.29
352.502	232.17
352.884	240.98
353.267	248.44
353.65	274.43
354.032	262.9
354.414	251.83
354.797	287.76
355.179	281.89
355.562	288.66
355.944	288.44
356.326	289.57
356.709	288.89
357.091	313.07
357.473	305.84
357.855	293.41
358.238	312.39
358.62	327.76
359.002	314.65
359.384	322.56
359.766	291.6
360.148	292.05
360.53	324.6
360.912	316.23
361.294	303.35
361.676	285.05
362.057	306.52
362.439	296.57
362.821	286.63
363.203	310.59
363.584	291.38
363.966	302
364.348	288.44
364.729	284.6
365.111	298.38
365.493	302.45
365.874	297.7
366.256	277.37
366.637	287.99
367.019	274.88
367.4	280.98
367.781	288.89
368.163	274.65
368.544	271.94
368.925	284.37
369.306	278.5
369.688	312.17
370.069	283.92
370.45	275.33
370.831	292.28
371.212	285.73
371.593	276.46
371.974	269
372.355	287.76
372.736	267.87
373.117	278.27
373.498	262.9
373.879	281.89
374.26	285.95
374.641	275.78
375.021	278.27
375.402	297.93
375.783	291.38
376.163	290.92
376.544	278.95
376.925	291.83
377.305	296.35
377.686	300.19
378.066	276.46
378.447	277.82
378.827	286.86
379.208	295.9
379.588	279.63
379.968	289.34
380.349	287.08
380.729	282.11
381.109	299.51
381.489	303.35
381.87	281.43
382.25	294.99
382.63	293.64
383.01	297.93
383.39	292.28
383.77	322.79
384.15	309.68
384.53	302.22
384.91	299.96
385.29	283.24
385.67	291.83
386.049	292.73
386.429	289.57
386.809	298.61
387.189	301.09
387.568	319.4
387.948	290.47
388.328	293.86
388.707	299.74
389.087	296.12
389.466	311.49
389.846	286.4
390.225	299.29
390.605	329.34
390.984	298.38
391.363	295.22
391.743	296.8
392.122	306.07
392.501	305.39
392.881	325.73
393.26	311.49
393.639	288.89
394.018	304.03
394.397	317.59
394.776	308.55
395.155	309.46
395.534	308.78
395.913	303.13
396.292	313.52
396.671	299.51
397.05	285.27
397.429	306.07
397.808	327.99
398.186	331.83
398.565	324.37
398.944	305.16
399.323	302.45
399.701	317.59
400.08	309.91
400.458	314.88
400.837	300.19
401.215	333.86
401.594	297.7
401.972	332.28
402.351	318.95
402.729	320.53
403.107	324.6
403.486	311.26
403.864	329.57
404.242	321.21
404.62	338.83
404.999	319.62
405.377	306.52
405.755	323.24
406.133	308.1
406.511	289.57
406.889	313.75
407.267	320.98
407.645	331.6
408.023	312.62
408.401	316.91
408.779	328.21
409.156	321.88
409.534	324.82
409.912	314.43
410.29	333.86
410.667	314.43
411.045	303.81
411.422	327.53
411.8	326.63
412.178	347.42
412.555	329.12
412.933	319.4
413.31	348.78
413.687	348.1
414.065	336.35
414.442	324.14
414.819	318.72
415.197	332.96
415.574	340.87
415.951	332.51
416.328	321.88
416.705	332.96
417.082	339.96
417.46	339.51
417.837	356.23
418.214	348.1
418.591	342.22
418.967	323.92
419.344	341.32
419.721	346.52
420.098	321.66
420.475	343.13
420.852	355.33
421.228	347.87
421.605	346.06
421.982	349.68
422.358	356.23
422.735	347.19
423.111	345.61
423.488	354.88
423.864	356.01
424.241	359.85
424.617	343.13
424.994	337.7
425.37	342.67
425.746	330.7
426.123	356.23
426.499	342.9
426.875	351.04
427.251	351.26
427.627	346.97
428.003	360.3
428.379	366.85
428.756	356.46
429.132	381.09
429.507	355.56
429.883	366.63
430.259	358.49
430.635	353.52
431.011	363.47
431.387	360.53
431.763	371.37
432.138	358.95
432.514	384.71
432.89	374.54
433.265	372.96
433.641	385.39
434.016	387.42
434.392	372.73
434.767	376.57
435.143	393.52
435.518	384.93
435.894	410.7
436.269	379.28
436.644	386.52
437.02	380.41
437.395	389
437.77	391.26
438.145	388.32
438.52	399.85
438.895	396.01
439.271	377.25
439.646	412.73
440.021	390.58
440.395	408.44
440.77	427.64
441.145	403.01
441.52	416.12
441.895	426.74
442.27	416.34
442.645	420.41
443.019	415.44
443.394	408.21
443.769	431.94
444.143	420.41
444.518	400.98
444.892	421.32
445.267	400.75
445.641	422.67
446.016	427.19
446.39	421.32
446.764	420.19
447.139	422.22
447.513	428.55
447.887	415.44
448.262	413.41
448.636	436.46
449.01	430.13
449.384	426.29
449.758	435.1
450.132	426.06
450.506	411.37
450.88	435.78
451.254	431.94
451.628	445.04
452.002	414.09
452.376	443.24
452.75	452.28
453.123	438.04
453.497	452.5
453.871	449.56
454.244	458.15
454.618	445.72
454.992	443.91
455.365	456.8
455.739	457.7
456.112	458.83
456.486	460.19
456.859	460.19
457.232	474.65
457.606	469.22
457.979	469.9
458.352	487.98
458.725	459.96
459.099	473.29
459.472	483.01
459.845	485.5
460.218	476.68
460.591	490.69
460.964	481.2
461.337	493.86
461.71	506.74
462.083	487.08
462.456	490.02
462.829	484.37
463.201	519.85
463.574	508.32
463.947	520.3
464.32	528.21
464.692	505.38
465.065	545.61
465.438	530.01
465.81	539.05
466.183	536.57
466.555	537.02
466.928	549.22
467.3	543.8
467.672	548.54
468.045	535.21
468.417	565.49
468.789	570.69
469.161	580.86
469.534	553.97
469.906	563.69
470.278	582.89
470.65	593.52
471.022	593.52
471.394	597.13
471.766	573.63
472.138	580.41
472.51	600.75
472.882	610.24
473.253	600.97
473.625	614.53
473.997	640.97
474.369	647.07
474.74	631.93
475.112	626.06
475.484	626.28
475.855	653.63
476.227	674.19
476.598	669.22
476.97	681.42
477.341	663.34
477.713	682.55
478.084	678.94
478.455	711.03
478.827	710.12
479.198	728.43
479.569	741.76
479.94	734.75
480.311	731.59
480.682	730.24
481.053	738.82
481.424	769.33
481.795	777.92
482.166	778.14
482.537	801.65
482.908	805.04
483.279	813.85
483.65	817.46
484.021	803
484.391	812.72
484.762	838.25
485.133	866.95
485.503	840.51
485.874	858.37
486.244	852.49
486.615	886.39
486.985	895.2
487.356	901.3
487.726	919.61
488.097	922.09
488.467	930.91
488.837	929.33
489.207	958.03
489.578	951.02
489.948	978.59
490.318	967.97
490.688	977.23
491.058	987.4
491.428	978.82
491.798	998.25
492.168	1020.17
492.538	1041.41
492.908	1036.67
493.278	1037.35
493.648	1039.15
494.017	1049.1
494.387	1081.41
494.757	1086.61
495.126	1082.99
495.496	1082.32
495.866	1083.45
496.235	1101.98
496.605	1081.64
496.974	1088.42
497.344	1097.01
497.713	1099.26
498.082	1131.58
498.452	1130.22
498.821	1131.13
499.19	1122.32
499.559	1146.5
499.928	1157.12
500.298	1157.12
500.667	1166.16
501.036	1139.26
501.405	1135.65
501.774	1181.75
502.143	1158.02
502.512	1178.36
502.88	1202.99
503.249	1170.9
503.618	1222.43
503.987	1205.7
504.356	1224.69
504.724	1219.49
505.093	1228.3
505.462	1221.52
505.83	1246.38
506.199	1252.93
506.567	1235.76
506.936	1244.35
507.304	1267.4
507.672	1238.24
508.041	1276.44
508.409	1273.05
508.777	1256.55
509.145	1276.89
509.514	1297.68
509.882	1267.4
510.25	1277.34
510.618	1296.77
510.986	1288.86
511.354	1305.36
511.722	1270.56
512.09	1280.28
512.458	1295.64
512.826	1323.44
513.193	1317.79
513.561	1324.12
513.929	1342.87
514.297	1358.24
514.664	1355.08
515.032	1347.39
515.4	1324.12
515.767	1379.03
516.135	1348.98
516.502	1342.87
516.869	1350.11
517.237	1361.18
517.604	1369.99
517.972	1389.2
518.339	1395.08
518.706	1404.57
519.073	1393.04
519.44	1419.93
519.808	1413.61
520.175	1405.92
520.542	1417
520.909	1425.81
521.276	1416.77
521.643	1420.84
522.009	1453.38
522.376	1425.13
522.743	1421.06
523.11	1462.42
523.477	1465.36
523.843	1468.29
524.21	1482.08
524.577	1472.59
524.943	1506.71
525.31	1499.03
525.676	1497.22
526.043	1519.14
526.409	1523.43
526.776	1478.92
527.142	1511.01
527.508	1516.66
527.874	1530.67
528.241	1535.86
528.607	1510.1
528.973	1555.52
529.339	1532.02
529.705	1548.52
530.071	1575.86
530.437	1569.31
530.803	1561.63
531.169	1579.48
531.535	1556.43
531.901	1560.72
532.267	1565.69
532.632	1596.65
532.998	1565.02
533.364	1570.66
533.73	1583.32
534.095	1561.17
534.461	1592.59
534.826	1596.43
535.192	1573.6
535.557	1587.61
535.923	1605.92
536.288	1627.39
536.653	1581.96
537.019	1597.56
537.384	1609.08
537.749	1581.74
538.114	1616.99
538.479	1600.04
538.845	1624.67
539.21	1595.75
539.575	1603.21
539.94	1650.89
540.305	1626.71
540.67	1604.34
541.034	1606.37
541.399	1601.17
541.764	1617.22
542.129	1619.03
542.494	1635.75
542.858	1599.36
543.223	1604.11
543.587	1584
543.952	1620.61
544.316	1638.69
544.681	1629.42
545.045	1621.29
545.41	1605.47
545.774	1632.13
546.138	1638.23
546.503	1629.65
546.867	1631.45
547.231	1630.55
547.595	1639.14
547.959	1614.28
548.324	1641.17
548.688	1609.99
549.052	1646.6
549.416	1625.8
549.779	1637.1
550.143	1662.19
550.507	1679.14
550.871	1680.49
551.235	1644.11
551.599	1653.83
551.962	1657.67
552.326	1657.44
552.689	1664.67
553.053	1656.09
553.417	1680.49
553.78	1676.2
554.143	1666.93
554.507	1672.81
554.87	1677.78
555.234	1686.59
555.597	1686.14
555.96	1687.05
556.323	1675.97
556.686	1695.41
557.05	1726.14
557.413	1689.31
557.776	1689.31
558.139	1673.71
558.502	1723.66
558.865	1660.83
559.228	1682.98
559.59	1720.94
559.953	1695.41
560.316	1704.45
560.679	1702.41
561.041	1694.5
561.404	1744.45
561.767	1724.33
562.129	1721.4
562.492	1736.76
562.854	1711.68
563.217	1754.61
563.579	1748.74
563.941	1748.29
564.304	1745.12
564.666	1743.77
565.028	1748.74
565.39	1773.6
565.753	1770.89
566.115	1766.14
566.477	1786.48
566.839	1786.48
567.201	1788.96
567.563	1751.68
567.925	1782.64
568.287	1810.66
568.648	1763.43
569.01	1784.22
569.372	1809.75
569.734	1781.28
570.095	1804.78
570.457	1812.24
570.819	1810.88
571.18	1797.1
571.542	1824.67
571.903	1811.79
572.265	1818.12
572.626	1793.26
572.987	1823.09
573.349	1825.8
573.71	1820.83
574.071	1784.44
574.432	1818.34
574.794	1808.4
575.155	1804.33
575.516	1800.94
575.877	1820.6
576.238	1797.33
576.599	1797.33
576.96	1811.56
577.32	1796.87
577.681	1805.24
578.042	1808.85
578.403	1784.44
578.763	1797.55
579.124	1808.17
579.485	1820.15
579.845	1820.38
580.206	1800.72
580.566	1816.08
580.927	1817.21
581.287	1821.28
581.648	1815.86
582.008	1768.17
582.368	1773.6
582.728	1791.68
583.089	1776.08
583.449	1777.67
583.809	1762.07
584.169	1778.57
584.529	1771.11
584.889	1763.88
585.249	1760.26
585.609	1727.5
585.969	1772.02
586.329	1749.64
586.688	1750.32
587.048	1746.03
587.408	1720.49
587.768	1761.85
588.127	1764.11
588.487	1730.89
588.846	1733.6
589.206	1739.25
589.565	1727.04
589.925	1766.82
590.284	1759.59
590.643	1756.87
591.003	1722.53
591.362	1733.15
591.721	1750.55
592.08	1743.77
592.44	1719.81
592.799	1709.19
593.158	1708.97
593.517	1704.9
593.876	1714.16
594.235	1757.33
594.593	1713.94
594.952	1727.04
595.311	1691.34
595.67	1688.63
596.029	1710.55
596.387	1722.3
596.746	1695.41
597.104	1715.52
597.463	1716.65
597.822	1719.36
598.18	1706.48
598.538	1719.59
598.897	1725.92
599.255	1692.7
599.613	1748.97
599.972	1724.56
600.33	1741.06
600.688	1722.07
601.046	1740.83
601.404	1727.72
601.762	1715.97
602.12	1705.12
602.478	1726.82
602.836	1744.22
603.194	1715.07
603.552	1729.53
603.91	1712.13
604.268	1734.28
604.625	1706.93
604.983	1742.19
605.341	1716.2
605.698	1739.02
606.056	1720.49
606.413	1723.43
606.771	1719.36
607.128	1742.86
607.485	1722.75
607.843	1745.8
608.2	1748.51
608.557	1726.59
608.914	1744.9
609.272	1755.97
609.629	1748.29
609.986	1785.12
610.343	1747.16
610.7	1755.97
611.057	1740.38
611.414	1749.42
611.771	1741.28
612.127	1772.69
612.484	1751.68
612.841	1769.08
613.198	1752.58
613.554	1742.64
613.911	1774.73
614.267	1776.08
614.624	1774.5
614.98	1779.02
615.337	1783.99
615.693	1779.47
616.05	1792.58
616.406	1781.28
616.762	1792.81
617.118	1801.17
617.475	1774.28
617.831	1804.56
618.187	1781.28
618.543	1789.19
618.899	1786.03
619.255	1782.41
619.611	1777.67
619.967	1791.68
620.323	1778.8
620.678	1761.85
621.034	1783.54
621.39	1800.04
621.746	1797.55
622.101	1786.03
622.457	1797.1
622.812	1797.1
623.168	1741.96
623.523	1791.45
623.879	1791
624.234	1776.99
624.589	1790.32
624.945	1772.92
625.3	1804.78
625.655	1781.96
626.01	1818.12
626.365	1786.48
626.72	1794.16
627.075	1786.7
627.43	1761.39
627.785	1766.37
628.14	1762.07
628.495	1731.34
628.85	1776.08
629.205	1774.28
629.559	1782.41
629.914	1767.27
630.269	1785.35
630.623	1783.31
630.978	1778.57
631.332	1773.6
631.687	1769.98
632.041	1784.44
632.396	1761.85
632.75	1750.32
633.104	1723.43
633.459	1701.73
633.813	1790.55
634.167	1773.15
634.521	1751.23
634.875	1745.58
635.229	1732.47
635.583	1733.37
635.937	1761.85
636.291	1795.74
636.645	1731.56
636.999	1742.19
637.352	1758
637.706	1725.24
638.06	1722.98
638.413	1722.75
638.767	1760.26
639.121	1729.08
639.474	1734.28
639.828	1753.48
640.181	1729.53
640.534	1747.38
640.888	1742.19
641.241	1742.64
641.594	1737.67
641.947	1768.85
642.301	1731.11
642.654	1736.08
643.007	1753.94
643.36	1727.5
643.713	1741.73
644.066	1758.46
644.419	1738.57
644.771	1733.82
645.124	1724.33
645.477	1747.16
645.83	1698.57
646.182	1721.4
646.535	1708.97
646.888	1704.45
647.24	1740.6
647.593	1752.58
647.945	1729.53
648.298	1746.71
648.65	1699.25
649.002	1723.66
649.355	1730.66
649.707	1735.86
650.059	1732.47
650.411	1760.49
650.763	1781.96
651.115	1793.71
651.467	1786.7
651.819	1802.75
652.171	1836.42
652.523	1810.66
652.875	1778.57
653.227	1798.23
653.578	1807.72
653.93	1811.11
654.282	1812.92
654.633	1827.16
654.985	1793.48
655.337	1850.43
655.688	1832.35
656.039	1844.56
656.391	1837.1
656.742	1845.69
657.094	1875.74
657.445	1869.64
657.796	1883.88
658.147	1879.58
658.498	1903.09
658.849	1933.59
659.2	1909.41
659.551	1891.33
659.902	1912.35
660.253	1910.32
660.604	1918.68
660.955	1951.22
661.306	1925.91
661.656	1905.35
662.007	1957.55
662.358	1949.19
662.708	1961.39
663.059	1971.78
663.409	1976.53
663.76	1994.83
664.11	2029.41
664.461	2005
664.811	2057.21
665.161	2020.6
665.511	2048.84
665.862	2070.99
666.212	2078.45
666.562	2099.69
666.912	2107.83
667.262	2117.77
667.612	2123.64
667.962	2112.8
668.312	2159.12
668.662	2204.55
669.011	2179.46
669.361	2170.42
669.711	2223.08
670.06	2228.27
670.41	2237.54
670.76	2212.91
671.109	2276.64
671.459	2268.27
671.808	2263.08
672.157	2300.82
672.507	2272.34
672.856	2328.61
673.205	2326.58
673.554	2357.08
673.904	2341.04
674.253	2380.59
674.602	2400.02
674.951	2419.23
675.3	2389.85
675.649	2453.58
675.998	2453.81
676.346	2477.99
676.695	2506.23
677.044	2492.9
677.393	2530.87
677.741	2578.77
678.09	2563.63
678.438	2543.29
678.787	2619.9
679.135	2590.98
679.484	2598.21
679.832	2623.74
680.181	2651.99
680.529	2678.66
680.877	2678.66
681.225	2688.38
681.573	2762.95
681.922	2724.53
682.27	2755.04
682.618	2771.76
682.966	2833.46
683.314	2818.99
683.661	2827.58
684.009	2851.31
684.357	2858.77
684.705	2905.32
685.053	2881.14
685.4	2924.75
685.748	2946
686.095	2977.18
686.443	2995.94
686.79	2967.69
687.138	3019.21
687.485	3043.62
687.832	3042.04
688.18	3083.62
688.527	3063.06
688.874	3131.3
689.221	3123.17
689.568	3154.35
689.915	3226.21
690.262	3234.8
690.609	3170.85
690.956	3216.72
691.303	3236.16
691.65	3241.13
691.997	3300.56
692.344	3321.35
692.69	3310.05
693.037	3387.79
693.383	3348.47
693.73	3394.35
694.077	3404.74
694.423	3441.12
694.769	3456.04
695.116	3483.83
695.462	3460.33
695.808	3502.82
696.155	3556.38
696.501	3563.83
696.847	3542.14
697.193	3587.11
697.539	3635.92
697.885	3613.32
698.231	3649.25
698.577	3682.47
698.923	3681.12
699.269	3690.38
699.614	3734.22
699.96	3723.38
700.306	3758.63
700.651	3731.29
700.997	3804.05
701.342	3848.12
701.688	3867.1
702.033	3869.14
702.379	3864.84
702.724	3893.54
703.069	3933.09
703.415	3915.91
703.76	3924.05
704.105	3965.4
704.45	3984.84
704.795	4017.83
705.14	4007.66
705.485	4077.27
705.83	4062.35
706.175	4086.08
706.52	4080.66
706.865	4100.99
707.209	4126.98
707.554	4163.14
707.899	4184.61
708.243	4239.52
708.588	4220.54
708.932	4242.91
709.277	4222.8
709.621	4269.13
709.966	4273.64
710.31	4262.57
710.654	4324.49
710.998	4338.73
711.342	4338.5
711.687	4394.55
712.031	4344.83
712.375	4385.05
712.719	4417.6
713.063	4432.51
713.407	4493.53
713.75	4449.69
714.094	4510.7
714.438	4503.92
714.782	4513.41
715.125	4510.7
715.469	4543.02
715.812	4525.39
716.156	4538.95
716.499	4591.83
716.843	4603.58
717.186	4590.7
717.53	4687.65
717.873	4646.52
718.216	4597.93
718.559	4676.35
718.902	4679.06
719.246	4670.92
719.589	4664.82
719.932	4696.68
720.275	4742.78
720.617	4716.12
720.96	4761.32
721.303	4754.99
721.646	4778.04
721.989	4773.97
722.331	4820.52
722.674	4736.91
723.016	4735.78
723.359	4798.6
723.701	4869.56
724.044	4811.48
724.386	4801.09
724.729	4849.67
725.071	4823.69
725.413	4886.51
725.755	4851.71
726.097	4841.31
726.439	4827.75
726.782	4842.44
727.124	4851.03
727.465	4854.87
727.807	4852.16
728.149	4883.57
728.491	4914.98
728.833	4878.37
729.175	4936.23
729.516	4940.29
729.858	4902.33
730.199	4889.67
730.541	4939.62
730.882	4912.05
731.224	4967.64
731.565	4948.66
731.906	4955.43
732.248	4917.7
732.589	4958.82
732.93	4936.23
733.271	4876.79
733.612	4949.79
733.953	4964.7
734.294	4973.51
734.635	4909.79
734.976	4973.29
735.317	4922.44
735.658	4932.16
735.999	4929.45
736.339	4961.54
736.68	5000.63
737.021	4987.75
737.361	4942.55
737.702	5030.23
738.042	5016.45
738.383	4978.03
738.723	4964.02
739.063	4994.98
739.404	5002.21
739.744	4990.24
740.084	4971.25
740.424	4960.41
740.764	4989.33
741.104	4974.19
741.444	4954.3
741.784	4941.2
742.124	4929.67
742.464	4903.68
742.804	4933.51
743.143	4909.33
743.483	4959.73
743.823	4899.39
744.162	4938.71
744.502	4920.41
744.841	4925.83
745.181	4944.14
745.52	4880.86
745.86	4950.46
746.199	4959.95
746.538	4951.37
746.877	4927.41
747.216	4967.86
747.556	4891.71
747.895	4883.57
748.234	4935.77
748.573	4898.04
748.911	4952.72
749.25	4889
749.589	4857.36
749.928	4905.04
750.267	4892.39
750.605	4915.44
750.944	4872.95
751.283	4888.09
751.621	4881.54
751.96	4865.27
752.298	4860.97
752.636	4831.82
752.975	4841.09
753.313	4832.5
753.651	4844.03
753.989	4822.78
754.327	4812.39
754.666	4780.98
755.004	4789.34
755.342	4815.1
755.679	4784.37
756.017	4750.92
756.355	4731.94
756.693	4734.42
757.031	4748.21
757.368	4709.11
757.706	4750.24
758.044	4664.37
758.381	4750.92
758.719	4709.57
759.056	4681.77
759.394	4666.4
759.731	4656.91
760.068	4604.48
760.405	4675.22
760.743	4588.66
761.08	4667.31
761.417	4613.75
761.754	4628.21
762.091	4568.55
762.428	4585.95
762.765	4564.71
763.102	4596.57
763.438	4554.32
763.775	4538.95
764.112	4528.78
764.449	4539.85
764.785	4532.39
765.122	4497.82
765.458	4432.06
765.795	4443.36
766.131	4439.06
766.467	4445.62
766.804	4389.8
767.14	4373.76
767.476	4384.38
767.812	4361.1
768.148	4393.42
768.485	4334.21
768.821	4336.02
769.157	4324.49
769.492	4318.62
769.828	4316.81
770.164	4248.56
770.5	4291.72
770.836	4280.88
771.171	4240.65
771.507	4254.21
771.842	4237.49
772.178	4212.86
772.513	4177.6
772.849	4188.45
