Data from carpet_green_FLMS001491_00075.txt Node
Date: Wed Feb 08 10:35:50 GMT 2017
User: dcchb
Spectrometer: FLMS00149
Trigger mode: 0
Integration Time (sec): 2.000000E-2
Scans to average: 10
Electric dark correction enabled: true
Nonlinearity correction enabled: false
Boxcar width: 0
XAxis mode: Wavelengths
Number of Pixels in Spectrum: 2048
>>>>>Begin Spectral Data<<<<<
341.393	-22.64
341.776	-22.64
342.16	-22.64
342.543	-68.74
342.927	-82.53
343.31	-59.7
343.693	-53.37
344.077	-69.65
344.46	-54.05
344.843	-67.16
345.226	-20.38
345.61	-48.85
345.993	-3.66
346.376	7.64
346.759	1.31
347.142	26.4
347.525	52.39
347.908	49
348.291	77.47
348.674	63.91
349.057	98.71
349.44	121.99
349.823	146.39
350.206	152.5
350.588	174.19
350.971	193.17
351.354	201.31
351.737	216.9
352.119	212.16
352.502	229.56
352.884	252.15
353.267	263.91
353.65	276.79
354.032	256.67
354.414	291.93
354.797	273.62
355.179	293.96
355.562	292.38
355.944	307.07
356.326	306.39
356.709	307.97
357.091	288.76
357.473	323.79
357.855	319.5
358.238	324.92
358.62	307.97
359.002	305.94
359.384	319.5
359.766	303.45
360.148	307.75
360.53	322.89
360.912	330.8
361.294	319.27
361.676	324.02
362.057	310.91
362.439	327.86
362.821	316.11
363.203	292.15
363.584	300.51
363.966	308.88
364.348	307.07
364.729	281.98
365.111	293.28
365.493	295.54
365.874	273.85
366.256	285.6
366.637	274.98
367.019	278.14
367.4	272.72
367.781	290.35
368.163	286.28
368.544	269.1
368.925	283.34
369.306	306.84
369.688	277.01
370.069	295.09
370.45	296.67
370.831	289.89
371.212	292.83
371.593	272.49
371.974	281.53
372.355	273.62
372.736	278.59
373.117	285.37
373.498	289.22
373.879	297.8
374.26	290.35
374.641	288.54
375.021	280.18
375.402	278.37
375.783	290.57
376.163	300.74
376.544	285.37
376.925	292.61
377.305	293.28
377.686	270.68
378.066	282.44
378.447	321.08
378.827	295.09
379.208	288.76
379.588	291.7
379.968	309.1
380.349	308.2
380.729	311.36
381.109	292.83
381.489	305.94
381.87	282.89
382.25	287.41
382.63	288.54
383.01	293.28
383.39	292.61
383.77	289.67
384.15	286.05
384.53	284.7
384.91	312.27
385.29	307.75
385.67	307.75
386.049	312.27
386.429	301.87
386.809	297.35
387.189	303.45
387.568	290.8
387.948	307.97
388.328	290.35
388.707	321.08
389.087	296.45
389.466	312.94
389.846	317.01
390.225	307.52
390.605	298.03
390.984	300.97
391.363	323.79
391.743	316.79
392.122	283.79
392.501	327.86
392.881	309.1
393.26	308.42
393.639	325.6
394.018	304.36
394.397	303.45
394.776	321.98
395.155	299.84
395.534	327.18
395.913	318.59
396.292	325.37
396.671	318.37
397.05	333.28
397.429	311.81
397.808	317.01
398.186	322.89
398.565	308.2
398.944	323.79
399.323	328.54
399.701	331.02
400.08	330.8
400.458	315.66
400.837	309.33
401.215	326.5
401.594	312.27
401.972	334.64
402.351	342.1
402.729	331.93
403.107	336.9
403.486	314.3
403.864	327.63
404.242	329.89
404.62	329.89
404.999	329.44
405.377	307.29
405.755	311.59
406.133	334.19
406.511	345.94
406.889	340.97
407.267	333.73
407.645	324.02
408.023	326.73
408.401	325.37
408.779	322.21
409.156	345.94
409.534	350.23
409.912	341.64
410.29	339.61
410.667	321.31
411.045	338.03
411.422	359.5
411.8	338.93
412.178	329.89
412.555	340.74
412.933	352.04
413.31	343.23
413.687	354.52
414.065	325.82
414.442	361.08
414.819	348.88
415.197	358.59
415.574	347.29
415.951	366.95
416.328	356.11
416.705	361.08
417.082	354.98
417.46	360.63
417.837	359.95
418.214	375.77
418.591	357.69
418.967	364.92
419.344	345.94
419.721	377.57
420.098	363.11
420.475	360.85
420.852	365.6
421.228	367.63
421.605	365.15
421.982	358.82
422.358	365.82
422.735	365.6
423.111	353.85
423.488	366.5
423.864	385.94
424.241	372.6
424.617	360.63
424.994	357.46
425.37	383.68
425.746	378.03
426.123	382.77
426.499	353.62
426.875	387.29
427.251	380.29
427.627	376.22
428.003	373.96
428.379	401.98
428.756	389.33
429.132	383.68
429.507	403.34
429.883	382.32
430.259	416.44
430.635	410.12
431.011	394.75
431.387	390.68
431.763	394.98
432.138	411.92
432.514	403.56
432.89	423.68
433.265	417.35
433.641	423
434.016	411.25
434.392	420.96
434.767	394.98
435.143	398.14
435.518	422.55
435.894	421.87
436.269	421.19
436.644	418.7
437.02	408.31
437.395	427.07
437.77	426.84
438.145	427.07
438.52	426.61
438.895	461.64
439.271	438.36
439.646	450.79
440.021	427.52
440.395	443.11
440.77	429.32
441.145	423
441.52	439.04
441.895	463.45
442.27	444.24
442.645	476.56
443.019	441.75
443.394	444.47
443.769	444.24
444.143	461.87
444.518	461.64
444.892	468.65
445.267	450.79
445.641	475.2
446.016	461.19
446.39	457.8
446.764	467.97
447.139	467.52
447.513	479.27
447.887	485.82
448.262	474.97
448.636	481.75
449.01	487.63
449.384	473.84
449.758	468.42
450.132	463.67
450.506	485.59
450.88	491.02
451.254	484.69
451.628	495.31
452.002	513.39
452.376	490.34
452.75	499.15
453.123	506.38
453.497	489.89
453.871	531.24
454.244	514.29
454.618	506.16
454.992	521.3
455.365	502.77
455.739	527.4
456.112	548.64
456.486	526.05
456.859	537.34
457.232	541.64
457.606	525.14
457.979	537.8
458.352	550.23
458.725	558.36
459.099	547.06
459.472	554.52
459.845	554.97
460.218	582.09
460.591	578.47
460.964	551.81
461.337	554.97
461.71	592.26
462.083	572.82
462.456	571.69
462.829	587.74
463.201	585.03
463.574	597
463.947	600.39
464.32	606.04
464.692	644.46
465.065	607.63
465.438	629.09
465.81	618.92
466.183	618.47
466.555	632.94
466.928	666.61
467.3	641.3
467.672	668.87
468.045	658.47
468.417	688.75
468.789	668.64
469.161	659.15
469.534	685.82
469.906	697.34
470.278	692.82
470.65	687.17
471.022	707.96
471.394	710.67
471.766	716.55
472.138	729.66
472.51	733.05
472.882	737.34
473.253	735.98
473.625	757.68
473.997	768.75
474.369	762.2
474.74	773.27
475.112	799.03
475.484	783.21
475.855	817.11
476.227	808.75
476.598	823.66
476.97	847.84
477.341	871.8
477.713	879.03
478.084	829.77
478.455	875.41
478.827	867.96
479.198	898.01
479.569	923.78
479.94	920.84
480.311	926.71
480.682	947.73
481.053	962.42
481.424	945.7
481.795	984.34
482.166	1012.81
482.537	983.21
482.908	1009.65
483.279	1042.87
483.65	1049.42
484.021	1069.08
484.391	1061.62
484.762	1059.36
485.133	1092.13
485.503	1081.06
485.874	1089.19
486.244	1113.83
486.615	1113.83
486.985	1133.49
487.356	1166.71
487.726	1201.96
488.097	1209.64
488.467	1208.51
488.837	1220.49
489.207	1229.53
489.578	1237.21
489.948	1240.83
490.318	1254.61
490.688	1276.08
491.058	1272.92
491.428	1298.91
491.798	1308.4
492.168	1356.76
492.538	1335.06
492.908	1302.3
493.278	1341.62
493.648	1357.44
494.017	1397.21
494.387	1402.18
494.757	1414.16
495.126	1408.96
495.496	1401.73
495.866	1439.69
496.235	1438.11
496.605	1435.85
496.974	1436.08
497.344	1452.8
497.713	1458.9
498.082	1477.21
498.452	1508.17
498.821	1492.57
499.19	1485.34
499.559	1519.24
499.928	1528.96
500.298	1559.69
500.667	1546.81
501.036	1541.16
501.405	1564.21
501.774	1560.14
502.143	1587.49
502.512	1594.27
502.88	1586.81
503.249	1599.69
503.618	1577.09
503.987	1597.2
504.356	1618.45
504.724	1641.04
505.093	1609.63
505.462	1614.83
505.83	1632.68
506.199	1671.55
506.567	1682.17
506.936	1673.13
507.304	1686.01
507.672	1669.07
508.041	1701.61
508.409	1715.62
508.777	1726.24
509.145	1736.64
509.514	1750.65
509.882	1731.44
510.25	1782.06
510.618	1745
510.986	1737.99
511.354	1746.58
511.722	1790.42
512.09	1796.75
512.458	1800.14
512.826	1798.78
513.193	1835.39
513.561	1792.23
513.929	1821.83
514.297	1850.98
514.664	1858.67
515.032	1832.68
515.4	1863.64
515.767	1867.25
516.135	1888.5
516.502	1854.37
516.869	1900.92
517.237	1898.66
517.604	1923.52
517.972	1916.74
518.339	1928.04
518.706	1931.21
519.073	1937.99
519.44	1970.53
519.808	1961.94
520.175	1957.19
520.542	1962.84
520.909	1973.69
521.276	1988.61
521.643	1996.74
522.009	2006.46
522.376	2006.23
522.743	2009.17
523.11	2010.98
523.477	2034.03
523.843	2037.19
524.21	2039.68
524.577	2101.6
524.943	2083.52
525.31	2055.95
525.676	2142.95
526.043	2123.52
526.409	2161.93
526.776	2156.51
527.142	2157.42
527.508	2162.39
527.874	2181.82
528.241	2194.25
528.607	2160.13
528.973	2184.53
529.339	2177.53
529.705	2181.37
530.071	2183.86
530.437	2213.46
530.803	2246.68
531.169	2244.19
531.535	2222.72
531.901	2248.26
532.267	2226.79
532.632	2244.87
532.998	2246.23
533.364	2259.11
533.73	2251.2
534.095	2271.54
534.461	2276.96
534.826	2270.86
535.192	2298.43
535.557	2283.06
535.923	2265.89
536.288	2315.38
536.653	2335.49
537.019	2271.76
537.384	2310.63
537.749	2316.51
538.114	2300.46
538.479	2290.97
538.845	2287.81
539.21	2312.21
539.575	2317.64
539.94	2328.94
540.305	2338.43
540.67	2302.04
541.034	2305.89
541.399	2342.95
541.764	2325.09
542.129	2341.82
542.494	2333.91
542.858	2310.41
543.223	2348.37
543.587	2388.6
543.952	2345.43
544.316	2364.19
544.681	2366.68
545.045	2374.36
545.41	2384.98
545.774	2385.66
546.138	2370.97
546.503	2389.95
546.867	2376.84
547.231	2354.92
547.595	2394.24
547.959	2386.56
548.324	2362.61
548.688	2396.73
549.052	2424.07
549.416	2421.81
549.779	2432.21
550.143	2451.87
550.507	2414.58
550.871	2418.88
551.235	2381.36
551.599	2424.98
551.962	2432.44
552.326	2437.63
552.689	2450.06
553.053	2445.77
553.417	2413.23
553.78	2440.8
554.143	2433.79
554.507	2474.24
554.87	2468.14
555.234	2491.19
555.597	2446
555.96	2460.91
556.323	2479.67
556.686	2485.32
557.05	2502.72
557.413	2488.71
557.776	2475.82
558.139	2516.5
558.502	2472.89
558.865	2514.69
559.228	2471.53
559.59	2491.42
559.953	2493.68
560.316	2545.88
560.679	2493
561.041	2552.66
561.404	2550.17
561.767	2596.05
562.129	2578.42
562.492	2584.97
562.854	2540
563.217	2553.34
563.579	2559.44
563.941	2594.92
564.304	2564.41
564.666	2618.42
565.028	2604.18
565.39	2646.89
565.753	2631.98
566.115	2612.77
566.477	2632.43
566.839	2612.09
567.201	2645.31
567.563	2629.72
567.925	2684.18
568.287	2687.34
568.648	2654.8
569.01	2706.78
569.372	2668.81
569.734	2647.35
570.095	2689.83
570.457	2685.31
570.819	2690.73
571.18	2682.37
571.542	2729.83
571.903	2722.6
572.265	2694.12
572.626	2692.77
572.987	2707.68
573.349	2719.43
573.71	2719.21
574.071	2690.73
574.432	2683.95
574.794	2689.38
575.155	2676.72
575.516	2679.44
575.877	2687.34
576.238	2729.15
576.599	2713.56
576.96	2721.92
577.32	2719.21
577.681	2691.86
578.042	2718.08
578.403	2699.55
578.763	2722.37
579.124	2746.1
579.485	2738.87
579.845	2700.45
580.206	2683.95
580.566	2699.77
580.927	2678.98
581.287	2731.86
581.648	2692.32
582.008	2694.12
582.368	2667.91
582.728	2688.02
583.089	2656.84
583.449	2683.5
583.809	2682.37
584.169	2700.68
584.529	2706.33
584.889	2694.58
585.249	2702.49
585.609	2679.44
585.969	2662.94
586.329	2682.82
586.688	2660.68
587.048	2659.55
587.408	2658.19
587.768	2648.02
588.127	2647.57
588.487	2631.3
588.846	2654.8
589.206	2660
589.565	2641.24
589.925	2640.79
590.284	2638.53
590.643	2631.3
591.003	2614.58
591.362	2632.2
591.721	2664.29
592.08	2643.28
592.44	2617.29
592.799	2603.5
593.158	2625.2
593.517	2603.73
593.876	2612.54
594.235	2648.93
594.593	2639.44
594.952	2648.48
595.311	2640.79
595.67	2650.96
596.029	2636.27
596.387	2610.96
596.746	2650.51
597.104	2629.04
597.463	2644.63
597.822	2629.72
598.18	2643.05
598.538	2629.27
598.897	2623.84
599.255	2650.96
599.613	2647.8
599.972	2652.09
600.33	2663.62
600.688	2631.75
601.046	2664.07
601.404	2654.13
601.762	2651.41
602.12	2666.1
602.478	2669.49
602.836	2648.02
603.194	2612.09
603.552	2658.42
603.91	2661.81
604.268	2629.72
604.625	2659.55
604.983	2694.8
605.341	2674.24
605.698	2700.23
606.056	2670.85
606.413	2667.23
606.771	2702.03
607.128	2665.2
607.485	2648.25
607.843	2658.87
608.2	2668.59
608.557	2649.38
608.914	2729.83
609.272	2684.86
609.629	2684.63
609.986	2712.65
610.343	2716.04
610.7	2721.69
611.057	2707.68
611.414	2738.42
611.771	2730.28
612.127	2730.06
612.484	2760.56
612.841	2757.17
613.198	2744.29
613.554	2749.49
613.911	2748.13
614.267	2749.72
614.624	2769.38
614.98	2755.14
615.337	2763.05
615.693	2752.88
616.05	2773.22
616.406	2752.43
616.762	2728.25
617.118	2727.8
617.475	2752.65
617.831	2763.95
618.187	2784.29
618.543	2775.7
618.899	2761.69
619.255	2765.53
619.611	2782.03
619.967	2786.78
620.323	2774.8
620.678	2751.07
621.034	2743.84
621.39	2787.68
621.746	2774.35
622.101	2777.51
622.457	2754.46
622.812	2780.9
623.168	2790.84
623.523	2810.73
623.879	2790.17
624.234	2753.33
624.589	2758.76
624.945	2790.39
625.3	2770.51
625.655	2747.23
626.01	2743.61
626.365	2773.9
626.72	2761.24
627.075	2730.28
627.43	2739.55
627.785	2764.63
628.14	2732.99
628.495	2772.77
628.85	2778.42
629.205	2747
629.559	2746.1
629.914	2748.81
630.269	2752.43
630.623	2733.9
630.978	2739.77
631.332	2722.15
631.687	2746.1
632.041	2716.95
632.396	2734.57
632.75	2725.31
633.104	2721.47
633.459	2751.07
633.813	2721.24
634.167	2720.34
634.521	2724.18
634.875	2700.9
635.229	2710.62
635.583	2685.99
635.937	2707.91
636.291	2719.89
636.645	2728.02
636.999	2717.4
637.352	2727.8
637.706	2685.99
638.06	2703.39
638.413	2716.95
638.767	2707.46
639.121	2686.21
639.474	2732.32
639.828	2736.16
640.181	2723.05
640.534	2729.6
640.888	2712.43
641.241	2699.55
641.594	2704.75
641.947	2700
642.301	2742.03
642.654	2705.65
643.007	2734.35
643.36	2759.21
643.713	2667.01
644.066	2752.88
644.419	2711.52
644.771	2718.3
645.124	2732.54
645.477	2701.13
645.83	2697.06
646.182	2717.85
646.535	2663.39
646.888	2697.51
647.24	2707.91
647.593	2710.39
647.945	2710.39
648.298	2683.95
648.65	2688.25
649.002	2679.89
649.355	2730.06
649.707	2668.36
650.059	2722.82
650.411	2775.25
650.763	2778.87
651.115	2831.3
651.467	2803.95
651.819	2811.86
652.171	2865.42
652.523	2842.37
652.875	2824.06
653.227	2824.97
653.578	2835.36
653.93	2845.98
654.282	2864.52
654.633	2855.7
654.985	2877.85
655.337	2863.39
655.688	2891.63
656.039	2878.3
656.391	2918.52
656.742	2932.31
657.094	2921.24
657.445	2959.2
657.796	2937.06
658.147	2967.79
658.498	3016.83
658.849	3012.08
659.2	2968.02
659.551	3017.05
659.902	2993.78
660.253	3009.37
660.604	3036.04
660.955	3056.6
661.306	3022.7
661.656	3085.07
662.007	3095.47
662.358	3069.93
662.708	3101.8
663.059	3119.88
663.409	3125.3
663.76	3131.85
664.11	3160.78
664.461	3152.19
664.811	3209.59
665.161	3208.23
665.511	3173.66
665.862	3231.74
666.212	3231.51
666.562	3288.23
666.912	3263.15
667.262	3307.89
667.612	3320.55
667.962	3373.43
668.312	3340.66
668.662	3402.13
669.011	3359.42
669.361	3416.36
669.711	3426.99
670.06	3441.68
670.41	3432.86
670.76	3455.91
671.109	3524.84
671.459	3494.56
671.808	3543.82
672.157	3537.94
672.507	3544.95
672.856	3531.84
673.205	3600.31
673.554	3644.83
673.904	3603.93
674.253	3648.22
674.602	3659.52
674.951	3668.79
675.3	3684.83
675.649	3774.55
675.998	3769.8
676.346	3759.86
676.695	3818.84
677.044	3832.63
677.393	3810.25
677.741	3840.53
678.09	3856.13
678.438	3916.46
678.787	3915.11
679.135	3923.92
679.484	3989.91
679.832	3991.04
680.181	3960.08
680.529	3998.04
680.877	4013.64
681.225	4065.61
681.573	4135.89
681.922	4109.91
682.27	4127.31
682.618	4128.21
682.966	4160.07
683.314	4173.86
683.661	4186.51
684.009	4184.03
684.357	4210.24
684.705	4259.51
685.053	4283.23
685.4	4297.02
685.748	4375.21
686.095	4358.04
686.443	4368.88
686.79	4353.52
687.138	4404.36
687.485	4422.21
687.832	4473.29
688.18	4481.87
688.527	4494.98
688.874	4527.75
689.221	4567.75
689.568	4539.73
689.915	4521.87
690.262	4578.14
690.609	4568.2
690.956	4593.51
691.303	4656.33
691.65	4647.29
691.997	4673.28
692.344	4650.23
692.69	4649.78
693.037	4734.52
693.383	4742.66
693.73	4727.97
694.077	4783.33
694.423	4836.21
694.769	4801.64
695.116	4866.95
695.462	4800.51
695.808	4860.39
696.155	4895.42
696.501	4916.89
696.847	4883.22
697.193	4911.69
697.539	4963.22
697.885	4970
698.231	5019.71
698.577	5034.85
698.923	5069.43
699.269	5039.6
699.614	5035.31
699.96	5059.71
700.306	5099.03
700.651	5094.96
700.997	5099.03
701.342	5119.15
701.688	5134.06
702.033	5139.48
702.379	5165.25
702.724	5181.97
703.069	5240.72
703.415	5169.31
703.76	5242.98
704.105	5262.19
704.45	5256.32
704.795	5316.2
705.14	5276.2
705.485	5297.22
705.83	5322.98
706.175	5324.56
706.52	5346.94
706.865	5342.42
707.209	5353.26
707.554	5416.76
707.899	5417.22
708.243	5388.06
708.588	5442.3
708.932	5450.21
709.277	5497.21
709.621	5513.03
709.966	5508.74
710.31	5516.87
710.654	5512.36
710.998	5536.31
711.342	5498.8
711.687	5559.59
712.031	5574.95
712.375	5582.41
712.719	5584.67
713.063	5560.04
713.407	5610.88
713.75	5685.46
714.094	5608.62
714.438	5625.8
714.782	5654.05
715.125	5629.64
715.469	5684.33
715.812	5680.49
716.156	5644.55
716.499	5698.11
716.843	5758.9
717.186	5640.94
717.53	5772.01
717.873	5736.76
718.216	5779.24
718.559	5742.86
718.902	5727.49
719.246	5727.26
719.589	5760.71
719.932	5748.28
720.275	5774.72
720.617	5768.17
720.96	5790.77
721.303	5782.63
721.646	5829.86
721.989	5857.66
722.331	5786.92
722.674	5851.1
723.016	5825.34
723.359	5817.66
723.701	5878.45
724.044	5853.82
724.386	5813.59
724.729	5859.46
725.071	5872.35
725.413	5885.23
725.755	5872.12
726.097	5888.16
726.439	5888.16
726.782	5879.8
727.124	5899.46
727.465	5879.35
727.807	5898.79
728.149	5875.96
728.491	5906.47
728.833	5918.45
729.175	5875.06
729.516	5919.12
729.858	5879.58
730.199	5906.02
730.541	5886.81
730.882	5866.7
731.224	5931.1
731.565	5870.76
731.906	5920.93
732.248	5905.11
732.589	5892.01
732.93	5837.54
733.271	5891.1
733.612	5911.89
733.953	5935.62
734.294	5906.47
734.635	5887.03
734.976	5886.81
735.317	5864.89
735.658	5855.85
735.999	5905.57
736.339	5862.4
736.68	5904.21
737.021	5902.85
737.361	5835.06
737.702	5872.8
738.042	5870.99
738.383	5841.16
738.723	5900.82
739.063	5861.05
739.404	5934.49
739.744	5897.66
740.084	5881.16
740.424	5886.81
740.764	5850.43
741.104	5892.46
741.444	5855.85
741.784	5851.78
742.124	5887.94
742.464	5852.69
742.804	5859.46
743.143	5833.25
743.483	5874.61
743.823	5831.67
744.162	5835.06
744.502	5826.02
744.841	5830.31
745.181	5827.15
745.52	5757.09
745.86	5831.22
746.199	5827.83
746.538	5794.83
746.877	5747.15
747.216	5781.27
747.556	5752.12
747.895	5796.87
748.234	5801.39
748.573	5758.68
748.911	5742.63
749.25	5726.13
749.589	5734.72
749.928	5684.55
750.267	5720.71
750.605	5721.62
750.944	5696.08
751.283	5671.67
751.621	5714.38
751.96	5692.01
752.298	5638
752.636	5657.66
752.975	5641.39
753.313	5646.59
753.651	5669.41
753.989	5603.88
754.327	5634.84
754.666	5574.73
755.004	5607.49
755.342	5594.61
755.679	5573.14
756.017	5517.1
756.355	5555.29
756.693	5520.26
757.031	5523.65
757.368	5546.48
757.706	5492.02
758.044	5506.03
758.381	5474.62
758.719	5483.66
759.056	5472.58
759.394	5482.07
759.731	5412.24
760.068	5432.13
760.405	5384.9
760.743	5356.88
761.08	5384.9
761.417	5370.89
761.754	5371.79
762.091	5332.7
762.428	5335.64
762.765	5293.15
763.102	5281.63
763.438	5356.43
763.775	5266.94
764.112	5265.58
764.449	5287.95
764.785	5251.8
765.122	5232.81
765.458	5170.22
765.795	5181.06
766.131	5180.84
766.467	5135.87
766.804	5133.38
767.14	5107.85
767.476	5123.89
767.812	5111.01
768.148	5113.5
768.485	5058.36
768.821	5024.23
769.157	5017.9
769.492	5030.33
769.828	5015.64
770.164	4969.54
770.5	4969.09
770.836	4950.11
771.171	4941.97
771.507	4919.15
771.842	4876.67
772.178	4921.41
772.513	4920.96
