Data from carpet_green_FLMS001491_00074.txt Node
Date: Wed Feb 08 10:35:50 GMT 2017
User: dcchb
Spectrometer: FLMS00149
Trigger mode: 0
Integration Time (sec): 2.000000E-2
Scans to average: 10
Electric dark correction enabled: true
Nonlinearity correction enabled: false
Boxcar width: 0
XAxis mode: Wavelengths
Number of Pixels in Spectrum: 2048
>>>>>Begin Spectral Data<<<<<
341.393	8.33
341.776	8.33
342.16	8.33
342.543	-60.14
342.927	-38.45
343.31	-46.58
343.693	-66.02
344.077	-55.62
344.46	-68.05
344.843	-42.51
345.226	-46.58
345.61	-52.91
345.993	-19.24
346.376	-11.33
346.759	23.93
347.142	13.98
347.525	32.97
347.908	71.83
348.291	71.83
348.674	77.94
349.057	116.35
349.44	112.96
349.823	126.75
350.206	157.03
350.588	186.18
350.971	185.5
351.354	197.03
351.737	218.05
352.119	221.89
352.502	245.39
352.884	247.42
353.267	234.99
353.65	260.3
354.032	274.54
354.414	272.73
354.797	268.89
355.179	294.65
355.562	284.94
355.944	306.86
356.326	296.46
356.709	304.6
357.091	307.53
357.473	329.23
357.855	311.38
358.238	301.43
358.62	312.73
359.002	300.08
359.384	296.91
359.766	310.7
360.148	309.79
360.53	307.08
360.912	304.6
361.294	305.5
361.676	308.66
362.057	311.83
362.439	292.85
362.821	299.4
363.203	291.94
363.584	298.95
363.966	300.98
364.348	297.82
364.729	283.35
365.111	282.68
365.493	272.28
365.874	293.52
366.256	285.61
366.637	265.05
367.019	308.44
367.4	272.05
367.781	284.26
368.163	292.17
368.544	278.61
368.925	282.68
369.306	272.73
369.688	276.35
370.069	280.87
370.45	290.59
370.831	267.99
371.212	278.61
371.593	279.29
371.974	286.74
372.355	284.48
372.736	292.39
373.117	262.79
373.498	273.18
373.879	289.46
374.26	286.29
374.641	282.68
375.021	291.49
375.402	297.37
375.783	286.07
376.163	279.96
376.544	266.63
376.925	276.8
377.305	300.3
377.686	289.23
378.066	283.35
378.447	277.93
378.827	305.73
379.208	313.41
379.588	287.87
379.968	288.33
380.349	268.67
380.729	298.72
381.109	288.33
381.489	285.16
381.87	304.14
382.25	285.39
382.63	293.75
383.01	302.34
383.39	314.31
383.77	301.66
384.15	277.7
384.53	298.04
384.91	326.29
385.29	272.28
385.67	292.85
386.049	305.05
386.429	298.49
386.809	286.74
387.189	301.66
387.568	283.13
387.948	311.83
388.328	285.84
388.707	315.9
389.087	304.14
389.466	310.02
389.846	324.26
390.225	316.8
390.605	325.61
390.984	322.22
391.363	328.1
391.743	305.05
392.122	299.85
392.501	296.69
392.881	307.76
393.26	318.38
393.639	301.88
394.018	301.66
394.397	302.79
394.776	300.98
395.155	311.15
395.534	313.86
395.913	308.66
396.292	326.06
396.671	320.87
397.05	319.74
397.429	337.14
397.808	329.68
398.186	310.7
398.565	296.46
398.944	312.96
399.323	315.67
399.701	319.51
400.08	321.09
400.458	332.84
400.837	337.82
401.215	340.75
401.594	316.35
401.972	306.18
402.351	321.09
402.729	311.15
403.107	340.3
403.486	338.95
403.864	328.32
404.242	323.13
404.62	329
404.999	309.34
405.377	327.42
405.755	328.32
406.133	323.35
406.511	338.49
406.889	325.84
407.267	301.88
407.645	343.47
408.023	335.33
408.401	332.62
408.779	345.73
409.156	334.2
409.534	347.76
409.912	329.23
410.29	335.78
410.667	340.53
411.045	352.73
411.422	341.88
411.8	343.24
412.178	344.37
412.555	380.07
412.933	334.43
413.31	338.49
413.687	337.36
414.065	364.03
414.442	350.7
414.819	343.69
415.197	344.14
415.574	338.27
415.951	349.34
416.328	342.56
416.705	359.28
417.082	343.47
417.46	367.19
417.837	387.98
418.214	347.76
418.591	359.96
418.967	378.72
419.344	353.86
419.721	345.5
420.098	366.52
420.475	359.96
420.852	360.87
421.228	361.77
421.605	366.97
421.982	361.77
422.358	378.49
422.735	359.28
423.111	366.06
423.488	362.45
423.864	362.22
424.241	366.29
424.617	364.48
424.994	376.69
425.37	351.6
425.746	377.59
426.123	388.89
426.499	401.09
426.875	376.91
427.251	394.76
427.627	399.74
428.003	380.53
428.379	377.36
428.756	378.04
429.132	399.06
429.507	371.71
429.883	390.7
430.259	406.74
430.635	373.75
431.011	405.38
431.387	393.41
431.763	400.19
432.138	398.83
432.514	386.18
432.89	398.38
433.265	393.63
433.641	401.54
434.016	396.35
434.392	399.51
434.767	398.83
435.143	415.1
435.518	402.22
435.894	427.08
436.269	402.22
436.644	434.99
437.02	428.89
437.395	442.9
437.77	420.07
438.145	406.29
438.52	412.16
438.895	414.65
439.271	400.19
439.646	416.46
440.021	424.14
440.395	440.41
440.77	445.16
441.145	422.11
441.52	463.91
441.895	463.24
442.27	446.29
442.645	449.23
443.019	451.49
443.394	452.16
443.769	466.85
444.143	453.07
444.518	473.41
444.892	451.71
445.267	446.06
445.641	472.73
446.016	450.13
446.39	464.59
446.764	470.02
447.139	447.42
447.513	473.86
447.887	464.82
448.262	476.34
448.636	480.86
449.01	487.42
449.384	500.52
449.758	473.63
450.132	484.93
450.506	478.38
450.88	459.39
451.254	501.65
451.628	495.33
452.002	472.28
452.376	502.78
452.75	489
453.123	504.14
453.497	510.01
453.871	514.53
454.244	508.66
454.618	508.43
454.992	519.28
455.365	507.98
455.739	513.18
456.112	524.48
456.486	516.57
456.859	534.42
457.232	520.18
457.606	566.51
457.979	537.36
458.352	554.76
458.725	543.69
459.099	536.23
459.472	560.86
459.845	570.13
460.218	554.76
460.591	571.48
460.964	564.48
461.337	588.66
461.71	575.78
462.083	582.78
462.456	574.42
462.829	572.84
463.201	578.71
463.574	603.57
463.947	603.57
464.32	605.38
464.692	636.34
465.065	622.33
465.438	607.64
465.81	632.5
466.183	629.79
466.555	631.14
466.928	644.25
467.3	639.73
467.672	647.41
468.045	657.36
468.417	669.78
468.789	640.18
469.161	664.59
469.534	658.49
469.906	679.05
470.278	676.34
470.65	701.2
471.022	710.69
471.394	721.31
471.766	698.03
472.138	742.55
472.51	717.24
472.882	750.46
473.253	754.08
473.625	738.03
473.997	766.73
474.369	768.09
474.74	768.77
475.112	781.87
475.484	803.11
475.855	811.25
476.227	816.67
476.598	819.16
476.97	833.85
477.341	833.85
477.713	807.18
478.084	861.42
478.455	866.84
478.827	860.74
479.198	888.99
479.569	903.68
479.94	912.04
480.311	930.34
480.682	936.44
481.053	925.6
481.424	959.72
481.795	961.3
482.166	946.84
482.537	988.87
482.908	990.23
483.279	1025.26
483.65	1049.66
484.021	1044.92
484.391	1048.08
484.762	1066.84
485.133	1058.93
485.503	1079.27
485.874	1089.89
486.244	1140.28
486.615	1134.86
486.985	1109.32
487.356	1151.58
487.726	1140.51
488.097	1167.62
488.467	1182.54
488.837	1201.97
489.207	1188.19
489.578	1223.89
489.948	1228.41
490.318	1251.46
490.688	1249.88
491.058	1280.84
491.428	1271.58
491.798	1302.76
492.168	1303.44
492.538	1312.25
492.908	1327.85
493.278	1347.73
493.648	1323.78
494.017	1332.82
494.387	1373.04
494.757	1376.21
495.126	1378.92
495.496	1384.34
495.866	1428.41
496.235	1431.35
496.605	1423.89
496.974	1437.67
497.344	1420.27
497.713	1465.47
498.082	1453.27
498.452	1476.54
498.821	1470.89
499.19	1475.64
499.559	1525.13
499.928	1498.69
500.298	1523.1
500.667	1505.47
501.036	1517.9
501.405	1539.37
501.774	1572.13
502.143	1564.68
502.512	1605.35
502.88	1549.76
503.249	1576.88
503.618	1565.13
503.987	1589.31
504.356	1607.16
504.724	1607.39
505.093	1611
505.462	1621.85
505.83	1644.22
506.199	1625.92
506.567	1671.57
506.936	1671.79
507.304	1673.83
507.672	1672.92
508.041	1685.58
508.409	1688.51
508.777	1694.16
509.145	1738.01
509.514	1664.56
509.882	1756.54
510.25	1702.75
510.618	1708.85
510.986	1741.17
511.354	1761.73
511.722	1755.86
512.09	1756.54
512.458	1787.5
512.826	1787.27
513.193	1782.52
513.561	1755.18
513.929	1789.08
514.297	1816.87
514.664	1855.29
515.032	1830.43
515.4	1841.28
515.767	1850.32
516.135	1840.6
516.502	1822.07
516.869	1882.86
517.237	1884.67
517.604	1869.3
517.972	1886.48
518.339	1890.54
518.706	1907.27
519.073	1915.85
519.44	1923.76
519.808	1926.25
520.175	1961.05
520.542	1975.06
520.909	1945.01
521.276	1985.68
521.643	1968.96
522.009	1989.07
522.376	1991.78
522.743	1987.04
523.11	2009.64
523.477	2052.8
523.843	2033.36
524.21	2075.62
524.577	2070.2
524.943	2086.7
525.31	2060.26
525.676	2075.62
526.043	2121.95
526.409	2091.22
526.776	2103.87
527.142	2146.36
527.508	2130.31
527.874	2152.68
528.241	2154.04
528.607	2179.58
528.973	2157.43
529.339	2163.76
529.705	2203.53
530.071	2195.39
530.437	2196.3
530.803	2205.56
531.169	2198.11
531.535	2204.66
531.901	2203.08
532.267	2226.35
532.632	2206.24
532.998	2202.85
533.364	2226.81
533.73	2239.91
534.095	2232.23
534.461	2257.31
534.826	2264.09
535.192	2233.13
535.557	2293.02
535.923	2276.97
536.288	2307.71
536.653	2298.67
537.019	2272.68
537.384	2275.84
537.749	2286.92
538.114	2279.69
538.479	2290.08
538.845	2293.02
539.21	2261.16
539.575	2303.87
539.94	2267.71
540.305	2299.8
540.67	2304.32
541.034	2290.31
541.399	2331.21
541.764	2301.15
542.129	2314.94
542.494	2296.63
542.858	2339.57
543.223	2343.41
543.587	2314.49
543.952	2325.56
544.316	2352
544.681	2354.49
545.045	2350.87
545.41	2350.42
545.774	2331.21
546.138	2341.83
546.503	2344.99
546.867	2335.05
547.231	2359.23
547.595	2354.49
547.959	2360.14
548.324	2377.54
548.688	2356.97
549.052	2343.86
549.416	2385.67
549.779	2353.36
550.143	2344.54
550.507	2402.85
550.871	2372.34
551.235	2395.39
551.599	2354.49
551.962	2375.95
552.326	2375.5
552.689	2405.56
553.053	2383.64
553.417	2382.96
553.78	2426.35
554.143	2419.8
554.507	2405.33
554.87	2455.27
555.234	2435.39
555.597	2439.68
555.96	2450.75
556.323	2418.67
556.686	2445.33
557.05	2473.13
557.413	2477.65
557.776	2470.42
558.139	2460.25
558.502	2449.17
558.865	2512.9
559.228	2509.06
559.59	2475.39
559.953	2473.58
560.316	2516.52
560.679	2504.76
561.041	2522.39
561.404	2511.32
561.767	2569.4
562.129	2508.83
562.492	2544.76
562.854	2572.56
563.217	2520.36
563.579	2545.89
563.941	2582.95
564.304	2568.49
564.666	2569.62
565.028	2560.13
565.39	2611.2
565.753	2578.21
566.115	2591.32
566.477	2583.41
566.839	2599.23
567.201	2627.7
567.563	2622.28
567.925	2619.56
568.287	2608.94
568.648	2646.23
569.01	2608.72
569.372	2645.1
569.734	2644.87
570.095	2645.33
570.457	2674.7
570.819	2635.83
571.18	2659.56
571.542	2687.13
571.903	2663.4
572.265	2663.63
572.626	2705.66
572.987	2683.52
573.349	2658.66
573.71	2700.47
574.071	2708.6
574.432	2669.96
574.794	2721.93
575.155	2658.66
575.516	2644.87
575.877	2693.23
576.238	2708.38
576.599	2677.42
576.96	2675.16
577.32	2672.9
577.681	2696.4
578.042	2698.21
578.403	2655.95
578.763	2675.61
579.124	2643.74
579.485	2669.05
579.845	2657.98
580.206	2674.25
580.566	2624.54
580.927	2658.21
581.287	2676.96
581.648	2662.73
582.008	2682.16
582.368	2694.59
582.728	2667.7
583.089	2653.69
583.449	2686.23
583.809	2661.82
584.169	2623.63
584.529	2627.7
584.889	2656.63
585.249	2649.17
585.609	2603.75
585.969	2607.81
586.329	2646.46
586.688	2644.87
587.048	2603.07
587.408	2605.1
587.768	2602.84
588.127	2603.97
588.487	2624.31
588.846	2624.76
589.206	2592.9
589.565	2613.46
589.925	2598.32
590.284	2601.03
590.643	2615.04
591.003	2607.36
591.362	2621.6
591.721	2577.08
592.08	2599
592.44	2584.54
592.799	2593.58
593.158	2614.37
593.517	2574.82
593.876	2556.29
594.235	2571.66
594.593	2603.75
594.952	2611.65
595.311	2574.14
595.67	2560.36
596.029	2584.31
596.387	2607.13
596.746	2634.7
597.104	2571.43
597.463	2553.12
597.822	2579.11
598.18	2622.73
598.538	2599.9
598.897	2602.39
599.255	2606.23
599.613	2599.68
599.972	2614.82
600.33	2584.76
600.688	2594.48
601.046	2625.89
601.404	2610.3
601.762	2608.04
602.12	2624.76
602.478	2614.14
602.836	2619.34
603.194	2592.67
603.552	2623.18
603.91	2603.97
604.268	2634.93
604.625	2644.2
604.983	2613.46
605.341	2640.13
605.698	2651.2
606.056	2624.76
606.413	2608.04
606.771	2612.11
607.128	2655.04
607.485	2627.02
607.843	2624.31
608.2	2612.56
608.557	2632.9
608.914	2669.96
609.272	2668.15
609.629	2661.14
609.986	2664.99
610.343	2641.48
610.7	2694.59
611.057	2690.97
611.414	2689.17
611.771	2668.83
612.127	2667.25
612.484	2689.84
612.841	2714.48
613.198	2738.2
613.554	2701.14
613.911	2719.9
614.267	2714.02
614.624	2719.67
614.98	2700.92
615.337	2713.12
615.693	2719.45
616.05	2730.75
616.406	2736.62
616.762	2731.65
617.118	2715.38
617.475	2702.05
617.831	2716.28
618.187	2753.35
618.543	2708.15
618.899	2738.2
619.255	2716.96
619.611	2741.14
619.967	2780.69
620.323	2721.03
620.678	2734.36
621.034	2771.88
621.39	2720.35
621.746	2741.59
622.101	2760.8
622.457	2729.84
622.812	2708.15
623.168	2747.02
623.523	2744.98
623.879	2760.58
624.234	2715.83
624.589	2748.37
624.945	2725.32
625.3	2772.55
625.655	2743.85
626.01	2732.56
626.365	2720.58
626.72	2725.1
627.075	2770.75
627.43	2720.8
627.785	2710.41
628.14	2728.49
628.495	2708.15
628.85	2712.89
629.205	2685.32
629.559	2736.62
629.914	2678.55
630.269	2737.98
630.623	2706.34
630.978	2720.13
631.332	2713.8
631.687	2714.48
632.041	2715.38
632.396	2728.71
632.75	2674.7
633.104	2657.3
633.459	2649.39
633.813	2701.82
634.167	2678.77
634.521	2689.39
634.875	2671.31
635.229	2653.69
635.583	2679.9
635.937	2707.02
636.291	2663.86
636.645	2668.15
636.999	2691.65
637.352	2693.69
637.706	2647.13
638.06	2665.44
638.413	2695.95
638.767	2703.18
639.121	2656.4
639.474	2679.68
639.828	2674.03
640.181	2667.02
640.534	2643.52
640.888	2633.8
641.241	2655.04
641.594	2641.71
641.947	2683.97
642.301	2711.99
642.654	2688.94
643.007	2677.64
643.36	2686.91
643.713	2673.8
644.066	2690.75
644.419	2692.78
644.771	2706.34
645.124	2638.55
645.477	2664.99
645.83	2650.75
646.182	2644.42
646.535	2668.38
646.888	2658.88
647.24	2656.17
647.593	2669.05
647.945	2680.81
648.298	2654.37
648.65	2674.25
649.002	2642.84
649.355	2666.57
649.707	2690.52
650.059	2698.21
650.411	2742.27
650.763	2749.28
651.115	2750.86
651.467	2782.95
651.819	2776.4
652.171	2819.33
652.523	2806.23
652.875	2779.33
653.227	2807.81
653.578	2803.97
653.93	2800.8
654.282	2829.5
654.633	2793.57
654.985	2844.64
655.337	2843.06
655.688	2848.94
656.039	2888.03
656.391	2853.91
656.742	2877.18
657.094	2897.97
657.445	2899.78
657.796	2906.79
658.147	2922.61
658.498	2935.04
658.849	2954.7
659.2	2942.27
659.551	2940.91
659.902	2962.83
660.253	2958.76
660.604	3006.67
660.955	2985.88
661.306	2991.53
661.656	3031.08
662.007	3001.47
662.358	3062.94
662.708	3062.49
663.059	3122.15
663.409	3067.24
663.76	3104.07
664.11	3115.82
664.461	3110.62
664.811	3172.32
665.161	3140
665.511	3156.27
665.862	3154.92
666.212	3213.45
666.562	3193.56
666.912	3259.32
667.262	3250.06
667.612	3269.94
667.962	3304.52
668.312	3329.83
668.662	3347.23
669.011	3364.63
669.361	3382.48
669.711	3377.28
670.06	3391.97
670.41	3408.02
670.76	3426.32
671.109	3415.7
671.459	3455.7
671.808	3518.52
672.157	3466.1
672.507	3491.41
672.856	3519.65
673.205	3556.04
673.554	3595.58
673.904	3579.76
674.253	3657.5
674.602	3646.43
674.951	3590.39
675.3	3588.13
675.649	3711.51
675.998	3692.3
676.346	3710.61
676.695	3772.08
677.044	3774.56
677.393	3831.06
677.741	3783.15
678.09	3856.82
678.438	3833.32
678.787	3868.57
679.135	3888.01
679.484	3916.7
679.832	3968.45
680.181	3964.16
680.529	3977.49
680.877	4015.23
681.225	4018.62
681.573	4038.28
681.922	4025.85
682.27	4079.64
682.618	4082.35
682.966	4112.18
683.314	4154.44
683.661	4190.37
684.009	4165.74
684.357	4186.98
684.705	4223.14
685.053	4235.11
685.4	4283.47
685.748	4238.96
686.095	4335.68
686.443	4282.35
686.79	4325.73
687.138	4347.65
687.485	4395.34
687.832	4421.32
688.18	4444.37
688.527	4419.52
688.874	4443.02
689.221	4479.18
689.568	4483.24
689.915	4544.49
690.262	4555.56
690.609	4529.12
690.956	4591.26
691.303	4556.24
691.65	4634.2
691.997	4573.41
692.344	4600.3
692.69	4675.33
693.037	4698.83
693.383	4647.53
693.73	4695.22
694.077	4697.93
694.423	4704.93
694.769	4754.42
695.116	4799.39
695.462	4805.5
695.808	4823.35
696.155	4877.81
696.501	4840.97
696.847	4904.25
697.193	4867.64
697.539	4917.58
697.885	4925.49
698.231	4931.14
698.577	4954.64
698.923	4960.07
699.269	4976.34
699.614	5026.51
699.96	5003.91
700.306	4991.03
700.651	5081.65
700.997	5067.18
701.342	5050.69
701.688	5098.59
702.033	5149.67
702.379	5159.16
702.724	5153.51
703.069	5229.44
703.415	5189.21
703.76	5188.31
704.105	5218.14
704.45	5271.25
704.795	5242.09
705.14	5251.59
705.485	5255.43
705.83	5229.89
706.175	5259.95
706.52	5342.88
706.865	5344.46
707.209	5334.52
707.554	5329.1
707.899	5370
708.243	5346.27
708.588	5457.91
708.932	5365.71
709.277	5393.05
709.621	5416.55
709.966	5430.79
710.31	5468.08
710.654	5482.09
710.998	5465.36
711.342	5467.85
711.687	5491.8
712.031	5501.07
712.375	5542.88
712.719	5612.48
713.063	5554.63
713.407	5575.87
713.75	5531.8
714.094	5609.54
714.438	5571.12
714.782	5643.21
715.125	5598.69
715.469	5612.71
715.812	5609.32
716.156	5651.35
716.499	5627.17
716.843	5623.55
717.186	5651.12
717.53	5711.91
717.873	5720.05
718.216	5698.35
718.559	5723.89
718.902	5661.97
719.246	5729.31
719.589	5734.96
719.932	5708.75
720.275	5763.44
720.617	5755.07
720.96	5750.33
721.303	5756.43
721.646	5814.73
721.989	5798.01
722.331	5789.88
722.674	5777.9
723.016	5768.86
723.359	5807.28
723.701	5776.32
724.044	5797.79
724.386	5790.78
724.729	5801.18
725.071	5788.52
725.413	5802.08
725.755	5840.5
726.097	5769.54
726.439	5788.07
726.782	5870.78
727.124	5868.07
727.465	5803.43
727.807	5809.31
728.149	5836.43
728.491	5823.55
728.833	5823.32
729.175	5810.44
729.516	5831
729.858	5847.5
730.199	5813.38
730.541	5858.57
730.882	5864
731.224	5881.17
731.565	5863.32
731.906	5783.55
732.248	5881.85
732.589	5830.1
732.93	5845.69
733.271	5845.69
733.612	5833.04
733.953	5840.27
734.294	5866.94
734.635	5896.77
734.976	5838.01
735.317	5875.07
735.658	5814.96
735.999	5849.08
736.339	5857.9
736.68	5852.25
737.021	5872.59
737.361	5840.5
737.702	5882.53
738.042	5884.11
738.383	5809.76
738.723	5856.09
739.063	5839.59
739.404	5841.63
739.744	5848.18
740.084	5816.09
740.424	5856.77
740.764	5781.06
741.104	5830.55
741.444	5831.23
741.784	5814.06
742.124	5855.19
742.464	5828.07
742.804	5813.6
743.143	5828.97
743.483	5803.43
743.823	5768.41
744.162	5774.51
744.502	5742.19
744.841	5764.11
745.181	5784.23
745.52	5722.08
745.86	5772.48
746.199	5748.3
746.538	5720.27
746.877	5799.37
747.216	5791.23
747.556	5744
747.895	5735.19
748.234	5732.48
748.573	5718.69
748.911	5702.19
749.25	5701.06
749.589	5634.85
749.928	5688.86
750.267	5667.17
750.605	5648.64
750.944	5651.12
751.283	5643.67
751.621	5663.33
751.96	5580.16
752.298	5630.33
752.636	5615.87
752.975	5566.15
753.313	5546.27
753.651	5594.17
753.989	5594.85
754.327	5567.51
754.666	5548.3
755.004	5539.49
755.342	5525.25
755.679	5499.94
756.017	5560.05
756.355	5491.35
756.693	5547.17
757.031	5523.67
757.368	5466.72
757.706	5499.04
758.044	5453.16
758.381	5456.33
758.719	5497.68
759.056	5387.63
759.394	5388.76
759.731	5407.51
760.068	5342.66
760.405	5367.51
760.743	5344.46
761.08	5351.7
761.417	5361.41
761.754	5353.05
762.091	5327.06
762.428	5330.68
762.765	5306.27
763.102	5281.19
763.438	5264.24
763.775	5210.23
764.112	5230.34
764.449	5233.96
764.785	5195.99
765.122	5191.47
765.458	5137.92
765.795	5118.48
766.131	5143.79
766.467	5155.09
766.804	5098.37
767.14	5120.52
767.476	5064.02
767.812	5065.15
768.148	5095.66
768.485	5046.17
768.821	5026.96
769.157	5021.31
769.492	5004.81
769.828	5006.85
770.164	4931.59
770.5	4961.88
770.836	4944.93
771.171	4929.79
771.507	4916.23
771.842	4888.88
772.178	4853.4
