Data from carpet_green_FLMS001491_00057.txt Node
Date: Wed Feb 08 10:35:34 GMT 2017
User: dcchb
Spectrometer: FLMS00149
Trigger mode: 0
Integration Time (sec): 2.000000E-2
Scans to average: 10
Electric dark correction enabled: true
Nonlinearity correction enabled: false
Boxcar width: 0
XAxis mode: Wavelengths
Number of Pixels in Spectrum: 2048
>>>>>Begin Spectral Data<<<<<
341.393	-12.85
341.776	-12.85
342.16	-12.85
342.543	-84.04
342.927	-48.78
343.31	-71.83
343.693	-86.52
344.077	-67.54
344.46	-77.71
344.843	-39.97
345.226	-17.82
345.61	-39.07
345.993	-30.71
346.376	6.58
346.759	19.91
347.142	38.67
347.525	54.04
347.908	58.33
348.291	65.79
348.674	90.2
349.057	97.65
349.44	119.57
349.823	144.21
350.206	164.77
350.588	166.13
350.971	179.01
351.354	198.44
351.737	221.72
352.119	219.68
352.502	247.25
352.884	243.86
353.267	244.32
353.65	276.86
354.032	248.16
354.414	269.85
354.797	270.08
355.179	312.34
355.562	304.2
355.944	304.88
356.326	304.88
356.709	304.88
357.091	298.1
357.473	305.33
357.855	288.16
358.238	317.76
358.62	293.81
359.002	303.52
359.384	305.78
359.766	297.42
360.148	298.55
360.53	310.3
360.912	307.14
361.294	299.91
361.676	305.56
362.057	299.23
362.439	285.22
362.821	287.48
363.203	281.38
363.584	303.52
363.966	289.06
364.348	280.02
364.729	288.83
365.111	291.09
365.493	280.47
365.874	285.9
366.256	280.92
366.637	292
367.019	278.44
367.4	285.9
367.781	274.37
368.163	281.83
368.544	281.38
368.925	266.91
369.306	266.69
369.688	279.57
370.069	256.74
370.45	289.29
370.831	260.36
371.212	283.18
371.593	306.91
371.974	294.26
372.355	295.16
372.736	293.58
373.117	294.71
373.498	277.54
373.879	260.13
374.26	276.63
374.641	278.44
375.021	275.73
375.402	281.6
375.783	278.21
376.163	291.77
376.544	280.25
376.925	291.77
377.305	290.64
377.686	270.3
378.066	280.92
378.447	304.65
378.827	284.99
379.208	269.4
379.588	301.04
379.968	286.35
380.349	306.23
380.729	302.85
381.109	301.04
381.489	298.1
381.87	303.98
382.25	286.8
382.63	285.9
383.01	295.84
383.39	297.42
383.77	274.15
384.15	288.38
384.53	290.19
384.91	283.64
385.29	292.68
385.67	286.57
386.049	297.2
386.429	291.77
386.809	308.49
387.189	296.52
387.568	283.41
387.948	304.43
388.328	294.94
388.707	287.48
389.087	284.54
389.466	298.78
389.846	299.91
390.225	292.9
390.605	287.48
390.984	315.27
391.363	296.29
391.743	310.53
392.122	318.44
392.501	292.45
392.881	294.48
393.26	304.88
393.639	304.2
394.018	303.52
394.397	295.84
394.776	297.65
395.155	303.3
395.534	304.65
395.913	318.21
396.292	287.7
396.671	315.95
397.05	311.21
397.429	299.46
397.808	308.72
398.186	314.6
398.565	296.97
398.944	300.81
399.323	304.88
399.701	303.75
400.08	309.85
400.458	317.08
400.837	295.61
401.215	304.2
401.594	292.22
401.972	297.65
402.351	287.7
402.729	302.62
403.107	296.97
403.486	321.83
403.864	306.01
404.242	314.6
404.62	303.3
404.999	308.95
405.377	310.08
405.755	322.51
406.133	311.21
406.511	289.74
406.889	310.08
407.267	324.09
407.645	321.38
408.023	319.79
408.401	305.33
408.779	301.26
409.156	312.56
409.534	301.94
409.912	317.53
410.29	325.9
410.667	320.47
411.045	334.26
411.422	316.86
411.8	316.86
412.178	331.32
412.555	338.78
412.933	312.56
413.31	324.99
413.687	324.31
414.065	332.67
414.442	336.97
414.819	323.41
415.197	306.01
415.574	340.36
415.951	315.27
416.328	318.66
416.705	329.51
417.082	322.73
417.46	334.26
417.837	339
418.214	341.94
418.591	314.6
418.967	332.9
419.344	336.97
419.721	318.44
420.098	322.96
420.475	342.62
420.852	305.56
421.228	335.39
421.605	329.29
421.982	342.84
422.358	338.1
422.735	346.69
423.111	311.21
423.488	344.2
423.864	336.74
424.241	324.31
424.617	326.12
424.994	349.17
425.37	331.77
425.746	334.03
426.123	321.15
426.499	344.88
426.875	342.17
427.251	346.69
427.627	328.38
428.003	343.97
428.379	355.5
428.756	315.5
429.132	341.71
429.507	326.8
429.883	353.01
430.259	341.26
430.635	334.71
431.011	327.25
431.387	348.27
431.763	336.29
432.138	353.24
432.514	338.32
432.89	334.71
433.265	337.19
433.641	340.81
434.016	362.96
434.392	361.37
434.767	359.57
435.143	361.37
435.518	353.92
435.894	360.7
436.269	365.89
436.644	354.82
437.02	348.49
437.395	366.8
437.77	360.7
438.145	366.35
438.52	385.78
438.895	362.05
439.271	377.65
439.646	372.45
440.021	375.61
440.395	367.02
440.77	371.32
441.145	357.53
441.52	368.83
441.895	381.94
442.27	362.96
442.645	362.05
443.019	362.5
443.394	377.87
443.769	382.84
444.143	368.83
444.518	376.74
444.892	370.87
445.267	370.41
445.641	379
446.016	374.03
446.39	384.2
446.764	366.8
447.139	391.66
447.513	386.23
447.887	393.69
448.262	375.84
448.636	382.39
449.01	392.33
449.384	365.89
449.758	399.34
450.132	380.13
450.506	386.23
450.88	371.77
451.254	376.29
451.628	395.72
452.002	396.63
452.376	400.7
452.75	386.46
453.123	376.97
453.497	414.48
453.871	389.4
454.244	388.94
454.618	413.12
454.992	401.6
455.365	406.57
455.739	405.44
456.112	405.89
456.486	410.64
456.859	410.41
457.232	407.48
457.606	417.87
457.979	413.12
458.352	397.53
458.725	394.37
459.099	406.12
459.472	397.76
459.845	426.46
460.218	428.72
460.591	423.75
460.964	457.42
461.337	408.15
461.71	404.09
462.083	418.1
462.456	420.36
462.829	435.95
463.201	447.7
463.574	403.41
463.947	416.51
464.32	440.24
464.692	443.18
465.065	433.24
465.438	458.77
465.81	434.14
466.183	421.94
466.555	438.66
466.928	440.92
467.3	447.93
467.672	460.58
468.045	449.96
468.417	459.9
468.789	451.09
469.161	465.1
469.534	461.94
469.906	445.67
470.278	473.01
470.65	479.79
471.022	481.37
471.394	489.05
471.766	483.63
472.138	476.17
472.51	465.1
472.882	483.41
473.253	495.16
473.625	499.22
473.997	491.54
474.369	483.86
474.74	494.03
475.112	498.77
475.484	507.13
475.855	510.75
476.227	510.98
476.598	521.14
476.97	518.21
477.341	540.58
477.713	517.08
478.084	505.1
478.455	535.61
478.827	555.04
479.198	539.9
479.569	578.54
479.94	557.75
480.311	551.43
480.682	571.54
481.053	578.54
481.424	556.17
481.795	592.56
482.166	571.99
482.537	580.13
482.908	588.49
483.279	586.45
483.65	626.9
484.021	601.37
484.391	630.29
484.762	628.03
485.133	630.52
485.503	602.5
485.874	643.85
486.244	642.05
486.615	620.8
486.985	662.84
487.356	657.86
487.726	657.41
488.097	661.48
488.467	658.99
488.837	679.33
489.207	689.5
489.578	667.13
489.948	696.51
490.318	713.68
490.688	699.44
491.058	687.69
491.428	717.52
491.798	701.48
492.168	729.05
492.538	727.01
492.908	732.66
493.278	724.08
493.648	730.4
494.017	727.47
494.387	744.87
494.757	743.06
495.126	760.46
495.496	764.98
495.866	758.2
496.235	752.78
496.605	784.19
496.974	771.53
497.344	778.54
497.713	774.02
498.082	789.84
498.452	779.67
498.821	794.13
499.19	792.32
499.559	788.26
499.928	796.84
500.298	799.56
500.667	808.37
501.036	807.46
501.405	804.3
501.774	807.69
502.143	813.57
502.512	836.39
502.88	805.2
503.249	805.66
503.618	834.36
503.987	821.25
504.356	796.62
504.724	818.99
505.093	853.79
505.462	822.83
505.83	827.58
506.199	838.42
506.567	842.94
506.936	867.8
507.304	844.3
507.672	841.81
508.041	853.11
508.409	882.04
508.777	859.21
509.145	869.61
509.514	853.34
509.882	879.55
510.25	875.03
510.618	882.49
510.986	891.3
511.354	866.45
511.722	891.3
512.09	899.44
512.458	893.34
512.826	896.5
513.193	889.72
513.561	899.21
513.929	889.72
514.297	905.99
514.664	907.58
515.032	918.65
515.4	904.19
515.767	917.97
516.135	902.15
516.502	893.11
516.869	940.57
517.237	908.48
517.604	938.76
517.972	928.14
518.339	926.78
518.706	948.7
519.073	924.98
519.44	929.95
519.808	923.85
520.175	944.86
520.542	966.33
520.909	933.79
521.276	953.22
521.643	968.82
522.009	962.04
522.376	983.73
522.743	956.39
523.11	957.07
523.477	978.31
523.843	989.15
524.21	965.88
524.577	988.93
524.943	994.13
525.31	964.75
525.676	1004.07
526.043	991.19
526.409	1007.91
526.776	1005.43
527.142	1025.76
527.508	1000.91
527.874	1016.27
528.241	1023.05
528.607	1025.99
528.973	1019.44
529.339	1013.79
529.705	1021.47
530.071	1013.79
530.437	1027.35
530.803	1018.76
531.169	1028.93
531.535	1041.13
531.901	1031.87
532.267	1038.19
532.632	1030.96
532.998	1055.14
533.364	1045.88
533.73	1034.13
534.095	1017.85
534.461	1039.1
534.826	1044.75
535.192	1030.51
535.557	1054.46
535.923	1036.61
536.288	1051.98
536.653	1062.15
537.019	1036.61
537.384	1035.48
537.749	1058.31
538.114	1053.11
538.479	1042.49
538.845	1028.48
539.21	1061.24
539.575	1065.76
539.94	1047.91
540.305	1036.84
540.67	1049.49
541.034	1052.66
541.399	1066.89
541.764	1049.27
542.129	1056.72
542.494	1034.8
542.858	1063.5
543.223	1064.63
543.587	1065.99
543.952	1056.05
544.316	1063.05
544.681	1049.72
545.045	1072.77
545.41	1069.83
545.774	1059.89
546.138	1068.02
546.503	1073.45
546.867	1048.81
547.231	1072.77
547.595	1050.85
547.959	1080
548.324	1057.85
548.688	1078.64
549.052	1061.24
549.416	1073.45
549.779	1091.07
550.143	1072.77
550.507	1089.94
550.871	1053.11
551.235	1099.66
551.599	1074.12
551.962	1068.47
552.326	1086.55
552.689	1085.88
553.053	1082.26
553.417	1075.93
553.78	1085.65
554.143	1053.56
554.507	1085.88
554.87	1082.49
555.234	1107.8
555.597	1097.17
555.96	1106.21
556.323	1101.24
556.686	1092.88
557.05	1113.22
557.413	1083.84
557.776	1112.32
558.139	1117.74
558.502	1101.02
558.865	1106.67
559.228	1125.87
559.59	1125.65
559.953	1128.81
560.316	1133.78
560.679	1110.28
561.041	1127.23
561.404	1138.08
561.767	1114.58
562.129	1113.22
562.492	1139.21
562.854	1127.91
563.217	1143.73
563.579	1117.06
563.941	1136.27
564.304	1156.61
564.666	1145.76
565.028	1133.11
565.39	1135.37
565.753	1150.51
566.115	1141.92
566.477	1155.93
566.839	1185.08
567.201	1148.7
567.563	1136.72
567.925	1174.46
568.287	1193.67
568.648	1150.05
569.01	1196.38
569.372	1168.81
569.734	1194.57
570.095	1164.52
570.457	1174.23
570.819	1176.95
571.18	1171.07
571.542	1174.01
571.903	1191.86
572.265	1195.93
572.626	1194.12
572.987	1170.84
573.349	1177.62
573.71	1171.97
574.071	1166.1
574.432	1198.19
574.794	1195.03
575.155	1214.69
575.516	1171.97
575.877	1212.65
576.238	1186.44
576.599	1202.71
576.96	1215.36
577.32	1185.31
577.681	1177.85
578.042	1194.12
578.403	1192.09
578.763	1183.95
579.124	1162.94
579.485	1203.16
579.845	1182.6
580.206	1204.74
580.566	1191.41
580.927	1159.77
581.287	1212.2
581.648	1208.36
582.008	1178.75
582.368	1169.26
582.728	1167.23
583.089	1185.53
583.449	1197.06
583.809	1167.23
584.169	1186.89
584.529	1191.64
584.889	1169.04
585.249	1185.53
585.609	1169.49
585.969	1162.26
586.329	1166.33
586.688	1177.4
587.048	1184.86
587.408	1189.15
587.768	1168.59
588.127	1157.51
588.487	1160.45
588.846	1159.77
589.206	1166.1
589.565	1158.87
589.925	1194.35
590.284	1173.1
590.643	1172.2
591.003	1145.99
591.362	1160.68
591.721	1160
592.08	1187.57
592.44	1173.56
592.799	1169.04
593.158	1166.78
593.517	1160.9
593.876	1182.6
594.235	1150.73
594.593	1187.79
594.952	1156.83
595.311	1160.22
595.67	1176.04
596.029	1170.62
596.387	1174.23
596.746	1203.16
597.104	1164.97
597.463	1142.6
597.822	1176.49
598.18	1157.96
598.538	1172.88
598.897	1173.1
599.255	1143.95
599.613	1153.67
599.972	1181.69
600.33	1174.23
600.688	1175.82
601.046	1161.35
601.404	1142.37
601.762	1169.94
602.12	1172.43
602.478	1178.3
602.836	1150.96
603.194	1145.99
603.552	1156.83
603.91	1150.28
604.268	1173.1
604.625	1163.61
604.983	1176.04
605.341	1160
605.698	1184.86
606.056	1178.3
606.413	1196.15
606.771	1200.45
607.128	1163.61
607.485	1167.91
607.843	1191.18
608.2	1209.26
608.557	1185.31
608.914	1194.8
609.272	1195.48
609.629	1205.19
609.986	1191.41
610.343	1193.67
610.7	1208.36
611.057	1203.16
611.414	1190.05
611.771	1188.25
612.127	1190.73
612.484	1230.05
612.841	1203.39
613.198	1210.17
613.554	1190.28
613.911	1205.19
614.267	1186.66
614.624	1205.87
614.98	1192.31
615.337	1172.88
615.693	1210.84
616.05	1208.36
616.406	1234.35
616.762	1218.3
617.118	1220.34
617.475	1191.18
617.831	1214.91
618.187	1203.39
618.543	1219.66
618.899	1213.78
619.255	1180.34
619.611	1220.79
619.967	1191.41
620.323	1221.69
620.678	1195.03
621.034	1251.75
621.39	1221.01
621.746	1240.45
622.101	1221.01
622.457	1196.38
622.812	1236.15
623.168	1237.51
623.523	1226.44
623.879	1263.27
624.234	1207
624.589	1191.41
624.945	1242.48
625.3	1233.89
625.655	1207.23
626.01	1218.98
626.365	1213.78
626.72	1219.88
627.075	1199.77
627.43	1232.54
627.785	1203.61
628.14	1209.94
628.495	1202.93
628.85	1206.78
629.205	1197.74
629.559	1232.99
629.914	1199.77
630.269	1202.26
630.623	1227.11
630.978	1218.08
631.332	1200
631.687	1216.49
632.041	1221.24
632.396	1211.3
632.75	1208.36
633.104	1186.89
633.459	1206.55
633.813	1178.08
634.167	1194.12
634.521	1202.93
634.875	1222.59
635.229	1212.65
635.583	1224.63
635.937	1218.08
636.291	1198.19
636.645	1193.9
636.999	1209.71
637.352	1204.06
637.706	1204.97
638.06	1211.52
638.413	1176.27
638.767	1161.58
639.121	1197.51
639.474	1187.34
639.828	1184.4
640.181	1200.67
640.534	1191.18
640.888	1197.51
641.241	1201.35
641.594	1196.61
641.947	1211.97
642.301	1199.77
642.654	1218.53
643.007	1191.64
643.36	1197.51
643.713	1206.1
644.066	1215.14
644.419	1202.93
644.771	1210.39
645.124	1194.8
645.477	1164.29
645.83	1199.77
646.182	1159.77
646.535	1167.23
646.888	1174.91
647.24	1203.16
647.593	1178.75
647.945	1185.31
648.298	1205.42
648.65	1209.26
649.002	1187.34
649.355	1192.54
649.707	1202.03
650.059	1166.55
650.411	1203.16
650.763	1184.4
651.115	1207.45
651.467	1204.06
651.819	1218.3
652.171	1244.06
652.523	1216.72
652.875	1238.19
653.227	1254.68
653.578	1247
653.93	1230.28
654.282	1218.53
654.633	1257.17
654.985	1244.97
655.337	1254.68
655.688	1234.57
656.039	1247.68
656.391	1247.91
656.742	1285.42
657.094	1264.63
657.445	1258.98
657.796	1278.41
658.147	1266.89
658.498	1279.32
658.849	1300.33
659.2	1298.75
659.551	1267.11
659.902	1288.36
660.253	1315.02
660.604	1308.24
660.955	1293.1
661.306	1317.28
661.656	1314.34
662.007	1292.88
662.358	1326.55
662.708	1348.69
663.059	1313.67
663.409	1355.7
663.76	1319.99
664.11	1364.74
664.461	1359.54
664.811	1379.88
665.161	1372.65
665.511	1363.61
665.862	1382.82
666.212	1417.17
666.562	1397.51
666.912	1397.05
667.262	1383.27
667.612	1431.4
667.962	1411.74
668.312	1422.59
668.662	1426.43
669.011	1468.69
669.361	1450.39
669.711	1448.13
670.06	1496.03
670.41	1506.2
670.76	1516.15
671.109	1523.6
671.459	1522.7
671.808	1511.17
672.157	1507.33
672.507	1508.69
672.856	1508.69
673.205	1542.36
673.554	1569.25
673.904	1583.26
674.253	1606.09
674.602	1576.03
674.951	1594.34
675.3	1617.84
675.649	1613.09
675.998	1642.24
676.346	1662.58
676.695	1649.93
677.044	1675.46
677.393	1691.51
677.741	1701.68
678.09	1716.14
678.438	1709.36
678.787	1731.28
679.135	1748.68
679.484	1733.54
679.832	1752.07
680.181	1779.19
680.529	1811.51
680.877	1774.44
681.225	1820.32
681.573	1842.47
681.922	1868.23
682.27	1828.45
682.618	1877.49
682.966	1892.63
683.314	1889.92
683.661	1908.45
684.009	1935.12
684.357	1939.41
684.705	1923.14
685.053	1980.32
685.4	1937.6
685.748	1974.89
686.095	2000.88
686.443	2022.12
686.79	2055.79
687.138	2042.01
687.485	2060.77
687.832	2053.76
688.18	2096.24
688.527	2093.53
688.874	2127.2
689.221	2154.55
689.568	2145.96
689.915	2147.09
690.262	2167.2
690.609	2192.29
690.956	2214.43
691.303	2249.46
691.65	2193.19
691.997	2269.35
692.344	2244.94
692.69	2269.12
693.037	2296.24
693.383	2303.7
693.73	2340.31
694.077	2325.16
694.423	2359.97
694.769	2360.87
695.116	2364.26
695.462	2415.33
695.808	2420.98
696.155	2420.3
696.501	2423.92
696.847	2444.03
697.193	2428.21
697.539	2514.09
697.885	2463.47
698.231	2498.95
698.577	2535.33
698.923	2547.53
699.269	2571.94
699.614	2548.66
699.96	2575.55
700.306	2599.51
700.651	2597.02
700.997	2594.99
701.342	2646.74
701.688	2619.85
702.033	2658.49
702.379	2702.33
702.724	2682.44
703.069	2734.42
703.415	2695.78
703.76	2718.83
704.105	2795.21
704.45	2774.87
704.795	2800.86
705.14	2815.32
705.485	2785.27
705.83	2807.19
706.175	2860.74
706.52	2820.07
706.865	2851.93
707.209	2903
707.554	2888.77
707.899	2894.64
708.243	2922.21
708.588	2906.39
708.932	2906.62
709.277	2966.73
709.621	2951.36
709.966	2987.29
710.31	2979.84
710.654	2992.72
710.998	2997.92
711.342	3020.51
711.687	3031.36
712.031	3033.85
712.375	3050.34
712.719	3033.17
713.063	3056.9
713.407	3116.1
713.75	3103.68
714.094	3163.11
714.438	3107.07
714.782	3147.97
715.125	3124.24
715.469	3146.16
715.812	3152.49
716.156	3189.32
716.499	3153.84
716.843	3222.54
717.186	3175.99
717.53	3244.24
717.873	3252.15
718.216	3249.66
718.559	3255.99
718.902	3227.74
719.246	3242.88
719.589	3240.62
719.932	3246.27
720.275	3281.98
720.617	3271.58
720.96	3286.72
721.303	3302.31
721.646	3306.38
721.989	3314.07
722.331	3325.36
722.674	3317.23
723.016	3318.81
723.359	3341.64
723.701	3366.95
724.044	3326.27
724.386	3324.91
724.729	3385.25
725.071	3405.81
725.413	3361.75
725.755	3379.15
726.097	3375.53
726.439	3356.1
726.782	3375.08
727.124	3415.76
727.465	3408.98
727.807	3407.85
728.149	3426.83
728.491	3362.2
728.833	3416.21
729.175	3396.78
729.516	3389.32
729.858	3434.29
730.199	3405.81
730.541	3427.28
730.882	3433.84
731.224	3451.91
731.565	3460.28
731.906	3455.08
732.248	3454.4
732.589	3440.62
732.93	3469.32
733.271	3448.53
733.612	3498.02
733.953	3484.23
734.294	3453.72
734.635	3423.89
734.976	3490.78
735.317	3429.99
735.658	3455.3
735.999	3453.5
736.339	3486.49
736.68	3482.87
737.021	3463.67
737.361	3440.62
737.702	3479.48
738.042	3459.15
738.383	3469.99
738.723	3483.55
739.063	3455.08
739.404	3484.46
739.744	3493.27
740.084	3482.87
740.424	3441.75
740.764	3484
741.104	3458.69
741.444	3461.41
741.784	3478.35
742.124	3480.39
742.464	3493.27
742.804	3439.49
743.143	3453.5
743.483	3454.85
743.823	3428.41
744.162	3434.29
744.502	3435.42
744.841	3405.59
745.181	3457.56
745.52	3446.04
745.86	3435.64
746.199	3434.74
746.538	3436.1
746.877	3442.88
747.216	3436.32
747.556	3414.63
747.895	3439.94
748.234	3427.73
748.573	3487.39
748.911	3410.56
749.25	3406.49
749.589	3444.23
749.928	3361.75
750.267	3422.09
750.605	3373.95
750.944	3394.06
751.283	3395.65
751.621	3414.63
751.96	3361.97
752.298	3371.69
752.636	3391.13
752.975	3406.49
753.313	3357.68
753.651	3402.42
753.989	3339.83
754.327	3345.25
754.666	3342.31
755.004	3333.73
755.342	3341.41
755.679	3318.13
756.017	3314.97
756.355	3329.43
756.693	3334.86
757.031	3339.15
757.368	3281.07
757.706	3288.08
758.044	3282.65
758.381	3300.28
758.719	3284.01
759.056	3286.95
759.394	3255.76
759.731	3284.24
760.068	3265.25
760.405	3250.56
760.743	3234.97
761.08	3252.6
761.417	3241.07
761.754	3204.46
762.091	3208.31
762.428	3225.71
762.765	3203.11
763.102	3185.48
763.438	3185.03
763.775	3153.39
764.112	3195.2
764.449	3152.49
764.785	3157.23
765.122	3135.31
765.458	3154.97
765.795	3122.66
766.131	3139.15
766.467	3109.1
766.804	3081.53
767.14	3034.98
767.476	3046.05
767.812	3072.49
768.148	3075.43
768.485	3051.93
768.821	2999.5
769.157	3062.09
769.492	3075.43
769.828	3040.17
770.164	3020.29
770.5	3000.63
770.836	2999.95
771.171	2983.68
771.507	2988.42
771.842	2970.12
772.178	2925.15
772.513	2973.51
772.849	2953.17
773.184	2934.19
773.519	2900.29
773.855	2947.75
774.19	2892.83
774.525	2888.99
774.86	2913.85
