Data from carpet_green_FLMS001491_00077.txt Node
Date: Wed Feb 08 10:35:50 GMT 2017
User: dcchb
Spectrometer: FLMS00149
Trigger mode: 0
Integration Time (sec): 2.000000E-2
Scans to average: 10
Electric dark correction enabled: true
Nonlinearity correction enabled: false
Boxcar width: 0
XAxis mode: Wavelengths
Number of Pixels in Spectrum: 2048
>>>>>Begin Spectral Data<<<<<
341.393	-23.4
341.776	-23.4
342.16	-23.4
342.543	-66.11
342.927	-74.48
343.31	-65.21
343.693	-58.66
344.077	-74.25
344.46	-56.62
344.843	-42.61
345.226	-18.43
345.61	-34.25
345.993	-15.72
346.376	-1.26
346.759	-8.26
347.142	6.43
347.525	43.49
347.908	71.51
348.291	62.7
348.674	73.09
349.057	118.06
349.44	134.78
349.823	133.65
350.206	148.8
350.588	142.92
350.971	164.61
351.354	186.53
351.737	204.39
352.119	201.68
352.502	236.02
352.884	234.44
353.267	245.97
353.65	259.98
354.032	266.76
354.414	270.83
354.797	276.48
355.179	292.52
355.562	301.33
355.944	304.95
356.326	289.81
356.709	312.41
357.091	298.85
357.473	310.37
357.855	309.24
358.238	305.4
358.62	302.69
359.002	319.41
359.384	315.57
359.766	311.5
360.148	313.08
360.53	321.22
360.912	307.44
361.294	302.46
361.676	284.16
362.057	300.43
362.439	290.26
362.821	278.74
363.203	309.24
363.584	314.89
363.966	288.9
364.348	299.07
364.729	278.28
365.111	287.55
365.493	281.22
365.874	305.18
366.256	281
366.637	259.53
367.019	276.93
367.4	282.13
367.781	299.75
368.163	292.52
368.544	292.29
368.925	272.18
369.306	299.07
369.688	279.41
370.069	276.48
370.45	279.87
370.831	273.31
371.212	272.41
371.593	268.57
371.974	278.06
372.355	279.41
372.736	281.22
373.117	282.35
373.498	262.92
373.879	275.35
374.26	273.09
374.641	273.09
375.021	287.32
375.402	284.84
375.783	307.89
376.163	295.01
376.544	268.57
376.925	275.8
377.305	290.03
377.686	268.11
378.066	286.19
378.447	285.29
378.827	283.93
379.208	282.13
379.588	286.42
379.968	280.54
380.349	288
380.729	292.07
381.109	311.28
381.489	302.92
381.87	306.08
382.25	288.23
382.63	284.39
383.01	292.97
383.39	309.7
383.77	308.57
384.15	290.94
384.53	295.46
384.91	304.5
385.29	311.28
385.67	290.94
386.049	305.85
386.429	287.32
386.809	297.94
387.189	294.55
387.568	313.08
387.948	303.37
388.328	312.86
388.707	306.76
389.087	300.2
389.466	314.44
389.846	297.27
390.225	291.39
390.605	310.83
390.984	311.73
391.363	290.49
391.743	284.84
392.122	305.63
392.501	316.47
392.881	301.56
393.26	318.96
393.639	311.28
394.018	308.11
394.397	323.48
394.776	317.15
395.155	323.71
395.534	306.76
395.913	306.76
396.292	302.69
396.671	307.44
397.05	315.34
397.429	318.96
397.808	306.98
398.186	310.37
398.565	294.33
398.944	329.36
399.323	309.92
399.701	311.28
400.08	331.84
400.458	307.89
400.837	329.13
401.215	332.52
401.594	320.54
401.972	314.21
402.351	325.06
402.729	323.03
403.107	312.18
403.486	317.83
403.864	315.8
404.242	323.03
404.62	341.33
404.999	323.25
405.377	319.86
405.755	332.97
406.133	332.52
406.511	321.22
406.889	317.83
407.267	339.98
407.645	328.9
408.023	328.23
408.401	324.16
408.779	327.77
409.156	312.41
409.534	341.33
409.912	328
410.29	355.57
410.667	336.81
411.045	349.02
411.422	342.24
411.8	332.97
412.178	333.42
412.555	347.43
412.933	346.08
413.31	343.14
413.687	349.24
414.065	311.05
414.442	334.1
414.819	330.71
415.197	357.6
415.574	345.4
415.951	354.21
416.328	348.34
416.705	345.17
417.082	354.44
417.46	345.17
417.837	327.55
418.214	340.43
418.591	342.24
418.967	346.08
419.344	347.66
419.721	353.99
420.098	351.73
420.475	356.25
420.852	363.03
421.228	378.62
421.605	369.81
421.982	354.67
422.358	362.58
422.735	370.48
423.111	354.67
423.488	378.17
423.864	369.58
424.241	365.96
424.617	357.6
424.994	374.78
425.37	386.08
425.746	353.76
426.123	360.99
426.499	365.06
426.875	358.96
427.251	369.58
427.627	366.42
428.003	379.52
428.379	374.78
428.756	379.07
429.132	407.55
429.507	396.47
429.883	377.72
430.259	378.85
430.635	388.79
431.011	388.34
431.387	375.91
431.763	390.6
432.138	363.25
432.514	376.81
432.89	401.44
433.265	415.91
433.641	413.65
434.016	403.25
434.392	400.09
434.767	396.47
435.143	407.77
435.518	420.65
435.894	409.81
436.269	417.72
436.644	408.68
437.02	429.69
437.395	418.84
437.77	425.62
438.145	427.43
438.52	433.53
438.895	431.5
439.271	451.61
439.646	424.95
440.021	426.53
440.395	427.66
440.77	423.82
441.145	438.28
441.52	435.34
441.895	445.74
442.27	460.43
442.645	432.4
443.019	468.11
443.394	453.19
443.769	483.7
444.143	428.11
444.518	459.07
444.892	453.87
445.267	465.4
445.641	443.93
446.016	436.7
446.39	451.84
446.764	469.69
447.139	467.21
447.513	460.2
447.887	457.71
448.262	468.11
448.636	474.44
449.01	462.91
449.384	479.41
449.758	480.76
450.132	472.85
450.506	492.06
450.88	500.88
451.254	480.99
451.628	482.57
452.002	490.03
452.376	498.16
452.75	499.75
453.123	498.84
453.497	493.65
453.871	498.16
454.244	505.62
454.618	522.35
454.992	520.09
455.365	519.86
455.739	520.31
456.112	525.28
456.486	541.33
456.859	535.68
457.232	547.43
457.606	545.85
457.979	534.1
458.352	550.82
458.725	542.68
459.099	545.62
459.472	543.14
459.845	547.2
460.218	572.97
460.591	570.71
460.964	552.63
461.337	570.93
461.71	586.98
462.083	565.06
462.456	574.77
462.829	578.16
463.201	584.94
463.574	590.37
463.947	600.76
464.32	613.87
464.692	614.32
465.065	611.38
465.438	619.52
465.81	611.83
466.183	625.62
466.555	628.33
466.928	635.79
467.3	657.71
467.672	666.52
468.045	662.91
468.417	678.5
468.789	649.8
469.161	659.74
469.534	648.67
469.906	687.31
470.278	673.53
470.65	693.87
471.022	729.12
471.394	699.52
471.766	709.68
472.138	718.5
472.51	742.45
472.882	751.04
473.253	721.89
473.625	741.77
473.997	742.23
474.369	770.25
474.74	758.5
475.112	752.4
475.484	810.25
475.855	810.02
476.227	804.37
476.598	805.73
476.97	826.07
477.341	835.11
477.713	873.52
478.084	854.99
478.455	885.95
478.827	868.1
479.198	879.17
479.569	904.93
479.94	929.57
480.311	923.46
480.682	931.83
481.053	945.16
481.424	941.54
481.795	974.54
482.166	979.06
482.537	996.46
482.908	981.09
483.279	1034.2
483.65	1046.85
484.021	1056.57
484.391	1061.09
484.762	1043.91
485.133	1077.13
485.503	1084.59
485.874	1094.99
486.244	1086.85
486.615	1123.69
486.985	1136.57
487.356	1165.27
487.726	1158.71
488.097	1180.41
488.467	1184.93
488.837	1214.53
489.207	1201.88
489.578	1206.62
489.948	1246.17
490.318	1261.76
490.688	1274.64
491.058	1274.64
491.428	1282.1
491.798	1291.82
492.168	1343.57
492.538	1325.26
492.908	1336.11
493.278	1348.76
493.648	1341.31
494.017	1380.18
494.387	1372.72
494.757	1381.76
495.126	1385.6
495.496	1403
495.866	1407.97
496.235	1418.59
496.605	1436.9
496.974	1470.79
497.344	1446.84
497.713	1469.21
498.082	1474.18
498.452	1467.63
498.821	1463.11
499.19	1499.49
499.559	1495.88
499.928	1499.04
500.298	1510.12
500.667	1521.87
501.036	1523.45
501.405	1558.02
501.774	1535.43
502.143	1570.68
502.512	1557.35
502.88	1574.29
503.249	1588.53
503.618	1598.93
503.987	1623.33
504.356	1605.25
504.724	1621.53
505.093	1601.64
505.462	1639.83
505.83	1633.05
506.199	1607.74
506.567	1693.84
506.936	1671.02
507.304	1676.21
507.672	1685.93
508.041	1699.94
508.409	1699.94
508.777	1696.33
509.145	1705.59
509.514	1695.2
509.882	1752.6
510.25	1751.92
510.618	1751.47
510.986	1747.62
511.354	1781.29
511.722	1768.87
512.09	1793.95
512.458	1765.7
512.826	1777.91
513.193	1798.24
513.561	1807.06
513.929	1806.61
514.297	1816.55
514.664	1838.24
515.032	1858.81
515.4	1847.28
515.767	1901.52
516.135	1867.39
516.502	1867.62
516.869	1899.48
517.237	1850.45
517.604	1899.26
517.972	1906.49
518.339	1904.23
518.706	1928.64
519.073	1918.92
519.44	1955.98
519.808	1937.68
520.175	1943.55
520.542	1961.18
520.909	1988.07
521.276	1985.58
521.643	1980.16
522.009	1987.39
522.376	2017.67
522.743	1986.26
523.11	2028.97
523.477	2064.9
523.843	2053.6
524.21	2048.63
524.577	2106.03
524.943	2082.3
525.31	2082.3
525.676	2104.22
526.043	2109.87
526.409	2118.24
526.776	2116.43
527.142	2159.59
527.508	2180.83
527.874	2172.47
528.241	2140.61
528.607	2179.02
528.973	2199.36
529.339	2189.65
529.705	2181.51
530.071	2202.07
530.437	2196.88
530.803	2192.13
531.169	2233.03
531.535	2228.29
531.901	2229.87
532.267	2232.81
532.632	2252.02
532.998	2218.8
533.364	2226.03
533.73	2233.94
534.095	2247.05
534.461	2254.95
534.826	2267.84
535.192	2278.68
535.557	2273.49
535.923	2279.59
536.288	2316.65
536.653	2305.8
537.019	2306.48
537.384	2278.01
537.749	2288.4
538.114	2302.64
538.479	2275.07
538.845	2289.76
539.21	2300.6
539.575	2303.32
539.94	2324.56
540.305	2329.53
540.67	2302.86
541.034	2326.82
541.399	2323.43
541.764	2291.79
542.129	2310.55
542.494	2352.35
542.858	2342.86
543.223	2337.44
543.587	2332.47
543.952	2333.37
544.316	2341.96
544.681	2339.02
545.045	2325.01
545.41	2324.11
545.774	2342.64
546.138	2357.55
546.503	2351.68
546.867	2344.22
547.231	2343.99
547.595	2368.4
547.959	2377.21
548.324	2375.4
548.688	2391.22
549.052	2375.4
549.416	2362.52
549.779	2413.59
550.143	2413.37
550.507	2419.7
550.871	2368.17
551.235	2393.26
551.599	2428.28
551.962	2426.93
552.326	2378.57
552.689	2417.66
553.053	2418.57
553.417	2427.15
553.78	2428.74
554.143	2416.08
554.507	2426.93
554.87	2454.72
555.234	2473.93
555.597	2463.54
555.96	2460.83
556.323	2446.59
556.686	2468.73
557.05	2465.34
557.413	2447.94
557.776	2465.57
558.139	2501.95
558.502	2478.68
558.865	2458.34
559.228	2500.82
559.59	2525.46
559.953	2496.53
560.316	2546.02
560.679	2554.16
561.041	2530.2
561.404	2536.98
561.767	2521.16
562.129	2523.87
562.492	2573.59
562.854	2547.38
563.217	2545.34
563.579	2573.82
563.941	2569.07
564.304	2565.46
564.666	2550.54
565.028	2605
565.39	2619.92
565.753	2600.93
566.115	2600.48
566.477	2635.74
566.839	2631.22
567.201	2660.82
567.563	2619.24
567.925	2657.2
568.287	2646.13
568.648	2645.45
569.01	2635.06
569.372	2650.2
569.734	2677.32
570.095	2675.51
570.457	2667.37
570.819	2699.91
571.18	2642.29
571.542	2701.5
571.903	2626.7
572.265	2672.57
572.626	2701.04
572.987	2695.17
573.349	2702.4
573.71	2699.24
574.071	2676.41
574.432	2680.93
574.794	2717.99
575.155	2685.23
575.516	2724.55
575.877	2712.34
576.238	2700.14
576.599	2684.1
576.96	2703.08
577.32	2717.99
577.681	2722.74
578.042	2692.46
578.403	2689.07
578.763	2675.51
579.124	2731.78
579.485	2696.98
579.845	2692.23
580.206	2661.5
580.566	2685.9
580.927	2669.41
581.287	2721.61
581.648	2688.62
582.008	2687.94
582.368	2645.91
582.728	2665.79
583.089	2683.42
583.449	2673.47
583.809	2645
584.169	2647.49
584.529	2643.19
584.889	2676.64
585.249	2675.73
585.609	2637.32
585.969	2622.4
586.329	2638.45
586.688	2654.04
587.048	2635.74
587.408	2664.44
587.768	2651.55
588.127	2625.11
588.487	2670.76
588.846	2667.6
589.206	2649.29
589.565	2626.7
589.925	2636.19
590.284	2612.01
590.643	2634.15
591.003	2605.91
591.362	2644.78
591.721	2627.15
592.08	2606.13
592.44	2613.14
592.799	2628.5
593.158	2611.56
593.517	2624.44
593.876	2656.98
594.235	2608.84
594.593	2633.48
594.952	2635.96
595.311	2597.09
595.67	2616.98
596.029	2665.34
596.387	2616.3
596.746	2586.7
597.104	2608.39
597.463	2615.17
597.822	2647.71
598.18	2592.12
598.538	2606.13
598.897	2610.88
599.255	2589.41
599.613	2647.71
599.972	2591.22
600.33	2618.11
600.688	2631.22
601.046	2654.72
601.404	2630.31
601.762	2607.26
602.12	2633.93
602.478	2606.81
602.836	2659.01
603.194	2652.01
603.552	2648.16
603.91	2626.7
604.268	2636.87
604.625	2647.03
604.983	2667.37
605.341	2619.24
605.698	2633.02
606.056	2677.77
606.413	2646.13
606.771	2677.09
607.128	2628.05
607.485	2644.78
607.843	2650.88
608.2	2647.26
608.557	2667.6
608.914	2691.1
609.272	2699.46
609.629	2688.62
609.986	2710.31
610.343	2671.89
610.7	2706.47
611.057	2706.69
611.414	2683.42
611.771	2720.93
612.127	2727.71
612.484	2726.35
612.841	2754.6
613.198	2726.58
613.554	2693.59
613.911	2727.48
614.267	2740.37
614.624	2746.24
614.98	2737.43
615.337	2725.68
615.693	2733.36
616.05	2725.9
616.406	2761.61
616.762	2741.95
617.118	2717.77
617.475	2727.26
617.831	2760.7
618.187	2755.51
618.543	2770.2
618.899	2777.2
619.255	2749.41
619.611	2745.11
619.967	2773.36
620.323	2750.99
620.678	2765.22
621.034	2762.96
621.39	2761.16
621.746	2732.46
622.101	2741.27
622.457	2737.2
622.812	2758.67
623.168	2793.7
623.523	2763.87
623.879	2764.32
624.234	2761.16
624.589	2748.73
624.945	2743.3
625.3	2767.71
625.655	2763.87
626.01	2756.64
626.365	2764.55
626.72	2749.41
627.075	2742.17
627.43	2754.38
627.785	2764.32
628.14	2734.94
628.495	2772.91
628.85	2717.99
629.205	2762.51
629.559	2753.02
629.914	2706.69
630.269	2741.04
630.623	2717.54
630.978	2731.55
631.332	2737.88
631.687	2772.91
632.041	2743.76
632.396	2739.01
632.75	2715.06
633.104	2752.12
633.459	2724.1
633.813	2688.84
634.167	2716.19
634.521	2762.29
634.875	2695.4
635.229	2653.14
635.583	2688.62
635.937	2696.3
636.291	2682.74
636.645	2697.43
636.999	2682.29
637.352	2694.94
637.706	2696.75
638.06	2718.22
638.413	2676.19
638.767	2699.91
639.121	2689.52
639.474	2686.13
639.828	2692.23
640.181	2713.7
640.534	2701.27
640.888	2721.84
641.241	2692.68
641.594	2683.19
641.947	2697.43
642.301	2689.29
642.654	2723.19
643.007	2698.78
643.36	2707.15
643.713	2724.32
644.066	2699.69
644.419	2690.2
644.771	2679.12
645.124	2697.66
645.477	2715.51
645.83	2645.45
646.182	2664.89
646.535	2657.88
646.888	2692.91
647.24	2642.06
647.593	2683.19
647.945	2663.98
648.298	2693.36
648.65	2637.77
649.002	2682.97
649.355	2717.09
649.707	2714.83
650.059	2720.93
650.411	2771.1
650.763	2790.76
651.115	2799.57
651.467	2791.89
651.819	2802.96
652.171	2806.35
652.523	2842.28
652.875	2795.51
653.227	2796.18
653.578	2825.79
653.93	2838.44
654.282	2818.1
654.633	2827.82
654.985	2862.4
655.337	2882.96
655.688	2872.57
656.039	2887.25
656.391	2917.54
656.742	2872.57
657.094	2912.11
657.445	2893.58
657.796	2920.93
658.147	2947.37
658.498	2937.2
658.849	2969.74
659.2	2929.51
659.551	2995.5
659.902	3020.81
660.253	2987.59
660.604	3036.4
660.955	3025.56
661.306	3050.87
661.656	3071.43
662.007	3060.36
662.358	3085.67
662.708	3059.68
663.059	3081.15
663.409	3106.68
663.76	3123.41
664.11	3120.02
664.461	3171.31
664.811	3174.93
665.161	3204.76
665.511	3178.09
665.862	3231.88
666.212	3216.29
666.562	3246.79
666.912	3271.43
667.262	3254.93
667.612	3307.36
667.962	3294.48
668.312	3321.59
668.662	3364.53
669.011	3329.05
669.361	3385.32
669.711	3420.8
670.06	3422.61
670.41	3393.68
670.76	3480.01
671.109	3464.87
671.459	3507.13
671.808	3503.51
672.157	3492.21
672.507	3481.82
672.856	3559.33
673.205	3581.25
673.554	3583.06
673.904	3596.84
674.253	3623.28
674.602	3677.74
674.951	3602.72
675.3	3619.21
675.649	3700.57
675.998	3767.23
676.346	3731.98
676.695	3763.62
677.044	3751.64
677.393	3818.76
677.741	3845.2
678.09	3822.82
678.438	3873.22
678.787	3929.94
679.135	3908.47
679.484	3907.11
679.832	3983.72
680.181	3978.98
680.529	4013.55
680.877	4025.08
681.225	4040.44
681.573	4107.79
681.922	4094.68
682.27	4087.68
682.618	4131.29
682.966	4162.93
683.314	4193.43
683.661	4181.46
684.009	4185.3
684.357	4199.31
684.705	4258.97
685.053	4279.99
685.4	4308.23
685.748	4321.34
686.095	4333.54
686.443	4361.57
686.79	4377.84
687.138	4413.32
687.485	4416.03
687.832	4438.63
688.18	4483.14
688.527	4467.78
688.874	4453.54
689.221	4501.22
689.568	4531.73
689.915	4518.85
690.262	4572.41
690.609	4547.55
690.956	4571.96
691.303	4600.88
691.65	4629.58
691.997	4621.22
692.344	4663.93
692.69	4713.65
693.037	4751.84
693.383	4699.41
693.73	4778.28
694.077	4764.95
694.423	4774.44
694.769	4829.35
695.116	4840.65
695.462	4820.31
695.808	4865.96
696.155	4896.69
696.501	4871.61
696.847	4897.37
697.193	4905.73
697.539	4949.12
697.885	4960.42
698.231	4908.22
698.577	4965.84
698.923	5032.96
699.269	5037.71
699.614	5009.91
699.96	5052.17
700.306	5033.41
700.651	5117.93
700.997	5101.89
701.342	5076.8
701.688	5137.82
702.033	5130.59
702.379	5154.09
702.724	5175.1
703.069	5193.18
703.415	5159.96
703.76	5205.16
704.105	5225.72
704.45	5288.1
704.795	5238.15
705.14	5296.68
705.485	5301.65
705.83	5291.71
706.175	5299.62
706.52	5373.97
706.865	5303.01
707.209	5360.86
707.554	5379.84
707.899	5444.48
708.243	5423.46
708.588	5438.37
708.932	5404.93
709.277	5398.6
709.621	5475.66
709.966	5470.46
710.31	5508.2
710.654	5489.22
710.998	5486.73
711.342	5538.48
711.687	5534.19
712.031	5543
712.375	5548.2
712.719	5556.34
713.063	5581.2
713.407	5582.78
713.75	5624.81
714.094	5612.38
714.438	5615.09
714.782	5634.3
715.125	5625.04
715.469	5656.22
715.812	5662.77
716.156	5604.47
716.499	5700.29
716.843	5723.56
717.186	5674.53
717.53	5718.59
717.873	5693.96
718.216	5767.4
718.559	5716.78
718.902	5714.98
719.246	5741.42
719.589	5714.75
719.932	5764.02
720.275	5774.18
720.617	5768.99
720.96	5751.36
721.303	5778.93
721.646	5781.87
721.989	5779.83
722.331	5785.03
722.674	5780.06
723.016	5823.45
723.359	5811.7
723.701	5835.88
724.044	5861.64
724.386	5777.12
724.729	5802.21
725.071	5834.52
725.413	5876.1
725.755	5858.02
726.097	5852.83
726.439	5872.03
726.782	5888.31
727.124	5845.82
727.465	5872.94
727.807	5852.15
728.149	5906.16
728.491	5885.37
728.833	5872.03
729.175	5889.21
729.516	5883.11
729.858	5862.09
730.199	5884.46
730.541	5886.95
730.882	5832.04
731.224	5902.32
731.565	5881.53
731.906	5851.7
732.248	5898.7
732.589	5804.92
732.93	5813.96
733.271	5922.2
733.612	5910
733.953	5883.56
734.294	5838.82
734.635	5905.93
734.976	5857.8
735.317	5885.82
735.658	5856.67
735.999	5877.91
736.339	5857.35
736.68	5906.84
737.021	5871.81
737.361	5855.99
737.702	5874.75
738.042	5863
738.383	5840.85
738.723	5895.09
739.063	5852.37
739.404	5867.97
739.744	5901.64
740.084	5846.72
740.424	5798.82
740.764	5862.32
741.104	5916.78
741.444	5774.18
741.784	5792.04
742.124	5838.82
742.464	5822.54
742.804	5867.74
743.143	5839.27
743.483	5773.51
743.823	5803.56
744.162	5817.57
744.502	5820.96
744.841	5789.55
745.181	5792.71
745.52	5770.34
745.86	5749.55
746.199	5769.21
746.538	5715.65
746.877	5795.88
747.216	5763.11
747.556	5713.39
747.895	5777.35
748.234	5749.33
748.573	5754.3
748.911	5756.78
749.25	5711.59
749.589	5720.17
749.928	5710.46
750.267	5689.89
750.605	5738.93
750.944	5691.25
751.283	5642.21
751.621	5658.48
751.96	5622.78
752.298	5685.6
752.636	5634.53
752.975	5671.14
753.313	5632.04
753.651	5627.75
753.989	5549.56
754.327	5610.8
754.666	5540.74
755.004	5562.66
755.342	5563.12
755.679	5558.37
756.017	5546.17
756.355	5545.26
756.693	5535.77
757.031	5499.62
757.368	5498.71
757.706	5447.87
758.044	5479.28
758.381	5449.45
758.719	5447.64
759.056	5447.87
759.394	5419.17
759.731	5396.79
760.068	5418.04
760.405	5374.65
760.743	5367.64
761.08	5348.88
761.417	5355.21
761.754	5372.39
762.091	5318.38
762.428	5324.48
762.765	5265.05
763.102	5324.03
763.438	5260.98
763.775	5249.23
764.112	5253.52
764.449	5218.27
764.785	5191.6
765.122	5209.91
765.458	5181.66
765.795	5167.65
766.131	5116.35
766.467	5083.36
766.804	5131.94
767.14	5114.99
767.476	5132.85
767.812	5105.5
768.148	5119.96
768.485	5033.86
768.821	5055.11
769.157	5008.78
769.492	5036.8
769.828	4977.82
770.164	4980.76
770.5	4961.78
770.836	4931.04
771.171	4919.07
771.507	4909.57
771.842	4921.1
772.178	4911.61
