Data from carpet_green_FLMS001491_00044.txt Node
Date: Wed Feb 08 10:35:25 GMT 2017
User: dcchb
Spectrometer: FLMS00149
Trigger mode: 0
Integration Time (sec): 2.000000E-2
Scans to average: 10
Electric dark correction enabled: true
Nonlinearity correction enabled: false
Boxcar width: 0
XAxis mode: Wavelengths
Number of Pixels in Spectrum: 2048
>>>>>Begin Spectral Data<<<<<
341.393	-13.08
341.776	-13.08
342.16	-13.08
342.543	-59.18
342.927	-73.42
343.31	-75.68
343.693	-52.4
344.077	-65.51
344.46	-65.05
344.843	-35.9
345.226	-42.46
345.61	-46.98
345.993	-11.04
346.376	-8.11
346.759	12.91
347.142	29.41
347.525	50.87
347.908	50.65
348.291	69.4
348.674	85.45
349.057	104.43
349.44	121.16
349.823	145.11
350.206	160.7
350.588	162.51
350.971	176.97
351.354	188.95
351.737	226.46
352.119	209.51
352.502	239.57
352.884	235.95
353.267	267.59
353.65	252.9
354.032	265.56
354.414	271.43
354.797	281.83
355.179	302.85
355.562	298.33
355.944	284.77
356.326	293.35
356.709	298.78
357.091	308.27
357.473	321.15
357.855	305.1
358.238	314.37
358.62	300.59
359.002	292.9
359.384	322.73
359.766	327.25
360.148	327.7
360.53	338.32
360.912	308.95
361.294	285.44
361.676	298.33
362.057	298.33
362.439	301.04
362.821	282.96
363.203	297.2
363.584	292.9
363.966	294.71
364.348	297.87
364.729	284.54
365.111	286.8
365.493	268.72
365.874	291.55
366.256	270.53
366.637	285.22
367.019	267.59
367.4	297.2
367.781	273.92
368.163	270.53
368.544	280.47
368.925	274.37
369.306	275.28
369.688	263.52
370.069	285.22
370.45	278.44
370.831	271.66
371.212	260.59
371.593	284.77
371.974	272.34
372.355	290.87
372.736	267.14
373.117	270.3
373.498	299.68
373.879	273.47
374.26	278.89
374.641	278.21
375.021	287.48
375.402	279.57
375.783	290.87
376.163	303.07
376.544	284.31
376.925	270.08
377.305	288.61
377.686	291.55
378.066	277.99
378.447	287.7
378.827	295.84
379.208	290.42
379.588	291.55
379.968	296.29
380.349	295.16
380.729	275.95
381.109	299.46
381.489	286.57
381.87	286.12
382.25	298.1
382.63	277.76
383.01	268.5
383.39	317.53
383.77	293.81
384.15	291.32
384.53	298.33
384.91	299.68
385.29	287.7
385.67	289.06
386.049	288.16
386.429	289.74
386.809	295.39
387.189	297.42
387.568	284.31
387.948	301.94
388.328	293.58
388.707	305.56
389.087	280.7
389.466	293.58
389.846	299
390.225	296.52
390.605	297.2
390.984	308.27
391.363	315.73
391.743	314.37
392.122	287.03
392.501	311.43
392.881	317.76
393.26	276.41
393.639	302.17
394.018	293.81
394.397	308.72
394.776	300.13
395.155	319.79
395.534	287.03
395.913	282.28
396.292	300.59
396.671	314.6
397.05	305.33
397.429	303.98
397.808	307.59
398.186	305.56
398.565	336.06
398.944	288.61
399.323	320.47
399.701	313.24
400.08	316.18
400.458	303.98
400.837	320.02
401.215	318.66
401.594	331.32
401.972	310.98
402.351	315.73
402.729	316.86
403.107	311.88
403.486	322.28
403.864	302.17
404.242	310.53
404.62	315.05
404.999	306.23
405.377	311.66
405.755	298.33
406.133	313.24
406.511	309.62
406.889	320.25
407.267	314.82
407.645	292.22
408.023	293.81
408.401	312.56
408.779	304.65
409.156	315.73
409.534	326.8
409.912	306.91
410.29	321.15
410.667	314.6
411.045	304.88
411.422	326.12
411.8	333.58
412.178	313.24
412.555	349.17
412.933	325.22
413.31	302.62
413.687	318.66
414.065	329.74
414.442	317.31
414.819	329.51
415.197	311.43
415.574	332.67
415.951	327.25
416.328	322.73
416.705	331.54
417.082	329.06
417.46	318.21
417.837	322.73
418.214	336.52
418.591	338.78
418.967	334.71
419.344	317.31
419.721	347.82
420.098	348.27
420.475	325.9
420.852	344.65
421.228	332.22
421.605	350.3
421.982	352.56
422.358	342.39
422.735	354.37
423.111	327.03
423.488	336.29
423.864	328.83
424.241	365.89
424.617	346.46
424.994	359.34
425.37	346.01
425.746	315.73
426.123	352.11
426.499	313.24
426.875	327.25
427.251	338.1
427.627	351.66
428.003	368.15
428.379	352.34
428.756	342.39
429.132	357.76
429.507	351.21
429.883	363.63
430.259	346.23
430.635	338.1
431.011	349.17
431.387	344.43
431.763	354.82
432.138	366.12
432.514	369.96
432.89	345.78
433.265	369.28
433.641	382.17
434.016	350.98
434.392	350.53
434.767	363.86
435.143	363.86
435.518	365.44
435.894	340.58
436.269	342.62
436.644	354.37
437.02	367.02
437.395	361.83
437.77	364.31
438.145	354.14
438.52	376.97
438.895	379.45
439.271	372.67
439.646	366.8
440.021	379.91
440.395	381.49
440.77	387.81
441.145	387.59
441.52	376.29
441.895	379
442.27	375.16
442.645	381.94
443.019	363.86
443.394	384.2
443.769	380.36
444.143	398.21
444.518	379.45
444.892	398.21
445.267	379.23
445.641	395.95
446.016	388.49
446.39	380.13
446.764	381.94
447.139	396.85
447.513	388.04
447.887	398.21
448.262	415.16
448.636	410.41
449.01	408.61
449.384	393.46
449.758	376.97
450.132	383.3
450.506	406.8
450.88	409.06
451.254	397.76
451.628	425.1
452.002	394.59
452.376	401.15
452.75	405.44
453.123	431.2
453.497	411.99
453.871	428.49
454.244	410.41
454.618	418.77
454.992	421.49
455.365	395.95
455.739	431.66
456.112	426.01
456.486	410.41
456.859	423.52
457.232	435.5
457.606	440.47
457.979	442.28
458.352	427.36
458.725	423.07
459.099	442.73
459.472	432.79
459.845	440.69
460.218	463.07
460.591	456.97
460.964	425.78
461.337	463.97
461.71	463.52
462.083	470.3
462.456	450.86
462.829	473.91
463.201	451.99
463.574	463.07
463.947	461.03
464.32	473.01
464.692	484.31
465.065	468.94
465.438	453.12
465.81	496.74
466.183	497.64
466.555	480.24
466.928	472.33
467.3	494.25
467.672	484.76
468.045	479.34
468.417	492.9
468.789	478.21
469.161	494.7
469.534	506.46
469.906	529.28
470.278	500.35
470.65	493.35
471.022	515.04
471.394	481.82
471.766	498.77
472.138	531.99
472.51	532.9
472.882	537.19
473.253	527.02
473.625	519.56
473.997	551.43
474.369	537.87
474.74	552.1
475.112	553.01
475.484	546.45
475.855	557.53
476.227	572.67
476.598	588.26
476.97	541.03
477.341	592.78
477.713	575.61
478.084	587.81
478.455	572.67
478.827	610.41
479.198	614.7
479.569	609.96
479.94	611.76
480.311	630.97
480.682	636.62
481.053	622.61
481.424	642.05
481.795	640.46
482.166	667.58
482.537	637.07
482.908	656.51
483.279	681.14
483.65	680.46
484.021	693.57
484.391	700.12
484.762	680.24
485.133	695.15
485.503	704.19
485.874	722.5
486.244	727.24
486.615	704.64
486.985	723.85
487.356	739.9
487.726	731.76
488.097	742.38
488.467	764.53
488.837	779.89
489.207	783.96
489.578	767.01
489.948	783.74
490.318	800.46
490.688	808.37
491.058	790.97
491.428	787.13
491.798	792.1
492.168	799.78
492.538	829.16
492.908	829.84
493.278	837.52
493.648	835.49
494.017	859.67
494.387	831.87
494.757	865.77
495.126	859.89
495.496	875.71
495.866	889.72
496.235	866.67
496.605	871.42
496.974	883.17
497.344	898.76
497.713	908.48
498.082	922.94
498.452	924.75
498.821	894.47
499.19	908.7
499.559	927.91
499.928	920.91
500.298	898.08
500.667	927.69
501.036	923.85
501.405	924.3
501.774	927.69
502.143	937.63
502.512	953.68
502.88	934.92
503.249	947.8
503.618	948.93
503.987	978.31
504.356	967.91
504.724	957.29
505.093	951.42
505.462	968.36
505.83	959.78
506.199	989.61
506.567	990.28
506.936	960.23
507.304	990.74
507.672	992.32
508.041	981.25
508.409	981.7
508.777	1014.24
509.145	1023.73
509.514	997.74
509.882	1019.44
510.25	992.54
510.618	1002.71
510.986	1009.95
511.354	1027.35
511.722	1028.7
512.09	1039.32
512.458	1039.1
512.826	1038.65
513.193	1040.9
513.561	1014.01
513.929	1051.75
514.297	1025.09
514.664	1040.45
515.032	1046.55
515.4	1039.1
515.767	1061.24
516.135	1066.67
516.502	1063.73
516.869	1066.21
517.237	1073.22
517.604	1105.99
517.972	1084.75
518.339	1084.07
518.706	1075.93
519.073	1086.78
519.44	1105.31
519.808	1121.35
520.175	1096.72
520.542	1127.91
520.909	1127
521.276	1125.87
521.643	1113.67
522.009	1119.77
522.376	1117.06
522.743	1106.44
523.11	1134.46
523.477	1136.04
523.843	1158.64
524.21	1126.78
524.577	1175.14
524.943	1160.45
525.31	1156.16
525.676	1172.43
526.043	1164.07
526.409	1164.97
526.776	1162.94
527.142	1147.12
527.508	1176.72
527.874	1199.54
528.241	1150.51
528.607	1202.03
528.973	1197.28
529.339	1177.4
529.705	1195.03
530.071	1219.66
530.437	1181.01
530.803	1217.4
531.169	1204.06
531.535	1195.25
531.901	1205.42
532.267	1201.58
532.632	1199.09
532.998	1221.47
533.364	1196.15
533.73	1250.84
534.095	1195.7
534.461	1231.63
534.826	1235.93
535.192	1214.91
535.557	1227.34
535.923	1218.3
536.288	1246.1
536.653	1249.94
537.019	1208.36
537.384	1258.3
537.749	1234.35
538.114	1217.62
538.479	1249.49
538.845	1238.41
539.21	1246.1
539.575	1237.96
539.94	1228.47
540.305	1218.08
540.67	1250.16
541.034	1228.47
541.399	1246.78
541.764	1232.99
542.129	1254.46
542.494	1221.24
542.858	1254.46
543.223	1211.3
543.587	1228.02
543.952	1249.03
544.316	1258.07
544.681	1208.36
545.045	1239.09
545.41	1233.22
545.774	1256.94
546.138	1264.63
546.503	1241.58
546.867	1235.93
547.231	1241.35
547.595	1234.35
547.959	1244.06
548.324	1270.73
548.688	1237.74
549.052	1244.06
549.416	1242.48
549.779	1222.82
550.143	1239.77
550.507	1268.24
550.871	1291.29
551.235	1267.79
551.599	1271.63
551.962	1277.96
552.326	1258.75
552.689	1266.44
553.053	1254.46
553.417	1268.47
553.78	1283.16
554.143	1256.04
554.507	1253.33
554.87	1277.28
555.234	1258.3
555.597	1273.44
555.96	1265.76
556.323	1284.29
556.686	1267.79
557.05	1286.1
557.413	1275.93
557.776	1268.02
558.139	1271.41
558.502	1282.48
558.865	1274.57
559.228	1297.85
559.59	1291.75
559.953	1307.11
560.316	1310.5
560.679	1284.97
561.041	1310.5
561.404	1308.02
561.767	1341.69
562.129	1325.19
562.492	1320.67
562.854	1299.2
563.217	1296.04
563.579	1324.74
563.941	1321.58
564.304	1327
564.666	1331.07
565.028	1334.46
565.39	1355.02
565.753	1362.7
566.115	1319.77
566.477	1320.22
566.839	1335.59
567.201	1341.46
567.563	1348.24
567.925	1338.07
568.287	1353.44
568.648	1336.72
569.01	1349.15
569.372	1339.2
569.734	1364.06
570.095	1364.06
570.457	1343.95
570.819	1329.03
571.18	1356.83
571.542	1336.26
571.903	1374.46
572.265	1337.39
572.626	1347.56
572.987	1359.09
573.349	1347.11
573.71	1345.76
574.071	1353.21
574.432	1354.79
574.794	1373.78
575.155	1373.33
575.516	1356.6
575.877	1346.43
576.238	1350.95
576.599	1330.16
576.96	1341.91
577.32	1345.08
577.681	1367.22
578.042	1355.7
578.403	1348.24
578.763	1325.64
579.124	1341.24
579.485	1334.91
579.845	1354.57
580.206	1348.47
580.566	1356.6
580.927	1362.93
581.287	1327.45
581.648	1343.04
582.008	1324.97
582.368	1331.29
582.728	1333.1
583.089	1327
583.449	1346.21
583.809	1351.41
584.169	1353.66
584.529	1323.84
584.889	1348.47
585.249	1345.3
585.609	1319.54
585.969	1351.41
586.329	1317.28
586.688	1348.47
587.048	1317.28
587.408	1317.96
587.768	1318.64
588.127	1318.64
588.487	1328.13
588.846	1302.14
589.206	1309.82
589.565	1315.02
589.925	1318.19
590.284	1279.54
590.643	1310.5
591.003	1332.42
591.362	1324.06
591.721	1302.59
592.08	1305.98
592.44	1326.55
592.799	1313.89
593.158	1295.81
593.517	1313.44
593.876	1313.89
594.235	1309.15
594.593	1322.71
594.952	1318.86
595.311	1300.33
595.67	1297.4
596.029	1309.15
596.387	1318.86
596.746	1310.73
597.104	1297.62
597.463	1320.45
597.822	1319.32
598.18	1320.9
598.538	1295.59
598.897	1312.54
599.255	1303.95
599.613	1312.99
599.972	1285.87
600.33	1299.43
600.688	1314.57
601.046	1290.39
601.404	1311.86
601.762	1313.21
602.12	1317.06
602.478	1308.92
602.836	1300.56
603.194	1305.3
603.552	1343.5
603.91	1281.35
604.268	1338.07
604.625	1296.27
604.983	1312.99
605.341	1304.4
605.698	1322.25
606.056	1325.19
606.413	1312.31
606.771	1343.95
607.128	1329.26
607.485	1342.82
607.843	1299.66
608.2	1319.99
608.557	1311.18
608.914	1326.32
609.272	1348.24
609.629	1329.94
609.986	1346.66
610.343	1308.47
610.7	1355.7
611.057	1327.68
611.414	1346.43
611.771	1332.87
612.127	1345.08
612.484	1353.66
612.841	1339.43
613.198	1371.74
613.554	1369.94
613.911	1329.48
614.267	1356.83
614.624	1378.3
614.98	1381.46
615.337	1356.38
615.693	1357.96
616.05	1354.12
616.406	1338.07
616.762	1339.88
617.118	1369.94
617.475	1354.12
617.831	1362.93
618.187	1376.04
618.543	1371.07
618.899	1364.74
619.255	1350.28
619.611	1347.34
619.967	1367.68
620.323	1364.74
620.678	1374.91
621.034	1347.56
621.39	1369.26
621.746	1359.77
622.101	1347.56
622.457	1334.68
622.812	1357.51
623.168	1362.93
623.523	1361.12
623.879	1387.11
624.234	1344.63
624.589	1343.04
624.945	1344.4
625.3	1364.06
625.655	1339.43
626.01	1357.28
626.365	1388.01
626.72	1366.55
627.075	1345.3
627.43	1351.41
627.785	1353.66
628.14	1350.28
628.495	1349.82
628.85	1322.93
629.205	1350.73
629.559	1345.53
629.914	1341.69
630.269	1340.56
630.623	1324.51
630.978	1327.68
631.332	1342.37
631.687	1322.03
632.041	1361.8
632.396	1349.82
632.75	1332.42
633.104	1357.05
633.459	1306.43
633.813	1331.52
634.167	1341.24
634.521	1352.54
634.875	1363.16
635.229	1361.57
635.583	1330.61
635.937	1308.24
636.291	1326.1
636.645	1309.6
636.999	1331.74
637.352	1338.3
637.706	1340.11
638.06	1338.75
638.413	1335.59
638.767	1341.24
639.121	1322.71
639.474	1305.3
639.828	1339.65
640.181	1325.19
640.534	1361.57
640.888	1322.48
641.241	1324.51
641.594	1315.47
641.947	1330.84
642.301	1323.61
642.654	1351.18
643.007	1382.82
643.36	1328.35
643.713	1321.58
644.066	1349.6
644.419	1321.12
644.771	1313.21
645.124	1326.32
645.477	1304.85
645.83	1314.8
646.182	1289.71
646.535	1327.9
646.888	1321.58
647.24	1320.45
647.593	1357.73
647.945	1318.86
648.298	1327.9
648.65	1282.48
649.002	1345.53
649.355	1358.41
649.707	1338.3
650.059	1324.97
650.411	1363.38
650.763	1376.04
651.115	1358.18
651.467	1392.08
651.819	1359.09
652.171	1401.35
652.523	1384.85
652.875	1381.23
653.227	1410.84
653.578	1366.77
653.93	1380.1
654.282	1387.34
654.633	1432.08
654.985	1403.61
655.337	1415.81
655.688	1423.49
656.039	1433.21
656.391	1418.75
656.742	1447
657.094	1413.78
657.445	1461.23
657.796	1465.3
658.147	1446.09
658.498	1448.58
658.849	1458.07
659.2	1457.62
659.551	1485.64
659.902	1470.72
660.253	1504.4
660.604	1494.45
660.955	1512.98
661.306	1494
661.656	1490.16
662.007	1531.06
662.358	1540.78
662.708	1531.51
663.059	1532.87
663.409	1508.46
663.76	1567.44
664.11	1570.16
664.461	1578.52
664.811	1596.14
665.161	1611.96
665.511	1595.92
665.862	1600.89
666.212	1611.06
666.562	1594.79
666.912	1645.63
667.262	1634.56
667.612	1648.12
667.962	1635.69
668.312	1660.1
668.662	1681.34
669.011	1684.73
669.361	1677.72
669.711	1710.49
670.06	1706.2
670.41	1730.15
670.76	1749.36
671.109	1751.39
671.459	1741.45
671.808	1775.35
672.157	1768.34
672.507	1797.95
672.856	1801.11
673.205	1796.14
673.554	1809.25
673.904	1820.32
674.253	1835.91
674.602	1851.05
674.951	1837.95
675.3	1832.07
675.649	1877.72
675.998	1896.48
676.346	1897.38
676.695	1919.98
677.044	1920.2
677.393	1971.95
677.741	1939.86
678.09	1964.5
678.438	1933.31
678.787	2012.86
679.135	2008.79
679.484	2033.87
679.832	2008.56
680.181	2035.45
680.529	2030.94
680.877	2085.4
681.225	2095.11
681.573	2107.09
681.922	2049.01
682.27	2126.07
682.618	2129.01
682.966	2150.48
683.314	2156.13
683.661	2166.3
684.009	2204.72
684.357	2169.46
684.705	2212.4
685.053	2221.66
685.4	2236.13
685.748	2265.96
686.095	2269.8
686.443	2282.91
686.79	2286.75
687.138	2318.16
687.485	2334.43
687.832	2313.87
688.18	2361.1
688.527	2363.13
688.874	2357.25
689.221	2375.11
689.568	2370.14
689.915	2422.11
690.262	2461.43
690.609	2442.9
690.956	2446.97
691.303	2442
691.65	2464.82
691.997	2500.3
692.344	2508.66
692.69	2508.44
693.037	2546.85
693.383	2505.73
693.73	2561.32
694.077	2572.62
694.423	2549.34
694.769	2598.6
695.116	2617.13
695.462	2607.19
695.808	2630.69
696.155	2644.93
696.501	2634.76
696.847	2644.7
697.193	2648.09
697.539	2678.38
697.885	2676.79
698.231	2666.4
698.577	2737.36
698.923	2758.15
699.269	2761.99
699.614	2769.9
699.96	2755.66
700.306	2793.18
700.651	2814.19
700.997	2837.47
701.342	2798.37
701.688	2825.94
702.033	2851.48
702.379	2841.08
702.724	2858.26
703.069	2891.93
703.415	2891.93
703.76	2904.36
704.105	2917.69
704.45	2942.55
704.795	2902.78
705.14	2931.02
705.485	2944.81
705.83	2928.31
706.175	2952.72
706.52	2976.45
706.865	3000.18
707.209	3006.28
707.554	2981.19
707.899	3023.9
708.243	3050.57
708.588	3039.72
708.932	3063.45
709.277	3063.68
709.621	3096.67
709.966	3120.4
710.31	3100.96
710.654	3102.32
710.998	3127.18
711.342	3157.23
711.687	3137.8
712.031	3122.88
712.375	3138.02
712.719	3133.51
713.063	3127.4
713.407	3198.59
713.75	3184.35
714.094	3226.84
714.438	3234.52
714.782	3191.36
715.125	3205.37
715.469	3241.52
715.812	3274.29
716.156	3232.49
716.499	3242.43
716.843	3276.1
717.186	3212.37
717.53	3228.19
717.873	3279.49
718.216	3294.4
718.559	3266.61
718.902	3274.07
719.246	3290.34
719.589	3302.99
719.932	3295.76
720.275	3325.59
720.617	3316.33
720.96	3345.25
721.303	3343.22
721.646	3328.53
721.989	3367.62
722.331	3352.26
722.674	3343.67
723.016	3361.75
723.359	3368.53
723.701	3351.58
724.044	3409.43
724.386	3347.96
724.729	3391.58
725.071	3352.71
725.413	3382.54
725.755	3413.27
726.097	3384.12
726.439	3355.19
726.782	3356.55
727.124	3418.24
727.465	3401.75
727.807	3386.38
728.149	3364.01
728.491	3395.65
728.833	3444.23
729.175	3391.35
729.516	3419.6
729.858	3404.46
730.199	3393.84
730.541	3407.62
730.882	3437
731.224	3469.77
731.565	3385.7
731.906	3386.61
732.248	3456.66
732.589	3442.65
732.93	3423.22
733.271	3398.13
733.612	3439.03
733.953	3452.14
734.294	3454.4
734.635	3426.83
734.976	3419.83
735.317	3426.6
735.658	3422.99
735.999	3426.38
736.339	3415.31
736.68	3408.3
737.021	3448.75
737.361	3413.5
737.702	3440.84
738.042	3415.53
738.383	3404.01
738.723	3460.05
739.063	3445.36
739.404	3451.69
739.744	3427.06
740.084	3391.8
740.424	3462.76
740.764	3422.76
741.104	3468.19
741.444	3416.21
741.784	3397.45
742.124	3445.59
742.464	3472.48
742.804	3401.52
743.143	3411.01
743.483	3423.67
743.823	3437.45
744.162	3396.55
744.502	3422.31
744.841	3412.59
745.181	3422.99
745.52	3371.69
745.86	3398.13
746.199	3374.4
746.538	3407.17
746.877	3383.89
747.216	3429.77
747.556	3382.99
747.895	3395.65
748.234	3369.43
748.573	3381.86
748.911	3363.78
749.25	3393.16
749.589	3390
749.928	3336.44
750.267	3375.98
750.605	3340.96
750.944	3341.18
751.283	3322.43
751.621	3329.43
751.96	3318.59
752.298	3317.68
752.636	3326.04
752.975	3301.41
753.313	3314.07
753.651	3306.61
753.989	3316.1
754.327	3260.96
754.666	3284.46
755.004	3302.09
755.342	3318.13
755.679	3295.31
756.017	3240.17
756.355	3262.32
756.693	3256.44
757.031	3285.59
757.368	3221.19
757.706	3250.34
758.044	3227.06
758.381	3229.77
758.719	3216.67
759.056	3229.77
759.394	3198.36
759.731	3206.27
760.068	3202.2
760.405	3175.76
760.743	3181.64
761.08	3169.44
761.417	3168.76
761.754	3154.75
762.091	3167.63
762.428	3153.62
762.765	3123.56
763.102	3153.62
763.438	3116.56
763.775	3128.08
764.112	3144.58
764.449	3116.78
764.785	3049.67
765.122	3075.2
765.458	3067.07
765.795	3070.91
766.131	3054.86
766.467	3069.55
766.804	3011.93
767.14	3039.72
767.476	3018.48
767.812	3001.31
768.148	3017.8
768.485	3042.66
768.821	2953.17
769.157	2984.81
769.492	2992.72
769.828	2945.94
770.164	2919.05
770.5	2968.31
770.836	2939.84
771.171	2939.84
771.507	2951.59
771.842	2925.15
772.178	2895.32
772.513	2936.9
772.849	2883.79
773.184	2876.56
773.519	2869.33
773.855	2849.67
774.19	2864.13
