Data from carpet_green_FLMS001491_00056.txt Node
Date: Wed Feb 08 10:35:33 GMT 2017
User: dcchb
Spectrometer: FLMS00149
Trigger mode: 0
Integration Time (sec): 2.000000E-2
Scans to average: 10
Electric dark correction enabled: true
Nonlinearity correction enabled: false
Boxcar width: 0
XAxis mode: Wavelengths
Number of Pixels in Spectrum: 2048
>>>>>Begin Spectral Data<<<<<
341.393	-19.39
341.776	-19.39
342.16	-19.39
342.543	-48.54
342.927	-63.68
343.31	-66.17
343.693	-83.8
344.077	-60.52
344.46	-57.81
344.843	-50.58
345.226	-40.86
345.61	-9.9
345.993	-31.6
346.376	-2.22
346.759	18.35
347.142	23.09
347.525	43.43
347.908	64
348.291	70.77
348.674	90.44
349.057	93.37
349.44	136.54
349.823	145.8
350.206	148.97
350.588	167.95
350.971	187.16
351.354	191.9
351.737	206.59
352.119	207.72
352.502	217.21
352.884	244.1
353.267	259.02
353.65	269.41
354.032	262.41
354.414	256.98
354.797	284.33
355.179	309.19
355.562	281.39
355.944	288.62
356.326	302.18
356.709	290.2
357.091	312.12
357.473	310.77
357.855	289.75
358.238	303.76
358.62	310.32
359.002	315.51
359.384	310.54
359.766	324.78
360.148	302.86
360.53	296.98
360.912	293.14
361.294	327.49
361.676	286.14
362.057	306.02
362.439	314.16
362.821	282.97
363.203	295.4
363.584	295.63
363.966	277.32
364.348	296.08
364.729	295.18
365.111	267.61
365.493	309.41
365.874	292.24
366.256	274.61
366.637	297.44
367.019	279.58
367.4	269.64
367.781	287.72
368.163	266.93
368.544	280.04
368.925	276.42
369.306	279.13
369.688	310.09
370.069	277.78
370.45	277.55
370.831	300.15
371.212	265.57
371.593	278.91
371.974	275.06
372.355	288.4
372.736	282.97
373.117	295.85
373.498	260.37
373.879	272.58
374.26	282.07
374.641	281.16
375.021	268.96
375.402	282.75
375.783	295.4
376.163	281.62
376.544	287.72
376.925	281.39
377.305	287.72
377.686	283.2
378.066	281.62
378.447	280.49
378.827	264.44
379.208	278.68
379.588	301.28
379.968	291.79
380.349	292.01
380.729	284.78
381.109	283.65
381.489	278.68
381.87	289.98
382.25	291.33
382.63	293.37
383.01	290.88
383.39	309.41
383.77	288.85
384.15	291.11
384.53	288.62
384.91	299.47
385.29	291.33
385.67	291.56
386.049	299.47
386.429	284.33
386.809	301.28
387.189	296.53
387.568	309.64
387.948	292.69
388.328	307.38
388.707	291.11
389.087	296.08
389.466	312.58
389.846	284.33
390.225	290.66
390.605	304.44
390.984	327.27
391.363	309.86
391.743	281.84
392.122	314.38
392.501	285.23
392.881	295.85
393.26	294.27
393.639	307.38
394.018	301.5
394.397	326.14
394.776	302.86
395.155	285.23
395.534	299.24
395.913	327.04
396.292	313.93
396.671	285.91
397.05	316.19
397.429	310.09
397.808	307.83
398.186	308.51
398.565	297.21
398.944	305.8
399.323	301.73
399.701	296.08
400.08	330.66
400.458	307.38
400.837	307.83
401.215	301.73
401.594	320.03
401.972	315.29
402.351	314.16
402.729	309.64
403.107	313.03
403.486	323.88
403.864	320.49
404.242	309.19
404.62	311.9
404.999	303.31
405.377	304.89
405.755	319.13
406.133	313.71
406.511	303.54
406.889	316.42
407.267	313.71
407.645	314.84
408.023	312.35
408.401	325.68
408.779	324.1
409.156	325.68
409.534	329.75
409.912	303.09
410.29	310.99
410.667	304.22
411.045	316.64
411.422	300.83
411.8	304.22
412.178	343.76
412.555	325.91
412.933	326.81
413.31	308.51
413.687	320.94
414.065	334.27
414.442	339.24
414.819	318
415.197	330.66
415.574	330.66
415.951	321.62
416.328	325.68
416.705	333.14
417.082	328.62
417.46	328.17
417.837	322.97
418.214	335.85
418.591	327.72
418.967	326.36
419.344	329.75
419.721	318.23
420.098	320.71
420.475	326.59
420.852	342.63
421.228	329.75
421.605	328.85
421.982	322.97
422.358	345.34
422.735	328.85
423.111	321.84
423.488	334.72
423.864	328.85
424.241	369.98
424.617	336.98
424.994	327.27
425.37	331.79
425.746	345.8
426.123	343.99
426.499	332.01
426.875	341.05
427.251	350.77
427.627	321.39
428.003	323.88
428.379	325.46
428.756	333.82
429.132	356.42
429.507	336.53
429.883	336.98
430.259	343.54
430.635	346.7
431.011	350.99
431.387	329.53
431.763	353.93
432.138	345.12
432.514	341.28
432.89	324.78
433.265	352.12
433.641	365.23
434.016	345.34
434.392	315.29
434.767	327.72
435.143	361.61
435.518	360.03
435.894	344.89
436.269	377.21
436.644	362.29
437.02	371.11
437.395	348.73
437.77	366.59
438.145	380.37
438.52	338.11
438.895	351.67
439.271	366.36
439.646	374.5
440.021	355.97
440.395	360.48
440.77	356.42
441.145	397.77
441.52	358.9
441.895	371.33
442.27	361.16
442.645	357.1
443.019	377.66
443.394	362.29
443.769	340.15
444.143	377.66
444.518	377.89
444.892	359.13
445.267	388.05
445.641	380.37
446.016	370.2
446.39	393.25
446.764	402.74
447.139	380.82
447.513	352.35
447.887	367.04
448.262	355.74
448.636	393.48
449.01	369.52
449.384	388.28
449.758	385.12
450.132	389.41
450.506	382.63
450.88	397.55
451.254	376.76
451.628	380.6
452.002	386.47
452.376	390.31
452.75	390.09
453.123	384.44
453.497	405.23
453.871	376.98
454.244	375.17
454.618	402.74
454.992	394.61
455.365	388.73
455.739	393.25
456.112	415.17
456.486	428.05
456.859	404.33
457.232	394.61
457.606	392.12
457.979	408.62
458.352	395.74
458.725	423.08
459.099	411.78
459.472	402.07
459.845	405
460.218	408.17
460.591	406.59
460.964	418.34
461.337	419.47
461.71	416.08
462.083	407.49
462.456	420.37
462.829	449.3
463.201	428.28
463.574	412.91
463.947	428.73
464.32	443.87
464.692	423.31
465.065	430.31
465.438	442.52
465.81	431.22
466.183	448.39
466.555	441.61
466.928	452.91
467.3	437.77
467.672	467.6
468.045	451.33
468.417	454.95
468.789	449.07
469.161	452.91
469.534	478.9
469.906	476.19
470.278	463.98
470.65	465.79
471.022	459.69
471.394	471.22
471.766	478.22
472.138	494.94
472.51	485.91
472.882	469.41
473.253	514.38
473.625	486.58
473.997	483.65
474.369	492.01
474.74	487.94
475.112	520.48
475.484	501.27
475.855	498.11
476.227	494.94
476.598	520.03
476.97	519.12
477.341	542.85
477.713	525
478.084	548.95
478.455	554.15
478.827	522.74
479.198	553.7
479.569	541.72
479.94	581.27
480.311	560.71
480.682	553.7
481.053	583.98
481.424	587.37
481.795	583.08
482.166	596.64
482.537	565.45
482.908	595.96
483.279	586.24
483.65	605.68
484.021	621.95
484.391	614.72
484.762	611.1
485.133	611.55
485.503	620.37
485.874	632.57
486.244	649.74
486.615	647.93
486.985	652
487.356	659.01
487.726	657.65
488.097	665.34
488.467	655.84
488.837	664.88
489.207	652.45
489.578	680.48
489.948	681.38
490.318	696.75
490.688	713.24
491.058	713.7
491.428	687.26
491.798	723.41
492.168	706.46
492.538	720.25
492.908	704.88
493.278	732.9
493.648	735.39
494.017	728.61
494.387	739.01
494.757	756.86
495.126	740.14
495.496	770.19
495.866	765.22
496.235	759.8
496.605	752.34
496.974	782.17
497.344	761.6
497.713	772.9
498.082	801.38
498.452	784.88
498.821	791.89
499.19	809.96
499.559	788.04
499.928	785.11
500.298	800.7
500.667	812
501.036	813.81
501.405	811.77
501.774	777.42
502.143	807.25
502.512	805.44
502.88	827.14
503.249	819.91
503.618	816.97
503.987	809.06
504.356	824.88
504.724	822.17
505.093	847.93
505.462	819.23
505.83	812.22
506.199	839.79
506.567	885.44
506.936	838.21
507.304	840.02
507.672	865.78
508.041	865.78
508.409	866.46
508.777	854.94
509.145	850.64
509.514	867.82
509.882	850.19
510.25	887.25
510.618	867.59
510.986	872.11
511.354	872.56
511.722	870.53
512.09	892
512.458	899.68
512.826	885.44
513.193	867.14
513.561	868.27
513.929	901.49
514.297	919.57
514.664	914.37
515.032	913.46
515.4	903.97
515.767	909.4
516.135	902.39
516.502	899
516.869	923.18
517.237	916.63
517.604	908.72
517.972	891.32
518.339	930.87
518.706	908.04
519.073	919.34
519.44	929.74
519.808	940.13
520.175	946.23
520.542	935.84
520.909	957.08
521.276	949.4
521.643	958.66
522.009	948.72
522.376	951.2
522.743	955.72
523.11	943.29
523.477	990.3
523.843	968.38
524.21	988.49
524.577	966.12
524.943	995.27
525.31	1011.99
525.676	991.2
526.043	1003.86
526.409	998.89
526.776	993.46
527.142	1011.77
527.508	985.33
527.874	1001.37
528.241	1003.41
528.607	1018.77
528.973	984.88
529.339	1023.52
529.705	1004.76
530.071	1006.57
530.437	1034.37
530.803	994.37
531.169	1035.27
531.535	1011.54
531.901	1024.42
532.267	1020.35
532.632	1039.11
532.998	1010.64
533.364	1051.99
533.73	1045.44
534.095	1061.03
534.461	1033.46
534.826	1053.8
535.192	1024.2
535.557	1065.55
535.923	1050.86
536.288	1041.37
536.653	1044.31
537.019	1028.26
537.384	1033.69
537.749	1038.89
538.114	1040.69
538.479	1059.68
538.845	1040.24
539.21	1029.17
539.575	1054.03
539.94	1077.08
540.305	1054.25
540.67	1047.47
541.034	1050.41
541.399	1052.9
541.764	1064.2
542.129	1042.73
542.494	1041.14
542.858	1032.33
543.223	1064.87
543.587	1048.83
543.952	1064.87
544.316	1080.47
544.681	1057.42
545.045	1052.44
545.41	1066
545.774	1042.5
546.138	1033.69
546.503	1054.93
546.867	1050.18
547.231	1041.37
547.595	1060.81
547.959	1054.93
548.324	1057.19
548.688	1083.86
549.052	1063.74
549.416	1063.74
549.779	1085.89
550.143	1071.43
550.507	1090.41
550.871	1064.87
551.235	1070.07
551.599	1100.35
551.962	1094.48
552.326	1063.52
552.689	1083.18
553.053	1071.2
553.417	1090.41
553.78	1088.15
554.143	1093.8
554.507	1104.19
554.87	1072.78
555.234	1107.58
555.597	1087.7
555.96	1100.58
556.323	1102.61
556.686	1088.6
557.05	1074.36
557.413	1082.05
557.776	1114.14
558.139	1122.5
558.502	1110.3
558.865	1100.13
559.228	1130.63
559.59	1093.12
559.953	1112.78
560.316	1116.85
560.679	1108.94
561.041	1126.79
561.404	1132.67
561.767	1118.43
562.129	1131.09
562.492	1122.72
562.854	1111.2
563.217	1117.75
563.579	1143.52
563.941	1124.98
564.304	1132.89
564.666	1159.11
565.028	1150.52
565.39	1157.98
565.753	1149.39
566.115	1135.38
566.477	1143.97
566.839	1150.07
567.201	1153.68
567.563	1147.81
567.925	1178.99
568.287	1173.34
568.648	1157.75
569.01	1154.59
569.372	1158.66
569.734	1149.16
570.095	1195.04
570.457	1160.01
570.819	1168.6
571.18	1183.29
571.542	1184.87
571.903	1168.37
572.265	1183.74
572.626	1200.46
572.987	1195.04
573.349	1159.79
573.71	1172.89
574.071	1186.45
574.432	1171.76
574.794	1190.07
575.155	1192.78
575.516	1171.54
575.877	1164.08
576.238	1198.2
576.599	1204.3
576.96	1197.98
577.32	1202.72
577.681	1167.24
578.042	1187.81
578.403	1184.87
578.763	1189.84
579.124	1182.16
579.485	1203.85
579.845	1192.33
580.206	1191.65
580.566	1175.6
580.927	1178.09
581.287	1179.9
581.648	1174.93
582.008	1187.13
582.368	1201.82
582.728	1183.97
583.089	1157.75
583.449	1185.1
583.809	1171.54
584.169	1165.89
584.529	1171.09
584.889	1184.87
585.249	1184.87
585.609	1150.52
585.969	1182.84
586.329	1149.84
586.688	1169.05
587.048	1185.1
587.408	1190.29
587.768	1157.98
588.127	1168.15
588.487	1153.91
588.846	1176.06
589.206	1159.11
589.565	1166.57
589.925	1172.67
590.284	1156.62
590.643	1159.11
591.003	1165.44
591.362	1160.46
591.721	1169.28
592.08	1179.45
592.44	1143.74
592.799	1150.75
593.158	1176.73
593.517	1162.05
593.876	1148.49
594.235	1172.89
594.593	1161.37
594.952	1167.24
595.311	1156.62
595.67	1143.97
596.029	1164.76
596.387	1156.62
596.746	1175.38
597.104	1135.15
597.463	1164.53
597.822	1158.43
598.18	1178.77
598.538	1173.34
598.897	1179.45
599.255	1124.53
599.613	1176.06
599.972	1154.14
600.33	1169.05
600.688	1173.57
601.046	1180.35
601.404	1208.6
601.762	1147.81
602.12	1182.38
602.478	1189.62
602.836	1144.87
603.194	1158.66
603.552	1169.28
603.91	1182.38
604.268	1145.1
604.625	1178.32
604.983	1195.94
605.341	1153.91
605.698	1183.29
606.056	1185.55
606.413	1147.13
606.771	1172.89
607.128	1163.18
607.485	1196.62
607.843	1205.66
608.2	1186.45
608.557	1191.88
608.914	1176.73
609.272	1191.42
609.629	1202.04
609.986	1199.56
610.343	1178.99
610.7	1181.93
611.057	1184.19
611.414	1193.46
611.771	1176.28
612.127	1208.37
612.484	1194.36
612.841	1229.16
613.198	1210.86
613.554	1167.7
613.911	1218.77
614.267	1193.46
614.624	1202.95
614.98	1203.17
615.337	1186.9
615.693	1205.43
616.05	1215.38
616.406	1213.12
616.762	1211.99
617.118	1220.12
617.475	1178.77
617.831	1221.71
618.187	1198.65
618.543	1207.69
618.899	1235.94
619.255	1212.44
619.611	1190.52
619.967	1221.25
620.323	1204.76
620.678	1221.93
621.034	1200.91
621.39	1212.89
621.746	1166.79
622.101	1202.72
622.457	1225.09
622.812	1205.43
623.168	1179.22
623.523	1222.61
623.879	1203.85
624.234	1197.98
624.589	1199.56
624.945	1220.8
625.3	1233.23
625.655	1199.56
626.01	1217.64
626.365	1201.59
626.72	1206.79
627.075	1188.26
627.43	1199.33
627.785	1206.79
628.14	1197.98
628.495	1200.91
628.85	1202.95
629.205	1203.4
629.559	1223.29
629.914	1193.46
630.269	1195.72
630.623	1213.57
630.978	1204.3
631.332	1204.53
631.687	1218.99
632.041	1230.29
632.396	1218.77
632.75	1219.45
633.104	1173.57
633.459	1219.67
633.813	1198.43
634.167	1181.25
634.521	1202.04
634.875	1188.49
635.229	1215.15
635.583	1220.58
635.937	1193.23
636.291	1187.36
636.645	1182.84
636.999	1218.32
637.352	1204.53
637.706	1205.66
638.06	1191.65
638.413	1190.97
638.767	1175.83
639.121	1190.52
639.474	1207.02
639.828	1188.26
640.181	1185.55
640.534	1212.89
640.888	1186
641.241	1192.1
641.594	1205.43
641.947	1165.44
642.301	1175.83
642.654	1202.95
643.007	1191.65
643.36	1213.8
643.713	1189.62
644.066	1207.24
644.419	1189.16
644.771	1173.8
645.124	1179.9
645.477	1160.24
645.83	1178.09
646.182	1171.76
646.535	1144.65
646.888	1196.4
647.24	1190.07
647.593	1198.2
647.945	1195.27
648.298	1177.19
648.65	1184.42
649.002	1189.62
649.355	1222.16
649.707	1209.5
650.059	1174.93
650.411	1207.69
650.763	1199.78
651.115	1210.18
651.467	1226.68
651.819	1185.1
652.171	1242.04
652.523	1211.54
652.875	1236.17
653.227	1242.27
653.578	1239.78
653.93	1224.64
654.282	1231.65
654.633	1233.46
654.985	1234.81
655.337	1247.92
655.688	1240.24
656.039	1230.74
656.391	1280.01
656.742	1239.33
657.094	1253.34
657.445	1267.35
657.796	1277.75
658.147	1258.09
658.498	1280.01
658.849	1258.54
659.2	1288.82
659.551	1269.61
659.902	1278.65
660.253	1298.09
660.604	1316.84
660.955	1309.39
661.306	1313.45
661.656	1310.29
662.007	1298.54
662.358	1331.76
662.708	1327.92
663.059	1329.5
663.409	1338.54
663.76	1340.35
664.11	1326.34
664.461	1364.75
664.811	1374.7
665.161	1353.45
665.511	1343.06
665.862	1358.65
666.212	1367.01
666.562	1394.81
666.912	1415.37
667.262	1406.79
667.612	1383.96
667.962	1403.4
668.312	1429.16
668.662	1451.08
669.011	1467.35
669.361	1463.05
669.711	1484.07
670.06	1482.04
670.41	1440.23
670.76	1482.94
671.109	1506.22
671.459	1511.87
671.808	1521.13
672.157	1508.48
672.507	1537.4
672.856	1533.34
673.205	1547.8
673.554	1534.47
673.904	1574.92
674.253	1614.92
674.602	1574.24
674.951	1587.57
675.3	1584.86
675.649	1616.27
675.998	1638.87
676.346	1641.58
676.695	1679.55
677.044	1663.95
677.393	1677.06
677.741	1693.56
678.09	1680.9
678.438	1720.22
678.787	1738.3
679.135	1742.37
679.484	1720.68
679.832	1743.5
680.181	1774.91
680.529	1757.51
680.877	1820.79
681.225	1802.48
681.573	1817.62
681.922	1849.49
682.27	1846.55
682.618	1865.53
682.966	1879.31
683.314	1931.07
683.661	1884.29
684.009	1917.28
684.357	1922.03
684.705	1942.14
685.053	1957.05
685.4	1983.04
685.748	1977.39
686.095	2024.85
686.443	2041.8
686.79	1998.86
687.138	2044.96
687.485	2089.93
687.832	2049.03
688.18	2046.09
688.527	2108.69
688.874	2118.18
689.221	2112.3
689.568	2138.29
689.915	2161.79
690.262	2186.88
690.609	2174.22
690.956	2186.43
691.303	2185.3
691.65	2222.13
691.997	2212.19
692.344	2222.58
692.69	2245.18
693.037	2306.65
693.383	2279.53
693.73	2303.03
694.077	2316.14
694.423	2333.09
694.769	2391.39
695.116	2388.68
695.462	2355.01
695.808	2423.03
696.155	2399.08
696.501	2418.74
696.847	2440.66
697.193	2445.63
697.539	2474.1
697.885	2468.45
698.231	2491.73
698.577	2555
698.923	2561.78
699.269	2544.38
699.614	2562.01
699.96	2523.82
700.306	2589.58
700.651	2595.91
700.997	2607.66
701.342	2647.43
701.688	2663.7
702.033	2690.59
702.379	2678.39
702.724	2690.59
703.069	2699.63
703.415	2727.88
703.76	2723.81
704.105	2746.86
704.45	2734.66
704.795	2775.79
705.14	2796.35
705.485	2762
705.83	2794.32
706.175	2835.45
706.52	2845.62
706.865	2858.27
707.209	2875.9
707.554	2917.25
707.899	2886.52
708.243	2884.26
708.588	2959.96
708.932	2929.91
709.277	2920.42
709.621	2954.54
709.966	2990.25
710.31	2947.76
710.654	2992.73
710.998	3022.79
711.342	3006.52
711.687	3058.94
712.031	3033.86
712.375	3049.23
712.719	3050.36
713.063	3097.81
713.407	3089
713.75	3122.22
714.094	3087.19
714.438	3109.11
714.782	3160.19
715.125	3169.22
715.469	3155.21
715.812	3171.03
716.156	3143.46
716.499	3188.43
716.843	3199.28
717.186	3204.7
717.53	3219.39
717.873	3207.64
718.216	3269.56
718.559	3212.84
718.902	3234.08
719.246	3253.29
719.589	3249.67
719.932	3260.97
720.275	3285.61
720.617	3271.82
720.96	3263.01
721.303	3298.26
721.646	3314.31
721.989	3331.93
722.331	3343.46
722.674	3364.93
723.016	3341.2
723.359	3358.82
723.701	3388.65
724.044	3361.31
724.386	3323.8
724.729	3422.78
725.071	3376.68
725.413	3363.57
725.755	3390.24
726.097	3358.6
726.439	3392.5
726.782	3390.01
727.124	3393.85
727.465	3349.56
727.807	3408.31
728.149	3438.37
728.491	3400.63
728.833	3450.12
729.175	3402.21
729.516	3407.41
729.858	3416.22
730.199	3414.87
730.541	3437.69
730.882	3472.72
731.224	3495.54
731.565	3439.05
731.906	3452.15
732.248	3471.59
732.589	3430.69
732.93	3448.77
733.271	3450.57
733.612	3484.02
733.953	3464.58
734.294	3446.28
734.635	3435.21
734.976	3443.34
735.317	3458.48
735.658	3453.51
735.999	3433.85
736.339	3450.35
736.68	3503.91
737.021	3448.77
737.361	3424.81
737.702	3481.31
738.042	3452.38
738.383	3462.32
738.723	3493.74
739.063	3472.72
739.404	3486.05
739.744	3460.52
740.084	3480.63
740.424	3468.88
740.764	3437.24
741.104	3484.92
741.444	3448.77
741.784	3452.61
742.124	3434.3
742.464	3447.41
742.804	3505.71
743.143	3454.87
743.483	3497.58
743.823	3408.09
744.162	3491.93
744.502	3462.78
744.841	3437.24
745.181	3499.39
745.52	3461.87
745.86	3456.9
746.199	3464.36
746.538	3438.37
746.877	3470.23
747.216	3452.15
747.556	3434.08
747.895	3434.75
748.234	3431.82
748.573	3442.66
748.911	3383
749.25	3416.22
749.589	3392.72
749.928	3428.43
750.267	3427.75
750.605	3392.95
750.944	3368.77
751.283	3378.26
751.621	3399.95
751.96	3420.74
752.298	3372.61
752.636	3378.48
752.975	3361.99
753.313	3363.57
753.651	3357.24
753.989	3342.55
754.327	3385.26
754.666	3352.5
755.004	3375.77
755.342	3343.23
755.679	3332.61
756.017	3334.42
756.355	3336.9
756.693	3354.53
757.031	3337.81
757.368	3332.84
757.706	3294.87
758.044	3285.38
758.381	3301.88
758.719	3308.43
759.056	3297.58
759.394	3248.54
759.731	3292.16
760.068	3298.49
760.405	3259.39
760.743	3236.34
761.08	3189.34
761.417	3230.92
761.754	3221.88
762.091	3188.21
762.428	3207.19
762.765	3174.87
763.102	3206.96
763.438	3181.88
763.775	3175.78
764.112	3133.52
764.449	3184.59
764.785	3178.94
765.122	3145.5
765.458	3092.62
765.795	3141.2
766.131	3134.2
766.467	3077.7
766.804	3094.42
767.14	3109.34
767.476	3119.73
767.812	3031.15
768.148	3110.47
768.485	3063.92
768.821	3046.52
769.157	3041.09
769.492	3060.75
769.828	3033.18
770.164	3041.54
770.5	3030.02
770.836	3008.55
771.171	3010.81
771.507	2992.05
771.842	2973.3
772.178	2952.06
772.513	2986.63
772.849	2935.11
773.184	2940.08
773.519	2985.05
773.855	2948.44
774.19	2904.82
774.525	2902.34
774.86	2926.29
