Data from carpet_green_FLMS001491_00003.txt Node
Date: Wed Feb 08 10:34:47 GMT 2017
User: dcchb
Spectrometer: FLMS00149
Trigger mode: 0
Integration Time (sec): 2.000000E-2
Scans to average: 10
Electric dark correction enabled: true
Nonlinearity correction enabled: false
Boxcar width: 0
XAxis mode: Wavelengths
Number of Pixels in Spectrum: 2048
>>>>>Begin Spectral Data<<<<<
341.393	-27.89
341.776	-27.89
342.16	-27.89
342.543	-46.43
342.927	-58.85
343.31	-70.61
343.693	-54.11
344.077	-54.79
344.46	-56.37
344.843	-48.91
345.226	-56.14
345.61	-43.71
345.993	-15.92
346.376	-3.04
346.759	6.91
347.142	19.11
347.525	39.22
347.908	57.53
348.291	73.35
348.674	75.61
349.057	131.88
349.44	100.24
349.823	151.31
350.206	148.6
350.588	168.94
350.971	167.58
351.354	206.9
351.737	220.46
352.119	237.18
352.502	231.76
352.884	254.13
353.267	260.01
353.65	270.63
354.032	277.86
354.414	281.02
354.797	287.58
355.179	291.42
355.562	310.63
355.944	303.4
356.326	315.83
356.709	323.51
357.091	301.59
357.473	325.54
357.855	326.9
358.238	305.2
358.62	328.48
359.002	295.94
359.384	318.54
359.766	304.53
360.148	328.03
360.53	295.03
360.912	309.95
361.294	308.82
361.676	301.59
362.057	294.13
362.439	287.58
362.821	298.42
363.203	305.66
363.584	290.51
363.966	278.09
364.348	318.08
364.729	297.29
365.111	294.81
365.493	306.33
365.874	286.22
366.256	278.99
366.637	262.04
367.019	288.48
367.4	288.03
367.781	275.83
368.163	279.67
368.544	283.28
368.925	289.16
369.306	283.74
369.688	281.25
370.069	273.57
370.45	275.6
370.831	283.74
371.212	276.96
371.593	305.66
371.974	264.98
372.355	276.5
372.736	287.58
373.117	271.98
373.498	291.87
373.879	276.5
374.26	265.88
374.641	286.9
375.021	300.46
375.402	270.63
375.783	306.33
376.163	276.28
376.544	288.93
376.925	308.82
377.305	295.26
377.686	296.39
378.066	274.92
378.447	313.79
378.827	279.22
379.208	280.8
379.588	275.37
379.968	289.84
380.349	295.26
380.729	278.31
381.109	298.2
381.489	298.42
381.87	274.7
382.25	296.16
382.63	266.79
383.01	295.49
383.39	305.43
383.77	313.34
384.15	294.13
384.53	297.52
384.91	294.36
385.29	296.16
385.67	306.33
386.049	306.56
386.429	307.69
386.809	305.88
387.189	282.38
387.568	287.35
387.948	286
388.328	292.1
388.707	295.94
389.087	307.92
389.466	305.66
389.846	312.21
390.225	302.27
390.605	302.04
390.984	296.39
391.363	296.39
391.743	301.14
392.122	281.48
392.501	322.6
392.881	320.57
393.26	313.57
393.639	301.14
394.018	317.86
394.397	284.64
394.776	295.26
395.155	289.61
395.534	317.86
395.913	309.05
396.292	314.02
396.671	326.45
397.05	326.22
397.429	309.27
397.808	317.18
398.186	296.84
398.565	319.21
398.944	322.6
399.323	315.83
399.701	304.07
400.08	310.4
400.458	309.5
400.837	329.38
401.215	325.32
401.594	297.29
401.972	318.76
402.351	302.72
402.729	305.43
403.107	314.02
403.486	311.53
403.864	330.06
404.242	308.37
404.62	303.17
404.999	338.88
405.377	309.5
405.755	302.04
406.133	316.95
406.511	306.33
406.889	320.8
407.267	325.77
407.645	330.74
408.023	325.09
408.401	306.33
408.779	310.4
409.156	302.72
409.534	350.17
409.912	292.32
410.29	325.09
410.667	306.33
411.045	304.07
411.422	326.45
411.8	341.81
412.178	332.32
412.555	329.61
412.933	325.54
413.31	340.01
413.687	329.61
414.065	324.19
414.442	326.9
414.819	327.58
415.197	313.79
415.574	336.84
415.951	338.42
416.328	356.73
416.705	342.04
417.082	344.3
417.46	348.59
417.837	318.99
418.214	339.33
418.591	337.75
418.967	335.71
419.344	337.07
419.721	326.67
420.098	323.73
420.475	341.36
420.852	336.62
421.228	337.97
421.605	333
421.982	336.16
422.358	352.89
422.735	350.17
423.111	343.17
423.488	348.37
423.864	357.41
424.241	337.07
424.617	351.08
424.994	387.46
425.37	343.85
425.746	353.79
426.123	355.15
426.499	337.52
426.875	361.02
427.251	361.47
427.627	344.75
428.003	350.85
428.379	360.34
428.756	339.1
429.132	355.6
429.507	372.09
429.883	339.55
430.259	357.41
430.635	344.3
431.011	344.3
431.387	346.33
431.763	360.57
432.138	355.15
432.514	357.18
432.89	355.15
433.265	354.47
433.641	358.31
434.016	360.57
434.392	377.07
434.767	361.02
435.143	371.42
435.518	347.46
435.894	389.95
436.269	384.3
436.644	362.15
437.02	388.37
437.395	371.64
437.77	383.17
438.145	354.24
438.52	393.11
438.895	366.22
439.271	354.47
439.646	365.77
440.021	384.52
440.395	389.04
440.77	370.06
441.145	372.77
441.52	386.11
441.895	382.49
442.27	399.44
442.645	396.73
443.019	377.29
443.394	376.39
443.769	407.35
444.143	368.25
444.518	373
444.892	389.27
445.267	382.94
445.641	380
446.016	385.2
446.39	388.82
446.764	391.98
447.139	390.63
447.513	396.05
447.887	401.47
448.262	412.32
448.636	382.94
449.01	398.31
449.384	399.44
449.758	411.87
450.132	398.76
450.506	394.92
450.88	382.94
451.254	401.47
451.628	389.04
452.002	410.96
452.376	410.74
452.75	404.64
453.123	416.16
453.497	407.8
453.871	421.81
454.244	427.91
454.618	422.49
454.992	437.18
455.365	421.58
455.739	427.01
456.112	437.86
456.486	439.66
456.859	419.78
457.232	429.72
457.606	421.81
457.979	422.94
458.352	437.4
458.725	460
459.099	436.95
459.472	434.69
459.845	426.56
460.218	424.75
460.591	457.97
460.964	453.45
461.337	439.44
461.71	445.31
462.083	458.19
462.456	460
462.829	462.49
463.201	460
463.574	475.37
463.947	477.18
464.32	470.17
464.692	476.72
465.065	478.98
465.438	482.6
465.81	476.5
466.183	480.79
466.555	493.45
466.928	496.84
467.3	464.97
467.672	493.9
468.045	491.19
468.417	495.26
468.789	521.24
469.161	521.7
469.534	506.33
469.906	495.26
470.278	512.66
470.65	511.75
471.022	503.39
471.394	505.65
471.766	528.25
472.138	518.08
472.51	535.71
472.882	524.63
473.253	543.62
473.625	533.45
473.997	533.9
474.369	546.33
474.74	568.02
475.112	560.34
475.484	558.53
475.855	565.31
476.227	584.97
476.598	580.22
476.97	607.57
477.341	587.68
477.713	609.83
478.084	599.43
478.455	609.6
478.827	614.57
479.198	606.44
479.569	621.13
479.94	619.32
480.311	649.6
480.682	638.75
481.053	658.41
481.424	669.49
481.795	631.3
482.166	657.74
482.537	653.44
482.908	666.32
483.279	662.26
483.65	684.63
484.021	718.98
484.391	677.17
484.762	688.7
485.133	683.05
485.503	728.02
485.874	707
486.244	735.25
486.615	739.99
486.985	725.53
487.356	766.66
487.726	757.17
488.097	735.48
488.467	778.86
488.837	764.17
489.207	790.16
489.578	785.42
489.948	810.5
490.318	794.23
490.688	794.23
491.058	822.7
491.428	824.29
491.798	795.36
492.168	854.79
492.538	834.23
492.908	840.11
493.278	847.56
493.648	843.49
494.017	862.03
494.387	863.38
494.757	862.48
495.126	856.38
495.496	858.86
495.866	864.96
496.235	899.31
496.605	873.1
496.974	890.05
497.344	894.79
497.713	890.05
498.082	902.25
498.452	904.74
498.821	910.39
499.19	935.92
499.559	893.66
499.928	909.03
500.298	913.32
500.667	914.23
501.036	950.38
501.405	930.5
501.774	949.71
502.143	961.91
502.512	929.14
502.88	937.28
503.249	958.75
503.618	949.48
503.987	965.07
504.356	944.51
504.724	939.76
505.093	971.4
505.462	993.77
505.83	987.22
506.199	976.6
506.567	992.87
506.936	1003.72
507.304	993.55
507.672	1001.68
508.041	977.95
508.409	990.61
508.777	1031.06
509.145	1013.43
509.514	1021.8
509.882	1023.83
510.25	1028.8
510.618	1057.95
510.986	1016.6
511.354	1029.93
511.722	1024.51
512.09	1023.83
512.458	1026.54
512.826	1044.62
513.193	1057.5
513.561	1034.9
513.929	1051.17
514.297	1054.56
514.664	1085.07
515.032	1064.05
515.4	1064.51
515.767	1106.09
516.135	1081.45
516.502	1055.47
516.869	1085.07
517.237	1078.97
517.604	1075.58
517.972	1088.69
518.339	1080.1
518.706	1085.07
519.073	1100.44
519.44	1112.41
519.808	1101.79
520.175	1103.15
520.542	1125.07
520.909	1104.73
521.276	1108.35
521.643	1111.96
522.009	1125.97
522.376	1139.08
522.743	1145.18
523.11	1154
523.477	1122.58
523.843	1175.69
524.21	1156.25
524.577	1170.49
524.943	1175.69
525.31	1187.89
525.676	1175.69
526.043	1162.81
526.409	1187.89
526.776	1193.99
527.142	1196.25
527.508	1200.1
527.874	1220.21
528.241	1203.94
528.607	1186.31
528.973	1201.45
529.339	1180.66
529.705	1203.03
530.071	1191.73
530.437	1189.47
530.803	1205.07
531.169	1189.02
531.535	1227.21
531.901	1214.56
532.267	1231.06
532.632	1199.42
532.998	1225.18
533.364	1222.02
533.73	1237.61
534.095	1254.33
534.461	1218.85
534.826	1230.83
535.192	1242.81
535.557	1226.99
535.923	1245.07
536.288	1237.83
536.653	1230.38
537.019	1233.99
537.384	1243.94
537.749	1225.18
538.114	1228.57
538.479	1247.1
538.845	1254.33
539.21	1257.27
539.575	1234.44
539.94	1235.12
540.305	1225.63
540.67	1253.43
541.034	1232.64
541.399	1237.83
541.764	1250.26
542.129	1218.17
542.494	1233.32
542.858	1270.38
543.223	1238.06
543.587	1223.82
543.952	1262.47
544.316	1252.3
544.681	1228.12
545.045	1248
545.41	1252.52
545.774	1231.28
546.138	1262.24
546.503	1236.48
546.867	1244.84
547.231	1261.11
547.595	1237.83
547.959	1225.41
548.324	1254.11
548.688	1244.61
549.052	1250.26
549.416	1239.19
549.779	1245.52
550.143	1236.48
550.507	1260.43
550.871	1269.25
551.235	1255.01
551.599	1274.44
551.962	1239.87
552.326	1241.68
552.689	1254.33
553.053	1277.16
553.417	1261.11
553.78	1276.7
554.143	1257.95
554.507	1275.12
554.87	1280.77
555.234	1271.51
555.597	1267.21
555.96	1293.88
556.323	1276.93
556.686	1294.78
557.05	1306.08
557.413	1308.79
557.776	1292.52
558.139	1306.31
558.502	1292.07
558.865	1288.68
559.228	1297.04
559.59	1308.79
559.953	1314.22
560.316	1299.98
560.679	1325.29
561.041	1310.38
561.404	1308.34
561.767	1340.2
562.129	1306.31
562.492	1328.68
562.854	1310.6
563.217	1316.02
563.579	1344.72
563.941	1324.61
564.304	1359.41
564.666	1361.67
565.028	1361.67
565.39	1337.95
565.753	1361.67
566.115	1356.48
566.477	1361.67
566.839	1340.2
567.201	1344.72
567.563	1377.49
567.925	1347.89
568.287	1361
568.648	1331.62
569.01	1351.96
569.372	1383.59
569.734	1364.84
570.095	1357.15
570.457	1365.29
570.819	1406.19
571.18	1370.03
571.542	1365.06
571.903	1363.48
572.265	1385.63
572.626	1377.27
572.987	1379.75
573.349	1370.03
573.71	1379.3
574.071	1367.32
574.432	1372.75
574.794	1390.83
575.155	1376.59
575.516	1357.15
575.877	1381.11
576.238	1393.76
576.599	1392.63
576.96	1381.56
577.32	1373.42
577.681	1352.41
578.042	1365.97
578.403	1392.18
578.763	1358.74
579.124	1374.55
579.485	1342.92
579.845	1370.49
580.206	1388.11
580.566	1361.67
580.927	1384.27
581.287	1384.95
581.648	1368.23
582.008	1387.66
582.368	1382.01
582.728	1371.84
583.089	1360.09
583.449	1328
583.809	1348.34
584.169	1347.66
584.529	1323.03
584.889	1369.36
585.249	1352.18
585.609	1341.79
585.969	1355.57
586.329	1344.72
586.688	1358.06
587.048	1329.13
587.408	1341.79
587.768	1337.27
588.127	1302.47
588.487	1354.67
588.846	1354.22
589.206	1369.81
589.565	1310.38
589.925	1349.24
590.284	1313.54
590.643	1327.78
591.003	1329.58
591.362	1332.97
591.721	1320.54
592.08	1321.22
592.44	1312.86
592.799	1339.75
593.158	1327.32
593.517	1319.41
593.876	1324.39
594.235	1337.04
594.593	1323.26
594.952	1310.83
595.311	1354.67
595.67	1341.79
596.029	1311.51
596.387	1342.01
596.746	1352.86
597.104	1319.64
597.463	1321.9
597.822	1329.58
598.18	1351.05
598.538	1334.33
598.897	1340.2
599.255	1351.73
599.613	1330.04
599.972	1331.17
600.33	1328.91
600.688	1332.97
601.046	1342.92
601.404	1339.75
601.762	1302.01
602.12	1317.15
602.478	1343.37
602.836	1335.91
603.194	1325.52
603.552	1322.8
603.91	1312.63
604.268	1348.11
604.625	1332.07
604.983	1324.61
605.341	1365.51
605.698	1340.2
606.056	1357.83
606.413	1359.64
606.771	1351.05
607.128	1371.39
607.485	1328.45
607.843	1361.67
608.2	1341.56
608.557	1343.37
608.914	1368.9
609.272	1365.74
609.629	1339.3
609.986	1362.58
610.343	1345.4
610.7	1385.63
611.057	1349.24
611.414	1366.42
611.771	1365.06
612.127	1380.66
612.484	1350.6
612.841	1370.49
613.198	1370.49
613.554	1376.59
613.911	1369.13
614.267	1394.21
614.624	1381.56
614.98	1377.04
615.337	1394.67
615.693	1394.44
616.05	1367.55
616.406	1390.6
616.762	1375.68
617.118	1403.03
617.475	1375.23
617.831	1400.09
618.187	1388.79
618.543	1382.24
618.899	1402.12
619.255	1373.65
619.611	1356.02
619.967	1381.79
620.323	1396.02
620.678	1389.7
621.034	1377.72
621.39	1413.42
621.746	1387.44
622.101	1393.54
622.457	1396.02
622.812	1381.33
623.168	1354.89
623.523	1381.33
623.879	1374.33
624.234	1379.75
624.589	1375.01
624.945	1384.95
625.3	1395.12
625.655	1372.52
626.01	1361.9
626.365	1380.43
626.72	1361.9
627.075	1383.59
627.43	1394.21
627.785	1373.42
628.14	1389.47
628.495	1386.31
628.85	1389.7
629.205	1353.76
629.559	1366.64
629.914	1361.67
630.269	1362.8
630.623	1388.11
630.978	1355.12
631.332	1379.07
631.687	1384.5
632.041	1363.93
632.396	1357.15
632.75	1355.57
633.104	1389.7
633.459	1358.74
633.813	1336.36
634.167	1358.28
634.521	1342.01
634.875	1357.61
635.229	1349.7
635.583	1343.37
635.937	1372.52
636.291	1355.57
636.645	1358.51
636.999	1333.65
637.352	1329.81
637.706	1358.96
638.06	1360.77
638.413	1347.44
638.767	1347.89
639.121	1359.87
639.474	1355.8
639.828	1356.48
640.181	1327.55
640.534	1377.04
640.888	1328.23
641.241	1366.87
641.594	1336.59
641.947	1337.95
642.301	1340.88
642.654	1338.17
643.007	1370.26
643.36	1360.77
643.713	1376.14
644.066	1386.08
644.419	1345.63
644.771	1344.05
645.124	1331.39
645.477	1326.42
645.83	1333.65
646.182	1337.72
646.535	1344.27
646.888	1336.36
647.24	1345.63
647.593	1343.59
647.945	1339.75
648.298	1352.63
648.65	1342.46
649.002	1339.98
649.355	1361.45
649.707	1345.18
650.059	1384.5
650.411	1396.25
650.763	1400.77
651.115	1360.77
651.467	1407.32
651.819	1422.69
652.171	1403.93
652.523	1417.72
652.875	1394.21
653.227	1411.16
653.578	1431.73
653.93	1426.3
654.282	1403.48
654.633	1423.14
654.985	1440.09
655.337	1428.34
655.688	1505.62
656.039	1441.45
656.391	1446.42
656.742	1440.54
657.094	1460.88
657.445	1466.53
657.796	1495.23
658.147	1458.85
658.498	1460.2
658.849	1468.11
659.2	1494.78
659.551	1506.53
659.902	1510.14
660.253	1506.3
660.604	1504.95
660.955	1503.59
661.306	1554.66
661.656	1553.31
662.007	1520.31
662.358	1542.91
662.708	1569.35
663.059	1539.3
663.409	1577.94
663.76	1626.98
664.11	1586.75
664.461	1568.67
664.811	1598.96
665.161	1634.43
665.511	1622.91
665.862	1639.41
666.212	1654.55
666.562	1636.47
666.912	1657.94
667.262	1663.81
667.612	1721.44
667.962	1680.08
668.312	1718.05
668.662	1710.82
669.011	1744.49
669.361	1743.58
669.711	1764.83
670.06	1725.51
670.41	1776.8
670.76	1777.48
671.109	1817.03
671.459	1803.02
671.808	1805.96
672.157	1790.36
672.507	1846.18
672.856	1841.89
673.205	1881.89
673.554	1879.85
673.904	1891.6
674.253	1917.14
674.602	1918.95
674.951	1918.72
675.3	1926.63
675.649	1950.58
675.998	1969.11
676.346	1975.67
676.695	2000.53
677.044	2014.09
677.393	1994.2
677.741	2069.45
678.09	2049.79
678.438	2089.34
678.787	2121.2
679.135	2130.01
679.484	2135.44
679.832	2129.56
680.181	2105.83
680.529	2181.76
680.877	2181.76
681.225	2212.05
681.573	2201.43
681.922	2252.05
682.27	2254.53
682.618	2247.53
682.966	2261.08
683.314	2264.7
683.661	2317.81
684.009	2328.2
684.357	2334.98
684.705	2382.44
685.053	2380.4
685.4	2429.44
685.748	2387.63
686.095	2416.79
686.443	2473.73
686.79	2477.8
687.138	2495.65
687.485	2525.26
687.832	2522.55
688.18	2544.24
688.527	2540.17
688.874	2593.73
689.221	2567.74
689.568	2593.96
689.915	2658.36
690.262	2666.95
690.609	2678.7
690.956	2687.97
691.303	2716.44
691.65	2692.49
691.997	2753.5
692.344	2766.38
692.69	2795.53
693.037	2811.58
693.383	2824.01
693.73	2837.11
694.077	2831.92
694.423	2868.3
694.769	2932.93
695.116	2925.47
695.462	2914.17
695.808	2916.21
696.155	2975.64
696.501	2961.86
696.847	2974.29
697.193	3027.62
697.539	3022.19
697.885	3060.84
698.231	3086.6
698.577	3111.91
698.923	3101.06
699.269	3153.94
699.614	3165.02
699.96	3168.86
700.306	3195.75
700.651	3218.12
700.997	3231.23
701.342	3266.26
701.688	3279.36
702.033	3257.67
702.379	3296.54
702.724	3289.76
703.069	3365.91
703.415	3324.11
703.76	3385.57
704.105	3335.18
704.45	3412.01
704.795	3415.86
705.14	3438.23
705.485	3455.4
705.83	3476.19
706.175	3520.49
706.52	3543.76
706.865	3504.44
707.209	3568.39
707.554	3568.17
707.899	3594.61
708.243	3596.87
708.588	3609.75
708.932	3611.11
709.277	3649.3
709.621	3676.41
709.966	3701.5
710.31	3688.39
710.654	3705.79
710.998	3724.55
711.342	3767.94
711.687	3789.18
712.031	3783.08
712.375	3766.58
712.719	3787.82
713.063	3835.28
713.407	3891.1
713.75	3848.84
714.094	3869.86
714.438	3884.32
714.782	3908.95
715.125	3917.99
715.469	3961.6
715.812	3911.66
716.156	3948.27
716.499	3935.84
716.843	3997.99
717.186	3967.03
717.53	4023.75
717.873	4031.66
718.216	4030.08
718.559	4081.6
718.902	4001.15
719.246	4067.36
719.589	4062.39
719.932	4047.7
720.275	4111.43
720.617	4087.25
720.96	4102.62
721.303	4104.2
721.646	4132.9
721.989	4126.35
722.331	4171.99
722.674	4164.99
723.016	4222.16
723.359	4199.56
723.701	4167.48
724.044	4187.81
724.386	4178.32
724.729	4247.25
725.071	4190.3
725.413	4204.31
725.755	4215.61
726.097	4204.08
726.439	4224.65
726.782	4216.97
727.124	4252.22
727.465	4233.01
727.807	4255.38
728.149	4269.62
728.491	4277.08
728.833	4317.08
729.175	4279.56
729.516	4313.23
729.858	4288.15
730.199	4289.96
730.541	4356.4
730.882	4333.8
731.224	4332.67
731.565	4320.24
731.906	4340.58
732.248	4315.49
732.589	4307.36
732.93	4296.06
733.271	4366.34
733.612	4345.78
733.953	4327.47
734.294	4386.23
734.635	4348.94
734.976	4343.52
735.317	4367.24
735.658	4362.5
735.999	4343.06
736.339	4372.89
736.68	4392.55
737.021	4368.15
737.361	4350.07
737.702	4389.84
738.042	4395.94
738.383	4390.29
738.723	4356.62
739.063	4362.72
739.404	4397.98
739.744	4388.94
740.084	4378.77
740.424	4410.41
740.764	4360.24
741.104	4361.82
741.444	4356.17
741.784	4370.86
742.124	4351.43
742.464	4347.58
742.804	4367.7
743.143	4368.6
743.483	4353.23
743.823	4361.14
744.162	4292.9
744.502	4336.28
744.841	4343.52
745.181	4380.8
745.52	4359.33
745.86	4346.91
746.199	4301.48
746.538	4352.1
746.877	4341.03
747.216	4324.99
747.556	4343.06
747.895	4270.3
748.234	4298.32
748.573	4345.32
748.911	4340.58
749.25	4310.52
749.589	4241.6
749.928	4302.16
750.267	4290.86
750.605	4289.96
750.944	4320.01
751.283	4251.77
751.621	4276.17
751.96	4246.34
752.298	4299
752.636	4292.44
752.975	4252.44
753.313	4239.56
753.651	4262.61
753.989	4197.3
754.327	4203.63
754.666	4244.31
755.004	4242.5
755.342	4222.84
755.679	4190.53
756.017	4201.37
756.355	4224.65
756.693	4157.08
757.031	4161.83
757.368	4175.61
757.706	4146.91
758.044	4137.19
758.381	4138.32
758.719	4153.24
759.056	4121.6
759.394	4113.24
759.731	4122.05
760.068	4094.71
760.405	4071.88
760.743	4070.53
761.08	4046.35
761.417	4070.75
761.754	4028.04
762.091	4028.04
762.428	4029.17
762.765	3987.37
763.102	4016.97
763.438	4012.9
763.775	3971.32
764.112	4022.85
764.449	4004.09
764.785	3986.01
765.122	3948.5
765.458	3947.59
765.795	3973.36
766.131	3958.67
766.467	3906.01
766.804	3925.9
767.14	3878.22
767.476	3910.53
767.812	3859.46
768.148	3825.79
768.485	3835.28
768.821	3835.96
769.157	3823.53
769.492	3796.64
769.828	3805
770.164	3744.89
770.5	3798.45
770.836	3775.62
771.171	3741.95
771.507	3751.21
771.842	3742.85
772.178	3707.6
772.513	3706.24
772.849	3712.35
773.184	3680.26
773.519	3696.75
773.855	3680.26
774.19	3696.98
