Data from carpet_green_FLMS001491_00029.txt Node
Date: Wed Feb 08 10:35:08 GMT 2017
User: dcchb
Spectrometer: FLMS00149
Trigger mode: 0
Integration Time (sec): 2.000000E-2
Scans to average: 10
Electric dark correction enabled: true
Nonlinearity correction enabled: false
Boxcar width: 0
XAxis mode: Wavelengths
Number of Pixels in Spectrum: 2048
>>>>>Begin Spectral Data<<<<<
341.393	-15.47
341.776	-15.47
342.16	-15.47
342.543	-50.27
342.927	-78.74
343.31	-69.93
343.693	-82.81
344.077	-49.59
344.46	-54.11
344.843	-53.43
345.226	-47.33
345.61	-46.65
345.993	-23.15
346.376	3.06
346.759	17.3
347.142	27.25
347.525	43.29
347.908	65.44
348.291	68.37
348.674	90.97
349.057	111.31
349.44	134.81
349.823	158.32
350.206	154.25
350.588	188.37
350.971	189.5
351.354	193.79
351.737	210.07
352.119	229.27
352.502	243.06
352.884	255.94
353.267	248.71
353.65	284.41
354.032	273.34
354.414	284.41
354.797	300.46
355.179	276.5
355.562	280.12
355.944	285.32
356.326	318.08
356.709	307.46
357.091	326.67
357.473	312.21
357.855	310.18
358.238	316.5
358.62	305.2
359.002	312.66
359.384	311.98
359.766	314.92
360.148	304.3
360.53	297.07
360.912	313.34
361.294	291.42
361.676	315.15
362.057	301.81
362.439	313.11
362.821	297.97
363.203	281.93
363.584	306.11
363.966	300.46
364.348	279.67
364.729	305.66
365.111	293.23
365.493	310.85
365.874	287.58
366.256	280.8
366.637	280.57
367.019	295.94
367.4	298.2
367.781	269.5
368.163	278.76
368.544	286.9
368.925	273.11
369.306	288.26
369.688	273.34
370.069	283.51
370.45	292.77
370.831	279.44
371.212	271.76
371.593	279.44
371.974	294.58
372.355	293.23
372.736	282.61
373.117	296.62
373.498	293.45
373.879	281.7
374.26	283.51
374.641	292.32
375.021	278.54
375.402	273.79
375.783	288.26
376.163	277.86
376.544	303.4
376.925	296.16
377.305	290.29
377.686	289.39
378.066	272.66
378.447	290.74
378.827	295.71
379.208	311.76
379.588	284.87
379.968	288.71
380.349	299.55
380.729	286.9
381.109	291.19
381.489	286.9
381.87	290.06
382.25	297.07
382.63	270.4
383.01	298.2
383.39	280.8
383.77	316.73
384.15	295.71
384.53	315.83
384.91	286.45
385.29	301.36
385.67	304.07
386.049	306.11
386.429	299.78
386.809	303.85
387.189	330.06
387.568	316.73
387.948	321.02
388.328	311.76
388.707	302.49
389.087	295.94
389.466	306.33
389.846	297.97
390.225	323.73
390.605	303.85
390.984	315.83
391.363	311.08
391.743	312.89
392.122	308.59
392.501	332.1
392.881	314.47
393.26	312.89
393.639	321.25
394.018	309.27
394.397	317.63
394.776	329.38
395.155	319.44
395.534	307.01
395.913	311.76
396.292	311.98
396.671	321.7
397.05	309.5
397.429	311.76
397.808	306.11
398.186	306.56
398.565	315.83
398.944	329.84
399.323	320.8
399.701	303.85
400.08	296.16
400.458	317.86
400.837	316.73
401.215	331.19
401.594	322.15
401.972	331.87
402.351	320.34
402.729	334.36
403.107	290.29
403.486	317.63
403.864	309.95
404.242	313.79
404.62	313.57
404.999	322.15
405.377	326.45
405.755	351.53
406.133	337.97
406.511	328.03
406.889	355.82
407.267	328.03
407.645	339.33
408.023	336.62
408.401	340.68
408.779	334.36
409.156	331.19
409.534	318.54
409.912	339.78
410.29	338.42
410.667	324.64
411.045	297.07
411.422	330.51
411.8	341.36
412.178	348.59
412.555	337.75
412.933	330.06
413.31	356.28
413.687	328.71
414.065	338.2
414.442	340.46
414.819	353.34
415.197	342.94
415.574	337.75
415.951	331.87
416.328	350.17
416.705	357.18
417.082	348.14
417.46	344.07
417.837	341.36
418.214	344.98
418.591	342.27
418.967	363.28
419.344	349.72
419.721	346.11
420.098	317.86
420.475	337.29
420.852	345.43
421.228	352.21
421.605	354.02
421.982	374.35
422.358	377.97
422.735	353.11
423.111	359.67
423.488	363.73
423.864	358.08
424.241	361.93
424.617	355.37
424.994	371.64
425.37	366.22
425.746	346.56
426.123	363.96
426.499	376.16
426.875	382.04
427.251	360.57
427.627	369.61
428.003	387.24
428.379	380.46
428.756	375.94
429.132	365.09
429.507	361.25
429.883	379.78
430.259	388.82
430.635	389.27
431.011	367.12
431.387	387.24
431.763	385.88
432.138	384.75
432.514	382.94
432.89	421.13
433.265	399.66
433.641	390.85
434.016	414.81
434.392	404.64
434.767	409.16
435.143	393.56
435.518	408.03
435.894	427.91
436.269	390.85
436.644	398.76
437.02	408.25
437.395	407.8
437.77	425.2
438.145	431.98
438.52	414.81
438.895	416.84
439.271	410.06
439.646	412.55
440.021	422.94
440.395	419.1
440.77	408.48
441.145	425.43
441.52	438.99
441.895	429.72
442.27	421.36
442.645	420
443.019	450.06
443.394	458.42
443.769	441.02
444.143	419.78
444.518	434.01
444.892	439.21
445.267	439.66
445.641	435.6
446.016	436.05
446.39	444.64
446.764	431.53
447.139	455.48
447.513	441.92
447.887	444.41
448.262	471.3
448.636	445.31
449.01	468.36
449.384	454.58
449.758	463.39
450.132	449.83
450.506	447.12
450.88	474.24
451.254	460.68
451.628	461.58
452.002	459.55
452.376	460.23
452.75	476.05
453.123	478.31
453.497	472.88
453.871	464.97
454.244	460.68
454.618	504.97
454.992	475.59
455.365	497.29
455.739	479.66
456.112	515.59
456.486	512.2
456.859	516.95
457.232	510.85
457.606	503.16
457.979	501.36
458.352	491.41
458.725	530.51
459.099	525.76
459.472	525.31
459.845	542.03
460.218	516.5
460.591	508.59
460.964	527.12
461.337	541.81
461.71	548.36
462.083	550.4
462.456	547.46
462.829	544.75
463.201	549.94
463.574	554.24
463.947	551.98
464.32	560.79
464.692	584.07
465.065	589.72
465.438	554.91
465.81	586.33
466.183	584.29
466.555	580.9
466.928	582.48
467.3	586.78
467.672	592.2
468.045	598.76
468.417	602.37
468.789	611.64
469.161	610.28
469.534	633.33
469.906	623.39
470.278	633.56
470.65	614.57
471.022	637.4
471.394	650.51
471.766	676.72
472.138	672.65
472.51	663.61
472.882	672.2
473.253	691.41
473.625	691.18
473.997	709.71
474.369	709.26
474.74	683.27
475.112	701.35
475.484	727.57
475.855	734.57
476.227	708.81
476.598	767.79
476.97	758.98
477.341	755.59
477.713	794.46
478.084	768.92
478.455	784.51
478.827	786.32
479.198	800.56
479.569	821.57
479.94	835.59
480.311	819.99
480.682	850.27
481.053	875.58
481.424	843.72
481.795	863.83
482.166	887.79
482.537	899.31
482.908	913.78
483.279	949.03
483.65	937.73
484.021	940.89
484.391	949.93
484.762	978.18
485.133	981.34
485.503	986.99
485.874	1000.33
486.244	1013.43
486.615	1041.46
486.985	1045.98
487.356	1046.43
487.726	1049.59
488.097	1083.04
488.467	1057.73
488.837	1092.3
489.207	1096.82
489.578	1112.64
489.948	1131.4
490.318	1134.11
490.688	1128.23
491.058	1161
491.428	1184.05
491.798	1177.5
492.168	1168.91
492.538	1182.47
492.908	1221.56
493.278	1224.73
493.648	1208.23
494.017	1238.96
494.387	1281
494.757	1279.87
495.126	1277.38
495.496	1275.57
495.866	1295.91
496.235	1281.9
496.605	1265.63
496.974	1303.37
497.344	1331.84
497.713	1331.84
498.082	1340.88
498.452	1373.88
498.821	1331.84
499.19	1331.84
499.559	1360.77
499.928	1363.26
500.298	1372.97
500.667	1373.42
501.036	1382.46
501.405	1420.43
501.774	1383.59
502.143	1411.84
502.512	1424.5
502.88	1436.25
503.249	1443.25
503.618	1434.21
503.987	1440.32
504.356	1460.88
504.724	1452.74
505.093	1457.49
505.462	1472.4
505.83	1458.39
506.199	1483.03
506.567	1485.29
506.936	1479.86
507.304	1514.21
507.672	1494.78
508.041	1515.34
508.409	1535.45
508.777	1535.91
509.145	1514.44
509.514	1527.32
509.882	1553.76
510.25	1525.06
510.618	1585.17
510.986	1537.49
511.354	1563.7
511.722	1598.05
512.09	1592.85
512.458	1588.79
512.826	1583.81
513.193	1579.29
513.561	1616.58
513.929	1612.51
514.297	1630.59
514.664	1633.3
515.032	1638.73
515.4	1629.46
515.767	1638.05
516.135	1676.69
516.502	1634.89
516.869	1673.76
517.237	1658.39
517.604	1649.35
517.972	1661.33
518.339	1684.83
518.706	1695.45
519.073	1686.41
519.44	1709.23
519.808	1689.8
520.175	1717.82
520.542	1697.94
520.909	1735
521.276	1738.84
521.643	1706.52
522.009	1725.96
522.376	1750.82
522.743	1770.02
523.11	1750.14
523.477	1785.62
523.843	1764.83
524.21	1789.91
524.577	1803.92
524.943	1791.27
525.31	1814.54
525.676	1823.81
526.043	1802.79
526.409	1848.89
526.776	1828.33
527.142	1843.02
527.508	1850.47
527.874	1857.03
528.241	1876.46
528.607	1842.34
528.973	1877.14
529.339	1867.87
529.705	1875.78
530.071	1885.73
530.437	1900.87
530.803	1860.19
531.169	1893.64
531.535	1901.55
531.901	1890.92
532.267	1944.03
532.632	1886.86
532.998	1915.78
533.364	1897.25
533.73	1910.13
534.095	1943.8
534.461	1937.25
534.826	1920.08
535.192	1949
535.557	1913.98
535.923	1919.85
536.288	1950.81
536.653	1951.26
537.019	1927.99
537.384	1945.84
537.749	1938.61
538.114	1919.17
538.479	1954.88
538.845	1932.05
539.21	1915.33
539.575	1937.48
539.94	1957.59
540.305	1938.38
540.67	1944.26
541.034	1930.47
541.399	1932.05
541.764	1958.27
542.129	1971.6
542.494	1955.56
542.858	1959.4
543.223	1940.19
543.587	1949.23
543.952	1931.15
544.316	1952.62
544.681	1956.91
545.045	1953.07
545.41	1966.18
545.774	1975.22
546.138	1933.41
546.503	1943.58
546.867	1954.2
547.231	1951.04
547.595	1988.55
547.959	1970.92
548.324	1980.19
548.688	1987.42
549.052	1989.68
549.416	1991.04
549.779	1979.74
550.143	1986.52
550.507	1955.78
550.871	1959.62
551.235	1993.97
551.599	1965.27
551.962	1953.75
552.326	1997.59
552.689	1982
553.053	2014.31
553.417	1984.26
553.78	2045.5
554.143	2031.03
554.507	2023.12
554.87	2012.05
555.234	2018.15
555.597	1988.1
555.96	2013.63
556.323	2016.57
556.686	2007.53
557.05	2035.1
557.413	2047.53
557.776	2038.04
558.139	2012.73
558.502	2023.12
558.865	2037.81
559.228	2048.66
559.59	2036.23
559.953	2066.97
560.316	2066.06
560.679	2033.97
561.041	2108.55
561.404	2101.99
561.767	2087.08
562.129	2065.61
562.492	2081.43
562.854	2088.21
563.217	2058.6
563.579	2073.52
563.941	2097.02
564.304	2094.31
564.666	2099.51
565.028	2082.11
565.39	2116.91
565.753	2094.76
566.115	2095.67
566.477	2125.27
566.839	2123.24
567.201	2141.31
567.563	2148.32
567.925	2111.03
568.287	2143.12
568.648	2148.32
569.01	2137.02
569.372	2134.08
569.734	2124.14
570.095	2182.22
570.457	2137.7
570.819	2167.08
571.18	2165.27
571.542	2155.78
571.903	2161.2
572.265	2164.59
572.626	2149
572.987	2155.1
573.349	2167.75
573.71	2158.49
574.071	2165.95
574.432	2181.54
574.794	2159.62
575.155	2142.44
575.516	2143.35
575.877	2176.34
576.238	2159.62
576.599	2159.62
576.96	2149
577.32	2164.14
577.681	2175.66
578.042	2161.43
578.403	2137.02
578.763	2124.82
579.124	2177.47
579.485	2132.95
579.845	2155.55
580.206	2151.26
580.566	2110.35
580.927	2129.11
581.287	2151.93
581.648	2143.35
582.008	2116.23
582.368	2112.39
582.728	2150.81
583.089	2147.87
583.449	2137.25
583.809	2114.42
584.169	2132.05
584.529	2111.71
584.889	2123.24
585.249	2114.87
585.609	2047.3
585.969	2092.05
586.329	2096.8
586.688	2079.85
587.048	2092.95
587.408	2054.76
587.768	2057.02
588.127	2057.47
588.487	2055.67
588.846	2056.8
589.206	2065.38
589.565	2033.52
589.925	2071.26
590.284	2054.08
590.643	2052.73
591.003	2071.49
591.362	2066.97
591.721	2073.07
592.08	2043.46
592.44	2071.71
592.799	2057.7
593.158	2027.64
593.517	2041.88
593.876	2031.26
594.235	2010.02
594.593	2010.92
594.952	2041.66
595.311	2006.85
595.67	2021.09
596.029	2028.32
596.387	2021.32
596.746	2014.31
597.104	2002.11
597.463	2009.57
597.822	2045.27
598.18	2009.11
598.538	2003.46
598.897	2058.6
599.255	2017.93
599.613	2012.28
599.972	2038.94
600.33	2008.44
600.688	2043.01
601.046	2049.79
601.404	2042.56
601.762	2031.49
602.12	2028.1
602.478	2052.28
602.836	2048.43
603.194	2018.15
603.552	2012.5
603.91	2025.61
604.268	2045.72
604.625	2050.24
604.983	2031.71
605.341	2037.59
605.698	2031.03
606.056	2058.6
606.413	2063.58
606.771	2057.25
607.128	2088.89
607.485	2054.54
607.843	2043.24
608.2	2090.02
608.557	2078.26
608.914	2055.67
609.272	2086.63
609.629	2088.89
609.986	2113.97
610.343	2100.64
610.7	2098.83
611.057	2086.85
611.414	2106.74
611.771	2081.2
612.127	2101.31
612.484	2118.26
612.841	2086.63
613.198	2098.6
613.554	2103.8
613.911	2089.79
614.267	2116
614.624	2114.87
614.98	2096.34
615.337	2118.04
615.693	2100.41
616.05	2117.81
616.406	2097.93
616.762	2126.85
617.118	2122.78
617.475	2102.44
617.831	2084.14
618.187	2102.22
618.543	2096.34
618.899	2146.51
619.255	2124.14
619.611	2123.46
619.967	2108.09
620.323	2151.71
620.678	2126.62
621.034	2143.35
621.39	2112.16
621.746	2129.34
622.101	2155.32
622.457	2107.42
622.812	2134.99
623.168	2119.62
623.523	2108.55
623.879	2111.03
624.234	2117.81
624.589	2148.55
624.945	2132.05
625.3	2115.78
625.655	2148.09
626.01	2109.68
626.365	2096.57
626.72	2136.57
627.075	2117.81
627.43	2088.21
627.785	2090.47
628.14	2102.67
628.495	2076.46
628.85	2090.02
629.205	2093.41
629.559	2104.93
629.914	2121.43
630.269	2097.02
630.623	2106.06
630.978	2124.82
631.332	2102.9
631.687	2121.2
632.041	2129.79
632.396	2114.2
632.75	2089.79
633.104	2095.67
633.459	2122.56
633.813	2064.93
634.167	2101.99
634.521	2119.62
634.875	2103.12
635.229	2084.37
635.583	2087.3
635.937	2075.33
636.291	2061.99
636.645	2118.49
636.999	2102.44
637.352	2082.33
637.706	2055.44
638.06	2105.83
638.413	2085.27
638.767	2079.85
639.121	2110.35
639.474	2095.67
639.828	2089.56
640.181	2057.93
640.534	2088.43
640.888	2073.52
641.241	2064.48
641.594	2101.77
641.947	2133.4
642.301	2054.08
642.654	2064.03
643.007	2117.59
643.36	2104.7
643.713	2095.67
644.066	2116
644.419	2077.81
644.771	2069.68
645.124	2080.07
645.477	2068.1
645.83	2053.63
646.182	2076.23
646.535	2071.03
646.888	2057.02
647.24	2017.25
647.593	2052.73
647.945	2067.42
648.298	2099.05
648.65	2064.03
649.002	2060.41
649.355	2089.34
649.707	2073.52
650.059	2074.65
650.411	2113.29
650.763	2126.62
651.115	2160.07
651.467	2161.43
651.819	2144.48
652.171	2189.22
652.523	2164.82
652.875	2169.34
653.227	2157.13
653.578	2236.23
653.93	2210.46
654.282	2209.56
654.633	2195.1
654.985	2231.71
655.337	2233.06
655.688	2238.71
656.039	2231.48
656.391	2232.38
656.742	2246.17
657.094	2249.79
657.445	2264.47
657.796	2278.26
658.147	2280.75
658.498	2279.62
658.849	2307.86
659.2	2300.41
659.551	2301.76
659.902	2340.63
660.253	2313.51
660.604	2331.82
660.955	2320.52
661.306	2344.92
661.656	2345.38
662.007	2381.53
662.358	2399.16
662.708	2412.27
663.059	2456.11
663.409	2420.18
663.76	2445.03
664.11	2464.02
664.461	2472.15
664.811	2456.33
665.161	2502.21
665.511	2481.42
665.862	2532.26
666.212	2533.17
666.562	2548.53
666.912	2539.04
667.262	2594.86
667.612	2611.81
667.962	2627.85
668.312	2660.17
668.662	2672.83
669.011	2666.95
669.361	2662.66
669.711	2668.53
670.06	2712.37
670.41	2739.94
670.76	2760.73
671.109	2753.28
671.459	2788.08
671.808	2792.14
672.157	2840.28
672.507	2790.11
672.856	2832.82
673.205	2877.57
673.554	2903.55
673.904	2913.27
674.253	2954.85
674.602	2980.84
674.951	2977.45
675.3	2981.74
675.649	3024.91
675.998	3063.32
676.346	3084.79
676.695	3084.11
677.044	3141.51
677.393	3094.06
677.741	3193.49
678.09	3165.69
678.438	3174.28
678.787	3248.18
679.135	3264.9
679.484	3240.04
679.832	3282.07
680.181	3288.85
680.529	3332.02
680.877	3332.69
681.225	3348.29
681.573	3370.43
681.922	3460.83
682.27	3473.48
682.618	3460.38
682.966	3488.17
683.314	3530.2
683.661	3557.55
684.009	3565.23
684.357	3609.07
684.705	3600.03
685.053	3628.73
685.4	3636.64
685.748	3641.39
686.095	3633.7
686.443	3683.19
686.79	3717.77
687.138	3731.33
687.485	3786.69
687.832	3802.06
688.18	3829.86
688.527	3868.95
688.874	3863.3
689.221	3897.43
689.568	3936.52
689.915	3920.93
690.262	3998.67
690.609	3974.49
690.956	3989.4
691.303	4066.91
691.65	4050.42
691.997	4041.83
692.344	4088.61
692.69	4082.96
693.037	4186.23
693.383	4168.83
693.73	4205.67
694.077	4198.89
694.423	4252.22
694.769	4216.97
695.116	4296.06
695.462	4322.05
695.808	4328.6
696.155	4300.13
696.501	4328.83
696.847	4360.46
697.193	4393.91
697.539	4374.02
697.885	4447.47
698.231	4405.44
698.577	4449.5
698.923	4446.11
699.269	4491.31
699.614	4510.74
699.96	4545.09
700.306	4559.1
700.651	4576.96
700.997	4625.32
701.342	4596.39
701.688	4655.82
702.033	4651.08
702.379	4715.48
702.724	4687.46
703.069	4729.27
703.415	4725.88
703.76	4735.82
704.105	4755.71
704.45	4789.38
704.795	4781.7
705.14	4782.83
705.485	4808.36
705.83	4912.31
706.175	4853.33
706.52	4910.73
706.865	4917.96
707.209	4921.35
707.554	4929.72
707.899	4964.06
708.243	4979.21
708.588	5011.29
708.932	4983.27
709.277	5025.31
709.621	5016.94
709.966	5029.83
710.31	5082.93
710.654	5056.72
710.998	5128.13
711.342	5097.39
711.687	5140.1
712.031	5143.27
712.375	5136.04
712.719	5169.71
713.063	5191.4
713.407	5191.86
713.75	5186.43
714.094	5190.73
714.438	5259.88
714.782	5261.68
715.125	5236.15
715.469	5314.34
715.812	5303.49
716.156	5313.66
716.499	5351.62
716.843	5316.15
717.186	5325.86
717.53	5378.52
717.873	5299.65
718.216	5337.84
718.559	5329.03
718.902	5335.13
719.246	5344.85
719.589	5372.42
719.932	5335.81
720.275	5409.02
720.617	5425.75
720.96	5406.31
721.303	5476.59
721.646	5456.48
721.989	5478.63
722.331	5415.35
722.674	5464.16
723.016	5474.56
723.359	5451.06
723.701	5475.92
724.044	5438.4
724.386	5487.89
724.729	5482.47
725.071	5454.67
725.413	5480.89
725.755	5541.45
726.097	5488.12
726.439	5477.27
726.782	5507.55
727.124	5509.13
727.465	5491.28
727.807	5486.54
728.149	5488.34
728.491	5537.16
728.833	5542.35
729.175	5536.7
729.516	5505.07
729.858	5541.9
730.199	5535.35
730.541	5551.17
730.882	5581
731.224	5599.98
731.565	5558.4
731.906	5564.05
732.248	5541.45
732.589	5529.93
732.93	5521.56
733.271	5572.18
733.612	5556.14
733.953	5605.4
734.294	5505.07
734.635	5531.06
734.976	5591.39
735.317	5550.94
735.658	5568.79
735.999	5551.39
736.339	5519.3
736.68	5585.07
737.021	5570.15
737.361	5552.52
737.702	5577.38
738.042	5533.54
738.383	5535.12
738.723	5519.53
739.063	5551.62
739.404	5551.39
739.744	5544.16
740.084	5525.41
740.424	5524.5
740.764	5487.44
741.104	5518.17
741.444	5548.68
741.784	5504.39
742.124	5517.04
742.464	5502.36
742.804	5520.21
743.143	5513.88
743.483	5546.87
743.823	5453.09
744.162	5472.98
744.502	5527.89
744.841	5452.87
745.181	5541.68
745.52	5532.19
745.86	5515.24
746.199	5447.67
746.538	5494.67
746.877	5465.75
747.216	5462.36
747.556	5484.28
747.895	5547.78
748.234	5460.55
748.573	5421.91
748.911	5429.81
749.25	5413.09
749.589	5437.95
749.928	5432.53
750.267	5423.26
750.605	5383.49
750.944	5378.29
751.283	5380.1
751.621	5409.93
751.96	5407.44
752.298	5359.31
752.636	5337.39
752.975	5336.26
753.313	5327.9
753.651	5346.43
753.989	5340.1
754.327	5294.68
754.666	5281.12
755.004	5314.34
755.342	5266.2
755.679	5270.95
756.017	5271.4
756.355	5254.68
756.693	5198.63
757.031	5227.79
757.368	5204.06
757.706	5273.89
758.044	5194.79
758.381	5185.98
758.719	5164.06
759.056	5203.38
759.394	5168.58
759.731	5137.17
760.068	5154.12
760.405	5128.35
760.743	5103.95
761.08	5112.31
761.417	5064.17
761.754	5068.24
762.091	5093.1
762.428	5038.19
762.765	5010.16
763.102	5043.38
763.438	4991.63
763.775	4996.83
764.112	4992.99
764.449	4983.27
764.785	4945.08
765.122	4941.24
765.458	4927
765.795	4855.14
766.131	4931.52
766.467	4884.52
766.804	4929.04
767.14	4894.69
767.476	4904.86
767.812	4851.07
768.148	4802.94
768.485	4807.91
768.821	4819.44
769.157	4800.45
769.492	4763.62
769.828	4745.99
770.164	4739.66
770.5	4709.16
770.836	4746.67
771.171	4691.3
771.507	4662.38
771.842	4647.01
772.178	4676.84
