Data from carpet_green_FLMS001491_00081.txt Node
Date: Wed Feb 08 10:35:57 GMT 2017
User: dcchb
Spectrometer: FLMS00149
Trigger mode: 0
Integration Time (sec): 2.000000E-2
Scans to average: 10
Electric dark correction enabled: true
Nonlinearity correction enabled: false
Boxcar width: 0
XAxis mode: Wavelengths
Number of Pixels in Spectrum: 2048
>>>>>Begin Spectral Data<<<<<
341.393	-18.93
341.776	-18.93
342.16	-18.93
342.543	-64.57
342.927	-60.05
343.31	-60.73
343.693	-50.79
344.077	-76.33
344.46	-44.24
344.843	-53.73
345.226	-49.21
345.61	-37.68
345.993	-31.13
346.376	-2.43
346.759	27.17
347.142	26.5
347.525	41.19
347.908	66.27
348.291	56.55
348.674	88.87
349.057	99.71
349.44	121.64
349.823	135.42
350.206	154.85
350.588	165.02
350.971	186.27
351.354	185.36
351.737	205.93
352.119	218.58
352.502	229.2
352.884	237.11
353.267	276.43
353.65	273.95
354.032	258.81
354.414	281.18
354.797	266.49
355.179	289.09
355.562	320.27
355.944	287.28
356.326	296.77
356.709	306.72
357.091	315.3
357.473	308.75
357.855	312.82
358.238	329.09
358.62	302.87
359.002	330.44
359.384	323.44
359.766	302.2
360.148	299.03
360.53	301.74
360.912	315.08
361.294	311.46
361.676	292.48
362.057	284.34
362.439	313.72
362.821	303.55
363.203	308.07
363.584	306.49
363.966	291.35
364.348	296.09
364.729	299.71
365.111	275.76
365.493	298.35
365.874	294.51
366.256	274.17
366.637	272.37
367.019	290.67
367.4	283.44
367.781	284.12
368.163	275.98
368.544	269.2
368.925	293.83
369.306	290.44
369.688	288.18
370.069	267.39
370.45	291.57
370.831	270.78
371.212	278.69
371.593	268.75
371.974	273.04
372.355	283.89
372.736	280.05
373.117	282.08
373.498	286.83
373.879	278.02
374.26	288.64
374.641	307.17
375.021	295.42
375.402	297.68
375.783	281.41
376.163	294.29
376.544	270.56
376.925	277.34
377.305	275.98
377.686	282.08
378.066	287.51
378.447	292.7
378.827	285.92
379.208	306.72
379.588	278.92
379.968	279.6
380.349	280.28
380.729	287.28
381.109	279.82
381.489	287.05
381.87	293.61
382.25	281.86
382.63	282.76
383.01	297
383.39	299.94
383.77	295.64
384.15	288.86
384.53	278.69
384.91	283.44
385.29	283.44
385.67	296.32
386.049	296.32
386.429	294.06
386.809	306.04
387.189	289.54
387.568	285.47
387.948	307.17
388.328	316.43
388.707	308.97
389.087	298.58
389.466	293.61
389.846	295.19
390.225	291.57
390.605	293.16
390.984	296.77
391.363	297.68
391.743	294.29
392.122	301.29
392.501	297.45
392.881	319.6
393.26	296.09
393.639	292.48
394.018	303.78
394.397	310.78
394.776	301.29
395.155	294.51
395.534	322.31
395.913	278.47
396.292	315.75
396.671	301.29
397.05	301.97
397.429	311.91
397.808	307.17
398.186	314.4
398.565	300.39
398.944	320.5
399.323	307.62
399.701	300.39
400.08	303.1
400.458	308.75
400.837	300.39
401.215	315.08
401.594	306.72
401.972	305.59
402.351	291.57
402.729	291.8
403.107	313.49
403.486	286.38
403.864	308.07
404.242	327.51
404.62	337.67
404.999	322.08
405.377	322.76
405.755	313.49
406.133	323.66
406.511	307.62
406.889	307.62
407.267	306.26
407.645	323.21
408.023	304.23
408.401	329.77
408.779	336.09
409.156	307.39
409.534	315.75
409.912	318.01
410.29	312.14
410.667	321.86
411.045	331.8
411.422	316.66
411.8	325.25
412.178	308.3
412.555	320.5
412.933	328.41
413.31	311.46
413.687	331.12
414.065	322.53
414.442	322.08
414.819	319.82
415.197	321.86
415.574	341.06
415.951	318.47
416.328	335.19
416.705	324.57
417.082	332.03
417.46	348.52
417.837	345.81
418.214	326.83
418.591	333.38
418.967	333.38
419.344	342.87
419.721	339.48
420.098	360.5
420.475	339.93
420.852	319.37
421.228	351.69
421.605	326.38
421.982	337.45
422.358	349.43
422.735	333.83
423.111	342.65
423.488	343.32
423.864	329.09
424.241	346.26
424.617	345.13
424.994	331.57
425.37	330.9
425.746	351.01
426.123	339.03
426.499	358.69
426.875	335.64
427.251	353.72
427.627	356.88
428.003	347.84
428.379	345.81
428.756	347.84
429.132	337.9
429.507	330.67
429.883	361.63
430.259	324.12
430.635	362.08
431.011	355.98
431.387	364.11
431.763	367.28
432.138	357.34
432.514	365.24
432.89	352.14
433.265	369.54
433.641	370.67
434.016	359.82
434.392	374.51
434.767	360.95
435.143	351.69
435.518	358.24
435.894	371.12
436.269	377
436.644	380.84
437.02	367.5
437.395	381.97
437.77	356.43
438.145	384.91
438.52	366.83
438.895	359.14
439.271	355.98
439.646	370.89
440.021	376.32
440.395	393.72
440.77	387.16
441.145	377.22
441.52	372.02
441.895	365.7
442.27	371.12
442.645	365.7
443.019	377.67
443.394	395.53
443.769	377
444.143	375.41
444.518	385.13
444.892	404.11
445.267	391.46
445.641	391.46
446.016	395.07
446.39	394.4
446.764	378.13
447.139	402.31
447.513	405.02
447.887	411.8
448.262	415.41
448.636	409.76
449.01	414.06
449.384	398.24
449.758	394.62
450.132	393.04
450.506	384.91
450.88	420.84
451.254	393.49
451.628	420.38
452.002	403.66
452.376	403.66
452.75	411.8
453.123	415.41
453.497	423.77
453.871	413.6
454.244	414.06
454.618	406.15
454.992	400.27
455.365	433.04
455.739	436.88
456.112	431.91
456.486	414.96
456.859	434.62
457.232	426.26
457.606	440.72
457.979	437.33
458.352	444.56
458.725	455.86
459.099	454.73
459.472	432.14
459.845	418.8
460.218	469.2
460.591	447.28
460.964	438.01
461.337	440.72
461.71	456.32
462.083	461.51
462.456	442.98
462.829	463.32
463.201	459.48
463.574	466.48
463.947	466.94
464.32	467.84
464.692	475.52
465.065	471.91
465.438	475.75
465.81	492.7
466.183	485.02
466.555	486.6
466.928	477.56
467.3	492.92
467.672	485.24
468.045	480.5
468.417	486.82
468.789	478.46
469.161	501.51
469.534	510.78
469.906	507.61
470.278	523.43
470.65	514.39
471.022	541.74
471.394	506.03
471.766	525.24
472.138	516.2
472.51	538.57
472.882	533.83
473.253	541.96
473.625	534.51
473.997	569.99
474.369	571.34
474.74	573.15
475.112	564.79
475.484	577.44
475.855	583.09
476.227	558.46
476.598	607.72
476.97	584
477.341	600.49
477.713	618.8
478.084	576.99
478.455	585.13
478.827	624.67
479.198	628.06
479.569	629.87
479.94	632.81
480.311	651.56
480.682	628.74
481.053	676.65
481.424	660.38
481.795	647.27
482.166	686.14
482.537	666.71
482.908	699.02
483.279	684.56
483.65	686.82
484.021	708.29
484.391	699.7
484.762	729.98
485.133	714.61
485.503	722.3
485.874	722.07
486.244	741.96
486.615	777.44
486.985	742.18
487.356	762.52
487.726	777.89
488.097	784.67
488.467	799.58
488.837	793.93
489.207	787.38
489.578	816.08
489.948	809.98
490.318	826.25
490.688	846.59
491.058	829.64
491.428	840.03
491.798	862.18
492.168	872.58
492.538	854.95
492.908	868.51
493.278	885.91
493.648	865.57
494.017	888.85
494.387	903.76
494.757	920.26
495.126	906.93
495.496	892.01
495.866	899.92
496.235	905.8
496.605	944.21
496.974	927.26
497.344	949.18
497.713	961.61
498.082	929.07
498.452	979.47
498.821	943.53
499.19	958.9
499.559	949.86
499.928	959.81
500.298	951.44
500.667	988.96
501.036	993.02
501.405	986.02
501.774	974.72
502.143	1004.78
502.512	1018.56
502.88	1013.36
503.249	1013.36
503.618	1001.61
503.987	1011.56
504.356	1035.74
504.724	1027.15
505.093	1021.72
505.462	1013.36
505.83	1000.48
506.199	1025.57
506.567	1051.33
506.936	1025.57
507.304	1071.67
507.672	1043.42
508.041	1056.75
508.409	1044.77
508.777	1066.92
509.145	1041.16
509.514	1084.1
509.882	1066.02
510.25	1034.15
510.618	1084.77
510.986	1109.41
511.354	1087.49
511.722	1098.56
512.09	1102.85
512.458	1102.17
512.826	1121.61
513.193	1094.49
513.561	1117.54
513.929	1143.53
514.297	1108.5
514.664	1142.17
515.032	1124.32
515.4	1147.6
515.767	1117.54
516.135	1130.42
516.502	1135.62
516.869	1155.73
517.237	1153.25
517.604	1134.04
517.972	1157.54
518.339	1176.3
518.706	1169.97
519.073	1140.37
519.44	1153.92
519.808	1190.76
520.175	1163.64
520.542	1154.6
520.909	1199.12
521.276	1201.15
521.643	1186.47
522.009	1221.04
522.376	1203.19
522.743	1219.69
523.11	1217.88
523.477	1227.82
523.843	1233.24
524.21	1248.16
524.577	1249.97
524.943	1259.46
525.31	1259.46
525.676	1246.35
526.043	1265.56
526.409	1280.02
526.776	1263.07
527.142	1288.16
527.508	1281.6
527.874	1270.98
528.241	1288.38
528.607	1265.79
528.973	1282.51
529.339	1275.5
529.705	1290.19
530.071	1289.74
530.437	1319.57
530.803	1320.47
531.169	1325.67
531.535	1313.69
531.901	1308.5
532.267	1303.53
532.632	1299.46
532.998	1315.73
533.364	1342.39
533.73	1326.58
534.095	1339.46
534.461	1312.34
534.826	1333.81
535.192	1360.02
535.557	1330.87
535.923	1309.17
536.288	1324.99
536.653	1324.32
537.019	1318.67
537.384	1318.21
537.749	1345.56
538.114	1323.86
538.479	1310.08
538.845	1351.43
539.21	1364.31
539.575	1343.3
539.94	1345.78
540.305	1307.14
540.67	1366.12
541.034	1367.7
541.399	1327.93
541.764	1352.34
542.129	1349.85
542.494	1373.81
542.858	1373.58
543.223	1348.95
543.587	1368.61
543.952	1354.82
544.316	1345.78
544.681	1359.34
545.045	1358.66
545.41	1356.86
545.774	1327.93
546.138	1367.48
546.503	1370.87
546.867	1364.54
547.231	1356.63
547.595	1367.03
547.959	1345.33
548.324	1374.26
548.688	1387.82
549.052	1382.84
549.416	1382.62
549.779	1349.85
550.143	1372.9
550.507	1397.31
550.871	1372.68
551.235	1369.51
551.599	1362.51
551.962	1380.59
552.326	1395.27
552.689	1371.55
553.053	1359.79
553.417	1364.77
553.78	1379.68
554.143	1385.1
554.507	1387.59
554.87	1387.59
555.234	1400.7
555.597	1396.4
555.96	1399.57
556.323	1405.22
556.686	1406.57
557.05	1407.03
557.413	1384.2
557.776	1411.54
558.139	1420.13
558.502	1430.3
558.865	1442.5
559.228	1418.1
559.59	1412
559.953	1423.52
560.316	1423.75
560.679	1426.91
561.041	1444.09
561.404	1435.27
561.767	1458.1
562.129	1444.54
562.492	1484.99
562.854	1458.78
563.217	1453.8
563.579	1460.13
563.941	1455.61
564.304	1457.19
564.666	1430.75
565.028	1458.32
565.39	1440.7
565.753	1476.63
566.115	1470.75
566.477	1467.14
566.839	1479.11
567.201	1463.75
567.563	1503.97
567.925	1470.3
568.287	1499.45
568.648	1486.57
569.01	1481.83
569.372	1493.12
569.734	1480.7
570.095	1468.94
570.457	1487.48
570.819	1477.76
571.18	1516.17
571.542	1505.1
571.903	1515.04
572.265	1493.12
572.626	1505.55
572.987	1514.14
573.349	1496.29
573.71	1503.07
574.071	1506.68
574.432	1526.57
574.794	1515.72
575.155	1494.48
575.516	1527.47
575.877	1527.47
576.238	1504.2
576.599	1530.64
576.96	1509.85
577.32	1510.98
577.681	1500.58
578.042	1508.49
578.403	1506.23
578.763	1503.97
579.124	1488.15
579.485	1505.1
579.845	1500.36
580.206	1493.35
580.566	1490.19
580.927	1512.79
581.287	1505.1
581.648	1538.32
582.008	1475.05
582.368	1465.78
582.728	1517.3
583.089	1475.27
583.449	1485.67
583.809	1454.03
584.169	1470.07
584.529	1479.34
584.889	1491.09
585.249	1493.35
585.609	1471.88
585.969	1456.29
586.329	1450.19
586.688	1482.28
587.048	1479.79
587.408	1481.83
587.768	1457.65
588.127	1463.29
588.487	1473.01
588.846	1468.27
589.206	1453.58
589.565	1421.71
589.925	1450.64
590.284	1465.33
590.643	1430.3
591.003	1447.02
591.362	1472.11
591.721	1433.69
592.08	1445.67
592.44	1445.44
592.799	1420.13
593.158	1451.09
593.517	1408.16
593.876	1445.44
594.235	1442.05
594.593	1453.13
594.952	1442.28
595.311	1432.79
595.67	1439.79
596.029	1446.12
596.387	1437.98
596.746	1435.72
597.104	1431.66
597.463	1422.62
597.822	1435.95
598.18	1425.56
598.538	1422.84
598.897	1438.21
599.255	1427.36
599.613	1449.74
599.972	1407.48
600.33	1432.34
600.688	1457.65
601.046	1434.14
601.404	1478.66
601.762	1454.48
602.12	1435.05
602.478	1442.96
602.836	1429.62
603.194	1450.19
603.552	1462.39
603.91	1448.38
604.268	1451.54
604.625	1483.86
604.983	1449.51
605.341	1444.09
605.698	1462.39
606.056	1484.09
606.413	1463.29
606.771	1484.31
607.128	1451.32
607.485	1476.4
607.843	1458.1
608.2	1456.74
608.557	1489.06
608.914	1501.94
609.272	1467.36
609.629	1446.35
609.986	1481.6
610.343	1449.06
610.7	1476.18
611.057	1461.04
611.414	1498.32
611.771	1456.52
612.127	1498.32
612.484	1484.09
612.841	1496.74
613.198	1457.87
613.554	1496.29
613.911	1489.51
614.267	1514.37
614.624	1512.56
614.98	1518.89
615.337	1493.35
615.693	1494.71
616.05	1503.29
616.406	1484.31
616.762	1503.29
617.118	1501.71
617.475	1477.76
617.831	1491.54
618.187	1480.02
618.543	1510.07
618.899	1499.9
619.255	1514.14
619.611	1502.62
619.967	1524.31
620.323	1512.11
620.678	1510.53
621.034	1516.63
621.39	1514.14
621.746	1518.66
622.101	1502.39
622.457	1486.57
622.812	1507.36
623.168	1522.5
623.523	1495.84
623.879	1507.14
624.234	1496.51
624.589	1488.83
624.945	1508.94
625.3	1515.72
625.655	1483.86
626.01	1506.46
626.365	1492.67
626.72	1526.57
627.075	1506.23
627.43	1485.44
627.785	1496.06
628.14	1487.25
628.495	1481.83
628.85	1507.81
629.205	1488.15
629.559	1512.79
629.914	1446.12
630.269	1503.29
630.623	1525.44
630.978	1518.89
631.332	1501.71
631.687	1513.01
632.041	1495.38
632.396	1509.4
632.75	1487.93
633.104	1508.94
633.459	1491.99
633.813	1494.48
634.167	1506.01
634.521	1496.74
634.875	1472.33
635.229	1462.16
635.583	1483.18
635.937	1454.48
636.291	1485.22
636.645	1492.9
636.999	1455.39
637.352	1488.15
637.706	1477.76
638.06	1478.66
638.413	1473.46
638.767	1461.26
639.121	1453.8
639.474	1467.81
639.828	1484.31
640.181	1483.86
640.534	1492.22
640.888	1495.16
641.241	1462.39
641.594	1475.5
641.947	1481.37
642.301	1482.73
642.654	1485.22
643.007	1473.01
643.36	1497.87
643.713	1495.84
644.066	1488.83
644.419	1460.13
644.771	1472.11
645.124	1476.85
645.477	1484.99
645.83	1471.88
646.182	1463.29
646.535	1436.63
646.888	1436.4
647.24	1463.75
647.593	1518.66
647.945	1472.79
648.298	1476.63
648.65	1454.93
649.002	1489.06
649.355	1496.06
649.707	1475.05
650.059	1514.14
650.411	1523.41
650.763	1519.79
651.115	1519.79
651.467	1517.53
651.819	1542.16
652.171	1547.36
652.523	1542.39
652.875	1531.54
653.227	1541.26
653.578	1543.29
653.93	1560.69
654.282	1541.26
654.633	1549.17
654.985	1535.38
655.337	1546.46
655.688	1579.45
656.039	1579.9
656.391	1555.72
656.742	1581.03
657.094	1593.69
657.445	1620.58
657.796	1593.46
658.147	1600.69
658.498	1610.86
658.849	1610.18
659.2	1626.68
659.551	1615.61
659.902	1631.65
660.253	1639.79
660.604	1621.93
660.955	1649.5
661.306	1645.66
661.656	1686.11
662.007	1659.67
662.358	1686.34
662.708	1708.03
663.059	1671.2
663.409	1697.64
663.76	1744.42
664.11	1726.79
664.461	1751.2
664.811	1748.03
665.161	1728.6
665.511	1762.95
665.862	1778.31
666.212	1776.96
666.562	1785.32
666.912	1786
667.262	1815.83
667.612	1833
667.962	1826
668.312	1854.92
668.662	1851.99
669.011	1871.19
669.361	1868.03
669.711	1881.36
670.06	1916.84
670.41	1911.64
670.76	1905.77
671.109	1933.56
671.459	1927.92
671.808	1959.78
672.157	1983.51
672.507	1957.07
672.856	1993.22
673.205	2009.04
673.554	2018.08
673.904	2033.45
674.253	2049.04
674.602	2056.95
674.951	2041.58
675.3	2063.05
675.649	2101.92
675.998	2086.1
676.346	2125.65
676.695	2107.57
677.044	2147.34
677.393	2147.8
677.741	2203.84
678.09	2166.1
678.438	2219.66
678.787	2235.93
679.135	2197.06
679.484	2244.74
679.832	2236.16
680.181	2290.84
680.529	2282.03
680.877	2312.99
681.225	2299.21
681.573	2362.03
681.922	2332.42
682.27	2376.49
682.618	2375.59
682.966	2380.11
683.314	2381.69
683.661	2402.48
684.009	2420.56
684.357	2477.96
684.705	2456.72
685.053	2461.46
685.4	2492.19
685.748	2524.51
686.095	2534.23
686.443	2541.46
686.79	2552.08
687.138	2557.05
687.485	2619.87
687.832	2594.11
688.18	2611.29
688.527	2631.4
688.874	2641.12
689.221	2656.26
689.568	2691.96
689.915	2680.66
690.262	2719.53
690.609	2751.4
690.956	2760.44
691.303	2766.31
691.65	2780.77
691.997	2801.79
692.344	2813.99
692.69	2817.84
693.037	2835.01
693.383	2827.1
693.73	2900.77
694.077	2893.99
694.423	2870.49
694.769	2864.39
695.116	2939.87
695.462	2954.56
695.808	2964.5
696.155	2970.6
696.501	2954.1
696.847	3018.06
697.193	2969.47
697.539	3031.16
697.885	3033.65
698.231	3028
698.577	3073.2
698.923	3143.7
699.269	3068.45
699.614	3112.07
699.96	3110.26
700.306	3158.39
700.651	3145.51
700.997	3120.88
701.342	3173.53
701.688	3159.52
702.033	3228.9
702.379	3208.33
702.724	3256.69
703.069	3291.72
703.415	3245.39
703.76	3278.16
704.105	3326.07
704.45	3330.82
704.795	3337.6
705.14	3318.61
705.485	3361.55
705.83	3335.79
706.175	3338.73
706.52	3379.18
706.865	3416.24
707.209	3410.59
707.554	3390.7
707.899	3480.19
708.243	3450.81
708.588	3445.62
708.932	3445.62
709.277	3461.66
709.621	3498.27
709.966	3510.92
710.31	3529.46
710.654	3535.33
710.998	3552.96
711.342	3569.91
711.687	3567.42
712.031	3539.4
712.375	3591.6
712.719	3593.41
713.063	3627.53
713.407	3597.7
713.75	3666.63
714.094	3626.18
714.438	3613.07
714.782	3668.21
715.125	3635.89
715.469	3656.23
715.812	3643.8
716.156	3639.51
716.499	3662.56
716.843	3688.55
717.186	3697.36
717.53	3766.51
717.873	3693.52
718.216	3739.62
718.559	3720.64
718.902	3705.5
719.246	3725.16
719.589	3736.46
719.932	3763.57
720.275	3792.27
720.617	3719.28
720.96	3787.3
721.303	3785.72
721.646	3781.2
721.989	3799.73
722.331	3823.46
722.674	3835.21
723.016	3812.61
723.359	3827.75
723.701	3837.24
724.044	3844.02
724.386	3843.12
724.729	3833.18
725.071	3859.39
725.413	3854.87
725.755	3873.63
726.097	3852.38
726.439	3890.35
726.782	3852.16
727.124	3929.9
727.465	3896.23
727.807	3868.66
728.149	3884.7
728.491	3883.12
728.833	3913.85
729.175	3919.95
729.516	3884.93
729.858	3928.77
730.199	3931.48
730.541	3909.33
730.882	3928.31
731.224	3898.94
731.565	3893.97
731.906	3943.46
732.248	3919.5
732.589	3902.33
732.93	3915.43
733.271	3912.04
733.612	3936.9
733.953	3912.95
734.294	3947.3
734.635	3917.92
734.976	3913.63
735.317	3903.91
735.658	3945.72
735.999	3960.63
736.339	3931.25
736.68	3915.89
737.021	3921.31
737.361	3944.36
737.702	3957.24
738.042	3908.65
738.383	3945.26
738.723	3938.03
739.063	3962.44
739.404	3871.37
739.744	3889.45
740.084	3914.76
740.424	3945.72
740.764	3910.24
741.104	3905.72
741.444	3921.99
741.784	3923.57
742.124	3941.65
742.464	3860.07
742.804	3945.26
743.143	3910.24
743.483	3908.2
743.823	3903
744.162	3873.4
744.502	3888.77
744.841	3922.21
745.181	3883.57
745.52	3906.85
745.86	3893.74
746.199	3925.6
746.538	3895.55
746.877	3870.01
747.216	3893.51
747.556	3871.82
747.895	3931.93
748.234	3882.89
748.573	3866.62
748.911	3848.32
749.25	3869.56
749.589	3833.85
749.928	3846.74
750.267	3864.81
750.605	3847.86
750.944	3866.4
751.283	3814.42
751.621	3827.98
751.96	3857.58
752.298	3825.27
752.636	3859.16
752.975	3831.37
753.313	3778.94
753.651	3813.74
753.989	3767.64
754.327	3785.49
754.666	3769.45
755.004	3841.99
755.342	3751.37
755.679	3809.45
756.017	3764.7
756.355	3753.63
756.693	3708.21
757.031	3724.48
757.368	3695.55
757.706	3741.65
758.044	3730.13
758.381	3664.37
758.719	3728.55
759.056	3717.92
759.394	3688.32
759.731	3683.58
760.068	3699.39
760.405	3676.8
760.743	3633.18
761.08	3655.33
761.417	3641.99
761.754	3632.73
762.091	3601.32
762.428	3654.88
762.765	3623.69
763.102	3611.03
763.438	3603.13
763.775	3577.36
764.112	3581.88
764.449	3560.19
764.785	3571.71
765.122	3544.82
765.458	3572.17
765.795	3499.17
766.131	3534.88
766.467	3518.61
766.804	3541.21
767.14	3493.98
767.476	3496.91
767.812	3472.28
768.148	3471.83
768.485	3501.66
768.821	3425.05
769.157	3439.51
769.492	3405.84
769.828	3418.5
770.164	3412.85
770.5	3391.38
770.836	3385.96
771.171	3398.16
771.507	3390.02
771.842	3365.39
772.178	3363.81
772.513	3312.96
772.849	3310.93
773.184	3337.14
773.519	3298.05
