Data from carpet_green_FLMS001491_00045.txt Node
Date: Wed Feb 08 10:35:25 GMT 2017
User: dcchb
Spectrometer: FLMS00149
Trigger mode: 0
Integration Time (sec): 2.000000E-2
Scans to average: 10
Electric dark correction enabled: true
Nonlinearity correction enabled: false
Boxcar width: 0
XAxis mode: Wavelengths
Number of Pixels in Spectrum: 2048
>>>>>Begin Spectral Data<<<<<
341.393	6.58
341.776	6.58
342.16	6.58
342.543	-67.54
342.927	-51.27
343.31	-65.96
343.693	-59.63
344.077	-86.3
344.46	-58.28
344.843	-64.6
345.226	-30.93
345.61	-40.65
345.993	-13.53
346.376	-7.2
346.759	10.2
347.142	23.3
347.525	48.16
347.908	64.66
348.291	68.28
348.674	106.01
349.057	106.47
349.44	126.8
349.823	161.61
350.206	155.05
350.588	169.97
350.971	193.24
351.354	197.09
351.737	211.1
352.119	227.82
352.502	229.63
352.884	247.48
353.267	239.8
353.65	278.44
354.032	275.95
354.414	289.51
354.797	290.64
355.179	319.12
355.562	303.3
355.944	303.75
356.326	304.65
356.709	312.34
357.091	327.48
357.473	313.69
357.855	329.96
358.238	284.99
358.62	315.5
359.002	305.56
359.384	313.01
359.766	303.52
360.148	326.12
360.53	305.56
360.912	302.17
361.294	285.67
361.676	295.61
362.057	294.94
362.439	307.59
362.821	277.76
363.203	284.54
363.584	302.85
363.966	280.7
364.348	313.01
364.729	307.59
365.111	275.05
365.493	297.87
365.874	280.02
366.256	291.77
366.637	292.68
367.019	288.61
367.4	299.91
367.781	280.02
368.163	283.86
368.544	272.11
368.925	286.57
369.306	298.55
369.688	290.64
370.069	274.15
370.45	281.83
370.831	296.52
371.212	271.66
371.593	281.83
371.974	282.05
372.355	274.37
372.736	277.76
373.117	293.81
373.498	297.42
373.879	306.46
374.26	278.21
374.641	270.98
375.021	293.81
375.402	284.99
375.783	280.92
376.163	295.39
376.544	293.35
376.925	292
377.305	297.87
377.686	296.07
378.066	279.57
378.447	278.89
378.827	270.53
379.208	307.59
379.588	285.67
379.968	299
380.349	308.95
380.729	298.55
381.109	287.7
381.489	310.3
381.87	275.95
382.25	284.31
382.63	291.55
383.01	290.64
383.39	290.42
383.77	322.51
384.15	277.76
384.53	285.22
384.91	294.71
385.29	291.09
385.67	273.47
386.049	286.8
386.429	298.78
386.809	299
387.189	308.27
387.568	282.73
387.948	297.2
388.328	303.07
388.707	296.29
389.087	323.18
389.466	293.58
389.846	299.91
390.225	287.25
390.605	320.92
390.984	322.73
391.363	310.08
391.743	309.62
392.122	297.87
392.501	287.48
392.881	311.43
393.26	307.82
393.639	319.12
394.018	306.23
394.397	304.2
394.776	296.29
395.155	306.01
395.534	312.34
395.913	320.47
396.292	304.43
396.671	334.03
397.05	311.21
397.429	309.62
397.808	305.33
398.186	287.25
398.565	315.95
398.944	282.05
399.323	316.4
399.701	334.93
400.08	323.41
400.458	322.05
400.837	300.36
401.215	316.18
401.594	308.95
401.972	316.18
402.351	326.8
402.729	325.67
403.107	300.59
403.486	321.83
403.864	338.78
404.242	313.24
404.62	301.04
404.999	304.88
405.377	307.82
405.755	324.09
406.133	320.92
406.511	321.15
406.889	320.7
407.267	310.98
407.645	312.79
408.023	337.42
408.401	309.62
408.779	331.32
409.156	309.62
409.534	313.01
409.912	321.6
410.29	322.51
410.667	324.09
411.045	320.25
411.422	329.51
411.8	332.45
412.178	324.77
412.555	301.26
412.933	326.57
413.31	332
413.687	343.75
414.065	334.26
414.442	334.03
414.819	312.79
415.197	325.44
415.574	326.12
415.951	324.09
416.328	350.53
416.705	340.13
417.082	329.29
417.46	336.29
417.837	331.32
418.214	320.02
418.591	342.62
418.967	320.02
419.344	328.38
419.721	320.47
420.098	339.45
420.475	332
420.852	331.32
421.228	350.53
421.605	353.69
421.982	359.11
422.358	338.32
422.735	349.4
423.111	369.74
423.488	354.82
423.864	359.34
424.241	346.46
424.617	341.71
424.994	343.75
425.37	352.56
425.746	342.62
426.123	363.86
426.499	333.13
426.875	349.62
427.251	341.04
427.627	348.04
428.003	340.58
428.379	341.94
428.756	341.04
429.132	373.58
429.507	368.83
429.883	364.99
430.259	355.27
430.635	327.93
431.011	357.08
431.387	356.18
431.763	349.4
432.138	340.13
432.514	356.63
432.89	357.31
433.265	364.31
433.641	362.05
434.016	354.6
434.392	373.8
434.767	378.1
435.143	357.08
435.518	368.83
435.894	348.72
436.269	366.35
436.644	376.29
437.02	361.6
437.395	378.1
437.77	391.88
438.145	377.19
438.52	368.83
438.895	353.01
439.271	385.1
439.646	379.91
440.021	365.67
440.395	378.78
440.77	396.63
441.145	391.88
441.52	357.98
441.895	397.98
442.27	386.23
442.645	391.66
443.019	385.1
443.394	395.5
443.769	386.68
444.143	383.97
444.518	391.88
444.892	393.24
445.267	384.2
445.641	393.92
446.016	391.43
446.39	397.31
446.764	378.78
447.139	392.56
447.513	399.11
447.887	397.76
448.262	390.3
448.636	396.63
449.01	416.06
449.384	394.37
449.758	392.11
450.132	393.01
450.506	397.76
450.88	361.6
451.254	419.45
451.628	413.58
452.002	403.41
452.376	408.15
452.75	408.83
453.123	404.09
453.497	435.27
453.871	423.52
454.244	424.65
454.618	411.99
454.992	429.4
455.365	411.32
455.739	430.98
456.112	417.42
456.486	417.42
456.859	422.62
457.232	419.9
457.606	426.01
457.979	417.87
458.352	423.75
458.725	450.19
459.099	448.38
459.472	417.19
459.845	462.16
460.218	456.06
460.591	445.89
460.964	460.13
461.337	449.73
461.71	460.81
462.083	462.84
462.456	453.8
462.829	455.61
463.201	461.26
463.574	460.13
463.947	463.07
464.32	473.69
464.692	481.37
465.065	466
465.438	489.51
465.81	477.08
466.183	480.02
466.555	492.67
466.928	464.2
467.3	482.73
467.672	461.03
468.045	485.89
468.417	511.88
468.789	486.34
469.161	502.16
469.534	493.8
469.906	494.25
470.278	521.37
470.65	522.27
471.022	510.75
471.394	522.95
471.766	508.72
472.138	520.24
472.51	510.3
472.882	516.85
473.253	541.93
473.625	529.05
473.997	552.33
474.369	537.64
474.74	551.65
475.112	561.82
475.484	556.62
475.855	557.98
476.227	578.32
476.598	583.06
476.97	580.13
477.341	592.33
477.713	579.67
478.084	590.75
478.455	599.33
478.827	590.07
479.198	635.04
479.569	613.8
479.94	629.84
480.311	628.49
480.682	630.29
481.053	648.82
481.424	644.31
481.795	639.56
482.166	650.86
482.537	666.23
482.908	675.04
483.279	685.43
483.65	696.73
484.021	697.19
484.391	688.82
484.762	687.02
485.133	719.33
485.503	694.02
485.874	714.59
486.244	691.99
486.615	714.13
486.985	752.32
487.356	757.3
487.726	744.19
488.097	749.61
488.467	750.29
488.837	758.43
489.207	772.21
489.578	790.29
489.948	798.65
490.318	761.14
490.688	800.46
491.058	795.04
491.428	820.8
491.798	827.58
492.168	822.38
492.538	823.96
492.908	842.04
493.278	809.72
493.648	846.56
494.017	880.23
494.387	852.89
494.757	868.71
495.126	867.8
495.496	856.05
495.866	870.51
496.235	868.48
496.605	873.23
496.974	916.16
497.344	894.69
497.713	890.85
498.082	896.5
498.452	882.26
498.821	921.59
499.19	902.83
499.559	936.27
499.928	902.38
500.298	935.14
500.667	917.74
501.036	917.29
501.405	925.88
501.774	923.17
502.143	948.25
502.512	944.18
502.88	956.16
503.249	963.17
503.618	952.09
503.987	958.87
504.356	959.55
504.724	957.52
505.093	986.89
505.462	957.97
505.83	968.36
506.199	969.95
506.567	974.47
506.936	986.89
507.304	987.8
507.672	994.35
508.041	997.97
508.409	976.73
508.777	1013.11
509.145	996.84
509.514	1009.72
509.882	1005.43
510.25	1023.28
510.618	1003.84
510.986	1026.22
511.354	1013.11
511.722	1044.52
512.09	1032.09
512.458	1024.86
512.826	1028.02
513.193	1033.9
513.561	1043.16
513.929	1057.85
514.297	1035.93
514.664	1059.44
515.032	1047.91
515.4	1064.41
515.767	1067.8
516.135	1060.34
516.502	1065.31
516.869	1058.53
517.237	1081.58
517.604	1077.74
517.972	1074.12
518.339	1081.58
518.706	1093.56
519.073	1094.46
519.44	1110.06
519.808	1106.21
520.175	1103.5
520.542	1118.42
520.909	1106.89
521.276	1115.71
521.643	1112.77
522.009	1126.55
522.376	1143.05
522.743	1140.56
523.11	1150.05
523.477	1153.67
523.843	1145.31
524.21	1152.09
524.577	1171.3
524.943	1161.58
525.31	1146.89
525.676	1187.34
526.043	1183.27
526.409	1162.26
526.776	1191.64
527.142	1169.94
527.508	1185.31
527.874	1181.69
528.241	1177.17
528.607	1185.99
528.973	1196.38
529.339	1205.65
529.705	1189.15
530.071	1204.06
530.437	1227.11
530.803	1202.26
531.169	1214.23
531.535	1191.41
531.901	1199.09
532.267	1229.37
532.632	1199.32
532.998	1234.57
533.364	1205.87
533.73	1206.32
534.095	1212.88
534.461	1229.6
534.826	1198.64
535.192	1204.52
535.557	1251.29
535.923	1235.93
536.288	1239.54
536.653	1230.73
537.019	1232.54
537.384	1245.87
537.749	1228.7
538.114	1241.8
538.479	1205.42
538.845	1236.83
539.21	1249.26
539.575	1223.72
539.94	1236.38
540.305	1253.78
540.67	1241.58
541.034	1232.99
541.399	1254.01
541.764	1253.78
542.129	1243.16
542.494	1263.72
542.858	1235.93
543.223	1251.07
543.587	1234.57
543.952	1246.1
544.316	1227.11
544.681	1243.39
545.045	1265.98
545.41	1252.2
545.774	1263.72
546.138	1231.63
546.503	1255.14
546.867	1243.16
547.231	1249.71
547.595	1272.76
547.959	1264.85
548.324	1275.7
548.688	1245.19
549.052	1241.58
549.416	1247.45
549.779	1247.23
550.143	1247
550.507	1253.33
550.871	1257.4
551.235	1246.1
551.599	1243.84
551.962	1244.74
552.326	1293.78
552.689	1262.37
553.053	1260.79
553.417	1251.52
553.78	1277.06
554.143	1277.06
554.507	1247.45
554.87	1289.49
555.234	1276.6
555.597	1255.81
555.96	1277.06
556.323	1267.79
556.686	1270.28
557.05	1277.28
557.413	1261.92
557.776	1272.31
558.139	1281.58
558.502	1300.56
558.865	1265.53
559.228	1276.15
559.59	1286.1
559.953	1306.89
560.316	1298.53
560.679	1326.77
561.041	1326.55
561.404	1343.27
561.767	1314.8
562.129	1316.38
562.492	1345.3
562.854	1322.03
563.217	1343.04
563.579	1325.64
563.941	1305.3
564.304	1316.6
564.666	1329.48
565.028	1336.94
565.39	1341.69
565.753	1337.39
566.115	1351.41
566.477	1329.26
566.839	1343.04
567.201	1324.06
567.563	1315.47
567.925	1357.73
568.287	1330.61
568.648	1370.16
569.01	1330.16
569.372	1358.41
569.734	1325.19
570.095	1321.58
570.457	1366.77
570.819	1337.62
571.18	1345.3
571.542	1337.85
571.903	1352.08
572.265	1364.06
572.626	1343.72
572.987	1338.52
573.349	1346.43
573.71	1356.38
574.071	1361.12
574.432	1341.46
574.794	1377.62
575.155	1380.78
575.516	1356.38
575.877	1361.35
576.238	1348.24
576.599	1373.78
576.96	1371.52
577.32	1366.32
577.681	1356.83
578.042	1365.64
578.403	1367.68
578.763	1332.42
579.124	1344.63
579.485	1355.7
579.845	1347.56
580.206	1323.84
580.566	1313.67
580.927	1346.21
581.287	1345.3
581.648	1355.25
582.008	1348.47
582.368	1328.58
582.728	1351.18
583.089	1367.22
583.449	1324.97
583.809	1306.89
584.169	1330.84
584.529	1331.07
584.889	1315.25
585.249	1318.64
585.609	1318.86
585.969	1343.5
586.329	1346.66
586.688	1327.68
587.048	1327.45
587.408	1327.45
587.768	1308.02
588.127	1320.9
588.487	1302.82
588.846	1298.75
589.206	1319.77
589.565	1318.64
589.925	1329.94
590.284	1322.25
590.643	1295.59
591.003	1325.19
591.362	1329.48
591.721	1308.24
592.08	1297.17
592.44	1317.96
592.799	1295.36
593.158	1321.8
593.517	1300.56
593.876	1284.51
594.235	1304.63
594.593	1290.39
594.952	1296.72
595.311	1303.95
595.67	1323.38
596.029	1333.78
596.387	1296.72
596.746	1298.53
597.104	1305.76
597.463	1285.64
597.822	1322.25
598.18	1283.16
598.538	1301.01
598.897	1308.47
599.255	1314.12
599.613	1293.33
599.972	1309.15
600.33	1310.73
600.688	1341.46
601.046	1298.07
601.404	1301.24
601.762	1299.66
602.12	1315.02
602.478	1293.55
602.836	1330.39
603.194	1285.42
603.552	1303.72
603.91	1310.05
604.268	1328.58
604.625	1327.22
604.983	1310.95
605.341	1327
605.698	1310.28
606.056	1313.67
606.413	1310.05
606.771	1333.33
607.128	1329.71
607.485	1315.02
607.843	1344.17
608.2	1328.35
608.557	1353.21
608.914	1321.58
609.272	1321.35
609.629	1313.89
609.986	1334.68
610.343	1327.68
610.7	1333.55
611.057	1327.9
611.414	1332.42
611.771	1362.48
612.127	1343.72
612.484	1339.43
612.841	1330.39
613.198	1383.95
613.554	1344.17
613.911	1342.14
614.267	1356.38
614.624	1336.26
614.98	1352.76
615.337	1336.72
615.693	1333.55
616.05	1382.36
616.406	1364.51
616.762	1362.03
617.118	1345.98
617.475	1340.78
617.831	1373.78
618.187	1363.38
618.543	1353.21
618.899	1351.63
619.255	1332.87
619.611	1342.14
619.967	1348.92
620.323	1357.73
620.678	1366.09
621.034	1343.95
621.39	1364.51
621.746	1355.7
622.101	1381.91
622.457	1345.53
622.812	1350.5
623.168	1362.7
623.523	1336.26
623.879	1342.82
624.234	1364.51
624.589	1344.85
624.945	1376.72
625.3	1378.52
625.655	1369.71
626.01	1333.33
626.365	1352.76
626.72	1328.13
627.075	1344.17
627.43	1330.61
627.785	1361.12
628.14	1355.25
628.495	1349.82
628.85	1328.58
629.205	1333.55
629.559	1343.95
629.914	1333.1
630.269	1370.61
630.623	1361.35
630.978	1349.6
631.332	1317.06
631.687	1339.43
632.041	1343.95
632.396	1341.24
632.75	1332.2
633.104	1349.82
633.459	1339.43
633.813	1296.04
634.167	1334
634.521	1334.46
634.875	1358.41
635.229	1309.15
635.583	1321.8
635.937	1334.68
636.291	1320.67
636.645	1319.99
636.999	1333.1
637.352	1330.84
637.706	1330.39
638.06	1307.34
638.413	1343.72
638.767	1324.74
639.121	1350.5
639.474	1343.27
639.828	1305.3
640.181	1313.89
640.534	1329.03
640.888	1338.98
641.241	1302.37
641.594	1334.46
641.947	1338.07
642.301	1311.86
642.654	1336.26
643.007	1331.74
643.36	1327.22
643.713	1332.87
644.066	1318.86
644.419	1321.8
644.771	1338.3
645.124	1298.98
645.477	1312.76
645.83	1309.6
646.182	1336.94
646.535	1321.58
646.888	1319.32
647.24	1318.64
647.593	1306.89
647.945	1315.93
648.298	1321.12
648.65	1320.22
649.002	1361.35
649.355	1344.85
649.707	1326.32
650.059	1317.28
650.411	1372.42
650.763	1339.88
651.115	1377.85
651.467	1406.54
651.819	1395.7
652.171	1390.95
652.523	1406.32
652.875	1371.07
653.227	1364.74
653.578	1409.71
653.93	1383.72
654.282	1404.74
654.633	1391.18
654.985	1406.54
655.337	1419.2
655.688	1442.25
656.039	1413.78
656.391	1399.31
656.742	1426.43
657.094	1416.94
657.445	1445.87
657.796	1466.66
658.147	1453.78
658.498	1441.12
658.849	1469.14
659.2	1454
659.551	1469.37
659.902	1474.11
660.253	1463.04
660.604	1482.02
660.955	1521.12
661.306	1510.5
661.656	1508.01
662.007	1543.49
662.358	1515.24
662.708	1517.28
663.059	1544.62
663.409	1520.67
663.76	1550.04
664.11	1536.49
664.461	1564.05
664.811	1582.59
665.161	1574
665.511	1580.78
665.862	1604.51
666.212	1611.74
666.562	1635.24
666.912	1605.86
667.262	1652.87
667.612	1651.28
667.962	1645.86
668.312	1663.94
668.662	1709.14
669.011	1691.51
669.361	1692.19
669.711	1710.72
670.06	1714.33
670.41	1735.12
670.76	1730.15
671.109	1766.99
671.459	1748.68
671.808	1767.89
672.157	1785.52
672.507	1761.56
672.856	1795.46
673.205	1801.79
673.554	1819.19
673.904	1839.08
674.253	1849.02
674.602	1873.2
674.951	1866.87
675.3	1833.65
675.649	1874.33
675.998	1900.09
676.346	1920.2
676.695	1937.38
677.044	1919.07
677.393	1952.52
677.741	1979.19
678.09	1978.51
678.438	1959.07
678.787	2020.31
679.135	2025.51
679.484	2008.56
679.832	2035
680.181	1993.65
680.529	2063.02
680.877	2055.79
681.225	2093.08
681.573	2100.76
681.922	2121.1
682.27	2122.46
682.618	2134.66
682.966	2164.72
683.314	2187.09
683.661	2159.52
684.009	2177.6
684.357	2222.79
684.705	2228.9
685.053	2232.29
685.4	2255.79
685.748	2250.36
686.095	2265.28
686.443	2288.56
686.79	2270.48
687.138	2316.8
687.485	2316.8
687.832	2345.73
688.18	2338.5
688.527	2341.89
688.874	2368.1
689.221	2389.12
689.568	2422.56
689.915	2388.44
690.262	2392.51
690.609	2423.02
690.956	2472.96
691.303	2465.27
691.65	2506.18
691.997	2480.19
692.344	2507.53
692.69	2494.65
693.037	2507.76
693.383	2504.82
693.73	2523.58
694.077	2563.58
694.423	2561.32
694.769	2590.92
695.116	2601.99
695.462	2624.59
695.808	2622.56
696.155	2630.02
696.501	2691.93
696.847	2671.37
697.193	2677.47
697.539	2686.29
697.885	2692.84
698.231	2710.24
698.577	2733.74
698.923	2714.31
699.269	2718.37
699.614	2759.96
699.96	2786.4
700.306	2776.9
700.651	2760.86
700.997	2810.12
701.342	2821.42
701.688	2820.29
702.033	2833.17
702.379	2885.15
702.724	2870.69
703.069	2910.01
703.415	2886.96
703.76	2905.94
704.105	2924.02
704.45	2943.45
704.795	2905.94
705.14	2943.68
705.485	2952.27
705.83	2983
706.175	2999.05
706.52	3003.34
706.865	3003.57
707.209	3015.32
707.554	3038.14
707.899	3010.12
708.243	3040.17
708.588	3069.78
708.932	3052.15
709.277	3057.12
709.621	3066.39
709.966	3113.39
710.31	3125.37
710.654	3104.35
710.998	3112.49
711.342	3143.67
711.687	3167.63
712.031	3140.96
712.375	3170.79
712.719	3136.67
713.063	3152.04
713.407	3189.1
713.75	3197.68
714.094	3201.07
714.438	3211.7
714.782	3188.87
715.125	3198.36
715.469	3204.46
715.812	3223.67
716.156	3226.38
716.499	3267.06
716.843	3256.44
717.186	3261.41
717.53	3303.44
717.873	3314.52
718.216	3287.85
718.559	3323.1
718.902	3294.86
719.246	3319.04
719.589	3305.93
719.932	3303.22
720.275	3362.65
720.617	3329.66
720.96	3316.55
721.303	3339.38
721.646	3331.92
721.989	3336.21
722.331	3326.49
722.674	3354.74
723.016	3362.88
723.359	3352.93
723.701	3368.75
724.044	3371.24
724.386	3371.69
724.729	3358.13
725.071	3382.54
725.413	3391.58
725.755	3407.4
726.097	3392.93
726.439	3363.1
726.782	3382.31
727.124	3412.14
727.465	3403.33
727.807	3384.8
728.149	3409.66
728.491	3410.56
728.833	3414.63
729.175	3432.03
729.516	3420.96
729.858	3420.96
730.199	3435.42
730.541	3404.01
730.882	3408.3
731.224	3430.67
731.565	3430.9
731.906	3417.34
732.248	3444.01
732.589	3440.16
732.93	3403.55
733.271	3454.17
733.612	3443.78
733.953	3469.54
734.294	3446.27
734.635	3456.21
734.976	3425.7
735.317	3449.43
735.658	3425.93
735.999	3387.28
736.339	3433.84
736.68	3462.99
737.021	3442.88
737.361	3419.83
737.702	3422.31
738.042	3450.78
738.383	3428.86
738.723	3446.27
739.063	3465.25
739.404	3458.24
739.744	3438.13
740.084	3436.32
740.424	3420.5
740.764	3450.33
741.104	3408.53
741.444	3411.24
741.784	3444.46
742.124	3414.18
742.464	3417.11
742.804	3397.23
743.143	3394.97
743.483	3471.35
743.823	3396.55
744.162	3444.23
744.502	3381.86
744.841	3413.05
745.181	3415.31
745.52	3405.14
745.86	3454.63
746.199	3404.91
746.538	3369.66
746.877	3444.68
747.216	3436.55
747.556	3358.81
747.895	3396.1
748.234	3397.68
748.573	3354.97
748.911	3372.14
749.25	3341.64
749.589	3415.08
749.928	3373.27
750.267	3388.87
750.605	3363.56
750.944	3354.29
751.283	3361.3
751.621	3327.62
751.96	3339.83
752.298	3329.66
752.636	3335.76
752.975	3341.41
753.313	3277.91
753.651	3333.05
753.989	3343.67
754.327	3289.21
754.666	3284.24
755.004	3310
755.342	3296.66
755.679	3311.35
756.017	3207.63
756.355	3282.88
756.693	3244.91
757.031	3272.03
757.368	3252.37
757.706	3182.77
758.044	3217.8
758.381	3244.46
758.719	3246.27
759.056	3232.94
759.394	3262.09
759.731	3219.6
760.068	3178.48
760.405	3188.64
760.743	3196.33
761.08	3131.47
761.417	3196.55
761.754	3197.91
762.091	3128.31
762.428	3167.4
762.765	3095.09
763.102	3147.74
763.438	3132.15
763.775	3116.78
764.112	3093.96
764.449	3140.74
764.785	3120.4
765.122	3100.51
765.458	3057.8
765.795	3068.87
766.131	3052.15
766.467	3030.01
766.804	3052.83
767.14	3032.49
767.476	3023.23
767.812	3006.95
768.148	3007.41
768.485	3032.49
768.821	2971.25
769.157	2989.78
769.492	3003.57
769.828	2959.5
770.164	2964.47
770.5	2956.11
770.836	2953.4
771.171	2929.89
771.507	2930.8
771.842	2905.94
772.178	2924.92
772.513	2913.4
772.849	2910.23
773.184	2901.42
773.519	2897.35
773.855	2878.6
774.19	2870.46
