Data from carpet_green_FLMS001491_00020.txt Node
Date: Wed Feb 08 10:34:59 GMT 2017
User: dcchb
Spectrometer: FLMS00149
Trigger mode: 0
Integration Time (sec): 2.000000E-2
Scans to average: 10
Electric dark correction enabled: true
Nonlinearity correction enabled: false
Boxcar width: 0
XAxis mode: Wavelengths
Number of Pixels in Spectrum: 2048
>>>>>Begin Spectral Data<<<<<
341.393	-8.88
341.776	-8.88
342.16	-8.88
342.543	-52.95
342.927	-34.87
343.31	-76.23
343.693	-67.64
344.077	-69.22
344.46	-64.7
344.843	-54.53
345.226	-50.69
345.61	-39.17
345.993	-11.14
346.376	-11.37
346.759	7.84
347.142	40.38
347.525	58.68
347.908	56.43
348.291	80.61
348.674	83.99
349.057	116.76
349.44	125.58
349.823	135.07
350.206	157.89
350.588	167.38
350.971	173.48
351.354	216.87
351.737	219.81
352.119	225.91
352.502	242.41
352.884	251.22
353.267	243.76
353.65	241.05
354.032	282.86
354.414	287.61
354.797	285.8
355.179	291.22
355.562	267.72
355.944	290.77
356.326	308.62
356.709	319.69
357.091	293.48
357.473	316.31
357.855	328.96
358.238	311.56
358.62	336.42
359.002	309.07
359.384	320.6
359.766	315.85
360.148	298.45
360.53	308.85
360.912	292.35
361.294	307.27
361.676	321.28
362.057	316.53
362.439	276.76
362.821	283.54
363.203	296.19
363.584	271.56
363.966	298
364.348	307.04
364.729	280.15
365.111	291.67
365.493	269.98
365.874	315.18
366.256	283.76
366.637	285.8
367.019	294.61
367.4	292.13
367.781	293.93
368.163	271.56
368.544	291.45
368.925	277.66
369.306	286.7
369.688	286.48
370.069	278.34
370.45	250.32
370.831	272.92
371.212	287.38
371.593	287.15
371.974	293.26
372.355	270.88
372.736	265.01
373.117	278.11
373.498	285.35
373.879	285.8
374.26	294.16
374.641	281.05
375.021	285.35
375.402	281.05
375.783	308.17
376.163	274.05
376.544	295.29
376.925	305.01
377.305	298
377.686	277.44
378.066	281.73
378.447	302.29
378.827	274.72
379.208	292.58
379.588	282.18
379.968	276.98
380.349	290.32
380.729	283.76
381.109	298.9
381.489	298.68
381.87	314.27
382.25	301.16
382.63	291
383.01	289.64
383.39	285.8
383.77	278.11
384.15	293.93
384.53	300.26
384.91	291.9
385.29	300.26
385.67	298.45
386.049	296.87
386.429	310.88
386.809	283.76
387.189	312.01
387.568	304.33
387.948	305.01
388.328	285.35
388.707	299.36
389.087	299.13
389.466	302.75
389.846	315.85
390.225	300.49
390.605	295.74
390.984	288.06
391.363	297.32
391.743	326.02
392.122	326.7
392.501	284.22
392.881	318.34
393.26	324.44
393.639	300.26
394.018	295.29
394.397	315.63
394.776	308.17
395.155	317.66
395.534	291.9
395.913	295.97
396.292	312.92
396.671	330.99
397.05	274.5
397.429	308.4
397.808	319.47
398.186	304.55
398.565	306.14
398.944	299.13
399.323	315.4
399.701	307.04
400.08	324.67
400.458	302.29
400.837	340.03
401.215	321.95
401.594	321.95
401.972	315.4
402.351	321.5
402.729	310.88
403.107	315.85
403.486	314.5
403.864	308.62
404.242	328.73
404.62	339.36
404.999	329.86
405.377	323.99
405.755	308.85
406.133	316.31
406.511	316.31
406.889	314.72
407.267	312.92
407.645	303.42
408.023	317.89
408.401	328.06
408.779	335.06
409.156	322.41
409.534	310.66
409.912	304.55
410.29	286.02
410.667	322.86
411.045	316.31
411.422	326.93
411.8	346.13
412.178	323.31
412.555	330.32
412.933	322.86
413.31	294.38
413.687	307.27
414.065	321.73
414.442	342.75
414.819	321.5
415.197	345.46
415.574	354.27
415.951	330.32
416.328	350.43
416.705	322.63
417.082	334.16
417.46	313.37
417.837	338.9
418.214	335.29
418.591	347.94
418.967	335.06
419.344	339.13
419.721	352.46
420.098	336.64
420.475	344.78
420.852	331.67
421.228	347.04
421.605	327.83
421.982	326.02
422.358	344.33
422.735	352.69
423.111	354.27
423.488	328.51
423.864	333.03
424.241	356.98
424.617	357.66
424.994	350.88
425.37	330.77
425.746	354.5
426.123	352.24
426.499	356.08
426.875	339.36
427.251	342.07
427.627	344.33
428.003	330.99
428.379	344.33
428.756	373.25
429.132	329.64
429.507	354.95
429.883	368.28
430.259	337.55
430.635	341.84
431.011	350.88
431.387	354.72
431.763	366.25
432.138	365.12
432.514	380.71
432.89	340.71
433.265	361.95
433.641	361.73
434.016	374.38
434.392	349.52
434.767	373.48
435.143	365.57
435.518	351.11
435.894	380.71
436.269	373.7
436.644	379.81
437.02	363.08
437.395	369.41
437.77	354.27
438.145	378.45
438.52	376.42
438.895	387.04
439.271	365.12
439.646	383.87
440.021	380.26
440.395	370.09
440.77	394.04
441.145	376.87
441.52	390.65
441.895	368.51
442.27	387.26
442.645	361.05
443.019	391.11
443.394	390.88
443.769	387.72
444.143	386.59
444.518	378.45
444.892	382.29
445.267	391.56
445.641	384.55
446.016	388.62
446.39	399.69
446.764	395.4
447.139	393.14
447.513	372.8
447.887	387.26
448.262	380.26
448.636	394.72
449.01	405.34
449.384	390.43
449.758	423.87
450.132	405.79
450.506	448.05
450.88	384.55
451.254	420.48
451.628	399.24
452.002	408.73
452.376	402.4
452.75	423.87
453.123	409.64
453.497	424.55
453.871	420.71
454.244	414.16
454.618	427.26
454.992	420.48
455.365	450.31
455.739	426.13
456.112	431.78
456.486	440.6
456.859	442.86
457.232	444.89
457.606	444.66
457.979	421.16
458.352	438.56
458.725	435.62
459.099	445.79
459.472	439.69
459.845	441.27
460.218	455.96
460.591	452.57
460.964	453.25
461.337	469.3
461.71	468.39
462.083	462.97
462.456	462.52
462.829	457.54
463.201	468.17
463.574	466.58
463.947	455.96
464.32	489.63
464.692	470.88
465.065	458.9
465.438	469.75
465.81	508.16
466.183	480.59
466.555	495.06
466.928	489.18
467.3	493.93
467.672	516.53
468.045	488.5
468.417	498.9
468.789	493.48
469.161	507.03
469.534	514.27
469.906	491.89
470.278	532.34
470.65	523.08
471.022	537.09
471.394	534.15
471.766	532.12
472.138	543.64
472.51	546.81
472.882	528.28
473.253	536.41
473.625	548.39
473.997	568.05
474.369	577.77
474.74	559.24
475.112	554.72
475.484	592.46
475.855	584.32
476.227	572.12
476.598	586.81
476.97	585
477.341	586.81
477.713	621.61
478.084	607.37
478.455	625.68
478.827	612.34
479.198	642.4
479.569	623.87
479.94	637.88
480.311	638.56
480.682	641.95
481.053	667.03
481.424	664.54
481.795	668.84
482.166	687.59
482.537	667.93
482.908	679.91
483.279	686.01
483.65	678.78
484.021	715.84
484.391	694.15
484.762	705
485.133	719.91
485.503	717.2
485.874	732.79
486.244	759.68
486.615	754.49
486.985	758.78
487.356	736.18
487.726	741.83
488.097	819.79
488.467	773.69
488.837	789.74
489.207	802.62
489.578	804.43
489.948	803.07
490.318	810.3
490.688	821.15
491.058	850.08
491.428	838.33
491.798	839.46
492.168	872.22
492.538	853.47
492.908	881.94
493.278	859.79
493.648	845.78
494.017	879.91
494.387	892.79
494.757	895.27
495.126	900.24
495.496	888.27
495.866	919.91
496.235	918.1
496.605	909.51
496.974	934.82
497.344	904.09
497.713	899.11
498.082	939.57
498.452	933.01
498.821	956.51
499.19	933.01
499.559	946.12
499.928	975.72
500.298	959.23
500.667	944.09
501.036	958.77
501.405	987.02
501.774	967.81
502.143	980.69
502.512	954.25
502.88	977.98
503.249	971.88
503.618	973.24
503.987	990.64
504.356	1026.8
504.724	1004.42
505.093	987.25
505.462	1014.37
505.83	1014.82
506.199	1019.11
506.567	1051.43
506.936	1026.57
507.304	1031.31
507.672	1023.41
508.041	1041.26
508.409	1038.32
508.777	1023.63
509.145	1035.83
509.514	1067.92
509.882	1053.01
510.25	1057.53
510.618	1073.35
510.986	1065.21
511.354	1083.74
511.722	1075.38
512.09	1085.78
512.458	1071.09
512.826	1103.86
513.193	1071.99
513.561	1084.19
513.929	1085.32
514.297	1134.36
514.664	1116.06
515.032	1088.94
515.4	1127.81
515.767	1125.1
516.135	1125.78
516.502	1142.05
516.869	1153.35
517.237	1147.24
517.604	1141.59
517.972	1158.99
518.339	1143.18
518.706	1140.01
519.073	1144.08
519.44	1164.87
519.808	1141.14
520.175	1138.43
520.542	1182.5
520.909	1151.76
521.276	1152.89
521.643	1173.01
522.009	1169.39
522.376	1183.85
522.743	1178.2
523.11	1179.79
523.477	1205.77
523.843	1235.38
524.21	1186.79
524.577	1198.09
524.943	1231.54
525.31	1217.52
525.676	1195.6
526.043	1235.6
526.409	1227.24
526.776	1243.29
527.142	1229.95
527.508	1240.35
527.874	1262.27
528.241	1261.82
528.607	1266.56
528.973	1262.27
529.339	1277.41
529.705	1270.18
530.071	1271.99
530.437	1249.16
530.803	1276.73
531.169	1295.04
531.535	1255.49
531.901	1299.78
532.267	1295.26
532.632	1305.88
532.998	1281.7
533.364	1281.93
533.73	1280.35
534.095	1294.13
534.461	1274.47
534.826	1305.66
535.192	1310.63
535.557	1288.26
535.923	1303.62
536.288	1272.66
536.653	1301.36
537.019	1280.12
537.384	1305.21
537.749	1289.61
538.114	1310.63
538.479	1329.16
538.845	1320.57
539.21	1292.78
539.575	1309.95
539.94	1308.6
540.305	1315.15
540.67	1305.21
541.034	1296.84
541.399	1320.57
541.764	1324.19
542.129	1315.15
542.494	1318.31
542.858	1307.24
543.223	1315.6
543.587	1340.91
543.952	1316.5
544.316	1326.67
544.681	1339.78
545.045	1313.57
545.41	1326.22
545.774	1335.71
546.138	1315.6
546.503	1311.76
546.867	1340.91
547.231	1345.88
547.595	1330.97
547.959	1305.66
548.324	1323.74
548.688	1305.66
549.052	1304.53
549.416	1343.4
549.779	1306.79
550.143	1320.57
550.507	1321.25
550.871	1347.24
551.235	1340.23
551.599	1356.05
551.962	1328.71
552.326	1351.76
552.689	1364.87
553.053	1342.27
553.417	1351.53
553.78	1358.31
554.143	1332.78
554.507	1353.79
554.87	1364.41
555.234	1333.91
555.597	1334.13
555.96	1392.21
556.323	1359.67
556.686	1368.71
557.05	1331.42
557.413	1345.43
557.776	1383.4
558.139	1374.81
558.502	1360.12
558.865	1380.23
559.228	1330.06
559.59	1374.13
559.953	1390.85
560.316	1389.72
560.679	1376.16
561.041	1418.88
561.404	1380.68
561.767	1396.05
562.129	1397.63
562.492	1407.12
562.854	1414.13
563.217	1423.62
563.579	1394.24
563.941	1401.93
564.304	1411.64
564.666	1391.53
565.028	1428.14
565.39	1405.09
565.753	1392.44
566.115	1420.68
566.477	1420.46
566.839	1429.27
567.201	1436.5
567.563	1455.03
567.925	1461.13
568.287	1433.34
568.648	1438.08
569.01	1425.2
569.372	1441.93
569.734	1445.09
570.095	1435.6
570.457	1436.73
570.819	1434.69
571.18	1445.77
571.542	1451.64
571.903	1428.82
572.265	1417.29
572.626	1449.16
572.987	1449.61
573.349	1449.83
573.71	1438.76
574.071	1434.92
574.432	1464.98
574.794	1475.6
575.155	1461.81
575.516	1430.85
575.877	1451.19
576.238	1454.13
576.599	1446.67
576.96	1453.9
577.32	1457.74
577.681	1466.11
578.042	1435.15
578.403	1430.85
578.763	1426.11
579.124	1447.12
579.485	1456.39
579.845	1443.28
580.206	1433.79
580.566	1447.12
580.927	1451.42
581.287	1436.95
581.648	1412.1
582.008	1457.52
582.368	1462.94
582.728	1425.43
583.089	1440.8
583.449	1418.2
583.809	1447.8
584.169	1450.06
584.529	1414.81
584.889	1422.94
585.249	1418.42
585.609	1417.97
585.969	1436.28
586.329	1395.6
586.688	1426.33
587.048	1420.91
587.408	1417.75
587.768	1397.63
588.127	1388.37
588.487	1387.92
588.846	1398.08
589.206	1408.03
589.565	1402.38
589.925	1382.49
590.284	1415.94
590.643	1406.9
591.003	1380.46
591.362	1381.81
591.721	1395.15
592.08	1412.32
592.44	1401.93
592.799	1408.03
593.158	1387.69
593.517	1366.45
593.876	1383.85
594.235	1373.45
594.593	1397.86
594.952	1393.57
595.311	1370.06
595.67	1415.49
596.029	1404.41
596.387	1398.99
596.746	1387.24
597.104	1385.2
597.463	1404.41
597.822	1386.56
598.18	1371.19
598.538	1391.76
598.897	1399.21
599.255	1398.76
599.613	1414.36
599.972	1385.66
600.33	1393.79
600.688	1366.67
601.046	1417.75
601.404	1387.92
601.762	1384.3
602.12	1402.83
602.478	1387.01
602.836	1419.1
603.194	1396.5
603.552	1414.81
603.91	1386.79
604.268	1413.9
604.625	1370.29
604.983	1431.3
605.341	1415.71
605.698	1405.54
606.056	1425.2
606.413	1415.26
606.771	1412.1
607.128	1417.97
607.485	1435.15
607.843	1402.15
608.2	1425.2
608.557	1424.98
608.914	1410.74
609.272	1436.5
609.629	1431.53
609.986	1448.25
610.343	1434.69
610.7	1434.69
611.057	1414.81
611.414	1420.01
611.771	1490.06
612.127	1473.34
612.484	1421.36
612.841	1433.56
613.198	1456.84
613.554	1427.46
613.911	1456.61
614.267	1452.77
614.624	1456.61
614.98	1428.37
615.337	1453.68
615.693	1455.48
616.05	1450.51
616.406	1453.9
616.762	1464.07
617.118	1441.93
617.475	1466.56
617.831	1475.37
618.187	1445.99
618.543	1473.56
618.899	1460.46
619.255	1459.78
619.611	1466.11
619.967	1463.85
620.323	1481.25
620.678	1476.73
621.034	1430.85
621.39	1443.06
621.746	1443.73
622.101	1457.29
622.457	1467.01
622.812	1456.61
623.168	1420.23
623.523	1456.16
623.879	1448.7
624.234	1484.64
624.589	1447.8
624.945	1444.64
625.3	1438.76
625.655	1452.77
626.01	1467.24
626.365	1445.32
626.72	1438.76
627.075	1466.11
627.43	1434.47
627.785	1452.55
628.14	1464.75
628.495	1467.91
628.85	1449.16
629.205	1427.24
629.559	1445.54
629.914	1476.95
630.269	1471.3
630.623	1442.6
630.978	1436.05
631.332	1426.11
631.687	1450.29
632.041	1432.66
632.396	1451.19
632.75	1454.13
633.104	1434.47
633.459	1435.6
633.813	1419.78
634.167	1453.45
634.521	1446.9
634.875	1444.41
635.229	1436.5
635.583	1405.99
635.937	1427.46
636.291	1406.67
636.645	1405.99
636.999	1425.65
637.352	1415.03
637.706	1399.67
638.06	1416.84
638.413	1429.5
638.767	1439.44
639.121	1430.17
639.474	1418.88
639.828	1409.16
640.181	1445.32
640.534	1440.34
640.888	1425.2
641.241	1416.84
641.594	1432.89
641.947	1445.54
642.301	1448.25
642.654	1422.26
643.007	1407.35
643.36	1413.68
643.713	1436.28
644.066	1446.9
644.419	1431.53
644.771	1429.27
645.124	1445.77
645.477	1427.46
645.83	1415.49
646.182	1400.34
646.535	1454.13
646.888	1418.65
647.24	1396.95
647.593	1439.67
647.945	1430.85
648.298	1415.49
648.65	1449.38
649.002	1403.06
649.355	1444.41
649.707	1430.17
650.059	1440.34
650.411	1433.56
650.763	1462.49
651.115	1463.85
651.467	1465.88
651.819	1475.6
652.171	1507.23
652.523	1515.37
652.875	1493.68
653.227	1505.2
653.578	1551.98
653.93	1512.21
654.282	1514.24
654.633	1529.15
654.985	1492.77
655.337	1538.19
655.688	1525.54
656.039	1526.89
656.391	1542.04
656.742	1547.91
657.094	1585.65
657.445	1561.02
657.796	1566.89
658.147	1583.39
658.498	1546.1
658.849	1572.54
659.2	1587.23
659.551	1609.6
659.902	1615.93
660.253	1630.17
660.604	1625.42
660.955	1629.72
661.306	1670.17
661.656	1624.07
662.007	1659.77
662.358	1654.12
662.708	1643.5
663.059	1675.59
663.409	1697.74
663.76	1712.88
664.11	1730.96
664.461	1729.6
664.811	1706.78
665.161	1734.8
665.511	1709.94
665.862	1721.24
666.212	1767.79
666.562	1775.25
666.912	1739.54
667.262	1793.78
667.612	1806.21
667.962	1784.52
668.312	1806.21
668.662	1833.1
669.011	1826.77
669.361	1857.28
669.711	1861.12
670.06	1849.82
670.41	1871.74
670.76	1890.28
671.109	1876.04
671.459	1914
671.808	1937.96
672.157	1934.34
672.507	1917.17
672.856	1943.83
673.205	1965.08
673.554	1992.87
673.904	1980.67
674.253	2032.42
674.602	1985.41
674.951	2005.75
675.3	1992.65
675.649	2022.93
675.998	2071.29
676.346	2068.58
676.695	2098.41
677.044	2099.99
677.393	2128.46
677.741	2113.55
678.09	2140.66
678.438	2120.55
678.787	2184.05
679.135	2175.24
679.484	2207.33
679.832	2204.84
680.181	2158.74
680.529	2215.69
680.877	2238.74
681.225	2235.8
681.573	2278.29
681.922	2276.25
682.27	2308.12
682.618	2346.08
682.966	2307.89
683.314	2363.94
683.661	2396.93
684.009	2356.25
684.357	2366.65
684.705	2383.14
685.053	2405.29
685.4	2431.05
685.748	2441.22
686.095	2414.78
686.443	2447.1
686.79	2479.41
687.138	2465.18
687.485	2488.68
687.832	2504.27
688.18	2515.57
688.527	2574.1
688.874	2525.51
689.221	2533.65
689.568	2554.66
689.915	2560.54
690.262	2607.09
690.609	2623.36
690.956	2616.81
691.303	2602.8
691.65	2645.96
691.997	2653.64
692.344	2618.62
692.69	2701.33
693.037	2709.01
693.383	2674.21
693.73	2749.46
694.077	2711.72
694.423	2718.5
694.769	2770.93
695.116	2735.9
695.462	2803.7
695.808	2792.17
696.155	2804.15
696.501	2801.89
696.847	2802.79
697.193	2831.27
697.539	2861.32
697.885	2845.96
698.231	2871.49
698.577	2864.94
698.923	2892.96
699.269	2910.36
699.614	2857.26
699.96	2882.79
700.306	2900.64
700.651	2960.76
700.997	2930.7
701.342	2930.47
701.688	2979.06
702.033	2975.44
702.379	2983.35
702.724	3003.69
703.069	3022.22
703.415	3027.42
703.76	3056.8
704.105	3077.14
704.45	3049.34
704.795	3075.78
705.14	3040.75
705.485	3087.31
705.83	3102.45
706.175	3101.09
706.52	3118.27
706.865	3088.89
707.209	3154.42
707.554	3129.34
707.899	3135.67
708.243	3150.81
708.588	3170.24
708.932	3147.19
709.277	3145.16
709.621	3202.78
709.966	3193.74
710.31	3226.96
710.654	3184.93
710.998	3257.24
711.342	3226.96
711.687	3239.62
712.031	3246.4
712.375	3228.55
712.719	3276.68
713.063	3244.36
713.407	3259.28
713.75	3296.57
714.094	3262.22
714.438	3294.53
714.782	3291.82
715.125	3302.44
715.469	3314.19
715.812	3341.54
716.156	3314.19
716.499	3291.14
716.843	3344.02
717.186	3321.65
717.53	3341.99
717.873	3318.94
718.216	3340.41
718.559	3360.29
718.902	3344.25
719.246	3328.88
719.589	3374.08
719.932	3345.83
720.275	3355.55
720.617	3382.89
720.96	3378.15
721.303	3375.89
721.646	3373.85
721.989	3415.21
722.331	3414.98
722.674	3422.44
723.016	3389.22
723.359	3429.22
723.701	3460.86
724.044	3437.81
724.386	3413.17
724.729	3404.59
725.071	3429.44
725.413	3445.26
725.755	3427.64
726.097	3451.59
726.439	3403.46
726.782	3437.13
727.124	3431.7
727.465	3417.69
727.807	3463.12
728.149	3425.38
728.491	3417.24
728.833	3490.23
729.175	3461.31
729.516	3432.38
729.858	3472.83
730.199	3440.29
730.541	3457.01
730.882	3435.32
731.224	3423.79
731.565	3449.33
731.906	3471.48
732.248	3473.74
732.589	3468.76
732.93	3442.78
733.271	3470.35
733.612	3438.26
733.953	3460.63
734.294	3445.04
734.635	3454.08
734.976	3473.74
735.317	3427.64
735.658	3476.22
735.999	3458.6
736.339	3434.19
736.68	3474.19
737.021	3503.57
737.361	3423.12
737.702	3425.83
738.042	3447.52
738.383	3445.49
738.723	3455.21
739.063	3427.86
739.404	3416.56
739.744	3438.94
740.084	3456.79
740.424	3447.52
740.764	3476.9
741.104	3453.4
741.444	3423.12
741.784	3438.71
742.124	3443.23
742.464	3412.5
742.804	3435.32
743.143	3392.16
743.483	3412.72
743.823	3403.23
744.162	3414.53
744.502	3441.19
744.841	3381.99
745.181	3421.08
745.52	3363.23
745.86	3391.48
746.199	3397.13
746.538	3406.39
746.877	3412.5
747.216	3425.6
747.556	3424.7
747.895	3392.83
748.234	3396.22
748.573	3353.97
748.911	3372.27
749.25	3403.68
749.589	3356.68
749.928	3373.4
750.267	3389.22
750.605	3396.68
750.944	3329.56
751.283	3323.91
751.621	3365.72
751.96	3331.14
752.298	3331.14
752.636	3339.05
752.975	3306.96
753.313	3339.28
753.651	3327.07
753.989	3330.46
754.327	3332.72
754.666	3308.09
755.004	3261.76
755.342	3234.65
755.679	3309.45
756.017	3258.15
756.355	3292.05
756.693	3248.21
757.031	3262.89
757.368	3223.35
757.706	3250.24
758.044	3254.08
758.381	3196.91
758.719	3252.27
759.056	3272.16
759.394	3181.31
759.731	3205.95
760.068	3227.19
760.405	3178.6
760.743	3197.81
761.08	3179.05
761.417	3197.81
761.754	3148.32
762.091	3160.3
762.428	3144.03
762.765	3148.55
763.102	3131.82
763.438	3094.31
763.775	3112.84
764.112	3127.08
764.449	3131.15
764.785	3120.07
765.122	3097.25
765.458	3039.85
765.795	3091.37
766.131	3033.52
766.467	3017.03
766.804	3060.64
767.14	3057.02
767.476	3027.19
767.812	3019.74
768.148	3020.19
768.485	2987.87
768.821	2996.91
769.157	2941.32
769.492	3010.47
769.828	2990.36
770.164	2981.55
770.5	2968.21
770.836	2952.39
771.171	2925.28
771.507	2930.93
771.842	2918.27
772.178	2929.34
772.513	2946.97
772.849	2865.62
773.184	2910.14
