Data from carpet_green_FLMS001491_00042.txt Node
Date: Wed Feb 08 10:35:24 GMT 2017
User: dcchb
Spectrometer: FLMS00149
Trigger mode: 0
Integration Time (sec): 2.000000E-2
Scans to average: 10
Electric dark correction enabled: true
Nonlinearity correction enabled: false
Boxcar width: 0
XAxis mode: Wavelengths
Number of Pixels in Spectrum: 2048
>>>>>Begin Spectral Data<<<<<
341.393	-18.63
341.776	-18.63
342.16	-18.63
342.543	-54.11
342.927	-66.09
343.31	-76.26
343.693	-56.37
344.077	-61.34
344.46	-50.27
344.843	-42.58
345.226	-12.98
345.61	-39.65
345.993	-16.14
346.376	-14.56
346.759	5.78
347.142	15.95
347.525	24.31
347.908	53.01
348.291	66.34
348.674	83.74
349.057	121.03
349.44	123.29
349.823	120.58
350.206	151.76
350.588	158.32
350.971	191.31
351.354	196.51
351.737	194.7
352.119	222.27
352.502	239.22
352.884	253.68
353.267	260.91
353.65	279.22
354.032	260.91
354.414	267.69
354.797	281.25
355.179	276.73
355.562	290.97
355.944	289.61
356.326	304.75
356.709	315.15
357.091	290.74
357.473	314.7
357.855	310.85
358.238	295.26
358.62	301.36
359.002	295.26
359.384	327.8
359.766	300.91
360.148	331.42
360.53	300.23
360.912	307.46
361.294	317.41
361.676	309.27
362.057	288.48
362.439	310.4
362.821	296.84
363.203	314.24
363.584	307.69
363.966	310.63
364.348	271.76
364.729	306.33
365.111	286.22
365.493	276.28
365.874	275.15
366.256	266.33
366.637	300.46
367.019	292.55
367.4	293.9
367.781	283.74
368.163	276.05
368.544	276.05
368.925	280.57
369.306	296.16
369.688	274.7
370.069	277.41
370.45	291.42
370.831	273.57
371.212	268.59
371.593	275.6
371.974	279.67
372.355	290.29
372.736	269.72
373.117	261.59
373.498	266.11
373.879	294.13
374.26	275.15
374.641	281.48
375.021	264.98
375.402	300.23
375.783	279.67
376.163	271.08
376.544	292.1
376.925	292.55
377.305	273.79
377.686	292.1
378.066	281.93
378.447	271.53
378.827	288.03
379.208	292.55
379.588	290.29
379.968	292.32
380.349	293
380.729	270.18
381.109	295.03
381.489	306.79
381.87	285.32
382.25	293.23
382.63	278.31
383.01	301.36
383.39	284.87
383.77	285.32
384.15	296.84
384.53	306.56
384.91	280.12
385.29	274.02
385.67	301.36
386.049	304.53
386.429	307.92
386.809	292.32
387.189	276.96
387.568	293
387.948	292.55
388.328	305.2
388.707	309.05
389.087	293
389.466	284.64
389.846	293
390.225	309.72
390.605	318.54
390.984	310.4
391.363	298.88
391.743	302.94
392.122	302.94
392.501	305.43
392.881	301.36
393.26	308.82
393.639	291.64
394.018	295.26
394.397	310.4
394.776	306.33
395.155	284.19
395.534	305.88
395.913	326.67
396.292	288.93
396.671	317.86
397.05	288.03
397.429	295.94
397.808	311.98
398.186	314.24
398.565	296.84
398.944	308.14
399.323	304.3
399.701	315.37
400.08	323.28
400.458	310.63
400.837	321.02
401.215	312.89
401.594	308.14
401.972	324.19
402.351	294.36
402.729	302.49
403.107	321.02
403.486	315.6
403.864	304.53
404.242	302.72
404.62	310.18
404.999	315.15
405.377	300.68
405.755	316.5
406.133	306.79
406.511	309.05
406.889	309.05
407.267	318.31
407.645	306.79
408.023	306.79
408.401	304.3
408.779	331.19
409.156	321.02
409.534	312.21
409.912	306.11
410.29	334.81
410.667	349.27
411.045	327.8
411.422	323.06
411.8	334.36
412.178	302.04
412.555	321.47
412.933	329.38
413.31	324.19
413.687	299.33
414.065	323.96
414.442	336.84
414.819	316.95
415.197	320.12
415.574	311.08
415.951	318.99
416.328	325.77
416.705	324.86
417.082	296.39
417.46	333.68
417.837	316.5
418.214	361.7
418.591	327.8
418.967	310.4
419.344	323.51
419.721	333
420.098	326.22
420.475	336.16
420.852	330.97
421.228	323.96
421.605	338.88
421.982	324.41
422.358	328.48
422.735	337.97
423.111	328.48
423.488	343.62
423.864	357.41
424.241	330.51
424.617	336.39
424.994	344.07
425.37	337.07
425.746	345.43
426.123	344.07
426.499	330.51
426.875	353.79
427.251	325.99
427.627	330.51
428.003	325.54
428.379	352.43
428.756	342.04
429.132	343.62
429.507	347.91
429.883	351.98
430.259	358.99
430.635	341.59
431.011	356.05
431.387	362.83
431.763	366.67
432.138	356.95
432.514	350.85
432.89	359.67
433.265	359.89
433.641	349.95
434.016	357.86
434.392	384.52
434.767	354.47
435.143	375.71
435.518	375.48
435.894	353.79
436.269	352.21
436.644	372.55
437.02	375.26
437.395	393.11
437.77	365.09
438.145	359.67
438.52	362.38
438.895	375.03
439.271	364.19
439.646	385.2
440.021	372.55
440.395	371.87
440.77	351.3
441.145	369.83
441.52	384.3
441.895	364.64
442.27	367.35
442.645	384.3
443.019	400.34
443.394	366.67
443.769	355.15
444.143	377.52
444.518	381.81
444.892	382.04
445.267	381.59
445.641	375.26
446.016	373.9
446.39	375.71
446.764	412.09
447.139	380
447.513	394.02
447.887	388.37
448.262	391.53
448.636	417.97
449.01	386.78
449.384	381.81
449.758	390.17
450.132	390.17
450.506	403.73
450.88	407.57
451.254	413
451.628	402.38
452.002	420
452.376	435.37
452.75	420.91
453.123	419.55
453.497	402.6
453.871	394.24
454.244	407.12
454.618	429.27
454.992	425.43
455.365	423.17
455.739	443.96
456.112	428.14
456.486	411.42
456.859	428.82
457.232	424.07
457.606	428.14
457.979	420.91
458.352	439.89
458.725	453.45
459.099	413.22
459.472	438.99
459.845	443.73
460.218	439.44
460.591	440.79
460.964	441.92
461.337	452.77
461.71	461.58
462.083	446.44
462.456	438.99
462.829	438.31
463.201	453.22
463.574	440.79
463.947	437.63
464.32	457.29
464.692	461.36
465.065	445.77
465.438	441.92
465.81	478.53
466.183	475.59
466.555	489.38
466.928	481.24
467.3	474.46
467.672	475.37
468.045	486.89
468.417	499.32
468.789	502.49
469.161	517.4
469.534	476.05
469.906	502.03
470.278	490.28
470.65	513.56
471.022	501.36
471.394	517.85
471.766	525.54
472.138	530.73
472.51	525.99
472.882	515.82
473.253	542.26
473.625	525.99
473.997	544.97
474.369	552.65
474.74	557.17
475.112	544.52
475.484	564.63
475.855	537.29
476.227	545.2
476.598	580.22
476.97	584.74
477.341	587.68
477.713	573.22
478.084	606.44
478.455	615.48
478.827	605.53
479.198	596.27
479.569	613.22
479.94	619.32
480.311	643.95
480.682	630.84
481.053	624.74
481.424	648.7
481.795	625.87
482.166	622.03
482.537	655.7
482.908	659.77
483.279	660.67
483.65	655.48
484.021	676.49
484.391	685.31
484.762	666.32
485.133	680.56
485.503	711.29
485.874	721.92
486.244	727.11
486.615	727.79
486.985	733.22
487.356	726.89
487.726	737.96
488.097	749.49
488.467	772.99
488.837	755.14
489.207	750.62
489.578	766.21
489.948	760.56
490.318	779.99
490.688	835.81
491.058	775.02
491.428	799.65
491.798	812.76
492.168	784.06
492.538	799.2
492.908	807.56
493.278	831.07
493.648	821.35
494.017	830.61
494.387	833.33
494.757	827.22
495.126	873.55
495.496	871.52
495.866	861.57
496.235	899.31
496.605	888.47
496.974	873.1
497.344	896.83
497.713	879.88
498.082	888.01
498.452	900.22
498.821	886.21
499.19	892.08
499.559	902.7
499.928	932.31
500.298	912.87
500.667	893.44
501.036	914.91
501.405	925.07
501.774	941.35
502.143	912.87
502.512	917.84
502.88	953.1
503.249	922.81
503.618	936.15
503.987	945.86
504.356	962.14
504.724	943.83
505.093	950.16
505.462	964.17
505.83	958.07
506.199	976.6
506.567	975.47
506.936	960.78
507.304	953.55
507.672	972.76
508.041	984.28
508.409	981.57
508.777	1013.43
509.145	1022.47
509.514	977.5
509.882	1000.1
510.25	1031.06
510.618	1006.43
510.986	1004.62
511.354	1004.17
511.722	1027.44
512.09	1018.63
512.458	1014.56
512.826	1034.45
513.193	1053.66
513.561	1040.1
513.929	1033.32
514.297	1030.61
514.664	1046.65
515.032	1058.86
515.4	1064.73
515.767	1071.96
516.135	1056.14
516.502	1051.17
516.869	1063.83
517.237	1047.33
517.604	1080.55
517.972	1088.01
518.339	1067.9
518.706	1081
519.073	1143.83
519.44	1092.98
519.808	1097.95
520.175	1079.19
520.542	1092.3
520.909	1126.43
521.276	1096.6
521.643	1111.51
522.009	1104.73
522.376	1113.09
522.743	1118.29
523.11	1125.07
523.477	1131.85
523.843	1144.28
524.21	1135.69
524.577	1161.9
524.943	1139.31
525.31	1146.31
525.676	1124.84
526.043	1149.48
526.409	1153.09
526.776	1167.33
527.142	1172.07
527.508	1182.47
527.874	1175.69
528.241	1184.95
528.607	1185.18
528.973	1177.72
529.339	1181.56
529.705	1181.56
530.071	1166.88
530.437	1214.56
530.803	1216.59
531.169	1195.8
531.535	1187.89
531.901	1207.78
532.267	1201.45
532.632	1197.38
532.998	1215.69
533.364	1220.43
533.73	1204.39
534.095	1234.9
534.461	1232.41
534.826	1234.67
535.192	1198.51
535.557	1226.54
535.923	1236.25
536.288	1237.16
536.653	1237.38
537.019	1257.95
537.384	1221.79
537.749	1228.34
538.114	1236.93
538.479	1240.55
538.845	1230.38
539.21	1240.55
539.575	1234.67
539.94	1207.78
540.305	1207.78
540.67	1234.67
541.034	1218.17
541.399	1224.73
541.764	1243.94
542.129	1211.39
542.494	1222.69
542.858	1224.28
543.223	1229.47
543.587	1242.35
543.952	1236.7
544.316	1249.81
544.681	1226.54
545.045	1192.64
545.41	1217.04
545.774	1236.48
546.138	1220.43
546.503	1225.86
546.867	1240.32
547.231	1232.86
547.595	1254.56
547.959	1226.54
548.324	1242.13
548.688	1258.17
549.052	1241.9
549.416	1233.99
549.779	1223.15
550.143	1240.09
550.507	1268.34
550.871	1252.52
551.235	1253.2
551.599	1252.52
551.962	1251.62
552.326	1245.52
552.689	1262.24
553.053	1243.94
553.417	1255.24
553.78	1258.63
554.143	1241.68
554.507	1263.37
554.87	1260.21
555.234	1281.45
555.597	1270.6
555.96	1273.77
556.323	1254.78
556.686	1240.09
557.05	1281.22
557.413	1297.49
557.776	1289.13
558.139	1302.92
558.502	1308.79
558.865	1291.62
559.228	1258.17
559.59	1294.78
559.953	1261.34
560.316	1326.42
560.679	1315.8
561.041	1302.01
561.404	1300.43
561.767	1272.64
562.129	1307.89
562.492	1297.95
562.854	1320.32
563.217	1312.86
563.579	1300.21
563.941	1298.85
564.304	1308.79
564.666	1319.87
565.028	1332.97
565.39	1321.22
565.753	1332.97
566.115	1328.68
566.477	1303.82
566.839	1330.26
567.201	1325.97
567.563	1338.17
567.925	1349.02
568.287	1300.21
568.648	1308.57
569.01	1329.58
569.372	1345.18
569.734	1318.06
570.095	1323.71
570.457	1328.45
570.819	1369.58
571.18	1349.02
571.542	1330.94
571.903	1336.14
572.265	1337.27
572.626	1340.2
572.987	1335.69
573.349	1352.41
573.71	1328.68
574.071	1337.04
574.432	1350.6
574.794	1356.7
575.155	1325.97
575.516	1337.27
575.877	1362.35
576.238	1350.37
576.599	1343.82
576.96	1358.51
577.32	1343.37
577.681	1360.32
578.042	1339.53
578.403	1313.76
578.763	1350.83
579.124	1335.91
579.485	1333.88
579.845	1338.17
580.206	1351.28
580.566	1328.45
580.927	1330.49
581.287	1376.36
581.648	1328.45
582.008	1335.91
582.368	1318.28
582.728	1360.32
583.089	1326.65
583.449	1338.85
583.809	1294.56
584.169	1305.63
584.529	1328.91
584.889	1332.07
585.249	1310.83
585.609	1296.82
585.969	1304.73
586.329	1306.31
586.688	1336.36
587.048	1330.49
587.408	1304.5
587.768	1300.66
588.127	1321
588.487	1278.06
588.846	1302.01
589.206	1312.63
589.565	1289.36
589.925	1308.34
590.284	1329.36
590.643	1289.13
591.003	1284.16
591.362	1327.55
591.721	1276.03
592.08	1310.83
592.44	1305.18
592.799	1313.76
593.158	1268.79
593.517	1306.53
593.876	1304.95
594.235	1283.94
594.593	1330.71
594.952	1307.89
595.311	1287.1
595.67	1292.52
596.029	1308.79
596.387	1308.57
596.746	1299.3
597.104	1265.63
597.463	1279.42
597.822	1302.92
598.18	1290.71
598.538	1282.81
598.897	1314.44
599.255	1289.81
599.613	1315.57
599.972	1301.11
600.33	1304.5
600.688	1275.12
601.046	1273.99
601.404	1287.55
601.762	1310.83
602.12	1314.89
602.478	1295.46
602.836	1304.05
603.194	1289.81
603.552	1313.54
603.91	1303.82
604.268	1323.48
604.625	1307.89
604.983	1317.15
605.341	1323.03
605.698	1303.82
606.056	1302.24
606.413	1302.24
606.771	1298.17
607.128	1311.51
607.485	1338.4
607.843	1305.4
608.2	1320.77
608.557	1291.84
608.914	1300.21
609.272	1321.22
609.629	1337.27
609.986	1349.24
610.343	1309.47
610.7	1328.68
611.057	1312.18
611.414	1332.75
611.771	1318.96
612.127	1333.88
612.484	1334.78
612.841	1352.86
613.198	1310.15
613.554	1331.39
613.911	1352.18
614.267	1330.04
614.624	1355.12
614.98	1327.1
615.337	1349.47
615.693	1343.59
616.05	1328.45
616.406	1361.67
616.762	1375.46
617.118	1335.01
617.475	1348.34
617.831	1346.98
618.187	1354.44
618.543	1344.95
618.899	1338.17
619.255	1343.82
619.611	1313.54
619.967	1337.72
620.323	1356.02
620.678	1352.18
621.034	1328.91
621.39	1345.63
621.746	1363.71
622.101	1311.51
622.457	1332.52
622.812	1344.72
623.168	1334.1
623.523	1350.15
623.879	1334.1
624.234	1330.04
624.589	1337.04
624.945	1343.82
625.3	1374.1
625.655	1310.6
626.01	1343.14
626.365	1346.53
626.72	1356.48
627.075	1338.4
627.43	1327.1
627.785	1331.39
628.14	1347.21
628.495	1359.64
628.85	1300.43
629.205	1314.22
629.559	1344.27
629.914	1338.85
630.269	1358.51
630.623	1312.86
630.978	1340.88
631.332	1328.23
631.687	1339.75
632.041	1312.86
632.396	1325.52
632.75	1343.37
633.104	1305.86
633.459	1315.8
633.813	1326.19
634.167	1343.59
634.521	1330.26
634.875	1326.65
635.229	1312.41
635.583	1318.96
635.937	1309.47
636.291	1291.62
636.645	1332.97
636.999	1299.75
637.352	1283.03
637.706	1309.7
638.06	1326.87
638.413	1327.1
638.767	1318.06
639.121	1320.09
639.474	1300.43
639.828	1307.44
640.181	1302.92
640.534	1307.44
640.888	1315.8
641.241	1325.74
641.594	1322.35
641.947	1311.28
642.301	1313.76
642.654	1292.52
643.007	1340.88
643.36	1333.65
643.713	1336.82
644.066	1315.12
644.419	1323.26
644.771	1312.63
645.124	1299.75
645.477	1292.75
645.83	1330.94
646.182	1307.66
646.535	1302.69
646.888	1330.04
647.24	1308.79
647.593	1296.36
647.945	1311.96
648.298	1310.83
648.65	1306.76
649.002	1324.39
649.355	1356.25
649.707	1353.09
650.059	1316.7
650.411	1358.96
650.763	1332.52
651.115	1371.62
651.467	1368
651.819	1348.11
652.171	1405.06
652.523	1356.93
652.875	1389.24
653.227	1378.17
653.578	1356.48
653.93	1422.46
654.282	1377.94
654.633	1386.53
654.985	1402.58
655.337	1396.02
655.688	1397.38
656.039	1402.12
656.391	1410.94
656.742	1428.34
657.094	1429.24
657.445	1419.3
657.796	1424.95
658.147	1405.51
658.498	1459.52
658.849	1437.83
659.2	1457.49
659.551	1493.87
659.902	1471.5
660.253	1473.53
660.604	1475.57
660.955	1468.56
661.306	1497.71
661.656	1475.79
662.007	1491.61
662.358	1520.99
662.708	1490.94
663.059	1531.16
663.409	1510.82
663.76	1537.49
664.11	1546.08
664.461	1568
664.811	1569.58
665.161	1576.13
665.511	1573.42
665.862	1579.29
666.212	1597.15
666.562	1603.7
666.912	1619.75
667.262	1584.94
667.612	1637.6
667.962	1651.16
668.312	1636.69
668.662	1651.61
669.011	1664.26
669.361	1682.34
669.711	1686.64
670.06	1671.04
670.41	1651.61
670.76	1708.1
671.109	1704.04
671.459	1756.69
671.808	1768.44
672.157	1778.16
672.507	1771.15
672.856	1802.11
673.205	1819.06
673.554	1813.41
673.904	1799.4
674.253	1811.38
674.602	1836.01
674.951	1829.91
675.3	1862
675.649	1868.1
675.998	1850.93
676.346	1896.35
676.695	1927.99
677.044	1904.94
677.393	1933.18
677.741	1962.34
678.09	1944.71
678.438	1948.55
678.787	1969.11
679.135	1993.3
679.484	1993.75
679.832	2021.09
680.181	2053.18
680.529	2052.5
680.877	2078.26
681.225	2033.07
681.573	2131.82
681.922	2055.89
682.27	2083.46
682.618	2131.14
682.966	2147.19
683.314	2154.42
683.661	2183.12
684.009	2163.46
684.357	2191.26
684.705	2201.65
685.053	2196.68
685.4	2198.26
685.748	2220.41
686.095	2242.1
686.443	2271.93
686.79	2293.4
687.138	2274.19
687.485	2322.55
687.832	2312.38
688.18	2366.39
688.527	2317.35
688.874	2358.94
689.221	2389.22
689.568	2358.48
689.915	2379.27
690.262	2433.96
690.609	2434.19
690.956	2436
691.303	2459.95
691.65	2440.06
691.997	2481.42
692.344	2473.96
692.69	2495.43
693.037	2506.73
693.383	2534.75
693.73	2532.04
694.077	2556.22
694.423	2545.6
694.769	2562.55
695.116	2609.1
695.462	2613.62
695.808	2595.54
696.155	2642.77
696.501	2631.7
696.847	2697.01
697.193	2690.45
697.539	2704.46
697.885	2716.67
698.231	2722.77
698.577	2693.39
698.923	2694.29
699.269	2691.36
699.614	2739.49
699.96	2756.89
700.306	2781.52
700.651	2805.25
700.997	2776.1
701.342	2811.13
701.688	2803.67
702.033	2822.43
702.379	2862.88
702.724	2833.27
703.069	2859.26
703.415	2840.96
703.76	2897.68
704.105	2920.05
704.45	2934.74
704.795	2914.85
705.14	2891.58
705.485	2930.67
705.83	2936.55
706.175	2986.72
706.52	2960.95
706.865	2974.06
707.209	2980.61
707.554	2979.03
707.899	2977.22
708.243	3024.23
708.588	3006.15
708.932	3032.82
709.277	3023.32
709.621	3033.27
709.966	3064.91
710.31	3078.46
710.654	3093.83
710.998	3093.83
711.342	3096.09
711.687	3113.27
712.031	3125.02
712.375	3137.45
712.719	3139.25
713.063	3137.9
713.407	3151
713.75	3127.73
714.094	3202.08
714.438	3140.16
714.782	3216.31
715.125	3184.9
715.469	3208.4
715.812	3251.12
716.156	3237.33
716.499	3226.03
716.843	3202.98
717.186	3250.89
717.53	3244.56
717.873	3269.42
718.216	3292.92
718.559	3216.09
718.902	3253.6
719.246	3305.58
719.589	3281.17
719.932	3331.11
720.275	3299.93
720.617	3289.53
720.96	3293.83
721.303	3318.46
721.646	3352.13
721.989	3285.69
722.331	3332.24
722.674	3363.43
723.016	3343.54
723.359	3353.03
723.701	3394.61
724.044	3362.07
724.386	3371.79
724.729	3373.82
725.071	3327.72
725.413	3376.54
725.755	3371.56
726.097	3375.18
726.439	3376.99
726.782	3357.55
727.124	3386.03
727.465	3384.44
727.807	3388.96
728.149	3387.16
728.491	3402.98
728.833	3379.7
729.175	3404.78
729.516	3409.08
729.858	3398.46
730.199	3387.38
730.541	3427.16
730.882	3378.8
731.224	3417.66
731.565	3430.77
731.906	3441.39
732.248	3429.87
732.589	3417.21
732.93	3393.03
733.271	3426.7
733.612	3447.49
733.953	3428.06
734.294	3411.34
734.635	3410.88
734.976	3401.62
735.317	3404.33
735.658	3449.53
735.999	3427.61
736.339	3434.16
736.68	3383.31
737.021	3416.99
737.361	3429.19
737.702	3417.44
738.042	3410.88
738.383	3390.32
738.723	3420.38
739.063	3434.84
739.404	3401.62
739.744	3365.69
740.084	3367.04
740.424	3419.02
740.764	3377.89
741.104	3436.65
741.444	3438.68
741.784	3409.53
742.124	3423.09
742.464	3407.95
742.804	3431
743.143	3426.48
743.483	3438.23
743.823	3409.98
744.162	3395.29
744.502	3398.46
744.841	3348.51
745.181	3428.29
745.52	3389.42
745.86	3370.66
746.199	3366.82
746.538	3365.69
746.877	3396.87
747.216	3387.38
747.556	3399.13
747.895	3363.2
748.234	3362.98
748.573	3328.63
748.911	3359.59
749.25	3382.86
749.589	3343.09
749.928	3362.98
750.267	3380.38
750.605	3310.77
750.944	3316.42
751.283	3328.85
751.621	3316.88
751.96	3320.49
752.298	3298.8
752.636	3322.3
752.975	3281.62
753.313	3286.59
753.651	3302.41
753.989	3263.77
754.327	3278.91
754.666	3260.15
755.004	3292.02
755.342	3315.75
755.679	3252.7
756.017	3265.35
756.355	3239.14
756.693	3224.68
757.031	3304.22
757.368	3232.58
757.706	3254.73
758.044	3214.05
758.381	3241.85
758.719	3218.8
759.056	3195.52
759.394	3204.34
759.731	3184.68
760.068	3191.23
760.405	3132.47
760.743	3155.07
761.08	3131.57
761.417	3171.12
761.754	3174.05
762.091	3134.51
762.428	3128.63
762.765	3120.95
763.102	3125.02
763.438	3121.17
763.775	3094.74
764.112	3089.99
764.449	3123.89
764.785	3100.16
765.122	3030.56
765.458	3057.67
765.795	3056.32
766.131	3043.21
766.467	3051.57
766.804	3034.4
767.14	3023.32
767.476	3021.97
767.812	2981.97
768.148	3004.79
768.485	3000.05
768.821	2979.94
769.157	2977
769.492	2954.17
769.828	2948.52
770.164	2930.67
770.5	2934.06
770.836	2927.51
771.171	2930.9
771.507	2936.55
771.842	2897
772.178	2914.63
772.513	2883.22
772.849	2867.4
773.184	2847.74
773.519	2852.26
773.855	2887.28
