Data from carpet_green_FLMS001491_00022.txt Node
Date: Wed Feb 08 10:35:07 GMT 2017
User: dcchb
Spectrometer: FLMS00149
Trigger mode: 0
Integration Time (sec): 2.000000E-2
Scans to average: 10
Electric dark correction enabled: true
Nonlinearity correction enabled: false
Boxcar width: 0
XAxis mode: Wavelengths
Number of Pixels in Spectrum: 2048
>>>>>Begin Spectral Data<<<<<
341.393	-24.46
341.776	-24.46
342.16	-24.46
342.543	-69.89
342.927	-53.39
343.31	-74.18
343.693	-68.3
344.077	-69.21
344.46	-58.81
344.843	-41.19
345.226	-32.6
345.61	-9.55
345.993	-17.23
346.376	-14.52
346.759	-7.97
347.142	21.64
347.525	47.63
347.908	47.4
348.291	71.13
348.674	100.51
349.057	105.25
349.44	126.27
349.823	135.76
350.206	153.84
350.588	181.18
350.971	193.16
351.354	179.37
351.737	214.18
352.119	253.72
352.502	244.91
352.884	252.14
353.267	267.51
353.65	256.66
354.032	260.73
354.414	267.96
354.797	278.81
355.179	294.4
355.562	306.83
355.944	294.4
356.326	319.26
356.709	311.57
357.091	312.25
357.473	322.65
357.855	312.25
358.238	309.99
358.62	329.2
359.002	307.05
359.384	302.76
359.766	327.39
360.148	310.9
360.53	292.37
360.912	290.11
361.294	320.84
361.676	309.31
362.057	316.77
362.439	295.08
362.821	315.87
363.203	307.28
363.584	303.89
363.966	305.47
364.348	304.34
364.729	276.55
365.111	284
365.493	295.75
365.874	258.69
366.256	294.85
366.637	289.2
367.019	290.33
367.4	293.04
367.781	285.59
368.163	284.68
368.544	289.43
368.925	281.97
369.306	278.58
369.688	291.46
370.069	278.13
370.45	246.72
370.831	268.41
371.212	289.88
371.593	279.71
371.974	280.84
372.355	262.99
372.736	274.96
373.117	286.26
373.498	290.33
373.879	289.65
374.26	302.53
374.641	289.2
375.021	267.73
375.402	300.05
375.783	283.33
376.163	283.78
376.544	280.84
376.925	281.52
377.305	277.45
377.686	278.13
378.066	294.85
378.447	287.17
378.827	293.95
379.208	293.72
379.588	293.27
379.968	292.82
380.349	288.98
380.729	307.05
381.109	290.33
381.489	301.4
381.87	291.24
382.25	286.72
382.63	282.42
383.01	291.24
383.39	286.26
383.77	295.3
384.15	281.52
384.53	294.85
384.91	308.86
385.29	308.64
385.67	305.92
386.049	295.53
386.429	300.73
386.809	305.25
387.189	283.78
387.568	302.99
387.948	284.46
388.328	293.04
388.707	301.18
389.087	288.52
389.466	302.08
389.846	316.55
390.225	297.79
390.605	310.44
390.984	295.08
391.363	303.21
391.743	325.81
392.122	304.34
392.501	307.96
392.881	326.26
393.26	303.21
393.639	314.96
394.018	329.65
394.397	292.59
394.776	317.9
395.155	308.41
395.534	280.61
395.913	307.73
396.292	300.95
396.671	321.52
397.05	282.87
397.429	310.9
397.808	328.52
398.186	304.12
398.565	294.85
398.944	310.67
399.323	312.03
399.701	316.77
400.08	304.12
400.458	310.22
400.837	312.03
401.215	310.9
401.594	305.7
401.972	345.47
402.351	340.95
402.729	317.45
403.107	316.09
403.486	310.9
403.864	335.08
404.242	308.41
404.62	347.73
404.999	316.55
405.377	338.92
405.755	305.47
406.133	332.82
406.511	331.23
406.889	337.79
407.267	312.48
407.645	322.42
408.023	333.72
408.401	325.13
408.779	327.62
409.156	323.32
409.534	312.25
409.912	342.99
410.29	323.1
410.667	340.05
411.045	333.49
411.422	332.59
411.8	331.01
412.178	346.6
412.555	341.63
412.933	351.35
413.31	342.99
413.687	350.44
414.065	340.95
414.442	333.04
414.819	352.48
415.197	342.76
415.574	335.75
415.951	345.02
416.328	344.34
416.705	340.73
417.082	347.73
417.46	359.71
417.837	332.36
418.214	336.66
418.591	349.99
418.967	356.77
419.344	350.22
419.721	350.67
420.098	339.82
420.475	363.32
420.852	357.45
421.228	371.91
421.605	361.97
421.982	350.89
422.358	344.34
422.735	359.71
423.111	351.35
423.488	351.57
423.864	375.07
424.241	359.48
424.617	342.31
424.994	353.38
425.37	367.39
425.746	364.23
426.123	354.06
426.499	341.4
426.875	378.92
427.251	362.42
427.627	358.8
428.003	382.53
428.379	349.99
428.756	381.4
429.132	401.74
429.507	383.21
429.883	379.59
430.259	397.9
430.635	385.02
431.011	405.36
431.387	393.61
431.763	383.21
432.138	391.8
432.514	402.19
432.89	400.61
433.265	413.94
433.641	415.07
434.016	411.91
434.392	416.88
434.767	379.37
435.143	410.55
435.518	414.17
435.894	383.44
436.269	396.32
436.644	398.35
437.02	425.7
437.395	428.63
437.77	400.61
438.145	409.42
438.52	393.38
438.895	394.06
439.271	406.26
439.646	416.43
440.021	430.67
440.395	413.94
440.77	431.57
441.145	420.95
441.52	407.62
441.895	452.59
442.27	415.75
442.645	449.42
443.019	439.25
443.394	418.46
443.769	445.58
444.143	432.93
444.518	440.84
444.892	433.83
445.267	443.1
445.641	443.55
446.016	430.67
446.39	440.61
446.764	450.55
447.139	439.48
447.513	451.46
447.887	439.71
448.262	463.21
448.636	437.45
449.01	446.71
449.384	439.48
449.758	450.55
450.132	468.86
450.506	475.64
450.88	458.91
451.254	459.82
451.628	472.25
452.002	468.86
452.376	464.11
452.75	463.43
453.123	465.92
453.497	454.85
453.871	471.8
454.244	478.57
454.618	466.6
454.992	493.26
455.365	501.85
455.739	488.97
456.112	506.6
456.486	481.96
456.859	477.22
457.232	514.51
457.606	491.91
457.979	518.8
458.352	507.05
458.725	503.43
459.099	499.14
459.472	516.54
459.845	511.79
460.218	516.09
460.591	522.64
460.964	537.1
461.337	542.08
461.71	535.75
462.083	544.79
462.456	545.92
462.829	539.14
463.201	532.13
463.574	539.82
463.947	565.58
464.32	545.69
464.692	546.37
465.065	578.91
465.438	563.32
465.81	559.02
466.183	568.52
466.555	591.34
466.928	571.45
467.3	566.93
467.672	596.99
468.045	607.61
468.417	622.53
468.789	597.67
469.161	618.23
469.534	625.24
469.906	605.58
470.278	633.6
470.65	623.88
471.022	624.33
471.394	633.15
471.766	658.23
472.138	649.19
472.51	670.21
472.882	677.21
473.253	682.64
473.625	686.93
473.997	704.11
474.369	692.81
474.74	678.34
475.112	700.72
475.484	721.51
475.855	727.83
476.227	741.62
476.598	758.79
476.97	728.29
477.341	749.53
477.713	763.31
478.084	749.53
478.455	797.66
478.827	817.1
479.198	824.55
479.569	828.4
479.94	815.29
480.311	869.98
480.682	814.39
481.053	859.13
481.424	879.92
481.795	881.28
482.166	895.06
482.537	919.02
482.908	940.94
483.279	917.21
483.65	918.56
484.021	959.24
484.391	973.25
484.762	952.91
485.133	979.8
485.503	967.83
485.874	976.19
486.244	1025
486.615	1022.52
486.985	1033.14
487.356	1073.81
487.726	1047.15
488.097	1072.01
488.467	1063.64
488.837	1089.18
489.207	1098.67
489.578	1122.17
489.948	1132.57
490.318	1154.49
490.688	1145.9
491.058	1164.21
491.428	1174.6
491.798	1186.35
492.168	1185.68
492.538	1202.17
492.908	1206.69
493.278	1259.8
493.648	1242.85
494.017	1255.28
494.387	1244.66
494.757	1252.79
495.126	1263.19
495.496	1317.42
495.866	1295.95
496.235	1331.89
496.605	1324.43
496.974	1342.73
497.344	1313.36
497.713	1311.32
498.082	1343.64
498.452	1352.9
498.821	1331.66
499.19	1361.26
499.559	1353.81
499.928	1384.09
500.298	1381.83
500.667	1394.71
501.036	1400.13
501.405	1410.08
501.774	1385.22
502.143	1423.86
502.512	1387.7
502.88	1410.08
503.249	1409.4
503.618	1447.14
503.987	1445.1
504.356	1462.5
504.724	1433.8
505.093	1455.05
505.462	1438.1
505.83	1475.61
506.199	1477.42
506.567	1486.23
506.936	1481.03
507.304	1501.37
507.672	1517.19
508.041	1487.36
508.409	1505.21
508.777	1502.05
509.145	1510.64
509.514	1543.63
509.882	1528.04
510.25	1554.03
510.618	1578.43
510.986	1573.69
511.354	1564.2
511.722	1577.98
512.09	1559
512.458	1572.56
512.826	1614.14
513.193	1577.3
513.561	1587.7
513.929	1577.08
514.297	1656.17
514.664	1593.35
515.032	1628.38
515.4	1622.5
515.767	1642.61
516.135	1638.32
516.502	1656.62
516.869	1662.5
517.237	1676.96
517.604	1666.34
517.972	1676.51
518.339	1669.5
518.706	1669.05
519.073	1672.22
519.44	1694.59
519.808	1719.22
520.175	1690.07
520.542	1720.8
520.909	1713.8
521.276	1738.88
521.643	1709.5
522.009	1703.85
522.376	1738.88
522.743	1727.58
523.11	1796.28
523.477	1760.12
523.843	1775.72
524.21	1794.25
524.577	1795.38
524.943	1824.08
525.31	1788.15
525.676	1827.92
526.043	1806.45
526.409	1801.7
526.776	1839.9
527.142	1843.28
527.508	1845.09
527.874	1853
528.241	1848.26
528.607	1896.84
528.973	1881.02
529.339	1889.61
529.705	1882.38
530.071	1896.84
530.437	1894.58
530.803	1903.17
531.169	1910.63
531.535	1881.02
531.901	1869.5
532.267	1901.59
532.632	1929.84
532.998	1919.89
533.364	1925.54
533.73	1919.44
534.095	1916.73
534.461	1914.47
534.826	1914.24
535.192	1969.84
535.557	1918.09
535.923	1928.93
536.288	1918.99
536.653	1925.09
537.019	1912.21
537.384	1931.87
537.749	1924.41
538.114	1930.29
538.479	1944.75
538.845	1936.62
539.21	1937.29
539.575	1923.06
539.94	1929.61
540.305	1954.24
540.67	1921.25
541.034	1940.46
541.399	1955.6
541.764	1918.99
542.129	1922.15
542.494	1954.02
542.858	1954.47
543.223	1955.82
543.587	1931.19
543.952	1952.66
544.316	1908.37
544.681	1948.14
545.045	1950.17
545.41	1952.66
545.774	1942.72
546.138	1957.41
546.503	1959.44
546.867	1968.25
547.231	1955.37
547.595	1971.87
547.959	1973
548.324	1954.92
548.688	2011.19
549.052	1994.92
549.416	1977.29
549.779	1975.94
550.143	1977.07
550.507	1950.85
550.871	1960.34
551.235	1982.04
551.599	1986.56
551.962	1979.55
552.326	1974.13
552.689	2010.51
553.053	1940.91
553.417	2005.31
553.78	2027.46
554.143	1969.61
554.507	2013
554.87	2015.48
555.234	2024.07
555.597	2020
555.96	2008.7
556.323	1997.63
556.686	2006.67
557.05	2020.91
557.413	2013.68
557.776	2013.9
558.139	2031.3
558.502	2040.79
558.865	2048.48
559.228	2037.86
559.59	2029.27
559.953	2007.35
560.316	2062.04
560.679	2051.41
561.041	2111.3
561.404	2054.13
561.767	2090.06
562.129	2049.38
562.492	2075.37
562.854	2069.27
563.217	2094.58
563.579	2083.28
563.941	2085.76
564.304	2100.91
564.666	2096.39
565.028	2105.65
565.39	2148.81
565.753	2119.21
566.115	2131.41
566.477	2105.65
566.839	2092.32
567.201	2122.6
567.563	2090.51
567.925	2144.97
568.287	2130.28
568.648	2141.36
569.01	2121.02
569.372	2139.77
569.734	2136.16
570.095	2130.06
570.457	2147.23
570.819	2142.26
571.18	2133.22
571.542	2170.06
571.903	2142.03
572.265	2179.77
572.626	2181.58
572.987	2137.29
573.349	2161.24
573.71	2180
574.071	2144.07
574.432	2159.66
574.794	2148.81
575.155	2141.58
575.516	2130.28
575.877	2142.49
576.238	2159.89
576.599	2160.11
576.96	2149.49
577.32	2130.06
577.681	2148.81
578.042	2141.81
578.403	2146.55
578.763	2154.24
579.124	2124.18
579.485	2141.13
579.845	2146.1
580.206	2142.26
580.566	2170.06
580.927	2145.2
581.287	2141.81
581.648	2119.89
582.008	2149.04
582.368	2150.17
582.728	2120.57
583.089	2104.97
583.449	2105.65
583.809	2090.28
584.169	2110.4
584.529	2072.66
584.889	2112.66
585.249	2088.48
585.609	2086.22
585.969	2078.53
586.329	2103.17
586.688	2090.74
587.048	2063.62
587.408	2079.44
587.768	2091.64
588.127	2059.1
588.487	2055.48
588.846	2041.02
589.206	2041.92
589.565	2041.47
589.925	2065.2
590.284	2034.47
590.643	2005.54
591.003	2063.39
591.362	2027.69
591.721	2054.58
592.08	2031.53
592.44	2060.45
592.799	2049.38
593.158	2028.14
593.517	2039.66
593.876	2056.16
594.235	2012.32
594.593	2049.61
594.952	2013.45
595.311	2015.48
595.67	2003.96
596.029	2050.06
596.387	2020.23
596.746	2008.93
597.104	1994.47
597.463	1988.59
597.822	1985.65
598.18	2034.01
598.538	2010.96
598.897	2043.73
599.255	2017.52
599.613	2048.93
599.972	2042.15
600.33	2042.15
600.688	2024.07
601.046	2027.69
601.404	2041.02
601.762	2051.41
602.12	2018.42
602.478	2028.82
602.836	2029.95
603.194	2031.53
603.552	2016.16
603.91	2008.48
604.268	1998.31
604.625	2028.36
604.983	2032.43
605.341	1998.08
605.698	2035.82
606.056	2026.33
606.413	2008.7
606.771	2037.18
607.128	2071.53
607.485	2071.3
607.843	2046.67
608.2	2057.52
608.557	2048.25
608.914	2077.63
609.272	2090.96
609.629	2059.32
609.986	2054.8
610.343	2057.29
610.7	2060.23
611.057	2092.54
611.414	2079.44
611.771	2098.65
612.127	2085.09
612.484	2074.47
612.841	2110.62
613.198	2078.31
613.554	2101.36
613.911	2093.22
614.267	2105.88
614.624	2092.54
614.98	2114.69
615.337	2118.53
615.693	2106.1
616.05	2113.33
616.406	2085.76
616.762	2085.09
617.118	2128.25
617.475	2116.72
617.831	2118.98
618.187	2080.57
618.543	2088.02
618.899	2134.35
619.255	2116.95
619.611	2128.7
619.967	2122.15
620.323	2135.93
620.678	2146.55
621.034	2121.92
621.39	2155.59
621.746	2117.63
622.101	2144.07
622.457	2117.18
622.812	2118.98
623.168	2106.55
623.523	2139.55
623.879	2144.52
624.234	2098.65
624.589	2114.01
624.945	2102.49
625.3	2139.32
625.655	2122.83
626.01	2095.93
626.365	2111.3
626.72	2114.69
627.075	2104.07
627.43	2114.69
627.785	2121.47
628.14	2079.44
628.495	2110.4
628.85	2080.11
629.205	2101.81
629.559	2083.96
629.914	2124.63
630.269	2098.87
630.623	2115.59
630.978	2116.5
631.332	2095.48
631.687	2096.39
632.041	2087.8
632.396	2098.65
632.75	2115.14
633.104	2079.44
633.459	2090.06
633.813	2070.62
634.167	2076.73
634.521	2086.67
634.875	2078.08
635.229	2057.06
635.583	2053.22
635.937	2129.38
636.291	2099.1
636.645	2067.01
636.999	2057.52
637.352	2071.98
637.706	2087.35
638.06	2087.35
638.413	2087.12
638.767	2062.26
639.121	2065.65
639.474	2081.92
639.828	2091.87
640.181	2095.26
640.534	2069.72
640.888	2090.51
641.241	2089.83
641.594	2082.37
641.947	2091.19
642.301	2105.88
642.654	2060.68
643.007	2113.56
643.36	2097.97
643.713	2074.69
644.066	2089.38
644.419	2081.47
644.771	2073.11
645.124	2062.71
645.477	2060
645.83	2066.33
646.182	2029.95
646.535	2031.75
646.888	2045.54
647.24	2033.56
647.593	2042.15
647.945	2054.35
648.298	2068.59
648.65	2067.69
649.002	2060
649.355	2059.1
649.707	2066.56
650.059	2073.79
650.411	2131.41
650.763	2131.19
651.115	2183.61
651.467	2171.19
651.819	2137.51
652.171	2180
652.523	2156.5
652.875	2149.49
653.227	2172.77
653.578	2172.54
653.93	2180.45
654.282	2170.96
654.633	2166.67
654.985	2163.95
655.337	2179.32
655.688	2198.53
656.039	2241.47
656.391	2235.14
656.742	2233.33
657.094	2236.72
657.445	2256.38
657.796	2269.49
658.147	2256.16
658.498	2253.9
658.849	2278.3
659.2	2306.78
659.551	2278.75
659.902	2326.21
660.253	2293.44
660.604	2316.49
660.955	2328.47
661.306	2331.86
661.656	2367.56
662.007	2365.53
662.358	2396.26
662.708	2395.59
663.059	2403.27
663.409	2419.99
663.76	2443.5
664.11	2469.26
664.461	2478.97
664.811	2488.69
665.161	2497.5
665.511	2499.31
665.862	2529.59
666.212	2534.79
666.562	2564.62
666.912	2595.58
667.262	2567.56
667.612	2610.5
667.962	2610.72
668.312	2601.68
668.662	2654.34
669.011	2669.25
669.361	2643.49
669.711	2690.95
670.06	2702.02
670.41	2716.26
670.76	2755.8
671.109	2762.58
671.459	2776.82
671.808	2791.73
672.157	2843.94
672.507	2793.99
672.856	2848.46
673.205	2852.3
673.554	2922.58
673.904	2904.5
674.253	2984.95
674.602	3000.54
674.951	2949.7
675.3	2975.46
675.649	3021.11
675.998	3036.93
676.346	3083.7
676.695	3103.36
677.044	3084.38
677.393	3102.23
677.741	3155.34
678.09	3186.3
678.438	3194.66
678.787	3202.12
679.135	3199.86
679.484	3264.72
679.832	3299.74
680.181	3281.67
680.529	3371.38
680.877	3326.18
681.225	3356.47
681.573	3402.79
681.922	3407.54
682.27	3418.84
682.618	3476.01
682.966	3470.13
683.314	3520.98
683.661	3528.44
684.009	3537.7
684.357	3574.54
684.705	3586.29
685.053	3614.76
685.4	3636.46
685.748	3647.98
686.095	3669.68
686.443	3704.03
686.79	3720.98
687.138	3788.32
687.485	3810.01
687.832	3813.63
688.18	3839.84
688.527	3821.54
688.874	3893.4
689.221	3896.56
689.568	3923.91
689.915	3938.82
690.262	3964.13
690.609	4024.02
690.956	3962.78
691.303	4031.02
691.65	4036.22
691.997	4022.21
692.344	4093.85
692.69	4101.76
693.037	4189.66
693.383	4157.8
693.73	4207.52
694.077	4184.01
694.423	4191.7
694.769	4240.06
695.116	4246.39
695.462	4235.76
695.808	4279.6
696.155	4314.63
696.501	4330.9
696.847	4349.89
697.193	4344.91
697.539	4423.56
697.885	4429.88
698.231	4437.57
698.577	4450
698.923	4489.77
699.269	4450.45
699.614	4488.19
699.96	4531.8
700.306	4523.21
700.651	4563.67
700.997	4584.91
701.342	4590.11
701.688	4659.93
702.033	4669.2
702.379	4661.06
702.724	4682.76
703.069	4725.47
703.415	4682.98
703.76	4794.39
704.105	4766.15
704.45	4768.41
704.795	4782.19
705.14	4841.4
705.485	4784.9
705.83	4826.03
706.175	4873.71
706.52	4912.13
706.865	4872.81
707.209	4935.63
707.554	4935.86
707.899	4929.98
708.243	4962.98
708.588	4992.58
708.932	5019.02
709.277	4990.09
709.621	4997.55
709.966	5035.29
710.31	5064.9
710.654	5064.44
710.998	5091.56
711.342	5103.09
711.687	5124.33
712.031	5116.19
712.375	5086.36
712.719	5187.38
713.063	5159.81
713.407	5170.43
713.75	5167.49
714.094	5183.31
714.438	5233.48
714.782	5207.49
715.125	5198.22
715.469	5280.03
715.812	5246.13
716.156	5223.99
716.499	5283.87
716.843	5314.15
717.186	5327.71
717.53	5338.11
717.873	5310.76
718.216	5353.02
718.559	5319.35
718.902	5344.66
719.246	5378.11
719.589	5333.81
719.932	5339.46
720.275	5393.02
720.617	5428.28
720.96	5383.3
721.303	5371.55
721.646	5396.86
721.989	5388.05
722.331	5478.44
722.674	5462.85
723.016	5453.81
723.359	5484.32
723.701	5465.56
724.044	5461.72
724.386	5425.56
724.729	5430.08
725.071	5478.22
725.413	5477.09
725.755	5488.61
726.097	5440.93
726.439	5505.79
726.782	5492
727.124	5527.48
727.465	5456.3
727.807	5523.87
728.149	5509.4
728.491	5483.64
728.833	5511.44
729.175	5506.01
729.516	5513.7
729.858	5528.61
730.199	5534.26
730.541	5549.4
730.882	5536.07
731.224	5575.84
731.565	5541.72
731.906	5551.44
732.248	5513.24
732.589	5493.81
732.93	5539.23
733.271	5558.44
733.612	5591.43
733.953	5565.67
734.294	5572.9
734.635	5468.95
734.976	5541.27
735.317	5565.22
735.658	5516.18
735.999	5530.87
736.339	5511.89
736.68	5605.45
737.021	5522.28
737.361	5548.27
737.702	5520.93
738.042	5462.85
738.383	5525.9
738.723	5504.88
739.063	5542.4
739.404	5527.03
739.744	5517.31
740.084	5510.76
740.424	5531.55
740.764	5562.74
741.104	5559.57
741.444	5515.05
741.784	5539.23
742.124	5510.76
742.464	5522.51
742.804	5493.13
743.143	5526.8
743.483	5532.45
743.823	5502.17
744.162	5503.3
744.502	5506.24
744.841	5496.52
745.181	5452.91
745.52	5471.66
745.86	5446.81
746.199	5504.21
746.538	5434.83
746.877	5447.71
747.216	5459.91
747.556	5474.6
747.895	5448.39
748.234	5399.35
748.573	5413.13
748.911	5473.02
749.25	5414.94
749.589	5376.98
749.928	5446.35
750.267	5404.1
750.605	5399.8
750.944	5356.64
751.283	5385.11
751.621	5410.42
751.96	5356.64
752.298	5415.17
752.636	5301.27
752.975	5271.44
753.313	5326.81
753.651	5299.01
753.989	5306.7
754.327	5288.84
754.666	5295.17
755.004	5271.22
755.342	5301.27
755.679	5236.87
756.017	5288.39
756.355	5299.01
756.693	5305.34
757.031	5244.1
757.368	5226.47
757.706	5211.11
758.044	5206.81
758.381	5199.13
758.719	5173.59
759.056	5160.71
759.394	5133.82
759.731	5155.29
760.068	5128.62
760.405	5135.4
760.743	5097.44
761.08	5098.11
761.417	5066.48
761.754	5082.3
762.091	5049.98
762.428	5043.2
762.765	5038.23
763.102	5014.95
763.438	5029.42
763.775	4981.96
764.112	4957.78
764.449	5000.04
764.785	5008.4
765.122	4913.49
765.458	4932.47
765.795	4911.23
766.131	4846.82
766.467	4887.05
766.804	4855.18
767.14	4840.27
767.476	4801.17
767.812	4780.16
768.148	4832.81
768.485	4782.42
768.821	4691.57
769.157	4784.22
769.492	4758.01
769.828	4767.5
770.164	4734.06
770.5	4725.02
770.836	4708.29
771.171	4654.51
771.507	4681.63
771.842	4630.33
772.178	4597.11
772.513	4671.01
772.849	4644.57
