Data from carpet_green_FLMS001491_00014.txt Node
Date: Wed Feb 08 10:34:58 GMT 2017
User: dcchb
Spectrometer: FLMS00149
Trigger mode: 0
Integration Time (sec): 2.000000E-2
Scans to average: 10
Electric dark correction enabled: true
Nonlinearity correction enabled: false
Boxcar width: 0
XAxis mode: Wavelengths
Number of Pixels in Spectrum: 2048
>>>>>Begin Spectral Data<<<<<
341.393	-16.69
341.776	-16.69
342.16	-16.69
342.543	-53.76
342.927	-67.99
343.31	-71.61
343.693	-78.39
344.077	-65.51
344.46	-62.57
344.843	-46.52
345.226	-33.64
345.61	-29.58
345.993	-26.64
346.376	-23.47
346.759	16.07
347.142	28.95
347.525	66.69
347.908	49.07
348.291	62.17
348.674	108.05
349.057	106.92
349.44	117.54
349.823	124.32
350.206	165.22
350.588	186.24
350.971	190.76
351.354	227.14
351.737	203.64
352.119	218.1
352.502	255.16
352.884	255.39
353.267	252
353.65	276.86
354.032	277.99
354.414	277.08
354.797	302.17
355.179	284.31
355.562	308.72
355.944	294.48
356.326	302.39
356.709	296.74
357.091	320.25
357.473	317.31
357.855	326.57
358.238	310.98
358.62	314.14
359.002	299.68
359.384	324.99
359.766	303.3
360.148	328.38
360.53	289.06
360.912	315.95
361.294	292.22
361.676	321.83
362.057	318.21
362.439	304.2
362.821	303.52
363.203	292.45
363.584	310.53
363.966	310.08
364.348	286.12
364.729	291.09
365.111	316.18
365.493	277.54
365.874	298.78
366.256	303.3
366.637	325.22
367.019	289.74
367.4	280.47
367.781	296.52
368.163	271.66
368.544	300.81
368.925	294.48
369.306	294.71
369.688	277.08
370.069	294.48
370.45	292.9
370.831	271.43
371.212	285.44
371.593	281.15
371.974	287.93
372.355	289.06
372.736	282.96
373.117	261.26
373.498	285.44
373.879	262.62
374.26	287.93
374.641	304.88
375.021	287.25
375.402	301.04
375.783	295.39
376.163	284.99
376.544	287.93
376.925	304.65
377.305	295.84
377.686	285.67
378.066	299
378.447	289.29
378.827	279.79
379.208	283.18
379.588	286.57
379.968	296.52
380.349	282.73
380.729	276.18
381.109	289.74
381.489	282.51
381.87	301.94
382.25	313.69
382.63	296.97
383.01	289.29
383.39	326.57
383.77	285.22
384.15	280.7
384.53	293.35
384.91	320.92
385.29	309.4
385.67	302.85
386.049	299.68
386.429	282.28
386.809	293.58
387.189	288.83
387.568	286.12
387.948	315.05
388.328	273.47
388.707	299.68
389.087	300.59
389.466	296.52
389.846	315.27
390.225	315.5
390.605	323.64
390.984	312.34
391.363	317.76
391.743	293.58
392.122	314.6
392.501	305.56
392.881	330.64
393.26	298.33
393.639	301.26
394.018	304.65
394.397	301.94
394.776	302.39
395.155	311.21
395.534	329.96
395.913	291.77
396.292	318.89
396.671	310.98
397.05	292
397.429	333.13
397.808	295.16
398.186	312.56
398.565	296.07
398.944	295.16
399.323	310.75
399.701	313.69
400.08	303.07
400.458	301.94
400.837	320.02
401.215	309.17
401.594	310.53
401.972	327.03
402.351	313.47
402.729	308.72
403.107	339.68
403.486	312.11
403.864	313.24
404.242	338.32
404.62	315.95
404.999	326.35
405.377	317.53
405.755	325.67
406.133	307.82
406.511	308.04
406.889	341.71
407.267	308.72
407.645	330.42
408.023	311.88
408.401	326.12
408.779	316.63
409.156	347.14
409.534	305.33
409.912	325.44
410.29	303.07
410.667	309.4
411.045	327.7
411.422	324.54
411.8	315.05
412.178	338.1
412.555	325.44
412.933	326.57
413.31	316.86
413.687	344.43
414.065	336.52
414.442	331.77
414.819	328.16
415.197	332.9
415.574	330.42
415.951	322.51
416.328	318.21
416.705	334.71
417.082	347.82
417.46	320.02
417.837	352.11
418.214	336.52
418.591	336.52
418.967	353.01
419.344	334.48
419.721	323.41
420.098	330.19
420.475	338.1
420.852	362.5
421.228	340.58
421.605	348.95
421.982	341.26
422.358	337.19
422.735	364.31
423.111	347.59
423.488	344.43
423.864	354.82
424.241	368.15
424.617	361.83
424.994	334.26
425.37	339.45
425.746	344.43
426.123	334.26
426.499	354.37
426.875	339.23
427.251	355.27
427.627	353.69
428.003	367.93
428.379	351.88
428.756	367.02
429.132	339.68
429.507	325.9
429.883	364.31
430.259	366.57
430.635	352.34
431.011	338.55
431.387	335.39
431.763	362.96
432.138	364.31
432.514	353.69
432.89	353.69
433.265	377.19
433.641	389.85
434.016	368.61
434.392	369.28
434.767	346.23
435.143	369.06
435.518	350.08
435.894	372.67
436.269	362.28
436.644	378.55
437.02	349.17
437.395	365.44
437.77	374.03
438.145	390.98
438.52	383.97
438.895	389.85
439.271	363.86
439.646	393.69
440.021	384.42
440.395	381.94
440.77	377.19
441.145	391.66
441.52	385.78
441.895	404.54
442.27	398.21
442.645	399.34
443.019	398.44
443.394	402.73
443.769	401.6
444.143	382.17
444.518	400.47
444.892	404.54
445.267	402.28
445.641	397.31
446.016	399.11
446.39	410.19
446.764	390.98
447.139	403.18
447.513	381.94
447.887	411.54
448.262	406.8
448.636	410.41
449.01	397.08
449.384	419.9
449.758	398.44
450.132	426.01
450.506	393.92
450.88	423.52
451.254	402.05
451.628	400.92
452.002	426.23
452.376	426.23
452.75	433.46
453.123	400.24
453.497	421.49
453.871	412.67
454.244	446.12
454.618	414.71
454.992	431.2
455.365	442.05
455.739	436.85
456.112	438.66
456.486	438.89
456.859	437.98
457.232	452.9
457.606	458.32
457.979	442.73
458.352	432.11
458.725	440.02
459.099	441.82
459.472	451.54
459.845	451.77
460.218	452.9
460.591	436.4
460.964	459.23
461.337	459.9
461.71	448.15
462.083	465.55
462.456	469.85
462.829	473.69
463.201	473.69
463.574	447.02
463.947	500.81
464.32	477.53
464.692	458.32
465.065	481.15
465.438	484.31
465.81	501.26
466.183	468.04
466.555	491.31
466.928	526.79
467.3	497.19
467.672	517.98
468.045	499.45
468.417	509.17
468.789	512.78
469.161	504.65
469.534	526.79
469.906	518.43
470.278	512.56
470.65	522.5
471.022	529.05
471.394	538.32
471.766	523.63
472.138	521.6
472.51	543.06
472.882	553.69
473.253	548.94
473.625	555.04
473.997	569.05
474.369	575.38
474.74	567.02
475.112	571.09
475.484	580.58
475.855	586.23
476.227	580.13
476.598	593.68
476.97	586.45
477.341	601.37
477.713	618.32
478.084	592.78
478.455	606.79
478.827	622.16
479.198	626.23
479.569	625.55
479.94	646.56
480.311	643.85
480.682	646.56
481.053	653.8
481.424	671.42
481.795	651.54
482.166	649.95
482.537	674.13
482.908	690.41
483.279	703.51
483.65	705.32
484.021	712.55
484.391	716.39
484.762	704.19
485.133	725.21
485.503	734.47
485.874	766.79
486.244	734.47
486.615	748.48
486.985	762.72
487.356	775.6
487.726	782.15
488.097	765.66
488.467	770.18
488.837	780.35
489.207	825.77
489.578	818.99
489.948	815.83
490.318	840.46
490.688	823.06
491.058	839.78
491.428	843.62
491.798	848.37
492.168	864.64
492.538	857.63
492.908	872.1
493.278	876.84
493.648	872.32
494.017	850.4
494.387	886.11
494.757	892.21
495.126	915.71
495.496	907.58
495.866	908.25
496.235	920.91
496.605	918.87
496.974	933.79
497.344	902.15
497.713	922.49
498.082	936.73
498.452	932.21
498.821	960
499.19	947.35
499.559	942.38
499.928	961.36
500.298	960.91
500.667	966.78
501.036	988.7
501.405	1009.27
501.774	986.89
502.143	975.82
502.512	974.69
502.88	988.02
503.249	1004.97
503.618	1006.33
503.987	993.67
504.356	1005.88
504.724	1021.47
505.093	1016.72
505.462	1009.04
505.83	1017.85
506.199	1011.3
506.567	1045.65
506.936	1024.63
507.304	1017.63
507.672	1057.85
508.041	1044.52
508.409	1053.11
508.777	1037.74
509.145	1053.79
509.514	1060.79
509.882	1080
510.25	1048.36
510.618	1074.58
510.986	1066.89
511.354	1094.46
511.722	1086.55
512.09	1103.05
512.458	1082.49
512.826	1087.23
513.193	1114.12
513.561	1092.43
513.929	1103.28
514.297	1142.6
514.664	1120.9
515.032	1094.24
515.4	1118.64
515.767	1103.73
516.135	1129.94
516.502	1111.19
516.869	1128.36
517.237	1150.96
517.604	1122.71
517.972	1140.11
518.339	1137.63
518.706	1153.67
519.073	1136.27
519.44	1150.28
519.808	1163.16
520.175	1171.52
520.542	1170.84
520.909	1173.1
521.276	1169.49
521.643	1176.49
522.009	1184.4
522.376	1207.68
522.743	1201.8
523.11	1193.67
523.477	1178.75
523.843	1220.79
524.21	1213.1
524.577	1199.77
524.943	1229.15
525.31	1229.6
525.676	1207.45
526.043	1236.61
526.409	1258.53
526.776	1244.06
527.142	1245.87
527.508	1230.28
527.874	1242.03
528.241	1267.34
528.607	1260.33
528.973	1271.41
529.339	1275.7
529.705	1244.06
530.071	1287.23
530.437	1294.68
530.803	1289.94
531.169	1283.84
531.535	1284.97
531.901	1288.13
532.267	1293.1
532.632	1284.74
532.998	1284.29
533.364	1306.43
533.73	1271.41
534.095	1296.04
534.461	1284.97
534.826	1328.35
535.192	1324.51
535.557	1317.28
535.923	1295.59
536.288	1315.02
536.653	1310.5
537.019	1317.06
537.384	1313.67
537.749	1310.28
538.114	1318.86
538.479	1294.46
538.845	1271.18
539.21	1304.17
539.575	1321.8
539.94	1303.95
540.305	1341.24
540.67	1324.06
541.034	1315.47
541.399	1329.48
541.764	1329.94
542.129	1332.87
542.494	1322.25
542.858	1339.65
543.223	1327.45
543.587	1328.58
543.952	1290.16
544.316	1319.77
544.681	1336.04
545.045	1347.11
545.41	1335.13
545.774	1298.3
546.138	1331.97
546.503	1336.72
546.867	1319.09
547.231	1321.35
547.595	1338.07
547.959	1325.87
548.324	1337.85
548.688	1328.81
549.052	1338.98
549.416	1341.91
549.779	1376.26
550.143	1345.76
550.507	1335.59
550.871	1346.21
551.235	1369.94
551.599	1325.19
551.962	1349.37
552.326	1366.32
552.689	1353.89
553.053	1349.6
553.417	1364.51
553.78	1362.03
554.143	1362.93
554.507	1367.45
554.87	1352.76
555.234	1339.43
555.597	1365.87
555.96	1377.62
556.323	1363.83
556.686	1375.13
557.05	1371.74
557.413	1381.69
557.776	1382.14
558.139	1411.97
558.502	1391.63
558.865	1382.36
559.228	1394.12
559.59	1393.89
559.953	1372.65
560.316	1380.78
560.679	1390.05
561.041	1400.44
561.404	1392.53
561.767	1384.4
562.129	1383.27
562.492	1423.04
562.854	1439.31
563.217	1407
563.579	1401.8
563.941	1423.27
564.304	1402.48
564.666	1409.03
565.028	1430.05
565.39	1428.47
565.753	1437.5
566.115	1428.24
566.477	1448.58
566.839	1417.62
567.201	1445.19
567.563	1439.54
567.925	1453.32
568.287	1448.35
568.648	1426.21
569.01	1427.11
569.372	1431.86
569.734	1459.65
570.095	1443.61
570.457	1428.47
570.819	1426.21
571.18	1465.98
571.542	1468.46
571.903	1413.1
572.265	1452.65
572.626	1437.28
572.987	1457.62
573.349	1470.05
573.71	1462.59
574.071	1450.84
574.432	1454.68
574.794	1467.56
575.155	1444.28
575.516	1442.7
575.877	1455.36
576.238	1468.01
576.599	1463.72
576.96	1450.39
577.32	1435.7
577.681	1476.6
578.042	1459.2
578.403	1447.45
578.763	1461.68
579.124	1463.72
579.485	1442.02
579.845	1434.11
580.206	1448.8
580.566	1454.45
580.927	1446.09
581.287	1451.06
581.648	1418.3
582.008	1441.8
582.368	1444.96
582.728	1458.97
583.089	1437.5
583.449	1431.63
583.809	1451.29
584.169	1428.92
584.529	1447.9
584.889	1415.13
585.249	1440.67
585.609	1430.27
585.969	1400.9
586.329	1430.5
586.688	1425.08
587.048	1418.3
587.408	1416.94
587.768	1397.96
588.127	1421.91
588.487	1395.02
588.846	1428.01
589.206	1401.12
589.565	1404.74
589.925	1403.61
590.284	1388.24
590.643	1407.9
591.003	1401.8
591.362	1383.72
591.721	1430.5
592.08	1402.03
592.44	1385.3
592.799	1420.1
593.158	1383.95
593.517	1401.57
593.876	1395.92
594.235	1390.05
594.593	1362.48
594.952	1416.26
595.311	1388.92
595.67	1411.52
596.029	1400.22
596.387	1386.43
596.746	1438.86
597.104	1414.23
597.463	1392.31
597.822	1405.64
598.18	1399.99
598.538	1388.47
598.897	1388.92
599.255	1390.73
599.613	1397.96
599.972	1406.32
600.33	1393.21
600.688	1405.64
601.046	1422.82
601.404	1435.92
601.762	1386.43
602.12	1398.64
602.478	1411.29
602.836	1407.9
603.194	1402.7
603.552	1372.42
603.91	1413.55
604.268	1412.19
604.625	1407.22
604.983	1419.65
605.341	1411.97
605.698	1432.53
606.056	1432.08
606.413	1429.37
606.771	1435.92
607.128	1410.84
607.485	1397.96
607.843	1454.23
608.2	1434.34
608.557	1440.89
608.914	1449.71
609.272	1441.12
609.629	1451.06
609.986	1449.26
610.343	1431.18
610.7	1439.76
611.057	1472.08
611.414	1430.5
611.771	1428.47
612.127	1460.33
612.484	1471.18
612.841	1438.41
613.198	1414.45
613.554	1434.57
613.911	1436.6
614.267	1478.18
614.624	1437.5
614.98	1428.24
615.337	1470.95
615.693	1450.16
616.05	1476.6
616.406	1477.05
616.762	1454.45
617.118	1446.32
617.475	1446.54
617.831	1460.33
618.187	1474.79
618.543	1450.39
618.899	1441.57
619.255	1472.31
619.611	1464.85
619.967	1458.07
620.323	1489.71
620.678	1479.76
621.034	1456.49
621.39	1428.69
621.746	1449.93
622.101	1472.53
622.457	1445.64
622.812	1458.75
623.168	1485.64
623.523	1464.85
623.879	1467.56
624.234	1453.78
624.589	1463.72
624.945	1471.63
625.3	1459.65
625.655	1448.13
626.01	1446.32
626.365	1488.58
626.72	1467.79
627.075	1462.81
627.43	1467.11
627.785	1456.04
628.14	1456.49
628.495	1455.81
628.85	1487.22
629.205	1458.07
629.559	1449.03
629.914	1451.52
630.269	1456.04
630.623	1440.22
630.978	1449.48
631.332	1450.16
631.687	1432.53
632.041	1459.2
632.396	1452.42
632.75	1454.91
633.104	1454
633.459	1453.32
633.813	1450.39
634.167	1429.6
634.521	1440.22
634.875	1444.74
635.229	1456.49
635.583	1418.3
635.937	1430.95
636.291	1441.35
636.645	1439.99
636.999	1418.07
637.352	1427.79
637.706	1444.06
638.06	1427.11
638.413	1466.88
638.767	1439.31
639.121	1410.16
639.474	1432.31
639.828	1451.97
640.181	1426.88
640.534	1423.95
640.888	1433.89
641.241	1420.1
641.594	1428.24
641.947	1440.44
642.301	1427.79
642.654	1422.14
643.007	1421.69
643.36	1452.87
643.713	1434.34
644.066	1444.28
644.419	1439.99
644.771	1432.53
645.124	1429.14
645.477	1428.69
645.83	1420.1
646.182	1410.39
646.535	1406.77
646.888	1411.29
647.24	1421.69
647.593	1444.51
647.945	1444.06
648.298	1451.52
648.65	1435.02
649.002	1441.8
649.355	1450.61
649.707	1438.86
650.059	1486.54
650.411	1453.78
650.763	1484.51
651.115	1482.25
651.467	1473.89
651.819	1486.09
652.171	1537.39
652.523	1496.49
652.875	1503.04
653.227	1508.24
653.578	1501.68
653.93	1513.43
654.282	1512.08
654.633	1493.1
654.985	1521.8
655.337	1552.3
655.688	1553.21
656.039	1550.27
656.391	1566.54
656.742	1570.16
657.094	1567.44
657.445	1592.53
657.796	1569.25
658.147	1577.39
658.498	1583.26
658.849	1597.5
659.2	1567.22
659.551	1606.99
659.902	1609.48
660.253	1644.28
660.604	1653.09
660.955	1648.12
661.306	1632.75
661.656	1666.88
662.007	1672.53
662.358	1686.31
662.708	1689.7
663.059	1673.66
663.409	1661
663.76	1702.13
664.11	1735.35
664.461	1743.94
664.811	1723.82
665.161	1762.47
665.511	1751.39
665.862	1750.49
666.212	1790.94
666.562	1764.28
666.912	1780.55
667.262	1793.2
667.612	1813.54
667.962	1811.73
668.312	1829.58
668.662	1799.08
669.011	1845.63
669.361	1844.73
669.711	1851.73
670.06	1874.56
670.41	1854.22
670.76	1911.62
671.109	1913.65
671.459	1964.04
671.808	1918.85
672.157	1932.86
672.507	1963.82
672.856	1975.57
673.205	1969.47
673.554	1993.65
673.904	1996.81
674.253	2023.25
674.602	2015.57
674.951	2015.79
675.3	1994.1
675.649	2083.14
675.998	2086.53
676.346	2085.4
676.695	2099.41
677.044	2129.01
677.393	2135.34
677.741	2127.43
678.09	2154.1
678.438	2159.29
678.787	2168.33
679.135	2173.53
679.484	2186.19
679.832	2189.12
680.181	2205.39
680.529	2233.42
680.877	2221.44
681.225	2243.59
681.573	2305.96
681.922	2288.33
682.27	2275.9
682.618	2315.45
682.966	2353.19
683.314	2291.72
683.661	2349.12
684.009	2356.12
684.357	2379.63
684.705	2357.03
685.053	2382.56
685.4	2455.56
685.748	2442.22
686.095	2447.42
686.443	2480.19
686.79	2463.24
687.138	2537.14
687.485	2507.98
687.832	2486.97
688.18	2543.46
688.527	2548.89
688.874	2562.45
689.221	2588.66
689.568	2565.84
689.915	2576.01
690.262	2597.02
690.609	2641.99
690.956	2601.09
691.303	2602.22
691.65	2626.63
691.997	2688.09
692.344	2698.04
692.69	2692.61
693.037	2684.7
693.383	2695.32
693.73	2712.5
694.077	2720.63
694.423	2747.3
694.769	2737.36
695.116	2773.51
695.462	2759.05
695.808	2820.75
696.155	2805.15
696.501	2850.12
696.847	2801.76
697.193	2799.73
697.539	2843.34
697.885	2866.62
698.231	2851.7
698.577	2891.48
698.923	2918.6
699.269	2887.64
699.614	2898.71
699.96	2918.37
700.306	2953.17
700.651	2934.41
700.997	2953.62
701.342	2971.25
701.688	2981.42
702.033	2990.23
702.379	2971.7
702.724	3010.57
703.069	2997.01
703.415	3040.17
703.76	3041.76
704.105	3044.69
704.45	3091.02
704.795	3039.95
705.14	3071.59
705.485	3024.81
705.83	3068.42
706.175	3085.37
706.52	3096.9
706.865	3153.17
707.209	3130.79
707.554	3132.83
707.899	3134.41
708.243	3128.08
708.588	3160.17
708.932	3115.43
709.277	3191.36
709.621	3190.9
709.966	3192.26
710.31	3201.07
710.654	3176.44
710.998	3209.66
711.342	3236.1
711.687	3229.1
712.031	3207.85
712.375	3260.96
712.719	3230.45
713.063	3259.38
713.407	3272.26
713.75	3271.13
714.094	3301.41
714.438	3286.5
714.782	3291.02
715.125	3314.97
715.469	3328.98
715.812	3302.54
716.156	3321.75
716.499	3322.43
716.843	3355.87
717.186	3326.95
717.53	3353.16
717.873	3387.28
718.216	3346.83
718.559	3349.32
718.902	3341.64
719.246	3367.4
719.589	3381.63
719.932	3371.24
720.275	3416.89
720.617	3408.3
720.96	3402.88
721.303	3393.84
721.646	3437.68
721.989	3413.5
722.331	3420.5
722.674	3407.4
723.016	3447.62
723.359	3390.9
723.701	3422.31
724.044	3435.64
724.386	3462.99
724.729	3454.63
725.071	3447.62
725.413	3413.5
725.755	3457.56
726.097	3436.55
726.439	3447.62
726.782	3433.38
727.124	3446.94
727.465	3449.2
727.807	3453.27
728.149	3480.61
728.491	3475.19
728.833	3476.1
729.175	3467.51
729.516	3468.19
729.858	3472.93
730.199	3465.7
730.541	3489.43
730.882	3475.42
731.224	3481.52
731.565	3481.29
731.906	3494.4
732.248	3507.96
732.589	3459.6
732.93	3473.61
733.271	3437
733.612	3479.48
733.953	3521.07
734.294	3471.8
734.635	3500.5
734.976	3449.66
735.317	3454.4
735.658	3485.36
735.999	3483.1
736.339	3466.38
736.68	3437.23
737.021	3449.66
737.361	3450.33
737.702	3463.89
738.042	3471.12
738.383	3439.71
738.723	3504.57
739.063	3460.73
739.404	3477.9
739.744	3429.32
740.084	3413.72
740.424	3412.37
740.764	3429.54
741.104	3415.53
741.444	3445.36
741.784	3411.92
742.124	3394.06
742.464	3460.73
742.804	3447.4
743.143	3430.22
743.483	3471.12
743.823	3437.45
744.162	3411.69
744.502	3427.28
744.841	3422.54
745.181	3418.24
745.52	3400.84
745.86	3405.36
746.199	3426.83
746.538	3387.06
746.877	3407.17
747.216	3425.25
747.556	3425.02
747.895	3384.8
748.234	3325.82
748.573	3378.02
748.911	3395.65
749.25	3370.79
749.589	3378.7
749.928	3341.41
750.267	3371.47
750.605	3399.26
750.944	3376.66
751.283	3324.23
751.621	3351.8
751.96	3314.74
752.298	3336.89
752.636	3350.22
752.975	3303.67
753.313	3353.61
753.651	3360.39
753.989	3343.44
754.327	3334.63
754.666	3277.91
755.004	3330.56
755.342	3325.36
755.679	3282.65
756.017	3266.84
756.355	3258.25
756.693	3266.61
757.031	3252.6
757.368	3262.32
757.706	3286.95
758.044	3272.48
758.381	3253.73
758.719	3203.33
759.056	3213.05
759.394	3269.09
759.731	3196.78
760.068	3232.26
760.405	3170.34
760.743	3189.55
761.08	3206.5
761.417	3168.31
761.754	3200.85
762.091	3207.4
762.428	3219.15
762.765	3148.19
763.102	3161.75
763.438	3132.15
763.775	3126.5
764.112	3127.86
764.449	3136.89
764.785	3103.68
765.122	3102.32
765.458	3067.97
765.795	3092.83
766.131	3088.76
766.467	3080.85
766.804	3021.87
767.14	3038.37
767.476	3033.39
767.812	3018.93
768.148	3017.35
768.485	3027.75
768.821	2973.74
769.157	2995.2
769.492	2973.51
769.828	3005.37
770.164	2980.51
770.5	2960.85
770.836	2943.91
771.171	2942.32
771.507	2907.97
771.842	2947.52
772.178	2955.66
772.513	2912.27
772.849	2905.94
773.184	2892.61
773.519	2862.33
