Data from carpet_green_FLMS001491_00017.txt Node
Date: Wed Feb 08 10:34:59 GMT 2017
User: dcchb
Spectrometer: FLMS00149
Trigger mode: 0
Integration Time (sec): 2.000000E-2
Scans to average: 10
Electric dark correction enabled: true
Nonlinearity correction enabled: false
Boxcar width: 0
XAxis mode: Wavelengths
Number of Pixels in Spectrum: 2048
>>>>>Begin Spectral Data<<<<<
341.393	-13.5
341.776	-13.5
342.16	-13.5
342.543	-58.02
342.927	-82.43
343.31	-56.44
343.693	-82.2
344.077	-66.38
344.46	-54.86
344.843	-61.18
345.226	-23.22
345.61	-40.62
345.993	-27.74
346.376	9.32
346.759	17.01
347.142	21.07
347.525	37.8
347.908	56.78
348.291	89.55
348.674	70.56
349.057	110.56
349.44	136.1
349.823	152.37
350.206	161.63
350.588	168.64
350.971	182.2
351.354	201.63
351.737	194.4
352.119	219.26
352.502	254.06
352.884	246.83
353.267	259.48
353.65	269.43
354.032	280.73
354.414	275.53
354.797	281.86
355.179	313.27
355.562	283.21
355.944	304
356.326	295.87
356.709	313.72
357.091	301.97
357.473	315.75
357.855	304.91
358.238	289.54
358.62	314.85
359.002	317.56
359.384	317.56
359.766	306.94
360.148	300.39
360.53	301.74
360.912	308.07
361.294	294.06
361.676	310.78
362.057	302.2
362.439	310.33
362.821	300.16
363.203	308.75
363.584	311.69
363.966	278.69
364.348	294.06
364.729	290.22
365.111	303.33
365.493	293.38
365.874	275.08
366.256	291.12
366.637	293.83
367.019	282.76
367.4	242.08
367.781	288.18
368.163	298.81
368.544	261.07
368.925	276.89
369.306	290.67
369.688	289.54
370.069	278.24
370.45	267.39
370.831	278.69
371.212	271.24
371.593	286.15
371.974	290.44
372.355	288.86
372.736	281.18
373.117	274.85
373.498	289.31
373.879	281.63
374.26	274.85
374.641	283.21
375.021	285.47
375.402	248.41
375.783	273.5
376.163	269.88
376.544	288.41
376.925	292.25
377.305	286.38
377.686	276.89
378.066	284.57
378.447	273.72
378.827	288.86
379.208	291.35
379.588	278.92
379.968	276.21
380.349	301.29
380.729	280.5
381.109	264.23
381.489	297
381.87	287.28
382.25	294.06
382.63	281.86
383.01	292.48
383.39	281.63
383.77	303.78
384.15	308.75
384.53	309.65
384.91	295.64
385.29	297
385.67	272.59
386.049	289.31
386.429	305.36
386.809	293.16
387.189	306.04
387.568	264.68
387.948	298.81
388.328	307.17
388.707	287.73
389.087	280.73
389.466	320.05
389.846	297.45
390.225	309.88
390.605	298.58
390.984	280.73
391.363	301.97
391.743	295.19
392.122	303.78
392.501	280.5
392.881	295.87
393.26	284.12
393.639	315.75
394.018	301.29
394.397	307.17
394.776	291.57
395.155	302.87
395.534	312.14
395.913	285.02
396.292	293.38
396.671	297
397.05	305.36
397.429	300.39
397.808	286.6
398.186	309.2
398.565	303.33
398.944	298.81
399.323	287.28
399.701	299.26
400.08	305.13
400.458	313.95
400.837	304.23
401.215	306.04
401.594	314.62
401.972	311.23
402.351	306.26
402.729	329.31
403.107	300.16
403.486	306.49
403.864	321.18
404.242	327.28
404.62	319.37
404.999	300.16
405.377	302.2
405.755	306.49
406.133	321.63
406.511	307.85
406.889	317.34
407.267	308.07
407.645	311.91
408.023	294.06
408.401	313.04
408.779	319.82
409.156	293.16
409.534	324.34
409.912	306.49
410.29	324.57
410.667	329.99
411.045	312.36
411.422	332.7
411.8	322.31
412.178	320.73
412.555	330.22
412.933	336.32
413.31	320.05
413.687	321.4
414.065	329.09
414.442	321.4
414.819	332.7
415.197	322.99
415.574	321.18
415.951	332.93
416.328	321.86
416.705	343.32
417.082	310.1
417.46	316.66
417.837	332.93
418.214	334.96
418.591	296.55
418.967	335.87
419.344	339.26
419.721	340.61
420.098	330.22
420.475	326.83
420.852	344
421.228	341.06
421.605	326.83
421.982	334.96
422.358	325.7
422.735	324.34
423.111	332.93
423.488	324.12
423.864	359.82
424.241	327.73
424.617	334.06
424.994	339.26
425.37	325.02
425.746	334.06
426.123	334.74
426.499	349.65
426.875	353.04
427.251	335.41
427.627	358.47
428.003	343.55
428.379	346.26
428.756	340.39
429.132	352.14
429.507	332.03
429.883	344.68
430.259	343.78
430.635	355.08
431.011	353.49
431.387	366.6
431.763	358.47
432.138	351.69
432.514	346.26
432.89	351.46
433.265	360.27
433.641	377.67
434.016	350.1
434.392	368.63
434.767	370.67
435.143	373.15
435.518	355.75
435.894	359.82
436.269	370.44
436.644	364.11
437.02	378.13
437.395	387.16
437.77	357.56
438.145	362.53
438.52	372.02
438.895	375.41
439.271	372.93
439.646	372.02
440.021	372.48
440.395	360.5
440.77	384.45
441.145	366.6
441.52	377.67
441.895	386.94
442.27	355.98
442.645	379.71
443.019	382.87
443.394	372.25
443.769	385.13
444.143	372.25
444.518	368.18
444.892	379.71
445.267	389.65
445.641	389.88
446.016	390.1
446.39	390.55
446.764	393.27
447.139	390.1
447.513	390.78
447.887	379.48
448.262	405.47
448.636	388.75
449.01	370.67
449.384	422.87
449.758	392.59
450.132	387.39
450.506	400.5
450.88	399.59
451.254	385.36
451.628	386.26
452.002	408.41
452.376	411.35
452.75	395.75
453.123	397.11
453.497	429.88
453.871	426.94
454.244	429.65
454.618	413.38
454.992	436.66
455.365	410.67
455.739	428.07
456.112	409.54
456.486	432.36
456.859	434.85
457.232	425.81
457.606	434.85
457.979	444.79
458.352	432.81
458.725	430.33
459.099	446.15
459.472	422.64
459.845	432.59
460.218	444.79
460.591	440.27
460.964	447.73
461.337	464
461.71	480.27
462.083	454.06
462.456	448.18
462.829	449.76
463.201	460.16
463.574	476.65
463.947	473.72
464.32	488.41
464.692	476.65
465.065	461.29
465.438	469.42
465.81	480.5
466.183	490.67
466.555	462.42
466.928	482.53
467.3	490.67
467.672	498.12
468.045	501.51
468.417	488.86
468.789	504.68
469.161	500.38
469.534	507.16
469.906	515.3
470.278	505.58
470.65	519.14
471.022	513.94
471.394	517.56
471.766	546.26
472.138	514.62
472.51	518.46
472.882	540.38
473.253	580.38
473.625	567.05
473.997	561.85
474.369	540.83
474.74	562.3
475.112	575.86
475.484	572.02
475.855	561.62
476.227	562.53
476.598	605.01
476.97	574.05
477.341	580.38
477.713	588.06
478.084	608.85
478.455	618.8
478.827	619.7
479.198	604.11
479.569	624.22
479.94	614.05
480.311	616.54
480.682	628.97
481.053	649.3
481.424	647.27
481.795	648.18
482.166	677.1
482.537	659.47
482.908	658.12
483.279	676.87
483.65	683.65
484.021	716.42
484.391	711.45
484.762	705.35
485.133	723.2
485.503	736.31
485.874	727.72
486.244	738.34
486.615	738.34
486.985	746.03
487.356	768.4
487.726	778.57
488.097	777.44
488.467	768.85
488.837	786.93
489.207	801.17
489.578	793.03
489.948	805.01
490.318	809.07
490.688	835.51
491.058	807.94
491.428	841.62
491.798	851.56
492.168	847.72
492.538	862.41
492.908	882.97
493.278	862.63
493.648	868.51
494.017	870.99
494.387	873.25
494.757	905.8
495.126	901.28
495.496	908.06
495.866	923.2
496.235	889.07
496.605	909.64
496.974	916.19
497.344	894.95
497.713	942.4
498.082	955.29
498.452	925.68
498.821	941.73
499.19	927.94
499.559	963.87
499.928	947.83
500.298	953.48
500.667	928.62
501.036	944.66
501.405	963.87
501.774	981.27
502.143	962.29
502.512	985.79
502.88	995.74
503.249	979.69
503.618	955.29
503.987	978.11
504.356	1003.19
504.724	981.27
505.093	1009.3
505.462	1017.2
505.83	998
506.199	1021.05
506.567	1021.27
506.936	1021.5
507.304	1050.88
507.672	1028.28
508.041	1035.96
508.409	1041.84
508.777	1062.4
509.145	1038
509.514	1022.63
509.882	1063.08
510.25	1045.68
510.618	1042.74
510.986	1082.29
511.354	1070.31
511.722	1065.79
512.09	1087.71
512.458	1073.7
512.826	1079.35
513.193	1110.31
513.561	1088.62
513.929	1080.93
514.297	1114.38
514.664	1110.76
515.032	1101.72
515.4	1126.13
515.767	1117.32
516.135	1115.73
516.502	1108.95
516.869	1113.7
517.237	1135.85
517.604	1103.3
517.972	1153.47
518.339	1132.46
518.706	1148.95
519.073	1132.68
519.44	1145.79
519.808	1152.34
520.175	1137.88
520.542	1142.63
520.909	1187.14
521.276	1156.86
521.643	1182.17
522.009	1170.65
522.376	1179.01
522.743	1181.27
523.11	1208.84
523.477	1205.22
523.843	1204.09
524.21	1193.47
524.577	1223.3
524.943	1234.6
525.31	1235.73
525.676	1192.34
526.043	1205.22
526.409	1250.19
526.776	1242.74
527.142	1216.07
527.508	1254.26
527.874	1243.87
528.241	1271.89
528.607	1258.55
528.973	1276.18
529.339	1257.2
529.705	1269.63
530.071	1268.72
530.437	1254.49
530.803	1258.1
531.169	1289.97
531.535	1273.02
531.901	1285.9
532.267	1251.77
532.632	1282.96
532.998	1267.37
533.364	1281.83
533.73	1308.04
534.095	1278.44
534.461	1292.9
534.826	1281.38
535.192	1272.57
535.557	1321.83
535.923	1282.73
536.288	1310.3
536.653	1279.57
537.019	1283.64
537.384	1312.11
537.749	1306.24
538.114	1308.5
538.479	1296.52
538.845	1299.01
539.21	1288.84
539.575	1316.41
539.94	1312.11
540.305	1290.87
540.67	1297.42
541.034	1312.79
541.399	1327.93
541.764	1317.08
542.129	1323.86
542.494	1309.85
542.858	1314.6
543.223	1302.4
543.587	1322.73
543.952	1322.28
544.316	1329.74
544.681	1323.41
545.045	1338.1
545.41	1330.42
545.774	1342.62
546.138	1311.89
546.503	1338.33
546.867	1314.15
547.231	1294.49
547.595	1336.74
547.959	1332.22
548.324	1327.03
548.688	1333.58
549.052	1335.16
549.416	1299.23
549.779	1324.32
550.143	1347.37
550.507	1332.68
550.871	1354.15
551.235	1343.75
551.599	1341.04
551.962	1343.98
552.326	1345.11
552.689	1341.04
553.053	1337.65
553.417	1330.19
553.78	1352.34
554.143	1342.17
554.507	1357.76
554.87	1356.18
555.234	1354.6
555.597	1366.35
555.96	1345.33
556.323	1359.34
556.686	1374.71
557.05	1382.62
557.413	1343.75
557.776	1348.27
558.139	1369.74
558.502	1371.55
558.865	1362.05
559.228	1392.79
559.59	1365.9
559.953	1378.1
560.316	1364.31
560.679	1370.19
561.041	1387.36
561.404	1401.83
561.767	1395.95
562.129	1376.97
562.492	1383.3
562.854	1406.57
563.217	1389.85
563.579	1406.8
563.941	1389.17
564.304	1411.09
564.666	1426.91
565.028	1417.87
565.39	1402.05
565.753	1404.77
566.115	1455.84
566.477	1426.46
566.839	1435.95
567.201	1432.56
567.563	1458.55
567.925	1452.67
568.287	1419
568.648	1446.35
569.01	1445.44
569.372	1438.44
569.734	1441.15
570.095	1414.03
570.457	1424.88
570.819	1458.55
571.18	1421.94
571.542	1451.54
571.903	1428.27
572.265	1428.04
572.626	1422.84
572.987	1423.3
573.349	1427.59
573.71	1475.05
574.071	1432.56
574.432	1414.03
574.794	1459.68
575.155	1453.58
575.516	1455.61
575.877	1466.46
576.238	1459.23
576.599	1466.91
576.96	1442.05
577.32	1429.4
577.681	1444.99
578.042	1462.16
578.403	1462.39
578.763	1427.36
579.124	1442.73
579.485	1438.89
579.845	1469.62
580.206	1445.44
580.566	1436.85
580.927	1429.4
581.287	1417.19
581.648	1447.25
582.008	1450.87
582.368	1436.63
582.728	1447.48
583.089	1449.96
583.449	1444.76
583.809	1433.47
584.169	1409.28
584.529	1428.49
584.889	1424.43
585.249	1415.84
585.609	1409.28
585.969	1413.8
586.329	1362.96
586.688	1386.46
587.048	1419
587.408	1430.75
587.768	1382.17
588.127	1402.73
588.487	1410.19
588.846	1389.62
589.206	1397.53
589.565	1396.4
589.925	1423.75
590.284	1391.43
590.643	1388.95
591.003	1391.43
591.362	1418.55
591.721	1374.26
592.08	1381.04
592.44	1395.05
592.799	1378.78
593.158	1369.51
593.517	1386.69
593.876	1405.67
594.235	1398.66
594.593	1403.41
594.952	1420.13
595.311	1365.22
595.67	1390.3
596.029	1377.42
596.387	1392.56
596.746	1376.29
597.104	1397.08
597.463	1391.21
597.822	1390.3
598.18	1394.82
598.538	1384.43
598.897	1400.25
599.255	1361.6
599.613	1397.53
599.972	1383.75
600.33	1395.05
600.688	1368.38
601.046	1408.83
601.404	1417.42
601.762	1408.83
602.12	1421.94
602.478	1407.7
602.836	1404.99
603.194	1408.61
603.552	1402.73
603.91	1379.46
604.268	1389.85
604.625	1398.21
604.983	1394.37
605.341	1389.17
605.698	1390.08
606.056	1431.21
606.413	1402.28
606.771	1420.81
607.128	1467.59
607.485	1411.32
607.843	1425.56
608.2	1462.84
608.557	1441.83
608.914	1400.25
609.272	1421.94
609.629	1422.84
609.986	1428.49
610.343	1438.21
610.7	1440.92
611.057	1425.56
611.414	1431.21
611.771	1433.69
612.127	1441.83
612.484	1465.1
612.841	1466.01
613.198	1435.05
613.554	1436.63
613.911	1456.29
614.267	1416.29
614.624	1446.57
614.98	1426.46
615.337	1484.54
615.693	1460.36
616.05	1428.27
616.406	1439.11
616.762	1428.49
617.118	1448.15
617.475	1451.09
617.831	1454.03
618.187	1436.18
618.543	1459.23
618.899	1447.25
619.255	1473.46
619.611	1454.26
619.967	1442.05
620.323	1487.7
620.678	1438.66
621.034	1459.23
621.39	1485.89
621.746	1441.37
622.101	1447.7
622.457	1467.81
622.812	1465.55
623.168	1472.33
623.523	1459.91
623.879	1481.83
624.234	1441.83
624.589	1426.91
624.945	1448.38
625.3	1481.15
625.655	1437.76
626.01	1480.24
626.365	1451.54
626.72	1449.74
627.075	1444.54
627.43	1468.27
627.785	1461.26
628.14	1429.62
628.495	1461.71
628.85	1473.24
629.205	1427.14
629.559	1462.84
629.914	1454.93
630.269	1430.3
630.623	1472.11
630.978	1460.36
631.332	1453.13
631.687	1439.34
632.041	1438.66
632.396	1434.37
632.75	1430.3
633.104	1454.71
633.459	1451.09
633.813	1437.31
634.167	1423.75
634.521	1430.08
634.875	1411.32
635.229	1442.96
635.583	1415.16
635.937	1423.07
636.291	1427.82
636.645	1418.78
636.999	1418.78
637.352	1458.55
637.706	1407.93
638.06	1425.33
638.413	1458.1
638.767	1418.1
639.121	1404.31
639.474	1428.27
639.828	1442.96
640.181	1449.06
640.534	1422.17
640.888	1421.94
641.241	1404.09
641.594	1425.1
641.947	1409.74
642.301	1426.91
642.654	1411.09
643.007	1432.34
643.36	1426.23
643.713	1462.84
644.066	1435.95
644.419	1450.64
644.771	1419.23
645.124	1420.81
645.477	1431.21
645.83	1431.88
646.182	1423.97
646.535	1424.65
646.888	1432.79
647.24	1413.13
647.593	1398.21
647.945	1409.51
648.298	1462.62
648.65	1429.17
649.002	1420.13
649.355	1412.45
649.707	1429.85
650.059	1427.82
650.411	1475.5
650.763	1470.07
651.115	1488.38
651.467	1483.41
651.819	1480.92
652.171	1509.4
652.523	1523.18
652.875	1492.9
653.227	1513.91
653.578	1527.02
653.93	1508.94
654.282	1536.74
654.633	1518.89
654.985	1507.14
655.337	1506.46
655.688	1502.84
656.039	1544.87
656.391	1551.2
656.742	1568.83
657.094	1574.03
657.445	1560.69
657.796	1564.99
658.147	1550.75
658.498	1570.86
658.849	1580.81
659.2	1604.99
659.551	1562.28
659.902	1612.22
660.253	1608.83
660.604	1600.92
660.955	1627.81
661.306	1629.39
661.656	1628.04
662.007	1658.77
662.358	1678.43
662.708	1660.8
663.059	1685.21
663.409	1664.19
663.76	1692.22
664.11	1715.49
664.461	1720.01
664.811	1699.45
665.161	1741.25
665.511	1761.37
665.862	1712.1
666.212	1781.7
666.562	1790.97
666.912	1791.87
667.262	1809.05
667.612	1781.25
667.962	1808.82
668.312	1822.83
668.662	1815.6
669.011	1837.75
669.361	1832.1
669.711	1869.84
670.06	1874.81
670.41	1862.61
670.76	1863.06
671.109	1902.83
671.459	1919.1
671.808	1928.37
672.157	1909.61
672.507	1961.81
672.856	1955.03
673.205	1962.49
673.554	1974.47
673.904	1979.67
674.253	1982.83
674.602	2021.7
674.951	2000.91
675.3	2056.5
675.649	2023.51
675.998	2031.64
676.346	2073.45
676.695	2078.42
677.044	2121.58
677.393	2157.97
677.741	2138.53
678.09	2156.38
678.438	2162.94
678.787	2132.2
679.135	2154.35
679.484	2177.17
679.832	2210.85
680.181	2202.94
680.529	2267.34
680.877	2204.52
681.225	2254.69
681.573	2257.17
681.922	2312.09
682.27	2276.15
682.618	2293.56
682.966	2316.61
683.314	2325.19
683.661	2348.24
684.009	2380.11
684.357	2333.1
684.705	2378.98
685.053	2389.82
685.4	2402.48
685.748	2395.7
686.095	2418.3
686.443	2422.82
686.79	2472.31
687.138	2494.91
687.485	2498.3
687.832	2482.25
688.18	2512.98
688.527	2496.49
688.874	2541.46
689.221	2558.18
689.568	2590.04
689.915	2542.81
690.262	2590.72
690.609	2620.33
690.956	2598.41
691.303	2647.44
691.65	2645.41
691.997	2661.23
692.344	2696.71
692.69	2666.65
693.037	2715.01
693.383	2696.26
693.73	2706.2
694.077	2740.55
694.423	2765.63
694.769	2760.21
695.116	2738.74
695.462	2766.31
695.808	2758.63
696.155	2798.4
696.501	2802.92
696.847	2821
697.193	2814.22
697.539	2839.53
697.885	2831.39
698.231	2858.96
698.577	2862.13
698.923	2889.02
699.269	2926.08
699.614	2877.49
699.96	2896.48
700.306	2918.17
700.651	2886.08
700.997	2949.36
701.342	2964.05
701.688	2978.96
702.033	2988.45
702.379	2964.95
702.724	3000.88
703.069	3019.19
703.415	3011.95
703.76	3012.18
704.105	3022.58
704.45	3055.57
704.795	3044.27
705.14	3031.16
705.485	3089.47
705.83	3091.73
706.175	3098.96
706.52	3092.4
706.865	3086.08
707.209	3105.29
707.554	3105.51
707.899	3154.32
708.243	3147.32
708.588	3136.02
708.932	3161.1
709.277	3155.68
709.621	3211.27
709.966	3186.19
710.31	3198.62
710.654	3204.27
710.998	3214.21
711.342	3229.58
711.687	3224.38
712.031	3212.18
712.375	3220.54
712.719	3231.84
713.063	3239.07
713.407	3281.1
713.75	3267.54
714.094	3280.87
714.438	3270.03
714.782	3276.58
715.125	3302.34
715.469	3312.29
715.812	3292.85
716.156	3313.42
716.499	3312.29
716.843	3335.56
717.186	3313.87
717.53	3320.65
717.873	3352.96
718.216	3380.31
718.559	3358.39
718.902	3355.9
719.246	3355.45
719.589	3395.67
719.932	3351.15
720.275	3353.64
720.617	3336.92
720.96	3419.85
721.303	3385.5
721.646	3380.31
721.989	3369.01
722.331	3402.23
722.674	3410.14
723.016	3407.88
723.359	3440.64
723.701	3432.73
724.044	3432.06
724.386	3403.36
724.729	3444.26
725.071	3401.1
725.413	3417.37
725.755	3467.76
726.097	3426.41
726.439	3437.71
726.782	3399.06
727.124	3441.32
727.465	3449.46
727.807	3452.4
728.149	3430.7
728.491	3435.67
728.833	3414.2
729.175	3465.05
729.516	3430.47
729.858	3454.2
730.199	3454.65
730.541	3439.29
730.882	3441.55
731.224	3456.91
731.565	3453.07
731.906	3471.6
732.248	3457.59
732.589	3435.9
732.93	3465.5
733.271	3417.14
733.612	3475.45
733.953	3417.59
734.294	3491.26
734.635	3437.93
734.976	3449.23
735.317	3446.52
735.658	3462.56
735.999	3474.77
736.339	3477.93
736.68	3493.98
737.021	3426.86
737.361	3447.65
737.702	3454.2
738.042	3462.11
738.383	3465.05
738.723	3443.81
739.063	3469.8
739.404	3453.98
739.744	3421.44
740.084	3445.16
740.424	3425.5
740.764	3450.36
741.104	3439.97
741.444	3400.42
741.784	3439.29
742.124	3437.48
742.464	3402.68
742.804	3448.78
743.143	3455.78
743.483	3464.82
743.823	3378.95
744.162	3424.6
744.502	3404.49
744.841	3420.31
745.181	3423.02
745.52	3420.76
745.86	3407.88
746.199	3398.61
746.538	3366.97
746.877	3411.49
747.216	3415.56
747.556	3375.79
747.895	3399.97
748.234	3391.38
748.573	3387.99
748.911	3326.52
749.25	3383.47
749.589	3391.61
749.928	3370.59
750.267	3376.46
750.605	3379.85
750.944	3374.43
751.283	3400.19
751.621	3331.72
751.96	3370.36
752.298	3351.83
752.636	3350.93
752.975	3305.51
753.313	3326.07
753.651	3326.75
753.989	3277.48
754.327	3299.18
754.666	3292.63
755.004	3277.26
755.342	3276.81
755.679	3258.28
756.017	3288.78
756.355	3256.47
756.693	3317.94
757.031	3321.33
757.368	3283.59
757.706	3261.44
758.044	3207.88
758.381	3258.28
758.719	3194.1
759.056	3223.02
759.394	3208.33
759.731	3164.95
760.068	3190.48
760.405	3184.61
760.743	3172.18
761.08	3190.48
761.417	3139.18
761.754	3164.27
762.091	3143.02
762.428	3179.18
762.765	3151.61
763.102	3136.47
763.438	3135.34
763.775	3118.39
764.112	3065.51
764.449	3078.62
764.785	3085.85
765.122	3070.94
765.458	3034.33
765.795	3080.88
766.131	3093.08
766.467	3035.91
766.804	3044.04
767.14	3016.47
767.476	3076.81
767.812	3025.51
768.148	3047.89
768.485	3004.05
768.821	3011.05
769.157	2994.78
769.492	2985.06
769.828	3026.42
770.164	2935.35
770.5	2941.9
770.836	2955.68
771.171	2953.2
771.507	2953.43
771.842	2936.93
772.178	2891.96
772.513	2935.8
772.849	2917.72
773.184	2919.98
773.519	2859.42
773.855	2865.52
