Data from carpet_green_FLMS001491_00079.txt Node
Date: Wed Feb 08 10:35:51 GMT 2017
User: dcchb
Spectrometer: FLMS00149
Trigger mode: 0
Integration Time (sec): 2.000000E-2
Scans to average: 10
Electric dark correction enabled: true
Nonlinearity correction enabled: false
Boxcar width: 0
XAxis mode: Wavelengths
Number of Pixels in Spectrum: 2048
>>>>>Begin Spectral Data<<<<<
341.393	-4.08
341.776	-4.08
342.16	-4.08
342.543	-59
342.927	-73.68
343.31	-73.01
343.693	-61.93
344.077	-66.23
344.46	-73.46
344.843	-50.41
345.226	-36.62
345.61	-30.3
345.993	-30.75
346.376	-16.96
346.759	18.97
347.142	33.43
347.525	68.68
347.908	51.28
348.291	76.14
348.674	83.15
349.057	108.01
349.44	111.4
349.823	136.25
350.206	142.13
350.588	169.47
350.971	193.65
351.354	177.16
351.737	202.24
352.119	215.35
352.502	234.78
352.884	228.23
353.267	272.75
353.65	261
354.032	269.58
354.414	269.58
354.797	284.95
355.179	271.62
355.562	290.15
355.944	299.86
356.326	298.96
356.709	295.8
357.091	312.75
357.473	287.66
357.855	315.91
358.238	289.02
358.62	318.4
359.002	297.61
359.384	316.81
359.766	309.36
360.148	306.19
360.53	319.07
360.912	315.23
361.294	301.67
361.676	310.49
362.057	300.54
362.439	300.32
362.821	285.18
363.203	295.12
363.584	291.28
363.966	285.4
364.348	289.7
364.729	283.59
365.111	273.2
365.493	268.23
365.874	285.63
366.256	288.57
366.637	275.01
367.019	275.68
367.4	268.23
367.781	278.17
368.163	274.78
368.544	260.77
368.925	272.97
369.306	280.66
369.688	268.91
370.069	308.68
370.45	255.57
370.831	279.75
371.212	279.3
371.593	288.34
371.974	278.4
372.355	267.78
372.736	282.92
373.117	294.67
373.498	282.01
373.879	290.37
374.26	263.71
374.641	266.65
375.021	282.92
375.402	282.01
375.783	290.15
376.163	293.31
376.544	267.55
376.925	273.65
377.305	288.11
377.686	277.04
378.066	274.78
378.447	287.44
378.827	277.27
379.208	282.01
379.588	258.96
379.968	291.28
380.349	282.46
380.729	304.84
381.109	278.85
381.489	273.88
381.87	286.76
382.25	281.79
382.63	280.88
383.01	281.56
383.39	290.83
383.77	290.83
384.15	304.61
384.53	317.27
384.91	302.35
385.29	288.11
385.67	301.22
386.049	310.49
386.429	317.04
386.809	305.74
387.189	306.64
387.568	296.02
387.948	299.64
388.328	320.88
388.707	286.53
389.087	293.54
389.466	313.88
389.846	286.98
390.225	307.77
390.605	322.01
390.984	316.59
391.363	296.7
391.743	289.24
392.122	301.9
392.501	305.51
392.881	309.36
393.26	293.99
393.639	308.9
394.018	300.77
394.397	316.81
394.776	300.09
395.155	303.25
395.534	315.68
395.913	320.2
396.292	304.38
396.671	313.88
397.05	294.67
397.429	304.38
397.808	308.45
398.186	301.9
398.565	331.05
398.944	321.79
399.323	312.97
399.701	300.32
400.08	329.69
400.458	313.88
400.837	305.29
401.215	301.22
401.594	318.85
401.972	311.62
402.351	305.97
402.729	299.41
403.107	323.82
403.486	315.23
403.864	304.38
404.242	334.67
404.62	320.66
404.999	328.11
405.377	322.92
405.755	325.85
406.133	353.42
406.511	299.64
406.889	341.22
407.267	335.57
407.645	333.76
408.023	304.16
408.401	319.3
408.779	316.81
409.156	325.4
409.534	343.93
409.912	335.34
410.29	315.91
410.667	346.42
411.045	343.03
411.422	339.86
411.8	328.79
412.178	325.4
412.555	333.54
412.933	332.63
413.31	348.23
413.687	348.45
414.065	344.61
414.442	362.46
414.819	333.76
415.197	338.06
415.574	352.74
415.951	340.99
416.328	345.29
416.705	344.84
417.082	327.89
417.46	336.25
417.837	363.59
418.214	338.06
418.591	361.11
418.967	331.95
419.344	341.22
419.721	367.43
420.098	368.79
420.475	376.47
420.852	362.46
421.228	365.4
421.605	358.62
421.982	362.91
422.358	379.86
422.735	351.39
423.111	361.78
423.488	353.65
423.864	375.34
424.241	386.42
424.617	370.6
424.994	378.96
425.37	349.81
425.746	376.93
426.123	384.38
426.499	366.76
426.875	382.35
427.251	357.94
427.627	382.8
428.003	368.34
428.379	354.55
428.756	358.85
429.132	381.44
429.507	383.03
429.883	359.98
430.259	401.78
430.635	413.99
431.011	389.13
431.387	397.94
431.763	396.36
432.138	395.46
432.514	399.3
432.89	393.87
433.265	417.6
433.641	424.38
434.016	406.3
434.392	392.74
434.767	417.38
435.143	405.85
435.518	401.11
435.894	397.04
436.269	394.1
436.644	401.56
437.02	411.73
437.395	430.26
437.77	415.79
438.145	418.28
438.52	425.29
438.895	435
439.271	426.42
439.646	439.97
440.021	460.09
440.395	436.13
440.77	432.52
441.145	437.71
441.52	437.04
441.895	431.84
442.27	441.33
442.645	450.14
443.019	449.92
443.394	432.97
443.769	448.56
444.143	433.87
444.518	462.8
444.892	424.38
445.267	453.08
445.641	465.96
446.016	464.83
446.39	457.6
446.764	462.8
447.139	466.19
447.513	499.41
447.887	457.6
448.262	465.28
448.636	475.68
449.01	485.17
449.384	447.21
449.758	468.67
450.132	473.87
450.506	470.03
450.88	510.25
451.254	478.62
451.628	491.95
452.002	505.06
452.376	496.47
452.75	473.19
453.123	487.88
453.497	519.52
453.871	501.22
454.244	522.23
454.618	512.06
454.992	510.25
455.365	517.03
455.739	517.71
456.112	503.25
456.486	513.87
456.859	526.3
457.232	536.47
457.606	550.93
457.979	549.35
458.352	559.52
458.725	559.75
459.099	555
459.472	555.23
459.845	554.32
460.218	552.51
460.591	552.06
460.964	565.17
461.337	568.56
461.71	571.27
462.083	572.63
462.456	585.73
462.829	582.8
463.201	567.65
463.574	583.7
463.947	590.93
464.32	614.43
464.692	608.33
465.065	606.52
465.438	631.16
465.81	624.15
466.183	626.86
466.555	614.21
466.928	644.26
467.3	649.69
467.672	654.66
468.045	646.75
468.417	658.73
468.789	652.62
469.161	686.07
469.534	684.49
469.906	675.9
470.278	692.17
470.65	700.53
471.022	702.11
471.394	707.76
471.766	714.32
472.138	738.05
472.51	714.32
472.882	749.12
473.253	750.47
473.625	764.26
473.997	744.83
474.369	745.28
474.74	755.9
475.112	780.76
475.484	783.92
475.855	793.41
476.227	788.89
476.598	799.06
476.97	846.29
477.341	838.38
477.713	860.53
478.084	848.55
478.455	848.55
478.827	869.34
479.198	885.39
479.569	927.65
479.94	933.52
480.311	922.67
480.682	925.39
481.053	942.79
481.424	958.83
481.795	970.13
482.166	969.68
482.537	964.25
482.908	1010.35
483.279	1019.85
483.65	1040.64
484.021	1054.87
484.391	1061.2
484.762	1081.31
485.133	1047.64
485.503	1106.62
485.874	1108.66
486.244	1121.76
486.615	1121.54
486.985	1135.55
487.356	1142.78
487.726	1139.84
488.097	1182.78
488.467	1197.92
488.837	1212.16
489.207	1204.25
489.578	1232.95
489.948	1252.83
490.318	1249.44
490.688	1259.61
491.058	1299.84
491.428	1305.26
491.798	1316.56
492.168	1305.49
492.538	1310.91
492.908	1336.9
493.278	1347.75
493.648	1343.45
494.017	1357.46
494.387	1395.2
494.757	1377.58
495.126	1404.92
495.496	1436.56
495.866	1433.39
496.235	1425.26
496.605	1440.85
496.974	1430.91
497.344	1443.79
497.713	1458.7
498.082	1470.68
498.452	1486.95
498.821	1521.75
499.19	1517.23
499.559	1515.65
499.928	1516.78
500.298	1520.62
500.667	1556.78
501.036	1550.23
501.405	1564.92
501.774	1573.73
502.143	1581.19
502.512	1589.1
502.88	1591.13
503.249	1584.13
503.618	1595.2
503.987	1611.47
504.356	1610.34
504.724	1612.37
505.093	1634.52
505.462	1661.86
505.83	1645.37
506.199	1664.57
506.567	1648.53
506.936	1675.2
507.304	1700.28
507.672	1699.6
508.041	1701.18
508.409	1705.93
508.777	1714.74
509.145	1746.38
509.514	1706.61
509.882	1736.21
510.25	1738.92
510.618	1752.48
510.986	1751.58
511.354	1756.1
511.722	1779.15
512.09	1805.59
512.458	1773.5
512.826	1793.39
513.193	1811.01
513.561	1821.41
513.929	1811.01
514.297	1822.08
514.664	1827.96
515.032	1848.52
515.4	1861.63
515.767	1861.18
516.135	1866.38
516.502	1857.79
516.869	1900.27
517.237	1914.96
517.604	1878.13
517.972	1916.55
518.339	1928.3
518.706	1910.67
519.073	1941.18
519.44	1941.18
519.808	1963.32
520.175	1973.49
520.542	1981.18
520.909	1980.72
521.276	1981.85
521.643	1993.61
522.009	2029.76
522.376	2021.4
522.743	2048.52
523.11	2047.39
523.477	2037.67
523.843	2054.85
524.21	2095.98
524.577	2072.02
524.943	2108.63
525.31	2098.24
525.676	2132.81
526.043	2133.26
526.409	2128.97
526.776	2154.05
527.142	2139.82
527.508	2144.79
527.874	2154.73
528.241	2157.44
528.607	2183.21
528.973	2179.59
529.339	2190.89
529.705	2179.14
530.071	2206.71
530.437	2232.92
530.803	2213.04
531.169	2221.4
531.535	2203.77
531.901	2274.28
532.267	2248.29
532.632	2232.7
532.998	2248.06
533.364	2281.96
533.73	2293.03
534.095	2268.63
534.461	2286.03
534.826	2262.98
535.192	2307.04
535.557	2301.85
535.923	2240.6
536.288	2286.93
536.653	2305.01
537.019	2299.13
537.384	2259.36
537.749	2319.47
538.114	2289.19
538.479	2291.45
538.845	2296.42
539.21	2321.51
539.575	2289.42
539.94	2313.82
540.305	2336.87
540.67	2300.94
541.034	2357.44
541.399	2324.67
541.764	2319.7
542.129	2305.24
542.494	2309.08
542.858	2335.97
543.223	2328.96
543.587	2370.55
543.952	2361.73
544.316	2339.59
544.681	2357.44
545.045	2349.08
545.41	2378.68
545.774	2367.83
546.138	2381.39
546.503	2382.3
546.867	2371.9
547.231	2378.45
547.595	2375.74
547.959	2396.08
548.324	2386.36
548.688	2383.88
549.052	2411.45
549.416	2366.03
549.779	2387.49
550.143	2380.26
550.507	2412.8
550.871	2416.65
551.235	2403.31
551.599	2460.49
551.962	2438.34
552.326	2410.09
552.689	2421.17
553.053	2421.62
553.417	2413.26
553.78	2461.84
554.143	2477.43
554.507	2456.87
554.87	2455.51
555.234	2466.14
555.597	2488.73
555.96	2443.09
556.323	2463.88
556.686	2470.43
557.05	2517.43
557.413	2471.79
557.776	2453.25
558.139	2493.03
558.502	2510.88
558.865	2489.19
559.228	2519.69
559.59	2522.63
559.953	2515.17
560.316	2510.65
560.679	2544.55
561.041	2555.85
561.404	2559.47
561.767	2573.48
562.129	2555.62
562.492	2562.86
562.854	2569.41
563.217	2537.77
563.579	2589.97
563.941	2605.34
564.304	2596.08
564.666	2624.78
565.028	2602.63
565.39	2620.26
565.753	2640.37
566.115	2639.46
566.477	2676.3
566.839	2642.85
567.201	2653.93
567.563	2676.07
567.925	2655.96
568.287	2646.24
568.648	2672.68
569.01	2707.26
569.372	2681.95
569.734	2709.07
570.095	2684.44
570.457	2665.45
570.819	2649.41
571.18	2683.53
571.542	2697.77
571.903	2681.27
572.265	2695.96
572.626	2690.54
572.987	2703.19
573.349	2717.88
573.71	2707.03
574.071	2730.99
574.432	2714.94
574.794	2735.06
575.155	2733.02
575.516	2719.69
575.877	2737.09
576.238	2722.17
576.599	2707.49
576.96	2724.66
577.32	2698.22
577.681	2730.08
578.042	2699.35
578.403	2691.67
578.763	2707.26
579.124	2689.63
579.485	2726.02
579.845	2734.6
580.206	2695.73
580.566	2698.22
580.927	2707.49
581.287	2730.99
581.648	2702.06
582.008	2699.8
582.368	2660.93
582.728	2705.9
583.089	2690.76
583.449	2679.46
583.809	2672.23
584.169	2651.22
584.529	2671.1
584.889	2665
585.249	2621.84
585.609	2675.62
585.969	2622.74
586.329	2649.63
586.688	2642.4
587.048	2658.22
587.408	2642.63
587.768	2651.89
588.127	2646.47
588.487	2628.39
588.846	2632.69
589.206	2620.48
589.565	2621.61
589.925	2634.94
590.284	2662.97
590.643	2640.14
591.003	2628.62
591.362	2635.4
591.721	2641.05
592.08	2615.28
592.44	2632.91
592.799	2618.22
593.158	2631.78
593.517	2636.75
593.876	2665
594.235	2658.22
594.593	2632.01
594.952	2637.88
595.311	2622.06
595.67	2648.5
596.029	2690.08
596.387	2640.14
596.746	2659.12
597.104	2657.77
597.463	2608.28
597.822	2623.65
598.18	2640.37
598.538	2632.69
598.897	2619.58
599.255	2607.37
599.613	2675.17
599.972	2636.53
600.33	2622.97
600.688	2613.02
601.046	2630.2
601.404	2634.72
601.762	2625.68
602.12	2659.58
602.478	2639.69
602.836	2675.62
603.194	2648.5
603.552	2635.62
603.91	2642.4
604.268	2622.29
604.625	2680.37
604.983	2661.38
605.341	2662.29
605.698	2628.84
606.056	2695.28
606.413	2661.61
606.771	2670.65
607.128	2698.67
607.485	2677.43
607.843	2682.63
608.2	2691.21
608.557	2711.1
608.914	2712.23
609.272	2675.17
609.629	2715.85
609.986	2712.68
610.343	2663.87
610.7	2682.18
611.057	2710.65
611.414	2728.05
611.771	2723.3
612.127	2730.31
612.484	2706.36
612.841	2738.44
613.198	2695.28
613.554	2719.91
613.911	2746.58
614.267	2729.63
614.624	2750.42
614.98	2739.12
615.337	2775.96
615.693	2757.65
616.05	2718.78
616.406	2785.22
616.762	2735.51
617.118	2743.64
617.475	2772.57
617.831	2725.79
618.187	2777.31
618.543	2767.14
618.899	2771.66
619.255	2759.69
619.611	2765.56
619.967	2784.32
620.323	2773.7
620.678	2769.4
621.034	2770.76
621.39	2777.31
621.746	2739.8
622.101	2798.56
622.457	2760.37
622.812	2777.99
623.168	2790.65
623.523	2806.24
623.879	2787.71
624.234	2754.94
624.589	2789.07
624.945	2779.12
625.3	2764.21
625.655	2771.21
626.01	2767.14
626.365	2763.76
626.72	2749.97
627.075	2763.3
627.43	2750.42
627.785	2714.94
628.14	2737.09
628.495	2730.54
628.85	2771.44
629.205	2749.74
629.559	2783.87
629.914	2739.12
630.269	2736.86
630.623	2733.7
630.978	2770.31
631.332	2778.44
631.687	2773.92
632.041	2738.44
632.396	2750.2
632.75	2705.9
633.104	2721.04
633.459	2710.2
633.813	2735.51
634.167	2677.88
634.521	2716.3
634.875	2740.03
635.229	2745.9
635.583	2725.56
635.937	2731.21
636.291	2715.39
636.645	2751.1
636.999	2714.04
637.352	2713.13
637.706	2710.65
638.06	2741.38
638.413	2709.97
638.767	2714.49
639.121	2745.22
639.474	2709.07
639.828	2721.95
640.181	2664.1
640.534	2680.82
640.888	2685.34
641.241	2674.94
641.594	2679.46
641.947	2729.63
642.301	2726.02
642.654	2720.82
643.007	2759.91
643.36	2720.59
643.713	2704.32
644.066	2749.97
644.419	2740.93
644.771	2719.91
645.124	2708.62
645.477	2660.03
645.83	2689.41
646.182	2646.24
646.535	2681.27
646.888	2700.71
647.24	2662.06
647.593	2651.44
647.945	2694.83
648.298	2705.68
648.65	2676.07
649.002	2695.96
649.355	2746.58
649.707	2739.8
650.059	2756.52
650.411	2759.91
650.763	2782.74
651.115	2808.05
651.467	2811.44
651.819	2794.94
652.171	2807.14
652.523	2791.55
652.875	2833.13
653.227	2841.49
653.578	2844.43
653.93	2861.38
654.282	2839.69
654.633	2884.88
654.985	2883.53
655.337	2880.36
655.688	2905.67
656.039	2903.19
656.391	2914.03
656.742	2933.47
657.094	2895.05
657.445	2923.3
657.796	2965.78
658.147	2938.89
658.498	2937.76
658.849	2960.81
659.2	2983.41
659.551	2988.83
659.902	3019.12
660.253	2979.79
660.604	3024.77
660.955	3036.74
661.306	3067.02
661.656	3087.59
662.007	3078.32
662.358	3063.63
662.708	3113.58
663.059	3136.63
663.409	3073.8
663.76	3133.24
664.11	3217.75
664.461	3190.64
664.811	3213.91
665.161	3212.33
665.511	3173.91
665.862	3190.86
666.212	3267.24
666.562	3265.44
666.912	3292.78
667.262	3276.28
667.612	3328.71
667.962	3345.89
668.312	3331.65
668.662	3342.72
669.011	3370.74
669.361	3402.83
669.711	3452.1
670.06	3460.01
670.41	3458.65
670.76	3434.47
671.109	3502.04
671.459	3516.5
671.808	3516.5
672.157	3552.66
672.507	3522.38
672.856	3540.23
673.205	3601.7
673.554	3602.6
673.904	3617.74
674.253	3677.4
674.602	3683.73
674.951	3670.85
675.3	3664.07
675.649	3743.39
675.998	3768.7
676.346	3779.32
676.695	3782.03
677.044	3767.34
677.393	3863.84
677.741	3853.22
678.09	3900.22
678.438	3884.63
678.787	3933.89
679.135	3925.76
679.484	3954.01
679.832	3927.11
680.181	3969.6
680.529	3964.4
680.877	4031.29
681.225	4083.27
681.573	4110.39
681.922	4130.72
682.27	4128.92
682.618	4137.5
682.966	4152.42
683.314	4189.25
683.661	4198.52
684.009	4187.45
684.357	4279.87
684.705	4270.61
685.053	4237.61
685.4	4329.14
685.748	4305.86
686.095	4343.83
686.443	4372.07
686.79	4349.48
687.138	4424.5
687.485	4413.43
687.832	4441.9
688.18	4495.69
688.527	4483.26
688.874	4494.1
689.221	4524.61
689.568	4557.61
689.915	4591.5
690.262	4565.29
690.609	4624.95
690.956	4589.02
691.303	4638.96
691.65	4645.51
691.997	4634.67
692.344	4706.98
692.69	4659.75
693.037	4750.14
693.383	4729.35
693.73	4766.87
694.077	4796.24
694.423	4799.63
694.769	4833.98
695.116	4840.76
695.462	4854.32
695.808	4900.87
696.155	4925.73
696.501	4897.71
696.847	4930.48
697.193	4893.19
697.539	4951.95
697.885	4974.32
698.231	4964.38
698.577	5013.41
698.923	5063.36
699.269	5033.3
699.614	5080.53
699.96	5038.27
700.306	5059.97
700.651	5132.28
700.997	5122.79
701.342	5155.1
701.688	5134.31
702.033	5202.33
702.379	5202.33
702.724	5205.95
703.069	5244.14
703.415	5166.86
703.76	5222.9
704.105	5244.59
704.45	5306.29
704.795	5284.37
705.14	5297.47
705.485	5299.28
705.83	5318.49
706.175	5360.3
706.52	5351.26
706.865	5402.1
707.209	5412.95
707.554	5400.3
707.899	5433.06
708.243	5424.7
708.588	5417.24
708.932	5385.83
709.277	5468.99
709.621	5443.01
709.966	5474.42
710.31	5521.87
710.654	5520.97
710.998	5518.71
711.342	5523.23
711.687	5578.6
712.031	5574.75
712.375	5541.99
712.719	5588.99
713.063	5579.27
713.407	5648.88
713.75	5597.13
714.094	5657.24
714.438	5602.1
714.782	5678.71
715.125	5697.24
715.469	5642.55
715.812	5664.92
716.156	5600.97
716.499	5668.76
716.843	5691.14
717.186	5672.15
717.53	5715.99
717.873	5789.21
718.216	5769.1
718.559	5666.28
718.902	5740.4
719.246	5762.32
719.589	5739.95
719.932	5754.18
720.275	5785.14
720.617	5781.53
720.96	5737.91
721.303	5788.76
721.646	5800.29
721.989	5785.37
722.331	5829.21
722.674	5780.4
723.016	5832.37
723.359	5824.69
723.701	5837.57
724.044	5838.93
724.386	5859.27
724.729	5817.91
725.071	5823.34
725.413	5870.57
725.755	5890.23
726.097	5826.73
726.439	5799.16
726.782	5858.36
727.124	5891.36
727.465	5844.13
727.807	5881.64
728.149	5844.35
728.491	5899.94
728.833	5876.44
729.175	5900.17
729.516	5910.34
729.858	5869.89
730.199	5905.82
730.541	5861.53
730.882	5869.66
731.224	5878.93
731.565	5877.57
731.906	5857.23
732.248	5956.67
732.589	5881.19
732.93	5886.38
733.271	5892.26
733.612	5936.33
733.953	5919.83
734.294	5912.82
734.635	5933.84
734.976	5907.85
735.317	5895.65
735.658	5888.19
735.999	5930.45
736.339	5856.78
736.68	5903.79
737.021	5890
737.361	5853.17
737.702	5936.33
738.042	5881.87
738.383	5831.92
738.723	5926.38
739.063	5915.54
739.404	5914.63
739.744	5858.81
740.084	5833.5
740.424	5850.45
740.764	5866.72
741.104	5931.13
741.444	5848.42
741.784	5822.88
742.124	5764.13
742.464	5837.35
742.804	5847.52
743.143	5808.19
743.483	5858.81
743.823	5837.57
744.162	5815.2
744.502	5840.06
744.841	5856.1
745.181	5828.08
745.52	5794.64
745.86	5778.82
746.199	5782.88
746.538	5747.86
746.877	5780.62
747.216	5782.21
747.556	5758.25
747.895	5743.11
748.234	5755.09
748.573	5774.75
748.911	5712.15
749.25	5734.07
749.589	5712.6
749.928	5654.75
750.267	5772.72
750.605	5689.55
750.944	5703.11
751.283	5697.01
751.621	5696.79
751.96	5709.89
752.298	5664.92
752.636	5664.7
752.975	5668.31
753.313	5654.98
753.651	5664.02
753.989	5598.71
754.327	5564.59
754.666	5584.25
755.004	5584.92
755.342	5637.8
755.679	5578.6
756.017	5505.15
756.355	5571.14
756.693	5536.34
757.031	5525.04
757.368	5502.67
757.706	5484.36
758.044	5507.19
758.381	5517.58
758.719	5475.32
759.056	5475.1
759.394	5498.15
759.731	5400.52
760.068	5372.5
760.405	5466.06
760.743	5402.33
761.08	5412.05
761.417	5373.4
761.754	5330.92
762.091	5400.3
762.428	5331.6
762.765	5292.5
763.102	5282.78
763.438	5293.63
763.775	5270.58
764.112	5252.96
764.449	5284.37
764.785	5188.32
765.122	5231.49
765.458	5160.3
765.795	5176.8
766.131	5174.99
766.467	5137.03
766.804	5175.89
767.14	5104.26
767.476	5122.11
767.812	5069.23
768.148	5076.46
768.485	5078.95
768.821	5014.54
769.157	5055.67
769.492	5028.55
769.828	4993.53
770.164	4978.39
770.5	4925.51
770.836	4997.37
771.171	4950.59
771.507	4921.44
771.842	4891.38
772.178	4906.52
