Data from carpet_green_FLMS001491_00091.txt Node
Date: Wed Feb 08 10:36:07 GMT 2017
User: dcchb
Spectrometer: FLMS00149
Trigger mode: 0
Integration Time (sec): 2.000000E-2
Scans to average: 10
Electric dark correction enabled: true
Nonlinearity correction enabled: false
Boxcar width: 0
XAxis mode: Wavelengths
Number of Pixels in Spectrum: 2048
>>>>>Begin Spectral Data<<<<<
341.393	-3.14
341.776	-3.14
342.16	-3.14
342.543	-37.03
342.927	-40.42
343.31	-46.52
343.693	-70.03
344.077	-43.13
344.46	-56.24
344.843	-42.46
345.226	-33.19
345.61	-40.87
345.993	-32.97
346.376	-6.3
346.759	-1.78
347.142	20.82
347.525	19.46
347.908	45.9
348.291	87.26
348.674	102.17
349.057	97.88
349.44	121.61
349.823	134.04
350.206	169.74
350.588	190.08
350.971	169.06
351.354	190.76
351.737	194.15
352.119	213.81
352.502	234.6
352.884	247.03
353.267	245.45
353.65	274.37
354.032	264.43
354.414	278.89
354.797	290.87
355.179	293.13
355.562	291.55
355.944	298.33
356.326	315.73
356.709	321.83
357.091	306.91
357.473	320.92
357.855	296.97
358.238	338.32
358.62	336.29
359.002	306.69
359.384	319.34
359.766	314.82
360.148	320.47
360.53	294.71
360.912	307.36
361.294	303.3
361.676	301.49
362.057	306.01
362.439	320.25
362.821	285.22
363.203	296.29
363.584	293.58
363.966	280.7
364.348	294.94
364.729	306.46
365.111	302.39
365.493	298.33
365.874	308.04
366.256	268.95
366.637	267.82
367.019	292.45
367.4	279.12
367.781	298.78
368.163	278.21
368.544	270.53
368.925	285.9
369.306	285.9
369.688	286.57
370.069	296.97
370.45	260.81
370.831	271.89
371.212	263.98
371.593	280.47
371.974	272.11
372.355	275.28
372.736	296.07
373.117	290.42
373.498	274.82
373.879	293.58
374.26	271.89
374.641	280.25
375.021	286.35
375.402	267.82
375.783	280.02
376.163	275.05
376.544	284.99
376.925	271.66
377.305	287.7
377.686	280.25
378.066	301.72
378.447	265.56
378.827	282.73
379.208	290.42
379.588	289.74
379.968	292.68
380.349	296.29
380.729	292.9
381.109	291.77
381.489	296.29
381.87	276.18
382.25	305.78
382.63	273.92
383.01	301.94
383.39	286.12
383.77	296.52
384.15	305.78
384.53	290.64
384.91	307.82
385.29	309.85
385.67	316.4
386.049	309.4
386.429	302.17
386.809	287.48
387.189	300.81
387.568	277.99
387.948	300.36
388.328	309.17
388.707	310.98
389.087	296.07
389.466	317.76
389.846	319.12
390.225	294.71
390.605	285.67
390.984	289.51
391.363	300.13
391.743	300.36
392.122	291.09
392.501	301.72
392.881	302.85
393.26	281.6
393.639	318.66
394.018	296.07
394.397	282.28
394.776	302.85
395.155	304.65
395.534	299.23
395.913	327.93
396.292	318.44
396.671	315.27
397.05	309.62
397.429	323.86
397.808	303.3
398.186	310.53
398.565	329.96
398.944	299.23
399.323	314.82
399.701	306.91
400.08	329.74
400.458	289.96
400.837	293.58
401.215	309.4
401.594	311.88
401.972	331.09
402.351	319.57
402.729	322.96
403.107	304.2
403.486	318.21
403.864	329.74
404.242	336.52
404.62	317.53
404.999	313.92
405.377	322.05
405.755	312.79
406.133	316.18
406.511	324.54
406.889	340.58
407.267	328.61
407.645	329.29
408.023	327.7
408.401	358.21
408.779	328.16
409.156	316.63
409.534	320.92
409.912	341.04
410.29	330.87
410.667	344.2
411.045	342.84
411.422	325.22
411.8	341.26
412.178	325.9
412.555	343.3
412.933	342.84
413.31	331.32
413.687	333.58
414.065	354.14
414.442	339
414.819	346.91
415.197	330.19
415.574	357.76
415.951	354.14
416.328	348.72
416.705	353.69
417.082	335.16
417.46	343.75
417.837	346.01
418.214	331.54
418.591	359.57
418.967	364.09
419.344	343.52
419.721	368.61
420.098	346.01
420.475	369.06
420.852	368.83
421.228	335.61
421.605	357.98
421.982	364.09
422.358	369.74
422.735	339
423.111	354.14
423.488	366.57
423.864	354.14
424.241	357.53
424.617	376.52
424.994	358.44
425.37	371.54
425.746	356.63
426.123	348.49
426.499	393.69
426.875	375.16
427.251	370.19
427.627	377.19
428.003	381.49
428.379	380.13
428.756	357.76
429.132	365.44
429.507	364.76
429.883	407.02
430.259	397.98
430.635	393.01
431.011	393.69
431.387	392.79
431.763	391.43
432.138	405.22
432.514	385.33
432.89	392.33
433.265	406.57
433.641	386.01
434.016	389.62
434.392	408.61
434.767	387.81
435.143	406.8
435.518	418.55
435.894	404.31
436.269	413.58
436.644	419.9
437.02	405.89
437.395	423.75
437.77	425.78
438.145	415.38
438.52	422.62
438.895	434.14
439.271	435.95
439.646	392.56
440.021	444.08
440.395	411.09
440.77	426.01
441.145	417.19
441.52	449.28
441.895	424.2
442.27	435.27
442.645	431.43
443.019	441.6
443.394	453.8
443.769	443.86
444.143	439.11
444.518	457.42
444.892	433.46
445.267	453.58
445.641	477.98
446.016	460.58
446.39	464.65
446.764	458.55
447.139	442.73
447.513	468.49
447.887	463.52
448.262	455.16
448.636	466
449.01	473.24
449.384	452.67
449.758	477.08
450.132	470.98
450.506	448.83
450.88	488.83
451.254	482.5
451.628	466.46
452.002	472.56
452.376	490.18
452.75	476.85
453.123	487.25
453.497	493.12
453.871	482.05
454.244	503.07
454.618	501.48
454.992	500.35
455.365	522.73
455.739	496.06
456.112	505.33
456.486	507.81
456.859	518.21
457.232	533.12
457.606	523.18
457.979	525.89
458.352	536.96
458.725	546.68
459.099	533.35
459.472	538.55
459.845	546.91
460.218	533.8
460.591	554.59
460.964	541.03
461.337	554.82
461.71	567.92
462.083	557.53
462.456	547.81
462.829	582.84
463.201	546.23
463.574	598.2
463.947	593.46
464.32	593.91
464.692	588.49
465.065	614.25
465.438	598.2
465.81	613.8
466.183	601.14
466.555	605.44
466.928	624.19
467.3	652.44
467.672	651.99
468.045	661.03
468.417	662.61
468.789	662.38
469.161	650.86
469.534	670.52
469.906	634.81
470.278	661.93
470.65	669.16
471.022	663.97
471.394	674.81
471.766	657.41
472.138	701.25
472.51	684.08
472.882	701.7
473.253	730.4
473.625	729.27
473.997	723.17
474.369	757.52
474.74	758.88
475.112	755.71
475.484	781.25
475.855	786.45
476.227	782.15
476.598	831.87
476.97	800.91
477.341	783.51
477.713	818.31
478.084	804.53
478.455	829.61
478.827	848.82
479.198	872.1
479.569	880.68
479.94	877.75
480.311	880.23
480.682	926.78
481.053	916.61
481.424	910.51
481.795	942.83
482.166	944.41
482.537	941.02
482.908	966.56
483.279	999.78
483.65	995.48
484.021	1006.1
484.391	1021.24
484.762	1007.01
485.133	1022.83
485.503	1032.77
485.874	1065.31
486.244	1063.96
486.615	1086.1
486.985	1085.42
487.356	1112.09
487.726	1118.64
488.097	1130.85
488.467	1131.75
488.837	1158.87
489.207	1153.44
489.578	1208.58
489.948	1193.9
490.318	1180.79
490.688	1207.45
491.058	1200.67
491.428	1272.54
491.798	1242.26
492.168	1278.86
492.538	1259.43
492.908	1256.27
493.278	1289.03
493.648	1305.98
494.017	1317.06
494.387	1335.13
494.757	1322.93
495.126	1323.61
495.496	1357.96
495.866	1364.51
496.235	1367.9
496.605	1379.65
496.974	1411.06
497.344	1395.25
497.713	1411.52
498.082	1423.04
498.452	1430.73
498.821	1429.82
499.19	1447.22
499.559	1464.85
499.928	1475.7
500.298	1478.41
500.667	1480.67
501.036	1497.84
501.405	1499.88
501.774	1478.41
502.143	1503.49
502.512	1501.91
502.88	1539.65
503.249	1476.83
503.618	1522.93
503.987	1540.78
504.356	1546.65
504.724	1553.43
505.093	1550.27
505.462	1573.55
505.83	1589.36
506.199	1570.38
506.567	1592.53
506.936	1594.79
507.304	1627.33
507.672	1625.07
508.041	1636.37
508.409	1607.67
508.777	1647.89
509.145	1659.65
509.514	1642.24
509.882	1659.19
510.25	1649.02
510.618	1644.05
510.986	1680.21
511.354	1684.5
511.722	1680.21
512.09	1722.24
512.458	1737.61
512.826	1738.97
513.193	1726.54
513.561	1742.13
513.929	1767.89
514.297	1784.16
514.664	1773.09
515.032	1779.42
515.4	1780.32
515.767	1773.99
516.135	1797.95
516.502	1789.13
516.869	1811.28
517.237	1816.25
517.604	1791.85
517.972	1797.04
518.339	1841.11
518.706	1820.55
519.073	1857.38
519.44	1873.2
519.808	1871.17
520.175	1854.44
520.542	1870.49
520.909	1889.24
521.276	1903.48
521.643	1896.02
522.009	1918.62
522.376	1935.12
522.743	1926.98
523.11	1935.12
523.477	1943.25
523.843	1980.54
524.21	1961.11
524.577	1992.97
524.943	1985.29
525.31	2010.6
525.676	2012.63
526.043	2033.65
526.409	2041.56
526.776	2026.42
527.142	2030.48
527.508	2054.66
527.874	2091.72
528.241	2061.22
528.607	2075.91
528.973	2063.25
529.339	2115
529.705	2086.53
530.071	2073.19
530.437	2071.84
530.803	2115.45
531.169	2115.45
531.535	2101.22
531.901	2108.22
532.267	2115.45
532.632	2159.07
532.998	2150.71
533.364	2150.71
533.73	2129.92
534.095	2161.78
534.461	2162.01
534.826	2180.54
535.192	2175.79
535.557	2147.77
535.923	2208.56
536.288	2175.34
536.653	2196.58
537.019	2173.53
537.384	2194.32
537.749	2186.41
538.114	2193.42
538.479	2177.82
538.845	2191.61
539.21	2208.56
539.575	2202.46
539.94	2203.81
540.305	2225.51
540.67	2199.29
541.034	2216.92
541.399	2215.56
541.764	2212.63
542.129	2246.52
542.494	2195.22
542.858	2217.37
543.223	2185.73
543.587	2236.13
543.952	2248.56
544.316	2246.3
544.681	2230.03
545.045	2242.91
545.41	2268.9
545.774	2260.99
546.138	2218.73
546.503	2262.79
546.867	2263.25
547.231	2241.55
547.595	2271.38
547.959	2270.25
548.324	2284.94
548.688	2256.69
549.052	2264.38
549.416	2250.82
549.779	2267.31
550.143	2274.54
550.507	2267.54
550.871	2294.88
551.235	2263.7
551.599	2305.28
551.962	2281.55
552.326	2261.21
552.689	2305.28
553.053	2303.92
553.417	2301.44
553.78	2337.37
554.143	2303.47
554.507	2301.21
554.87	2299.18
555.234	2334.66
555.597	2324.03
555.96	2337.82
556.323	2340.31
556.686	2303.02
557.05	2332.62
557.413	2335.56
557.776	2313.87
558.139	2351.38
558.502	2371.49
558.865	2344.83
559.228	2342.11
559.59	2372.62
559.953	2375.33
560.316	2384.37
560.679	2370.59
561.041	2382.56
561.404	2390.47
561.767	2421.66
562.129	2398.61
562.492	2419.17
562.854	2421.43
563.217	2447.42
563.579	2402.9
563.941	2437.25
564.304	2454.43
564.666	2463.47
565.028	2449.91
565.39	2458.04
565.753	2465.95
566.115	2481.54
566.477	2476.57
566.839	2456.23
567.201	2456.23
567.563	2462.11
567.925	2505.5
568.287	2466.63
568.648	2496.01
569.01	2475.9
569.372	2509.57
569.734	2518.83
570.095	2493.75
570.457	2497.36
570.819	2511.83
571.18	2494.43
571.542	2531.04
571.903	2548.66
572.265	2563.8
572.626	2533.29
572.987	2533.29
573.349	2517.02
573.71	2526.74
574.071	2545.5
574.432	2536.91
574.794	2530.36
575.155	2543.24
575.516	2578.49
575.877	2573.97
576.238	2533.75
576.599	2552.28
576.96	2523.13
577.32	2556.8
577.681	2512.73
578.042	2547.08
578.403	2568.55
578.763	2543.92
579.124	2534.88
579.485	2555.67
579.845	2555.22
580.206	2541.2
580.566	2535.1
580.927	2526.52
581.287	2527.19
581.648	2514.99
582.008	2561.77
582.368	2502.11
582.728	2531.94
583.089	2517.48
583.449	2506.63
583.809	2480.64
584.169	2489.45
584.529	2505.73
584.889	2503.69
585.249	2535.1
585.609	2500.08
585.969	2501.21
586.329	2492.17
586.688	2502.11
587.048	2497.59
587.408	2465.27
587.768	2470.92
588.127	2466.4
588.487	2459.4
588.846	2491.49
589.206	2438.83
589.565	2460.3
589.925	2462.79
590.284	2455.78
590.643	2476.57
591.003	2479.96
591.362	2489.45
591.721	2452.17
592.08	2467.31
592.44	2459.62
592.799	2492.17
593.158	2458.27
593.517	2453.52
593.876	2457.59
594.235	2475.44
594.593	2440.87
594.952	2455.56
595.311	2413.75
595.67	2448.33
596.029	2456.01
596.387	2482.22
596.746	2482.45
597.104	2462.34
597.463	2454.2
597.822	2460.3
598.18	2483.8
598.538	2493.97
598.897	2468.66
599.255	2477.03
599.613	2474.99
599.972	2457.36
600.33	2455.1
600.688	2476.12
601.046	2470.47
601.404	2454.43
601.762	2467.08
602.12	2516.12
602.478	2489.45
602.836	2497.82
603.194	2501.43
603.552	2486.06
603.91	2499.4
604.268	2478.83
604.625	2486.52
604.983	2470.02
605.341	2489.91
605.698	2489.91
606.056	2503.69
606.413	2527.42
606.771	2505.5
607.128	2524.71
607.485	2507.53
607.843	2532.39
608.2	2555.67
608.557	2568.32
608.914	2550.92
609.272	2540.3
609.629	2539.17
609.986	2539.17
610.343	2524.48
610.7	2603.8
611.057	2529
611.414	2544.37
611.771	2515.89
612.127	2561.77
612.484	2554.99
612.841	2606.51
613.198	2550.7
613.554	2551.6
613.911	2562.45
614.267	2564.93
614.624	2566.06
614.98	2579.17
615.337	2580.75
615.693	2607.19
616.05	2572.84
616.406	2591.82
616.762	2617.36
617.118	2609.68
617.475	2616.23
617.831	2563.12
618.187	2611.03
618.543	2568.55
618.899	2591.37
619.255	2606.97
619.611	2579.17
619.967	2608.55
620.323	2596.34
620.678	2593.63
621.034	2585.5
621.39	2572.84
621.746	2572.39
622.101	2631.6
622.457	2601.54
622.812	2608.77
623.168	2611.49
623.523	2604.25
623.879	2618.26
624.234	2608.55
624.589	2599.96
624.945	2622.11
625.3	2633.63
625.655	2584.37
626.01	2614.2
626.365	2629.79
626.72	2614.87
627.075	2588.89
627.43	2604.03
627.785	2551.37
628.14	2567.42
628.495	2587.98
628.85	2593.86
629.205	2589.34
629.559	2580.3
629.914	2571.26
630.269	2589.56
630.623	2602.22
630.978	2594.08
631.332	2575.33
631.687	2558.15
632.041	2553.86
632.396	2588.66
632.75	2613.52
633.104	2576.01
633.459	2574.2
633.813	2585.95
634.167	2548.89
634.521	2563.8
634.875	2563.58
635.229	2537.81
635.583	2577.81
635.937	2527.19
636.291	2556.57
636.645	2577.59
636.999	2531.71
637.352	2545.05
637.706	2559.96
638.06	2548.44
638.413	2571.49
638.767	2552.5
639.121	2554.31
639.474	2549.34
639.828	2530.13
640.181	2538.04
640.534	2537.59
640.888	2554.54
641.241	2533.75
641.594	2554.99
641.947	2566.74
642.301	2552.28
642.654	2530.81
643.007	2524.48
643.36	2580.75
643.713	2538.94
644.066	2582.33
644.419	2543.46
644.771	2548.21
645.124	2543.92
645.477	2522
645.83	2534.2
646.182	2512.28
646.535	2502.79
646.888	2525.16
647.24	2502.56
647.593	2517.25
647.945	2533.75
648.298	2507.53
648.65	2524.71
649.002	2522.67
649.355	2525.84
649.707	2508.44
650.059	2550.02
650.411	2585.5
650.763	2586.4
651.115	2631.82
651.467	2640.41
651.819	2644.93
652.171	2653.74
652.523	2654.2
652.875	2619.17
653.227	2647.42
653.578	2675.66
653.93	2705.49
654.282	2680.86
654.633	2680.18
654.985	2701.65
655.337	2733.97
655.688	2679.28
656.039	2716.79
656.391	2726.51
656.742	2713.86
657.094	2754.08
657.445	2759.73
657.796	2754.98
658.147	2766.51
658.498	2770.35
658.849	2796.79
659.2	2837.69
659.551	2833.63
659.902	2858.94
660.253	2827.3
660.604	2851.03
660.955	2878.6
661.306	2855.77
661.656	2879.5
662.007	2930.12
662.358	2931.02
662.708	2905.49
663.059	2943.91
663.409	2906.62
663.76	2960.18
664.11	2976
664.461	2962.89
664.811	3030.23
665.161	3033.39
665.511	3048.08
665.862	3055.54
666.212	3074.52
666.562	3073.17
666.912	3121.98
667.262	3109.55
667.612	3162.66
667.962	3147.52
668.312	3142.32
668.662	3194.29
669.011	3229.77
669.361	3254.18
669.711	3262.32
670.06	3274.29
670.41	3268.42
670.76	3300.05
671.109	3312.94
671.459	3332.37
671.808	3374.85
672.157	3342.09
672.507	3378.47
672.856	3372.14
673.205	3432.48
673.554	3480.16
673.904	3455.3
674.253	3481.29
674.602	3498.24
674.951	3459.15
675.3	3462.08
675.649	3557.22
675.998	3578.47
676.346	3595.41
676.695	3609.42
677.044	3639.48
677.393	3653.94
677.741	3750.66
678.09	3736.2
678.438	3743.88
678.787	3737.56
679.135	3764.22
679.484	3748.86
679.832	3818.46
680.181	3831.34
680.529	3902.75
680.877	3877.89
681.225	3871.11
681.573	3966.03
681.922	3933.03
682.27	3927.16
682.618	3961.73
682.966	4016.42
683.314	4042.18
683.661	4061.39
684.009	4098
684.357	4108.17
684.705	4112.91
685.053	4134.83
685.4	4149.3
685.748	4185.23
686.095	4217.77
686.443	4192.91
686.79	4213.25
687.138	4261.61
687.485	4324.43
687.832	4276.75
688.18	4328.73
688.527	4325.11
688.874	4347.48
689.221	4405.34
689.568	4405.79
689.915	4398.56
690.262	4432.23
690.609	4450.31
690.956	4496.86
691.303	4484.2
691.65	4531.66
691.997	4573.92
692.344	4560.36
692.69	4543.41
693.037	4601.94
693.383	4562.62
693.73	4635.61
694.077	4648.27
694.423	4641.26
694.769	4690.07
695.116	4684.2
695.462	4743.63
695.808	4780.69
696.155	4766.68
696.501	4753.12
696.847	4778.43
697.193	4829.96
697.539	4827.47
697.885	4818.66
698.231	4795.61
698.577	4845.32
698.923	4885.78
699.269	4823.4
699.614	4877.87
699.96	4962.84
700.306	4969.84
700.651	4954.93
700.997	4945.43
701.342	5010.97
701.688	5004.87
702.033	5011.42
702.379	5056.84
702.724	5012.1
703.069	5074.92
703.415	5012.55
703.76	5097.97
704.105	5127.58
704.45	5166.45
704.795	5092.32
705.14	5162.6
705.485	5188.14
705.83	5170.97
706.175	5217.74
706.52	5235.37
706.865	5214.58
707.209	5151.98
707.554	5220.91
707.899	5217.52
708.243	5203.73
708.588	5225.43
708.932	5236.95
709.277	5250.74
709.621	5306.56
709.966	5285.09
710.31	5245.54
710.654	5250.29
710.998	5321.92
711.342	5323.73
711.687	5341.58
712.031	5325.31
712.375	5361.02
712.719	5339.77
713.063	5350.4
713.407	5406.44
713.75	5353.11
714.094	5424.29
714.438	5425.2
714.782	5445.99
715.125	5420
715.469	5399.89
715.812	5400.79
716.156	5438.98
716.499	5430.85
716.843	5473.33
717.186	5452.77
717.53	5480.34
717.873	5513.78
718.216	5448.25
718.559	5456.83
718.902	5485.99
719.246	5473.33
719.589	5498.41
719.932	5523.27
720.275	5499.09
720.617	5511.97
720.96	5519.21
721.303	5502.03
721.646	5542.71
721.989	5534.12
722.331	5516.04
722.674	5490.28
723.016	5555.14
723.359	5550.62
723.701	5535.25
724.044	5605.08
724.386	5563.5
724.729	5545.42
725.071	5533.22
725.413	5572.09
725.755	5498.64
726.097	5555.14
726.439	5546.32
726.782	5522.82
727.124	5603.95
727.465	5545.42
727.807	5563.27
728.149	5609.37
728.491	5551.52
728.833	5569.37
729.175	5534.35
729.516	5600.78
729.858	5528.47
730.199	5586.77
730.541	5557.62
730.882	5550.39
731.224	5575.7
731.565	5540
731.906	5535.93
732.248	5595.14
732.589	5564.63
732.93	5561.46
733.271	5550.39
733.612	5581.58
733.953	5535.7
734.294	5515.59
734.635	5536.15
734.976	5534.8
735.317	5537.28
735.658	5524.85
735.999	5492.99
736.339	5526.89
736.68	5520.34
737.021	5537.51
737.361	5467.23
737.702	5544.74
738.042	5518.3
738.383	5482.6
738.723	5539.54
739.063	5498.19
739.404	5514.91
739.744	5484.63
740.084	5469.49
740.424	5494.35
740.764	5467.91
741.104	5459.55
741.444	5466.1
741.784	5414.58
742.124	5464.97
742.464	5443.5
742.804	5453.44
743.143	5475.59
743.483	5448.25
743.823	5435.82
744.162	5454.35
744.502	5456.38
744.841	5405.54
745.181	5415.48
745.52	5433.33
745.86	5447.57
746.199	5362.83
746.538	5418.87
746.877	5452.31
747.216	5396.27
747.556	5422.03
747.895	5412.09
748.234	5351.3
748.573	5377.51
748.911	5364.18
749.25	5335.48
749.589	5318.31
749.928	5337.29
750.267	5362.6
750.605	5309.04
750.944	5316.27
751.283	5270.85
751.621	5309.27
751.96	5281.7
752.298	5272.21
752.636	5289.83
752.975	5212.55
753.313	5242.83
753.651	5276.95
753.989	5231.98
754.327	5212.32
754.666	5209.38
755.004	5188.14
755.342	5197.63
755.679	5211.42
756.017	5134.58
756.355	5151.53
756.693	5173.68
757.031	5179.1
757.368	5138.65
757.706	5153.34
758.044	5108.37
758.381	5073.57
758.719	5079.22
759.056	5089.84
759.394	5066.79
759.731	5061.59
760.068	5094.58
760.405	5006.9
760.743	5020.01
761.08	5060.46
761.417	5035.38
761.754	4979.11
762.091	4970.07
762.428	4921.03
762.765	4958.32
763.102	4953.34
763.438	4953.34
763.775	4864.99
764.112	4886
764.449	4940.24
764.785	4938.43
765.122	4822.95
765.458	4871.09
765.795	4872.22
766.131	4815.27
766.467	4813.46
766.804	4769.62
767.14	4767.81
767.476	4760.36
767.812	4777.98
768.148	4757.42
768.485	4712.45
768.821	4686.91
769.157	4633.35
769.492	4731.66
769.828	4651.21
770.164	4653.47
770.5	4635.39
770.836	4613.92
771.171	4618.89
771.507	4624.54
771.842	4613.69
772.178	4583.64
