Data from carpet_green_FLMS001491_00070.txt Node
Date: Wed Feb 08 10:35:43 GMT 2017
User: dcchb
Spectrometer: FLMS00149
Trigger mode: 0
Integration Time (sec): 2.000000E-2
Scans to average: 10
Electric dark correction enabled: true
Nonlinearity correction enabled: false
Boxcar width: 0
XAxis mode: Wavelengths
Number of Pixels in Spectrum: 2048
>>>>>Begin Spectral Data<<<<<
341.393	-21.67
341.776	-21.67
342.16	-21.67
342.543	-69.12
342.927	-49.46
343.31	-76.81
343.693	-72.96
344.077	-79.74
344.46	-43.13
344.843	-50.59
345.226	-39.52
345.61	-21.67
345.993	-15.34
346.376	-8.79
346.759	12.91
347.142	40.93
347.525	33.47
347.908	45.9
348.291	75.96
348.674	92.91
349.057	106.47
349.44	115.05
349.823	129.74
350.206	171.1
350.588	178.78
350.971	183.07
351.354	207.48
351.737	213.58
352.119	226.24
352.502	257.65
352.884	255.61
353.267	247.48
353.65	254.03
354.032	265.56
354.414	282.05
354.797	277.99
355.179	293.58
355.562	303.07
355.944	333.8
356.326	313.24
356.709	300.81
357.091	311.66
357.473	295.16
357.855	305.78
358.238	311.66
358.62	318.21
359.002	318.21
359.384	322.28
359.766	311.21
360.148	332.22
360.53	319.79
360.912	319.57
361.294	316.86
361.676	297.87
362.057	300.59
362.439	313.69
362.821	292.22
363.203	305.56
363.584	344.88
363.966	298.55
364.348	302.17
364.729	280.02
365.111	284.31
365.493	283.41
365.874	276.63
366.256	279.79
366.637	280.7
367.019	305.1
367.4	290.42
367.781	292.22
368.163	280.47
368.544	291.09
368.925	269.17
369.306	284.54
369.688	291.55
370.069	275.05
370.45	285.67
370.831	285.67
371.212	296.74
371.593	263.07
371.974	292
372.355	299.68
372.736	282.73
373.117	286.8
373.498	270.53
373.879	284.54
374.26	272.34
374.641	287.48
375.021	295.16
375.402	301.49
375.783	275.05
376.163	261.49
376.544	276.86
376.925	286.8
377.305	299.68
377.686	282.51
378.066	287.48
378.447	277.54
378.827	258.33
379.208	292
379.588	289.29
379.968	287.03
380.349	277.99
380.729	294.48
381.109	298.55
381.489	304.88
381.87	299.91
382.25	317.76
382.63	306.01
383.01	285.44
383.39	295.39
383.77	287.25
384.15	286.35
384.53	303.07
384.91	295.39
385.29	292.45
385.67	290.87
386.049	311.21
386.429	320.25
386.809	314.6
387.189	295.39
387.568	289.74
387.948	301.49
388.328	287.7
388.707	300.13
389.087	319.79
389.466	324.31
389.846	308.04
390.225	315.5
390.605	327.03
390.984	323.41
391.363	303.75
391.743	313.47
392.122	322.51
392.501	310.53
392.881	298.78
393.26	286.57
393.639	322.96
394.018	288.83
394.397	307.82
394.776	320.25
395.155	327.48
395.534	307.36
395.913	327.48
396.292	317.76
396.671	322.28
397.05	297.42
397.429	308.95
397.808	321.38
398.186	315.27
398.565	301.26
398.944	327.7
399.323	324.99
399.701	324.99
400.08	305.56
400.458	319.57
400.837	312.79
401.215	329.29
401.594	314.82
401.972	334.26
402.351	332.22
402.729	326.35
403.107	321.38
403.486	323.41
403.864	296.52
404.242	332.67
404.62	322.96
404.999	312.34
405.377	336.52
405.755	313.92
406.133	309.17
406.511	321.15
406.889	324.09
407.267	331.32
407.645	332.9
408.023	321.6
408.401	330.87
408.779	334.48
409.156	342.62
409.534	341.04
409.912	344.2
410.29	343.3
410.667	321.6
411.045	340.13
411.422	332.9
411.8	328.83
412.178	332.22
412.555	311.43
412.933	332.67
413.31	339.91
413.687	336.06
414.065	339
414.442	340.81
414.819	346.23
415.197	312.11
415.574	353.92
415.951	341.26
416.328	364.54
416.705	347.14
417.082	336.06
417.46	334.71
417.837	341.94
418.214	329.74
418.591	365.89
418.967	346.69
419.344	355.73
419.721	356.63
420.098	330.42
420.475	321.6
420.852	368.15
421.228	350.98
421.605	362.05
421.982	363.18
422.358	373.8
422.735	324.99
423.111	351.88
423.488	354.6
423.864	358.44
424.241	350.75
424.617	376.06
424.994	381.49
425.37	355.5
425.746	345.78
426.123	368.61
426.499	359.79
426.875	369.28
427.251	367.7
427.627	347.36
428.003	374.03
428.379	373.8
428.756	374.48
429.132	373.13
429.507	366.35
429.883	374.93
430.259	385.55
430.635	387.14
431.011	386.91
431.387	383.3
431.763	369.06
432.138	386.91
432.514	363.63
432.89	394.37
433.265	390.07
433.641	379.91
434.016	394.59
434.392	396.63
434.767	365.44
435.143	391.43
435.518	399.57
435.894	358.21
436.269	397.53
436.644	392.56
437.02	387.81
437.395	389.62
437.77	404.31
438.145	404.99
438.52	388.49
438.895	395.95
439.271	397.08
439.646	415.84
440.021	400.02
440.395	417.19
440.77	403.86
441.145	418.1
441.52	394.59
441.895	444.31
442.27	432.79
442.645	406.57
443.019	433.92
443.394	410.41
443.769	411.54
444.143	436.63
444.518	423.29
444.892	421.49
445.267	423.29
445.641	423.29
446.016	422.16
446.39	439.34
446.764	420.13
447.139	425.1
447.513	421.49
447.887	422.39
448.262	426.23
448.636	434.59
449.01	436.85
449.384	444.76
449.758	427.59
450.132	449.06
450.506	430.98
450.88	428.72
451.254	429.85
451.628	446.34
452.002	442.5
452.376	466
452.75	439.56
453.123	443.86
453.497	454.03
453.871	447.47
454.244	443.63
454.618	462.16
454.992	451.09
455.365	469.85
455.739	473.46
456.112	466.46
456.486	477.53
456.859	461.49
457.232	451.99
457.606	427.59
457.979	488.38
458.352	481.82
458.725	482.5
459.099	478.43
459.472	492.9
459.845	488.6
460.218	468.94
460.591	486.8
460.964	493.57
461.337	498.09
461.71	520.92
462.083	521.82
462.456	501.03
462.829	512.11
463.201	528.83
463.574	545.1
463.947	523.86
464.32	544.19
464.692	527.47
465.065	533.12
465.438	560.01
465.81	538.55
466.183	537.64
466.555	531.54
466.928	553.46
467.3	553.23
467.672	563.4
468.045	568.37
468.417	562.73
468.789	545.78
469.161	575.83
469.534	594.14
469.906	579.67
470.278	576.96
470.65	597.3
471.022	615.38
471.394	598.66
471.766	595.04
472.138	618.77
472.51	629.16
472.882	620.58
473.253	624.87
473.625	611.99
473.997	622.61
474.369	650.41
474.74	630.07
475.112	655.38
475.484	658.32
475.855	665.55
476.227	659.45
476.598	655.83
476.97	689.28
477.341	675.49
477.713	696.28
478.084	681.14
478.455	706.68
478.827	682.95
479.198	733.12
479.569	733.57
479.94	722.27
480.311	746
480.682	735.15
481.053	742.83
481.424	786.22
481.795	778.76
482.166	797.97
482.537	785.32
482.908	819.44
483.279	791.19
483.65	813.79
484.021	857.18
484.391	843.4
484.762	839.55
485.133	835.49
485.503	859.44
485.874	889.27
486.244	876.39
486.615	873.23
486.985	914.13
487.356	921.13
487.726	932.21
488.097	925.2
488.467	950.29
488.837	941.7
489.207	961.58
489.578	955.94
489.948	968.36
490.318	989.38
490.688	960.45
491.058	1008.36
491.428	993.45
491.798	1019.21
492.168	1017.63
492.538	1008.14
492.908	1042.71
493.278	1061.7
493.648	1068.7
494.017	1036.39
494.387	1082.26
494.757	1063.73
495.126	1081.58
495.496	1091.98
495.866	1077.74
496.235	1074.58
496.605	1130.62
496.974	1095.59
497.344	1115.25
497.713	1126.55
498.082	1139.89
498.452	1132.43
498.821	1126.78
499.19	1151.41
499.559	1166.55
499.928	1162.94
500.298	1175.36
500.667	1174.46
501.036	1170.62
501.405	1174.46
501.774	1171.07
502.143	1185.53
502.512	1208.81
502.88	1218.53
503.249	1176.49
503.618	1222.82
503.987	1188.25
504.356	1218.3
504.724	1221.47
505.093	1220.11
505.462	1229.37
505.83	1233.44
506.199	1232.54
506.567	1273.22
506.936	1252.65
507.304	1251.75
507.672	1261.24
508.041	1271.86
508.409	1270.96
508.777	1278.86
509.145	1303.5
509.514	1281.8
509.882	1272.54
510.25	1292.2
510.618	1303.5
510.986	1324.29
511.354	1322.03
511.722	1333.33
512.09	1326.55
512.458	1341.24
512.826	1344.17
513.193	1324.97
513.561	1327.22
513.929	1324.06
514.297	1351.63
514.664	1388.92
515.032	1367
515.4	1367.45
515.767	1362.48
516.135	1386.43
516.502	1350.73
516.869	1376.26
517.237	1384.85
517.604	1369.48
517.972	1378.07
518.339	1379.88
518.706	1412.87
519.073	1390.05
519.44	1392.08
519.808	1403.83
520.175	1409.26
520.542	1451.06
520.909	1439.09
521.276	1433.44
521.643	1435.92
522.009	1474.57
522.376	1450.39
522.743	1457.39
523.11	1478.41
523.477	1458.07
523.843	1498.97
524.21	1477.5
524.577	1512.3
524.943	1500.78
525.31	1491.29
525.676	1523.83
526.043	1524.96
526.409	1516.82
526.776	1530.38
527.142	1490.84
527.508	1551.63
527.874	1558.41
528.241	1541
528.607	1558.63
528.973	1554.79
529.339	1537.84
529.705	1543.26
530.071	1562.25
530.437	1572.19
530.803	1597.5
531.169	1578.52
531.535	1601.79
531.901	1573.32
532.267	1592.3
532.632	1567.9
532.998	1565.18
533.364	1609.25
533.73	1556.37
534.095	1613.77
534.461	1606.54
534.826	1597.05
535.192	1621.45
535.557	1573.32
535.923	1589.14
536.288	1575.13
536.653	1623.71
537.019	1587.78
537.384	1627.1
537.749	1618.06
538.114	1607.9
538.479	1611.29
538.845	1624.39
539.21	1616.71
539.575	1611.96
539.94	1611.96
540.305	1587.56
540.67	1619.87
541.034	1631.62
541.399	1632.3
541.764	1640.44
542.129	1601.57
542.494	1637.95
542.858	1607.67
543.223	1616.26
543.587	1626.88
543.952	1602.02
544.316	1609.25
544.681	1644.96
545.045	1626.2
545.41	1653.32
545.774	1643.15
546.138	1649.02
546.503	1644.28
546.867	1663.26
547.231	1667.1
547.595	1649.93
547.959	1645.86
548.324	1636.37
548.688	1646.76
549.052	1672.07
549.416	1645.18
549.779	1665.75
550.143	1636.82
550.507	1639.53
550.871	1661.68
551.235	1671.17
551.599	1639.99
551.962	1693.77
552.326	1661.68
552.689	1680.44
553.053	1653.54
553.417	1671.17
553.78	1656.48
554.143	1682.92
554.507	1698.97
554.87	1649.48
555.234	1685.41
555.597	1651.74
555.96	1688.35
556.323	1689.02
556.686	1694
557.05	1720.66
557.413	1688.35
557.776	1661.45
558.139	1709.81
558.502	1690.15
558.865	1702.58
559.228	1724.28
559.59	1728.34
559.953	1730.6
560.316	1735.58
560.679	1719.53
561.041	1726.99
561.404	1771.73
561.767	1737.38
562.129	1731.51
562.492	1786.87
562.854	1729.02
563.217	1755.69
563.579	1756.14
563.941	1743.71
564.304	1755.46
564.666	1778.29
565.028	1792.3
565.39	1796.82
565.753	1771.28
566.115	1792.07
566.477	1772.19
566.839	1806.99
567.201	1807.89
567.563	1818.96
567.925	1797.04
568.287	1798.4
568.648	1799.08
569.01	1799.75
569.372	1809.25
569.734	1801.79
570.095	1812.86
570.457	1845.18
570.819	1790.94
571.18	1783.26
571.542	1810.15
571.903	1830.26
572.265	1824.39
572.626	1805.63
572.987	1828.91
573.349	1824.84
573.71	1811.28
574.071	1790.04
574.432	1837.95
574.794	1825.52
575.155	1829.58
575.516	1821.68
575.877	1824.16
576.238	1794.78
576.599	1826.87
576.96	1847.21
577.32	1848.12
577.681	1839.98
578.042	1832.3
578.403	1813.09
578.763	1817.83
579.124	1835.23
579.485	1842.01
579.845	1841.34
580.206	1853.54
580.566	1801.56
580.927	1810.15
581.287	1813.31
581.648	1838.4
582.008	1805.63
582.368	1773.99
582.728	1793.65
583.089	1797.72
583.449	1806.08
583.809	1792.07
584.169	1804.73
584.529	1789.13
584.889	1788.46
585.249	1769.93
585.609	1759.08
585.969	1781.22
586.329	1741.68
586.688	1800.66
587.048	1759.3
587.408	1770.83
587.768	1763.15
588.127	1761.11
588.487	1756.59
588.846	1759.53
589.206	1737.84
589.565	1737.61
589.925	1710.72
590.284	1769.93
590.643	1760.43
591.003	1727.21
591.362	1756.37
591.721	1729.02
592.08	1742.13
592.44	1716.82
592.799	1755.91
593.158	1745.97
593.517	1748.91
593.876	1781.22
594.235	1737.16
594.593	1729.7
594.952	1739.87
595.311	1753.43
595.67	1750.94
596.029	1737.38
596.387	1726.31
596.746	1689.93
597.104	1732.64
597.463	1742.36
597.822	1736.48
598.18	1744.16
598.538	1711.4
598.897	1748
599.255	1708.46
599.613	1734.9
599.972	1709.36
600.33	1746.2
600.688	1733.99
601.046	1742.58
601.404	1738.74
601.762	1769.47
602.12	1739.42
602.478	1749.81
602.836	1715.92
603.194	1721.11
603.552	1741
603.91	1748
604.268	1732.86
604.625	1752.75
604.983	1726.76
605.341	1722.69
605.698	1756.37
606.056	1779.64
606.413	1757.95
606.771	1755.24
607.128	1748.68
607.485	1718.85
607.843	1760.21
608.2	1744.84
608.557	1763.15
608.914	1745.75
609.272	1753.88
609.629	1752.07
609.986	1765.41
610.343	1765.18
610.7	1773.31
611.057	1785.52
611.414	1757.04
611.771	1792.98
612.127	1784.39
612.484	1790.26
612.841	1791.62
613.198	1781.9
613.554	1784.39
613.911	1781.68
614.267	1784.84
614.624	1781.9
614.98	1764.73
615.337	1801.79
615.693	1827.32
616.05	1785.52
616.406	1760.43
616.762	1813.77
617.118	1786.65
617.475	1801.34
617.831	1803.14
618.187	1806.99
618.543	1785.74
618.899	1819.42
619.255	1804.73
619.611	1790.49
619.967	1799.08
620.323	1815.8
620.678	1830.94
621.034	1805.86
621.39	1808.79
621.746	1820.09
622.101	1811.28
622.457	1797.27
622.812	1810.38
623.168	1800.88
623.523	1791.39
623.879	1818.74
624.234	1794.56
624.589	1797.04
624.945	1791.85
625.3	1804.95
625.655	1798.17
626.01	1781.68
626.365	1791.39
626.72	1805.18
627.075	1788.46
627.43	1770.15
627.785	1773.99
628.14	1790.49
628.495	1780.55
628.85	1797.5
629.205	1772.41
629.559	1791.17
629.914	1777.61
630.269	1784.61
630.623	1808.12
630.978	1808.34
631.332	1781.68
631.687	1775.57
632.041	1769.93
632.396	1767.89
632.75	1791.39
633.104	1776.25
633.459	1782.81
633.813	1786.87
634.167	1752.3
634.521	1783.26
634.875	1779.87
635.229	1796.14
635.583	1756.82
635.937	1775.12
636.291	1751.85
636.645	1752.75
636.999	1756.37
637.352	1773.77
637.706	1733.32
638.06	1759.08
638.413	1750.26
638.767	1768.12
639.121	1751.62
639.474	1735.58
639.828	1743.71
640.181	1753.43
640.534	1743.26
640.888	1748.23
641.241	1769.93
641.594	1750.04
641.947	1752.3
642.301	1724.73
642.654	1774.67
643.007	1755.91
643.36	1755.24
643.713	1784.16
644.066	1743.71
644.419	1773.54
644.771	1758.4
645.124	1731.28
645.477	1743.26
645.83	1696.25
646.182	1729.7
646.535	1726.99
646.888	1735.35
647.24	1731.28
647.593	1759.98
647.945	1741.9
648.298	1737.84
648.65	1761.79
649.002	1729.02
649.355	1761.34
649.707	1734.22
650.059	1779.42
650.411	1776.03
650.763	1748.23
651.115	1798.17
651.467	1786.65
651.819	1791.17
652.171	1809.92
652.523	1763.15
652.875	1794.56
653.227	1795.69
653.578	1799.53
653.93	1826.19
654.282	1822.81
654.633	1824.39
654.985	1848.79
655.337	1841.79
655.688	1857.83
656.039	1863.71
656.391	1863.03
656.742	1856.48
657.094	1911.39
657.445	1872.52
657.796	1870.04
658.147	1891.28
658.498	1900.54
658.849	1906.19
659.2	1936.93
659.551	1911.39
659.902	1926.76
660.253	1900.54
660.604	1942.35
660.955	1897.15
661.306	1944.61
661.656	1942.58
662.007	1972.86
662.358	1981.9
662.708	1977.83
663.059	1987.77
663.409	1996.81
663.76	1994.55
664.11	2049.24
664.461	2034.33
664.811	2052.63
665.161	2075.45
665.511	2049.69
665.862	2079.75
666.212	2081.33
666.562	2111.61
666.912	2130.14
667.262	2123.81
667.612	2128.56
667.962	2175.56
668.312	2180.99
668.662	2167.43
669.011	2176.92
669.361	2216.24
669.711	2225.73
670.06	2227.09
670.41	2240.87
670.76	2266.64
671.109	2275.67
671.459	2253.53
671.808	2296.01
672.157	2322.23
672.507	2320.19
672.856	2338.95
673.205	2354.32
673.554	2351.6
673.904	2386.41
674.253	2393.64
674.602	2405.16
674.951	2399.97
675.3	2417.37
675.649	2421.89
675.998	2469.34
676.346	2509.34
676.695	2522
677.044	2495.78
677.393	2547.31
677.741	2579.85
678.09	2552.5
678.438	2618.04
678.787	2604.48
679.135	2635.89
679.484	2611.49
679.832	2632.28
680.181	2675.89
680.529	2675.66
680.877	2693.74
681.225	2717.92
681.573	2749.79
681.922	2758.83
682.27	2797.92
682.618	2787.75
682.966	2788.88
683.314	2820.75
683.661	2854.87
684.009	2887.86
684.357	2853.51
684.705	2880.18
685.053	2911.14
685.4	2939.61
685.748	2942.55
686.095	2990.46
686.443	2981.87
686.79	3001.76
687.138	3054.19
687.485	3042.89
687.832	3068.65
688.18	3072.04
688.527	3120.85
688.874	3144.35
689.221	3173.28
689.568	3208.08
689.915	3220.28
690.262	3216.21
690.609	3223.22
690.956	3275.2
691.303	3272.03
691.65	3265.93
691.997	3294.18
692.344	3336.44
692.69	3327.62
693.037	3375.08
693.383	3345.93
693.73	3400.84
694.077	3416.66
694.423	3382.99
694.769	3483.78
695.116	3470.22
695.462	3499.6
695.808	3557.67
696.155	3570.78
696.501	3538.69
696.847	3555.19
697.193	3566.04
697.539	3636.54
697.885	3629.76
698.231	3648.07
698.577	3717.22
698.923	3672.93
699.269	3735.75
699.614	3747.27
699.96	3766.48
700.306	3753.38
700.651	3769.42
700.997	3811
701.342	3855.29
701.688	3884.22
702.033	3853.03
702.379	3902.07
702.724	3949.08
703.069	4003.99
703.415	4005.12
703.76	3980.26
704.105	4006.02
704.45	3989.75
704.795	4026.36
705.14	4042.63
705.485	4062.75
705.83	4096.42
706.175	4093.25
706.52	4124.44
706.865	4159.01
707.209	4163.76
707.554	4210.99
707.899	4203.31
708.243	4220.03
708.588	4246.02
708.932	4227.94
709.277	4266.13
709.621	4319.46
709.966	4315.62
710.31	4283.98
710.654	4333.02
710.998	4370.08
711.342	4372.34
711.687	4349.52
712.031	4406.69
712.375	4356.98
712.719	4451.44
713.063	4463.41
713.407	4513.36
713.75	4465
714.094	4512.68
714.438	4525.78
714.782	4554.48
715.125	4520.81
715.469	4568.04
715.812	4621.6
716.156	4604.88
716.499	4595.39
716.843	4607.36
717.186	4554.71
717.53	4587.48
717.873	4698.44
718.216	4682.84
718.559	4634.71
718.902	4638.78
719.246	4716.06
719.589	4670.64
719.932	4765.55
720.275	4726.01
720.617	4718.32
720.96	4724.42
721.303	4765.1
721.646	4798.09
721.989	4749.06
722.331	4810.75
722.674	4764.65
723.016	4801.94
723.359	4858.43
723.701	4825.66
724.044	4835.83
724.386	4830.86
724.729	4839.22
725.071	4847.13
725.413	4889.17
725.755	4862.5
726.097	4865.21
726.439	4892.1
726.782	4863.4
727.124	4918.09
727.465	4939.33
727.807	4873.12
728.149	4856.62
728.491	4875.83
728.833	4937.98
729.175	4882.39
729.516	4908.6
729.858	4926.45
730.199	4940.46
730.541	4912.44
730.882	4920.8
731.224	4948.15
731.565	4913.8
731.906	4962.61
732.248	4937.3
732.589	4964.42
732.93	4925.55
733.271	4913.57
733.612	4990.63
733.953	4986.79
734.294	4965.32
734.635	4970.29
734.976	4993.57
735.317	4953.8
735.658	4983.4
735.999	5005.32
736.339	4967.36
736.68	5027.69
737.021	4957.86
737.361	4994.93
737.702	4994.93
738.042	5020.24
738.383	4956.06
738.723	4987.47
739.063	4993.34
739.404	5000.35
739.744	4983.4
740.084	4915.15
740.424	4978.43
740.764	5004.87
741.104	5015.49
741.444	4997.18
741.784	4967.81
742.124	4987.47
742.464	5010.97
742.804	4972.78
743.143	4947.24
743.483	4963.06
743.823	4944.53
744.162	4948.15
744.502	4958.99
744.841	4986.11
745.181	4939.79
745.52	4965.32
745.86	4935.49
746.199	4915.38
746.538	4906.79
746.877	4921.48
747.216	4906.11
747.556	4924.64
747.895	4933.91
748.234	4917.19
748.573	4911.99
748.911	4936.62
749.25	4894.36
749.589	4894.81
749.928	4925.77
750.267	4908.37
750.605	4874.93
750.944	4915.61
751.283	4891.88
751.621	4880.35
751.96	4850.07
752.298	4888.04
752.636	4835.38
752.975	4845.55
753.313	4827.92
753.651	4847.81
753.989	4829.05
754.327	4817.53
754.666	4820.47
755.004	4798.77
755.342	4762.16
755.679	4790.64
756.017	4784.99
756.355	4763.29
756.693	4759
757.031	4757.87
757.368	4719
757.706	4721.71
758.044	4717.19
758.381	4733.24
758.719	4690.75
759.056	4686.46
759.394	4711.32
759.731	4683.97
760.068	4669.51
760.405	4671.54
760.743	4630.87
761.08	4622.96
761.417	4689.4
761.754	4611.43
762.091	4613.01
762.428	4593.35
762.765	4555.61
763.102	4587.03
763.438	4566.91
763.775	4528.5
764.112	4509.29
764.449	4527.37
764.785	4524.66
765.122	4489.18
765.458	4496.63
765.795	4443.08
766.131	4472.45
766.467	4479.91
766.804	4480.59
767.14	4460.02
767.476	4393.81
767.812	4417.09
768.148	4423.64
768.485	4401.27
768.821	4326.02
769.157	4338.45
769.492	4305.45
769.828	4353.13
770.164	4298.9
770.5	4299.8
770.836	4291.67
771.171	4262.06
771.507	4249.41
771.842	4207.6
772.178	4259.58
772.513	4201.27
772.849	4182.07
