Data from carpet_green_FLMS001491_00036.txt Node
Date: Wed Feb 08 10:35:17 GMT 2017
User: dcchb
Spectrometer: FLMS00149
Trigger mode: 0
Integration Time (sec): 2.000000E-2
Scans to average: 10
Electric dark correction enabled: true
Nonlinearity correction enabled: false
Boxcar width: 0
XAxis mode: Wavelengths
Number of Pixels in Spectrum: 2048
>>>>>Begin Spectral Data<<<<<
341.393	-21.07
341.776	-21.07
342.16	-21.07
342.543	-68.98
342.927	-51.35
343.31	-63.33
343.693	-72.14
344.077	-81.64
344.46	-66.04
344.843	-50.45
345.226	-40.51
345.61	-3.45
345.993	-30.11
346.376	-4.8
346.759	2.2
347.142	36.78
347.525	36.33
347.908	61.64
348.291	82.2
348.674	86.95
349.057	106.38
349.44	146.38
349.823	147.28
350.206	167.4
350.588	169.43
350.971	178.02
351.354	171.01
351.737	224.8
352.119	208.75
352.502	232.25
352.884	253.95
353.267	248.52
353.65	286.94
354.032	275.87
354.414	271.12
354.797	287.85
355.179	288.52
355.562	285.59
355.944	291.01
356.326	316.55
356.709	304.79
357.091	310.44
357.473	308.18
357.855	322.19
358.238	308.86
358.62	315.42
359.002	314.51
359.384	333.49
359.766	313.61
360.148	305.7
360.53	321.74
360.912	320.61
361.294	320.16
361.676	292.37
362.057	310.44
362.439	302.53
362.821	297.34
363.203	294.17
363.584	292.37
363.966	302.76
364.348	299.14
364.729	301.4
365.111	290.78
365.493	281.07
365.874	284.46
366.256	305.7
366.637	307.96
367.019	285.59
367.4	278.35
367.781	292.59
368.163	284.23
368.544	280.84
368.925	297.34
369.306	288.52
369.688	273.38
370.069	278.81
370.45	289.43
370.831	286.94
371.212	303.66
371.593	270.67
371.974	291.69
372.355	295.08
372.736	282.87
373.117	277.45
373.498	276.32
373.879	285.59
374.26	271.8
374.641	271.57
375.021	271.35
375.402	296.66
375.783	277.22
376.163	281.97
376.544	286.49
376.925	289.43
377.305	293.95
377.686	272.7
378.066	290.78
378.447	293.72
378.827	285.59
379.208	302.76
379.588	289.2
379.968	307.05
380.349	309.31
380.729	297.79
381.109	286.94
381.489	286.72
381.87	299.82
382.25	297.79
382.63	289.43
383.01	312.03
383.39	308.86
383.77	307.28
384.15	311.12
384.53	291.24
384.91	300.27
385.29	270.22
385.67	298.47
386.049	307.05
386.429	300.05
386.809	304.79
387.189	301.18
387.568	293.04
387.948	316.77
388.328	294.4
388.707	301.18
389.087	291.46
389.466	310.67
389.846	311.8
390.225	300.27
390.605	314.06
390.984	306.83
391.363	321.29
391.743	300.73
392.122	321.52
392.501	310.44
392.881	301.86
393.26	294.4
393.639	300.27
394.018	295.08
394.397	291.46
394.776	337.11
395.155	302.76
395.534	306.38
395.913	317.45
396.292	330.1
396.671	305.92
397.05	320.39
397.429	317.22
397.808	308.64
398.186	302.99
398.565	324.68
398.944	320.61
399.323	291.91
399.701	328.75
400.08	306.6
400.458	317
400.837	324.91
401.215	322.42
401.594	302.76
401.972	319.26
402.351	311.8
402.729	328.3
403.107	312.93
403.486	286.94
403.864	307.28
404.242	324.23
404.62	339.6
404.999	328.52
405.377	317
405.755	320.61
406.133	322.19
406.511	343.21
406.889	312.93
407.267	339.14
407.645	321.52
408.023	318.13
408.401	313.61
408.779	324.68
409.156	316.09
409.534	350.22
409.912	311.57
410.29	314.74
410.667	342.31
411.045	315.64
411.422	329.43
411.8	332.14
412.178	323.32
412.555	340.27
412.933	325.58
413.31	327.17
413.687	335.75
414.065	338.01
414.442	322.19
414.819	331.69
415.197	332.14
415.574	318.81
415.951	341.18
416.328	336.43
416.705	326.94
417.082	336.21
417.46	351.35
417.837	331.23
418.214	332.14
418.591	326.26
418.967	346.38
419.344	336.66
419.721	352.25
420.098	339.14
420.475	338.92
420.852	358.35
421.228	347.73
421.605	360.39
421.982	351.57
422.358	363.55
422.735	361.06
423.111	364.68
423.488	325.36
423.864	349.09
424.241	369.2
424.617	335.98
424.994	387.28
425.37	334.4
425.746	360.16
426.123	347.73
426.499	371.01
426.875	357.67
427.251	357.67
427.627	342.99
428.003	357.67
428.379	364.23
428.756	366.49
429.132	352.7
429.507	358.35
429.883	353.15
430.259	365.13
430.635	361.06
431.011	367.17
431.387	367.84
431.763	354.06
432.138	360.39
432.514	369.2
432.89	373.94
433.265	368.52
433.641	352.93
434.016	362.19
434.392	382.08
434.767	356.09
435.143	367.62
435.518	380.95
435.894	381.4
436.269	380.5
436.644	384.79
437.02	401.29
437.395	380.5
437.77	372.36
438.145	388.86
438.52	387.96
438.895	392.7
439.271	398.58
439.646	382.76
440.021	387.5
440.395	390.89
440.77	408.07
441.145	392.7
441.52	400.84
441.895	396.77
442.27	384.57
442.645	377.79
443.019	403.55
443.394	404.45
443.769	392.02
444.143	386.83
444.518	390.67
444.892	399.71
445.267	377.79
445.641	383.66
446.016	402.42
446.39	407.39
446.764	402.42
447.139	405.81
447.513	415.98
447.887	412.36
448.262	412.36
448.636	384.57
449.01	399.03
449.384	426.82
449.758	416.66
450.132	449.65
450.506	422.08
450.88	418.01
451.254	428.41
451.628	421.18
452.002	393.38
452.376	427.95
452.75	407.39
453.123	432.47
453.497	428.86
453.871	461.17
454.244	421.18
454.618	425.02
454.992	425.92
455.365	433.15
455.739	428.86
456.112	439.71
456.486	437.22
456.859	428.63
457.232	439.93
457.606	458.69
457.979	434.73
458.352	438.8
458.725	448.97
459.099	452.81
459.472	454.62
459.845	465.47
460.218	444.45
460.591	461.4
460.964	453.04
461.337	474.73
461.71	482.19
462.083	455.98
462.456	480.38
462.829	467.95
463.201	466.82
463.574	452.14
463.947	486.03
464.32	496.43
464.692	503.43
465.065	483.32
465.438	495.98
465.81	484.68
466.183	488.29
466.555	512.25
466.928	504.56
467.3	522.87
467.672	512.92
468.045	498.69
468.417	507.73
468.789	537.78
469.161	522.19
469.534	511.57
469.906	521.51
470.278	538.01
470.65	543.88
471.022	531.68
471.394	527.39
471.766	552.92
472.138	548.18
472.51	553.83
472.882	567.84
473.253	559.93
473.625	565.8
473.997	561.06
474.369	566.71
474.74	561.74
475.112	595.18
475.484	586.37
475.855	612.13
476.227	593.37
476.598	608.52
476.97	615.97
477.341	613.71
477.713	607.16
478.084	639.47
478.455	636.76
478.827	645.12
479.198	625.24
479.569	657.33
479.94	669.76
480.311	669.98
480.682	704.33
481.053	681.06
481.424	683.77
481.795	700.26
482.166	686.48
482.537	723.09
482.908	702.3
483.279	730.09
483.65	712.02
484.021	739.59
484.391	739.81
484.762	763.77
485.133	774.84
485.503	764.22
485.874	781.84
486.244	792.24
486.615	801.73
486.985	805.35
487.356	825.01
487.726	793.37
488.097	835.85
488.467	822.07
488.837	828.4
489.207	869.98
489.578	866.59
489.948	873.14
490.318	862.29
490.688	861.84
491.058	876.08
491.428	864.78
491.798	883.31
492.168	904.55
492.538	906.36
492.908	923.54
493.278	904.33
493.648	919.69
494.017	938.68
494.387	963.76
494.757	940.03
495.126	944.55
495.496	931.67
495.866	942.97
496.235	967.83
496.605	1001.73
496.974	1007.6
497.344	997.66
497.713	1008.96
498.082	988.39
498.452	985.23
498.821	994.49
499.19	1018.45
499.559	1018.9
499.928	1050.54
500.298	1014.61
500.667	1031.78
501.036	1058.9
501.405	1008.5
501.774	1025.23
502.143	1062.74
502.512	1055.96
502.88	1045.34
503.249	1077.43
503.618	1064.32
503.987	1039.24
504.356	1070.42
504.724	1067.03
505.093	1073.81
505.462	1095.51
505.83	1064.77
506.199	1103.87
506.567	1116.52
506.936	1099.12
507.304	1097.09
507.672	1099.8
508.041	1129.41
508.409	1130.08
508.777	1115.62
509.145	1117.43
509.514	1141.83
509.882	1122.85
510.25	1113.81
510.618	1122.17
510.986	1138.67
511.354	1154.04
511.722	1151.78
512.09	1173.92
512.458	1168.95
512.826	1147.03
513.193	1192.45
513.561	1172.12
513.929	1185
514.297	1182.06
514.664	1204.66
515.032	1169.63
515.4	1199.46
515.767	1190.42
516.135	1204.88
516.502	1206.24
516.869	1224.32
517.237	1218.22
517.604	1172.34
517.972	1235.62
518.339	1227.03
518.706	1229.97
519.073	1227.93
519.44	1233.81
519.808	1256.18
520.175	1270.42
520.542	1262.74
520.909	1248.05
521.276	1241.49
521.643	1252.79
522.009	1261.38
522.376	1280.36
522.743	1277.2
523.11	1277.65
523.477	1282.85
523.843	1287.82
524.21	1310.19
524.577	1307.03
524.943	1332.79
525.31	1316.29
525.676	1296.18
526.043	1312
526.409	1302.28
526.776	1329.4
527.142	1340.93
527.508	1321.49
527.874	1335.05
528.241	1344.09
528.607	1329.63
528.973	1334.15
529.339	1346.35
529.705	1352.68
530.071	1345.67
530.437	1340.02
530.803	1350.87
531.169	1389.74
531.535	1375.05
531.901	1393.58
532.267	1352.22
532.632	1358.33
532.998	1383.64
533.364	1374.6
533.73	1382.96
534.095	1374.37
534.461	1400.13
534.826	1379.12
535.192	1393.81
535.557	1388.16
535.923	1390.42
536.288	1382.05
536.653	1408.27
537.019	1379.79
537.384	1402.84
537.749	1387.03
538.114	1355.61
538.479	1411.88
538.845	1415.05
539.21	1386.35
539.575	1404.88
539.94	1427.02
540.305	1414.6
540.67	1404.65
541.034	1399.23
541.399	1389.06
541.764	1423.41
542.129	1384.99
542.494	1411.21
542.858	1405.33
543.223	1415.05
543.587	1398.55
543.952	1402.39
544.316	1406.46
544.681	1385.44
545.045	1418.44
545.41	1393.81
545.774	1401.94
546.138	1413.92
546.503	1419.57
546.867	1412.79
547.231	1424.54
547.595	1431.09
547.959	1403.52
548.324	1406.23
548.688	1436.97
549.052	1433.35
549.416	1403.07
549.779	1446.01
550.143	1409.4
550.507	1424.09
550.871	1443.97
551.235	1427.93
551.599	1406.01
551.962	1419.34
552.326	1446.23
552.689	1462.5
553.053	1444.2
553.417	1450.3
553.78	1437.42
554.143	1443.52
554.507	1452.11
554.87	1452.11
555.234	1481.26
555.597	1460.92
555.96	1468.15
556.323	1472.67
556.686	1445.78
557.05	1449.4
557.413	1452.56
557.776	1483.29
558.139	1474.71
558.502	1482.62
558.865	1464.99
559.228	1482.84
559.59	1487.36
559.953	1473.13
560.316	1492.56
560.679	1483.29
561.041	1503.63
561.404	1523.07
561.767	1518.32
562.129	1526.01
562.492	1537.08
562.854	1516.06
563.217	1534.59
563.579	1526.46
563.941	1540.02
564.304	1534.37
564.666	1516.97
565.028	1538.66
565.39	1553.57
565.753	1524.42
566.115	1530.3
566.477	1544.54
566.839	1550.41
567.201	1564.65
567.563	1542.28
567.925	1537.98
568.287	1540.02
568.648	1550.64
569.01	1514.25
569.372	1557.64
569.734	1560.35
570.095	1537.3
570.457	1564.2
570.819	1580.47
571.18	1558.32
571.542	1570.3
571.903	1567.36
572.265	1592.44
572.626	1580.01
572.987	1547.47
573.349	1565.78
573.71	1562.61
574.071	1570.3
574.432	1560.58
574.794	1574.82
575.155	1575.04
575.516	1578.66
575.877	1571.2
576.238	1558.09
576.599	1563.07
576.96	1566.68
577.32	1555.61
577.681	1568.49
578.042	1553.35
578.403	1553.12
578.763	1587.02
579.124	1535.04
579.485	1559.9
579.845	1586.79
580.206	1547.25
580.566	1552.67
580.927	1532.56
581.287	1553.8
581.648	1534.59
582.008	1570.75
582.368	1557.64
582.728	1560.13
583.089	1545.89
583.449	1533.01
583.809	1545.67
584.169	1554.93
584.529	1539.56
584.889	1535.72
585.249	1513.35
585.609	1524.42
585.969	1525.1
586.329	1515.16
586.688	1515.38
587.048	1516.06
587.408	1542.5
587.768	1508.83
588.127	1502.73
588.487	1486.46
588.846	1520.36
589.206	1532.78
589.565	1519.45
589.925	1532.33
590.284	1491.2
590.643	1494.82
591.003	1476.51
591.362	1498.89
591.721	1482.84
592.08	1516.74
592.44	1494.37
592.799	1470.64
593.158	1527.59
593.517	1507.47
593.876	1498.89
594.235	1489.62
594.593	1484.2
594.952	1480.13
595.311	1495.72
595.67	1502.05
596.029	1508.38
596.387	1472.9
596.746	1503.41
597.104	1505.21
597.463	1498.21
597.822	1511.09
598.18	1481.49
598.538	1460.92
598.897	1471.32
599.255	1503.18
599.613	1505.67
599.972	1528.94
600.33	1475.61
600.688	1500.92
601.046	1518.1
601.404	1511.32
601.762	1484.42
602.12	1509.06
602.478	1500.7
602.836	1503.86
603.194	1507.93
603.552	1487.14
603.91	1478.55
604.268	1547.7
604.625	1504.08
604.983	1528.94
605.341	1504.54
605.698	1499.57
606.056	1509.28
606.413	1516.51
606.771	1538.89
607.128	1509.06
607.485	1530.75
607.843	1541.82
608.2	1529.85
608.557	1521.49
608.914	1508.6
609.272	1511.32
609.629	1543.63
609.986	1548.38
610.343	1540.92
610.7	1540.24
611.057	1534.59
611.414	1537.53
611.771	1514.03
612.127	1526.68
612.484	1553.57
612.841	1538.66
613.198	1544.99
613.554	1529.85
613.911	1545.89
614.267	1552.22
614.624	1547.93
614.98	1553.12
615.337	1576.63
615.693	1530.98
616.05	1532.11
616.406	1542.73
616.762	1525.55
617.118	1556.06
617.475	1532.56
617.831	1598.55
618.187	1580.24
618.543	1552.67
618.899	1563.97
619.255	1556.29
619.611	1547.93
619.967	1564.87
620.323	1569.39
620.678	1562.61
621.034	1568.94
621.39	1545.89
621.746	1557.42
622.101	1571.43
622.457	1567.81
622.812	1579.11
623.168	1567.36
623.523	1573.91
623.879	1545.44
624.234	1572.33
624.589	1553.8
624.945	1555.16
625.3	1559
625.655	1557.19
626.01	1570.75
626.365	1564.87
626.72	1595.61
627.075	1600.35
627.43	1544.08
627.785	1541.15
628.14	1570.52
628.495	1549.96
628.85	1568.72
629.205	1529.39
629.559	1565.78
629.914	1556.74
630.269	1553.12
630.623	1551.54
630.978	1522.62
631.332	1539.56
631.687	1544.54
632.041	1566.91
632.396	1536.85
632.75	1558.09
633.104	1562.16
633.459	1528.26
633.813	1554.48
634.167	1561.03
634.521	1547.02
634.875	1557.64
635.229	1534.37
635.583	1524.65
635.937	1551.54
636.291	1561.03
636.645	1543.86
636.999	1553.8
637.352	1551.09
637.706	1532.78
638.06	1525.55
638.413	1535.04
638.767	1537.3
639.121	1504.08
639.474	1504.76
639.828	1519
640.181	1495.5
640.534	1507.25
640.888	1515.16
641.241	1523.97
641.594	1518.1
641.947	1527.81
642.301	1527.36
642.654	1526.23
643.007	1516.74
643.36	1515.16
643.713	1541.37
644.066	1555.61
644.419	1540.47
644.771	1542.05
645.124	1515.84
645.477	1511.99
645.83	1491.2
646.182	1524.65
646.535	1523.07
646.888	1518.77
647.24	1499.11
647.593	1525.1
647.945	1532.11
648.298	1522.39
648.65	1518.77
649.002	1533.46
649.355	1562.84
649.707	1549.28
650.059	1555.38
650.411	1564.2
650.763	1561.26
651.115	1567.36
651.467	1582.05
651.819	1592.22
652.171	1608.49
652.523	1577.08
652.875	1591.77
653.227	1580.47
653.578	1608.26
653.93	1603.29
654.282	1613.23
654.633	1589.96
654.985	1644.42
655.337	1621.37
655.688	1643.52
656.039	1636.28
656.391	1646.45
656.742	1647.81
657.094	1637.64
657.445	1680.13
657.796	1643.52
658.147	1642.39
658.498	1659.79
658.849	1673.35
659.2	1690.97
659.551	1688.26
659.902	1670.41
660.253	1711.54
660.604	1708.37
660.955	1702.5
661.306	1733.23
661.656	1719.45
662.007	1724.42
662.358	1746.11
662.708	1743.63
663.059	1756.28
663.409	1762.38
663.76	1758.09
664.11	1780.01
664.461	1801.7
664.811	1801.93
665.161	1830.63
665.511	1857.75
665.862	1868.14
666.212	1854.36
666.562	1841.7
666.912	1894.36
667.262	1883.74
667.612	1891.19
667.962	1896.62
668.312	1894.81
668.662	1913.11
669.011	1949.72
669.361	1926.45
669.711	1953.56
670.06	1970.29
670.41	1972.55
670.76	2001.47
671.109	2020.23
671.459	2029.27
671.808	2028.59
672.157	2013.9
672.507	2047.8
672.856	2073.56
673.205	2084.86
673.554	2097.29
673.904	2116.27
674.253	2150.17
674.602	2134.58
674.951	2144.52
675.3	2118.98
675.649	2171.64
675.998	2189.49
676.346	2212.09
676.695	2227.46
677.044	2247.57
677.393	2275.36
677.741	2274.01
678.09	2269.71
678.438	2302.26
678.787	2327.34
679.135	2319.2
679.484	2325.31
679.832	2397.17
680.181	2376.83
680.529	2424.06
680.877	2444.17
681.225	2410.05
681.573	2477.39
681.922	2476.49
682.27	2501.8
682.618	2514
682.966	2553.1
683.314	2565.75
683.661	2593.55
684.009	2582.02
684.357	2594.45
684.705	2613.89
685.053	2627.67
685.4	2623.15
685.748	2645.3
686.095	2669.03
686.443	2676.03
686.79	2675.81
687.138	2753.32
687.485	2739.53
687.832	2737.72
688.18	2796.03
688.527	2773.2
688.874	2813.65
689.221	2865.4
689.568	2872.86
689.915	2858.17
690.262	2897.49
690.609	2900.43
690.956	2941.11
691.303	2938.17
691.65	2963.03
691.997	2966.87
692.344	2989.24
692.69	2978.4
693.037	3025.17
693.383	3018.4
693.73	3068.56
694.077	3062.91
694.423	3059.52
694.769	3093.87
695.116	3113.31
695.462	3145.17
695.808	3124.16
696.155	3191.05
696.501	3189.92
696.847	3190.14
697.193	3186.98
697.539	3259.29
697.885	3233.3
698.231	3208.45
698.577	3275.11
698.923	3322.79
699.269	3298.16
699.614	3328.67
699.96	3341.78
700.306	3366.63
700.651	3364.37
700.997	3361.89
701.342	3407.54
701.688	3417.48
702.033	3415.9
702.379	3459.74
702.724	3461.77
703.069	3501.55
703.415	3496.35
703.76	3482.79
704.105	3502.22
704.45	3512.17
704.795	3567.31
705.14	3571.6
705.485	3544.03
705.83	3557.59
706.175	3568.66
706.52	3635.55
706.865	3650.69
707.209	3629.45
707.554	3640.98
707.899	3671.49
708.243	3674.88
708.588	3690.47
708.932	3674.2
709.277	3692.28
709.621	3724.82
709.966	3771.82
710.31	3693.86
710.654	3711.71
710.998	3788.77
711.342	3790.8
711.687	3793.97
712.031	3777.92
712.375	3795.55
712.719	3810.24
713.063	3847.3
713.407	3864.02
713.75	3871.71
714.094	3890.24
714.438	3910.8
714.782	3887.52
715.125	3906.28
715.469	3909.45
715.812	3929.56
716.156	3899.28
716.499	3942.44
716.843	3991.03
717.186	3966.84
717.53	4015.21
717.873	4001.42
718.216	3993.06
718.559	4006.39
718.902	3968.43
719.246	3992.61
719.589	3994.87
719.932	3981.53
720.275	4048.2
720.617	4016.79
720.96	4027.63
721.303	4060.4
721.646	4073.06
721.989	4005.94
722.331	4092.94
722.674	4057.01
723.016	4095.2
723.359	4100.17
723.701	4116.22
724.044	4071.25
724.386	4096.56
724.729	4151.02
725.071	4138.59
725.413	4104.24
725.755	4163
726.097	4137.46
726.439	4123.22
726.782	4141.76
727.124	4164.58
727.465	4130.46
727.807	4143.11
728.149	4165.03
728.491	4188.76
728.833	4133.17
729.175	4184.92
729.516	4157.12
729.858	4170.23
730.199	4188.53
730.541	4166.84
730.882	4181.53
731.224	4193.73
731.565	4175.2
731.906	4191.02
732.248	4172.04
732.589	4172.94
732.93	4215.43
733.271	4172.72
733.612	4190.34
733.953	4217.23
734.294	4204.13
734.635	4218.59
734.976	4231.24
735.317	4211.36
735.658	4207.29
735.999	4189.66
736.339	4212.26
736.68	4216.33
737.021	4222.21
737.361	4226.73
737.702	4177.01
738.042	4241.41
738.383	4199.61
738.723	4209.78
739.063	4218.36
739.404	4261.53
739.744	4214.07
740.084	4219.49
740.424	4195.54
740.764	4219.27
741.104	4212.04
741.444	4178.36
741.784	4178.59
742.124	4193.51
742.464	4191.47
742.804	4218.59
743.143	4191.02
743.483	4192.38
743.823	4150.34
744.162	4139.95
744.502	4233.5
744.841	4123.68
745.181	4119.61
745.52	4186.73
745.86	4181.53
746.199	4164.13
746.538	4197.8
746.877	4182.88
747.216	4158.25
747.556	4160.96
747.895	4144.47
748.234	4146.95
748.573	4173.17
748.911	4146.28
749.25	4171.13
749.589	4097.46
749.928	4145.82
750.267	4111.25
750.605	4115.32
750.944	4128.2
751.283	4140.85
751.621	4131.81
751.96	4076.67
752.298	4078.48
752.636	4058.59
752.975	4063.34
753.313	4057.24
753.651	4083.68
753.989	4042.55
754.327	4013.4
754.666	3993.51
755.004	3983.34
755.342	3993.51
755.679	4014.75
756.017	3999.84
756.355	4045.03
756.693	3987.86
757.031	4016.79
757.368	3989.44
757.706	4005.04
758.044	3955.77
758.381	3924.36
758.719	3969.33
759.056	3962.55
759.394	3931.59
759.731	3910.8
760.068	3903.12
760.405	3917.81
760.743	3890.46
761.08	3895.21
761.417	3849.33
761.754	3862.89
762.091	3862.21
762.428	3869.22
762.765	3881.42
763.102	3818.15
763.438	3806.62
763.775	3792.39
764.112	3833.74
764.449	3812.95
764.785	3804.59
765.122	3775.66
765.458	3760.3
765.795	3739.51
766.131	3731.82
766.467	3752.16
766.804	3757.13
767.14	3773.63
767.476	3695.89
767.812	3705.83
768.148	3688.89
768.485	3651.15
768.821	3660.64
769.157	3607.98
769.492	3632.84
769.828	3659.96
770.164	3621.54
770.5	3626.74
770.836	3606.85
771.171	3584.48
771.507	3557.59
771.842	3594.43
772.178	3602.11
772.513	3559.85
772.849	3549
