Data from carpet_green_FLMS001491_00093.txt Node
Date: Wed Feb 08 10:36:07 GMT 2017
User: dcchb
Spectrometer: FLMS00149
Trigger mode: 0
Integration Time (sec): 2.000000E-2
Scans to average: 10
Electric dark correction enabled: true
Nonlinearity correction enabled: false
Boxcar width: 0
XAxis mode: Wavelengths
Number of Pixels in Spectrum: 2048
>>>>>Begin Spectral Data<<<<<
341.393	-13.46
341.776	-13.46
342.16	-13.46
342.543	-48.04
342.927	-49.39
343.31	-72.22
343.693	-49.17
344.077	-76.28
344.46	-71.99
344.843	-28.37
345.226	-50.75
345.61	-31.31
345.993	-18.43
346.376	5.3
346.759	26.09
347.142	29.25
347.525	56.14
347.908	52.07
348.291	73.09
348.674	76.03
349.057	80.55
349.44	123.26
349.823	149.25
350.206	156.25
350.588	164.39
350.971	194.22
351.354	206.65
351.737	227.44
352.119	213.2
352.502	226.76
352.884	248
353.267	257.72
353.65	260.21
354.032	273.09
354.414	291.62
354.797	278.51
355.179	294.33
355.562	287.32
355.944	299.53
356.326	321.67
356.709	311.5
357.091	323.71
357.473	302.92
357.855	295.68
358.238	294.33
358.62	329.36
359.002	291.16
359.384	321.22
359.766	313.08
360.148	299.07
360.53	298.85
360.912	308.11
361.294	317.15
361.676	300.88
362.057	288.9
362.439	295.46
362.821	297.94
363.203	298.62
363.584	311.05
363.966	300.43
364.348	288.23
364.729	294.55
365.111	285.97
365.493	295.46
365.874	257.49
366.256	287.1
366.637	294.78
367.019	281.45
367.4	303.82
367.781	294.1
368.163	274.89
368.544	285.97
368.925	297.27
369.306	283.03
369.688	273.54
370.069	254.33
370.45	278.74
370.831	291.62
371.212	276.02
371.593	264.72
371.974	269.24
372.355	267.44
372.736	273.09
373.117	266.53
373.498	267.66
373.879	281.67
374.26	278.96
374.641	285.06
375.021	282.8
375.402	281.22
375.783	270.37
376.163	287.32
376.544	295.01
376.925	295.46
377.305	287.1
377.686	273.99
378.066	294.55
378.447	290.71
378.827	309.47
379.208	283.93
379.588	286.65
379.968	283.03
380.349	285.97
380.729	288
381.109	297.27
381.489	304.27
381.87	293.65
382.25	308.34
382.63	285.06
383.01	284.61
383.39	309.02
383.77	287.1
384.15	303.59
384.53	294.78
384.91	281.45
385.29	284.61
385.67	303.14
386.049	319.86
386.429	307.44
386.809	300.66
387.189	297.72
387.568	289.58
387.948	311.05
388.328	331.16
388.707	313.54
389.087	295.68
389.466	318.96
389.846	303.59
390.225	326.19
390.605	284.16
390.984	299.98
391.363	286.65
391.743	286.87
392.122	307.21
392.501	300.66
392.881	306.76
393.26	321.22
393.639	294.33
394.018	303.14
394.397	325.51
394.776	322.12
395.155	328.9
395.534	326.87
395.913	304.05
396.292	306.98
396.671	347.66
397.05	334.1
397.429	316.47
397.808	305.18
398.186	307.89
398.565	327.1
398.944	311.5
399.323	324.16
399.701	320.77
400.08	320.09
400.458	318.28
400.837	327.77
401.215	311.05
401.594	314.67
401.972	322.8
402.351	334.55
402.729	337.94
403.107	341.56
403.486	321.9
403.864	325.06
404.242	339.98
404.62	330.26
404.999	335.01
405.377	314.89
405.755	311.05
406.133	316.02
406.511	322.35
406.889	325.74
407.267	314.21
407.645	326.42
408.023	333.2
408.401	341.78
408.779	342.69
409.156	349.69
409.534	320.09
409.912	339.52
410.29	337.27
410.667	322.35
411.045	335.23
411.422	336.59
411.8	323.71
412.178	333.42
412.555	354.67
412.933	330.26
413.31	349.02
413.687	332.97
414.065	347.43
414.442	335.91
414.819	338.4
415.197	332.07
415.574	342.69
415.951	339.07
416.328	352.86
416.705	339.98
417.082	375.23
417.46	352.86
417.837	342.24
418.214	357.6
418.591	347.43
418.967	356.25
419.344	363.71
419.721	361.45
420.098	367.09
420.475	349.02
420.852	360.77
421.228	365.96
421.605	368.68
421.982	354.44
422.358	355.34
422.735	363.03
423.111	361.67
423.488	354.44
423.864	364.84
424.241	356.02
424.617	380.65
424.994	368.45
425.37	368.45
425.746	375.68
426.123	370.26
426.499	364.84
426.875	372.52
427.251	358.51
427.627	404.38
428.003	363.48
428.379	374.78
428.756	376.81
429.132	370.48
429.507	380.88
429.883	371.39
430.259	377.94
430.635	382.69
431.011	410.26
431.387	383.82
431.763	377.94
432.138	388.34
432.514	396.25
432.89	396.47
433.265	422.69
433.641	412.52
434.016	409.58
434.392	399.18
434.767	406.42
435.143	416.36
435.518	423.14
435.894	408.45
436.269	428.56
436.644	436.7
437.02	430.37
437.395	437.83
437.77	422.46
438.145	423.59
438.52	419.3
438.895	429.47
439.271	404.16
439.646	417.72
440.021	434.66
440.395	405.29
440.77	422.91
441.145	420.43
441.52	443.48
441.895	440.77
442.27	443.48
442.645	448
443.019	445.96
443.394	429.47
443.769	460.65
444.143	436.47
444.518	432.18
444.892	464.72
445.267	447.32
445.641	437.38
446.016	458.62
446.39	471.05
446.764	470.14
447.139	454.55
447.513	446.64
447.887	457.71
448.262	435.57
448.636	458.17
449.01	471.27
449.384	463.59
449.758	457.71
450.132	479.41
450.506	476.47
450.88	466.53
451.254	478.5
451.628	469.24
452.002	462.91
452.376	488.67
452.75	466.53
453.123	487.32
453.497	499.07
453.871	502.46
454.244	513.31
454.618	502.01
454.992	500.2
455.365	520.76
455.739	509.46
456.112	523.7
456.486	523.47
456.859	533.64
457.232	537.03
457.606	513.08
457.979	503.59
458.352	535.23
458.725	529.58
459.099	536.81
459.472	541.1
459.845	556.47
460.218	547.43
460.591	542.68
460.964	559.63
461.337	540.2
461.71	566.86
462.083	578.39
462.456	581.1
462.829	577.48
463.201	589.91
463.574	566.64
463.947	570.71
464.32	578.61
464.692	621.55
465.065	597.37
465.438	612.29
465.81	587.2
466.183	619.52
466.555	616.13
466.928	624.49
467.3	634.88
467.672	640.99
468.045	636.24
468.417	637.14
468.789	649.8
469.161	640.53
469.534	672.17
469.906	653.42
470.278	665.62
470.65	686.86
471.022	695.45
471.394	692.74
471.766	711.94
472.138	711.04
472.51	719.18
472.882	732.96
473.253	732.73
473.625	732.51
473.997	755.79
474.369	755.33
474.74	764.6
475.112	770.02
475.484	770.7
475.855	782.9
476.227	789.23
476.598	805.05
476.97	816.12
477.341	822.45
477.713	824.26
478.084	828.1
478.455	838.72
478.827	865.39
479.198	862
479.569	854.31
479.94	889.79
480.311	897.02
480.682	898.83
481.053	926.4
481.424	950.13
481.795	942.22
482.166	963.46
482.537	945.61
482.908	975.89
483.279	984.71
483.65	1011.6
484.021	1017.7
484.391	1015.44
484.762	1056.34
485.133	1018.15
485.503	1026.29
485.874	1052.05
486.244	1052.05
486.615	1093.4
486.985	1112.39
487.356	1111.93
487.726	1149.22
488.097	1162.1
488.467	1129.33
488.837	1188.09
489.207	1163.01
489.578	1175.89
489.948	1198.26
490.318	1215.43
490.688	1231.7
491.058	1254.98
491.428	1266.05
491.798	1257.92
492.168	1299.27
492.538	1276.9
492.908	1323.91
493.278	1324.36
493.648	1313.96
494.017	1340.4
494.387	1321.19
494.757	1324.13
495.126	1360.74
495.496	1377.46
495.866	1361.64
496.235	1392.6
496.605	1402.32
496.974	1406.16
497.344	1421.53
497.713	1398.93
498.082	1426.73
498.452	1415.2
498.821	1449.78
499.19	1445.71
499.559	1473.51
499.928	1495.65
500.298	1484.35
500.667	1507.4
501.036	1486.16
501.405	1486.84
501.774	1489.33
502.143	1516.22
502.512	1531.81
502.88	1523.45
503.249	1520.96
503.618	1542.43
503.987	1534.52
504.356	1552.83
504.724	1588.76
505.093	1611.58
505.462	1572.03
505.83	1601.64
506.199	1621.98
506.567	1602.32
506.936	1614.29
507.304	1643.45
507.672	1636.21
508.041	1641.41
508.409	1622.43
508.777	1669.21
509.145	1665.59
509.514	1685.7
509.882	1666.5
510.25	1698.36
510.618	1713.27
510.986	1682.09
511.354	1701.07
511.722	1732.71
512.09	1714.63
512.458	1755.31
512.826	1751.24
513.193	1769.32
513.561	1739.04
513.929	1749.43
514.297	1785.36
514.664	1810.67
515.032	1815.19
515.4	1799.6
515.767	1807.96
516.135	1796.66
516.502	1791.92
516.869	1835.08
517.237	1810.45
517.604	1820.16
517.972	1845.47
518.339	1844.8
518.706	1842.76
519.073	1880.95
519.44	1852.71
519.808	1876.21
520.175	1914.17
520.542	1919.6
520.909	1898.35
521.276	1892.03
521.643	1905.13
522.009	1910.56
522.376	1923.89
522.743	1951.46
523.11	1970.89
523.477	1981.29
523.843	1981.06
524.21	1967.5
524.577	2014.96
524.943	1993.72
525.31	2011.12
525.676	2028.29
526.043	2074.62
526.409	2051.57
526.776	2077.33
527.142	2057.67
527.508	2102.42
527.874	2083.66
528.241	2073.04
528.607	2092.7
528.973	2123.43
529.339	2112.13
529.705	2107.16
530.071	2147.84
530.437	2105.58
530.803	2135.86
531.169	2141.29
531.535	2148.74
531.901	2161.62
532.267	2164.79
532.632	2173.83
532.998	2132.92
533.364	2193.71
533.73	2171.12
534.095	2202.98
534.461	2215.41
534.826	2174.73
535.192	2221.74
535.557	2223.09
535.923	2204.79
536.288	2194.84
536.653	2222.19
537.019	2226.48
537.384	2197.33
537.749	2195.75
538.114	2194.39
538.479	2212.7
538.845	2220.83
539.21	2198.23
539.575	2237.55
539.94	2197.56
540.305	2226.93
540.67	2210.44
541.034	2201.85
541.399	2232.36
541.764	2212.02
542.129	2211.57
542.494	2276.2
542.858	2297.44
543.223	2219.93
543.587	2289.3
543.952	2268.29
544.316	2257.89
544.681	2250.44
545.045	2243.66
545.41	2290.43
545.774	2300.38
546.138	2301.06
546.503	2274.39
546.867	2258.8
547.231	2281.39
547.595	2262.64
547.959	2265.58
548.324	2285.91
548.688	2268.51
549.052	2277.33
549.416	2291.56
549.779	2283.2
550.143	2290.89
550.507	2298.8
550.871	2345.35
551.235	2321.62
551.599	2330.43
551.962	2334.27
552.326	2325.91
552.689	2295.63
553.053	2321.17
553.417	2294.28
553.78	2358.23
554.143	2320.49
554.507	2333.37
554.87	2328.17
555.234	2354.61
555.597	2339.47
555.96	2397.32
556.323	2373.82
556.686	2344.9
557.05	2381.51
557.413	2369.53
557.776	2392.58
558.139	2400.49
558.502	2370.66
558.865	2383.09
559.228	2382.86
559.59	2374.73
559.953	2386.7
560.316	2435.97
560.679	2428.06
561.041	2412.24
561.404	2436.64
561.767	2441.84
562.129	2419.24
562.492	2450.88
562.854	2462.63
563.217	2428.74
563.579	2444.1
563.941	2472.8
564.304	2465.34
564.666	2492.24
565.028	2447.94
565.39	2487.04
565.753	2506.02
566.115	2489.07
566.477	2501.5
566.839	2521.16
567.201	2518
567.563	2472.35
567.925	2546.92
568.287	2551.67
568.648	2532.01
569.01	2548.96
569.372	2540.82
569.734	2521.84
570.095	2556.19
570.457	2562.52
570.819	2555.06
571.18	2556.87
571.542	2566.36
571.903	2581.5
572.265	2568.17
572.626	2567.49
572.987	2546.92
573.349	2540.15
573.71	2584.66
574.071	2568.62
574.432	2584.89
574.794	2553.03
575.155	2577.66
575.516	2524.55
575.877	2567.26
576.238	2563.42
576.599	2560.94
576.96	2556.64
577.32	2563.65
577.681	2577.43
578.042	2550.99
578.403	2593.48
578.763	2545.34
579.124	2590.54
579.485	2593.7
579.845	2562.07
580.206	2549.64
580.566	2576.08
580.927	2539.47
581.287	2547.83
581.648	2555.06
582.008	2560.03
582.368	2548.73
582.728	2535.17
583.089	2501.28
583.449	2547.15
583.809	2552.57
584.169	2554.83
584.529	2539.47
584.889	2528.62
585.249	2476.19
585.609	2529.98
585.969	2542.18
586.329	2524.33
586.688	2492.24
587.048	2541.73
587.408	2483.42
587.768	2507.15
588.127	2519.13
588.487	2512.58
588.846	2511.67
589.206	2483.2
589.565	2483.88
589.925	2529.07
590.284	2475.06
590.643	2509.41
591.003	2478.68
591.362	2496.53
591.721	2486.14
592.08	2482.52
592.44	2507.15
592.799	2522.52
593.158	2471.45
593.517	2471.9
593.876	2493.14
594.235	2511.45
594.593	2486.59
594.952	2520.71
595.311	2494.72
595.67	2482.75
596.029	2463.76
596.387	2493.37
596.746	2493.59
597.104	2512.35
597.463	2461.73
597.822	2505.57
598.18	2518.45
598.538	2489.75
598.897	2515.51
599.255	2476.19
599.613	2533.59
599.972	2482.97
600.33	2508.28
600.688	2509.19
601.046	2519.13
601.404	2536.53
601.762	2510.32
602.12	2543.08
602.478	2549.41
602.836	2509.86
603.194	2489.07
603.552	2564.33
603.91	2507.15
604.268	2533.37
604.625	2535.17
604.983	2496.08
605.341	2518
605.698	2549.86
606.056	2522.74
606.413	2508.51
606.771	2531.56
607.128	2534.95
607.485	2542.86
607.843	2509.86
608.2	2533.37
608.557	2568.17
608.914	2549.18
609.272	2568.39
609.629	2560.71
609.986	2592.57
610.343	2586.47
610.7	2588.05
611.057	2606.81
611.414	2570.43
611.771	2597.54
612.127	2614.72
612.484	2581.5
612.841	2591.9
613.198	2585.79
613.554	2576.53
613.911	2581.27
614.267	2577.21
614.624	2599.13
614.98	2539.69
615.337	2611.1
615.693	2621.5
616.05	2604.1
616.406	2609.75
616.762	2589.86
617.118	2624.89
617.475	2624.44
617.831	2617.43
618.187	2627.83
618.543	2593.25
618.899	2658.79
619.255	2605.91
619.611	2629.18
619.967	2642.06
620.323	2629.41
620.678	2620.37
621.034	2634.15
621.39	2592.57
621.746	2596.41
622.101	2660.37
622.457	2624.66
622.812	2622.4
623.168	2674.83
623.523	2637.54
623.879	2657.43
624.234	2642.29
624.589	2619.24
624.945	2638.22
625.3	2648.84
625.655	2610.2
626.01	2633.02
626.365	2623.31
626.72	2624.89
627.075	2634.83
627.43	2619.92
627.785	2626.02
628.14	2596.19
628.495	2625.79
628.85	2579.24
629.205	2633.48
629.559	2663.53
629.914	2597.54
630.269	2611.1
630.623	2576.08
630.978	2627.83
631.332	2625.34
631.687	2647.03
632.041	2549.64
632.396	2582.4
632.75	2610.43
633.104	2621.27
633.459	2562.74
633.813	2584.21
634.167	2595.51
634.521	2587.83
634.875	2593.48
635.229	2590.09
635.583	2571.1
635.937	2623.53
636.291	2572.23
636.645	2582.4
636.999	2599.58
637.352	2575.17
637.706	2575.62
638.06	2543.53
638.413	2575.17
638.767	2584.44
639.121	2577.88
639.474	2526.13
639.828	2595.74
640.181	2622.85
640.534	2557.32
640.888	2602.29
641.241	2577.88
641.594	2579.47
641.947	2623.31
642.301	2584.21
642.654	2563.87
643.007	2566.36
643.36	2653.14
643.713	2590.09
644.066	2609.97
644.419	2575.85
644.771	2600.71
645.124	2573.36
645.477	2559.13
645.83	2551.9
646.182	2508.06
646.535	2545.34
646.888	2554.61
647.24	2543.53
647.593	2567.26
647.945	2546.7
648.298	2542.86
648.65	2528.62
649.002	2568.84
649.355	2581.27
649.707	2539.92
650.059	2612.91
650.411	2650.2
650.763	2629.63
651.115	2685
651.467	2663.08
651.819	2668.73
652.171	2695.62
652.523	2658.79
652.875	2689.75
653.227	2690.65
653.578	2692.01
653.93	2719.35
654.282	2703.98
654.633	2718.67
654.985	2732.91
655.337	2753.7
655.688	2715.73
656.039	2746.47
656.391	2750.54
656.742	2770.65
657.094	2792.79
657.445	2822.17
657.796	2791.21
658.147	2803.41
658.498	2823.3
658.849	2830.53
659.2	2818.33
659.551	2863.53
659.902	2856.75
660.253	2913.69
660.604	2894.71
660.955	2895.84
661.306	2912.79
661.656	2939.46
662.007	2977.87
662.358	2950.53
662.708	2973.13
663.059	2974.48
663.409	2982.85
663.76	3023.75
664.11	3017.87
664.461	3053.8
664.811	3055.16
665.161	3017.19
665.511	3049.74
665.862	3089.51
666.212	3114.37
666.562	3139
666.912	3151.2
667.262	3170.19
667.612	3123.63
667.962	3173.35
668.312	3206.34
668.662	3216.06
669.011	3241.6
669.361	3275.49
669.711	3271.2
670.06	3298.32
670.41	3296.06
670.76	3327.24
671.109	3354.81
671.459	3374.02
671.808	3373.57
672.157	3411.99
672.507	3409.5
672.856	3475.49
673.205	3454.47
673.554	3479.78
673.904	3476.17
674.253	3511.19
674.602	3503.96
674.951	3508.48
675.3	3498.76
675.649	3603.17
675.998	3586.45
676.346	3605.65
676.695	3650.62
677.044	3681.36
677.393	3688.14
677.741	3763.84
678.09	3732.66
678.438	3742.37
678.787	3772.2
679.135	3832.09
679.484	3819.89
679.832	3862.82
680.181	3850.17
680.529	3887.23
680.877	3917.28
681.225	3928.36
681.573	3955.48
681.922	3946.44
682.27	3985.76
682.618	4002.93
682.966	4027.34
683.314	4075.7
683.661	4088.35
684.009	4133.1
684.357	4117.5
684.705	4159.09
685.053	4153.89
685.4	4237.05
685.748	4195.47
686.095	4241.34
686.443	4272.75
686.79	4303.26
687.138	4303.94
687.485	4344.62
687.832	4320.89
688.18	4365.18
688.527	4323.83
688.874	4389.59
689.221	4419.87
689.568	4406.99
689.915	4470.49
690.262	4491.28
690.609	4493.54
690.956	4511.17
691.303	4553.2
691.65	4526.99
691.997	4556.59
692.344	4595.46
692.69	4584.84
693.037	4661.9
693.383	4629.36
693.73	4671.39
694.077	4692.4
694.423	4704.83
694.769	4707.09
695.116	4757.94
695.462	4748.9
695.808	4754.1
696.155	4819.41
696.501	4794.55
696.847	4776.47
697.193	4853.3
697.539	4848.33
697.885	4835.23
698.231	4881.1
698.577	4889.01
698.923	4903.47
699.269	4907.09
699.614	4883.81
699.96	4932.62
700.306	4995.22
700.651	4922.46
700.997	5073.41
701.342	5021.66
701.688	5066.86
702.033	5039.97
702.379	5128.1
702.724	5036.8
703.069	5127.42
703.415	5055.33
703.76	5123.13
704.105	5075.22
704.45	5058.27
704.795	5067.08
705.14	5150.25
705.485	5173.3
705.83	5185.73
706.175	5191.37
706.52	5225.72
706.865	5220.07
707.209	5251.26
707.554	5233.18
707.899	5293.07
708.243	5266.63
708.588	5222.33
708.932	5264.37
709.277	5304.59
709.621	5301.2
709.966	5257.59
710.31	5302.78
710.654	5256.68
710.998	5305.27
711.342	5332.39
711.687	5353.86
712.031	5343.46
712.375	5348.66
712.719	5400.63
713.063	5373.74
713.407	5392.27
713.75	5380.3
714.094	5438.15
714.438	5392.5
714.782	5409.9
715.125	5413.97
715.469	5401.76
715.812	5400.63
716.156	5433.63
716.499	5451.93
716.843	5481.54
717.186	5452.38
717.53	5477.47
717.873	5502.33
718.216	5534.64
718.559	5485.83
718.902	5444.7
719.246	5509.56
719.589	5488.54
719.932	5449
720.275	5531.03
720.617	5532.61
720.96	5529.67
721.303	5520.41
721.646	5520.18
721.989	5517.47
722.331	5559.5
722.674	5556.34
723.016	5509.33
723.359	5504.81
723.701	5545.49
724.044	5566.96
724.386	5513.63
724.729	5579.84
725.071	5571.25
725.413	5543.46
725.755	5528.09
726.097	5540.52
726.439	5549.11
726.782	5498.94
727.124	5557.47
727.465	5551.37
727.807	5528.77
728.149	5563.57
728.491	5554.53
728.833	5556.34
729.175	5534.19
729.516	5527.19
729.858	5554.08
730.199	5588.2
730.541	5544.81
730.882	5536.22
731.224	5538.94
731.565	5593.85
731.906	5528.77
732.248	5583.23
732.589	5493.97
732.93	5523.12
733.271	5537.81
733.612	5529.9
733.953	5537.35
734.294	5554.53
734.635	5572.16
734.976	5545.26
735.317	5566.05
735.658	5524.25
735.999	5552.04
736.339	5571.48
736.68	5551.14
737.021	5530.57
737.361	5527.64
737.702	5552.72
738.042	5490.12
738.383	5501.65
738.723	5535.32
739.063	5544.13
739.404	5504.36
739.744	5463.91
740.084	5498.71
740.424	5488.99
740.764	5421.65
741.104	5535.55
741.444	5493.97
741.784	5495.1
742.124	5506.17
742.464	5470.01
742.804	5439.28
743.143	5428.2
743.483	5456.68
743.823	5443.12
744.162	5442.44
744.502	5443.8
744.841	5466.17
745.181	5482.67
745.52	5447.41
745.86	5418.04
746.199	5433.4
746.538	5389.56
746.877	5406.51
747.216	5415.55
747.556	5439.28
747.895	5434.53
748.234	5419.84
748.573	5351.14
748.911	5399.28
749.25	5367.42
749.589	5383.46
749.928	5355.89
750.267	5348.88
750.605	5355.66
750.944	5346.17
751.283	5257.14
751.621	5337.59
751.96	5247.64
752.298	5246.51
752.636	5293.07
752.975	5233.41
753.313	5252.16
753.651	5206.74
753.989	5201.32
754.327	5239.06
754.666	5226.4
755.004	5228.89
755.342	5208.1
755.679	5213.75
756.017	5179.62
756.355	5192.28
756.693	5157.03
757.031	5173.07
757.368	5158.38
757.706	5098.27
758.044	5112.96
758.381	5156.8
758.719	5104.6
759.056	5120.87
759.394	5110.47
759.731	5022.57
760.068	5073.64
760.405	5045.62
760.743	4990.93
761.08	5063.02
761.417	5019.18
761.754	4965.39
762.091	4990.02
762.428	4936.47
762.765	4899.18
763.102	4975.34
763.438	4931.04
763.775	4905.73
764.112	4895.11
764.449	4910.03
764.785	4951.83
765.122	4860.99
765.458	4835.23
765.795	4842.23
766.131	4815.79
766.467	4839.07
766.804	4827.77
767.14	4816.47
767.476	4766.75
767.812	4748.22
768.148	4834.77
768.485	4707.55
768.821	4749.58
769.157	4712.52
769.492	4666.87
769.828	4687.43
770.164	4642.91
770.5	4618.51
770.836	4675.68
771.171	4598.62
771.507	4622.12
771.842	4537.15
772.178	4573.54
772.513	4600.43
