Data from carpet_green_FLMS001491_00083.txt Node
Date: Wed Feb 08 10:35:58 GMT 2017
User: dcchb
Spectrometer: FLMS00149
Trigger mode: 0
Integration Time (sec): 2.000000E-2
Scans to average: 10
Electric dark correction enabled: true
Nonlinearity correction enabled: false
Boxcar width: 0
XAxis mode: Wavelengths
Number of Pixels in Spectrum: 2048
>>>>>Begin Spectral Data<<<<<
341.393	0.71
341.776	0.71
342.16	0.71
342.543	-53.3
342.927	-68.44
343.31	-68.22
343.693	-60.76
344.077	-48.56
344.46	-60.08
344.843	-55.79
345.226	-34.55
345.61	-24.83
345.993	-23.47
346.376	-17.82
346.759	-11.04
347.142	32.8
347.525	33.47
347.908	65.34
348.291	80.93
348.674	81.61
349.057	110.99
349.44	136.3
349.823	130.65
350.206	164.77
350.588	169.29
350.971	181.72
351.354	202.73
351.737	203.19
352.119	227.37
352.502	237.08
352.884	242.51
353.267	247.03
353.65	251.55
354.032	277.31
354.414	268.5
354.797	269.17
355.179	300.59
355.562	295.61
355.944	284.77
356.326	294.48
356.709	297.87
357.091	305.1
357.473	322.96
357.855	310.08
358.238	301.94
358.62	327.03
359.002	309.85
359.384	312.56
359.766	322.51
360.148	301.72
360.53	317.99
360.912	303.07
361.294	305.78
361.676	304.65
362.057	292.68
362.439	291.32
362.821	292.45
363.203	297.2
363.584	294.26
363.966	298.1
364.348	301.94
364.729	289.74
365.111	285.9
365.493	273.24
365.874	281.38
366.256	290.87
366.637	278.21
367.019	279.57
367.4	302.85
367.781	288.38
368.163	284.54
368.544	276.41
368.925	278.21
369.306	287.25
369.688	269.63
370.069	281.15
370.45	291.77
370.831	283.64
371.212	281.38
371.593	289.51
371.974	287.48
372.355	276.63
372.736	268.5
373.117	269.63
373.498	299
373.879	295.61
374.26	268.04
374.641	284.99
375.021	281.38
375.402	261.04
375.783	280.7
376.163	274.37
376.544	298.1
376.925	278.89
377.305	274.82
377.686	287.7
378.066	270.98
378.447	261.72
378.827	295.84
379.208	301.72
379.588	282.51
379.968	288.61
380.349	287.03
380.729	289.29
381.109	287.48
381.489	283.41
381.87	318.66
382.25	275.5
382.63	282.96
383.01	313.92
383.39	286.12
383.77	287.03
384.15	273.47
384.53	272.56
384.91	298.55
385.29	279.12
385.67	284.54
386.049	296.29
386.429	276.18
386.809	279.12
387.189	304.43
387.568	304.43
387.948	294.94
388.328	289.51
388.707	307.82
389.087	289.51
389.466	292
389.846	317.53
390.225	318.89
390.605	321.38
390.984	287.25
391.363	296.97
391.743	312.34
392.122	301.26
392.501	308.72
392.881	293.13
393.26	307.36
393.639	300.13
394.018	290.19
394.397	316.63
394.776	308.27
395.155	304.43
395.534	303.98
395.913	289.74
396.292	321.15
396.671	294.03
397.05	296.97
397.429	297.65
397.808	295.16
398.186	320.92
398.565	312.11
398.944	301.72
399.323	290.87
399.701	308.72
400.08	306.23
400.458	308.04
400.837	287.25
401.215	303.3
401.594	306.46
401.972	297.2
402.351	309.17
402.729	302.85
403.107	308.04
403.486	315.95
403.864	323.86
404.242	311.21
404.62	316.18
404.999	324.31
405.377	319.34
405.755	310.75
406.133	318.66
406.511	319.79
406.889	317.53
407.267	328.61
407.645	329.06
408.023	312.34
408.401	319.34
408.779	315.27
409.156	311.88
409.534	310.53
409.912	310.98
410.29	331.09
410.667	328.83
411.045	304.88
411.422	347.36
411.8	323.41
412.178	317.76
412.555	314.37
412.933	323.64
413.31	318.89
413.687	325.22
414.065	316.63
414.442	322.28
414.819	316.18
415.197	322.05
415.574	336.97
415.951	333.58
416.328	336.74
416.705	330.42
417.082	322.28
417.46	326.57
417.837	325.44
418.214	353.47
418.591	347.59
418.967	332.67
419.344	347.59
419.721	338.32
420.098	342.39
420.475	340.81
420.852	346.01
421.228	362.5
421.605	333.13
421.982	325.67
422.358	345.78
422.735	343.07
423.111	360.92
423.488	340.58
423.864	343.97
424.241	357.53
424.617	351.21
424.994	341.71
425.37	353.69
425.746	347.14
426.123	346.91
426.499	369.06
426.875	330.42
427.251	346.46
427.627	341.94
428.003	353.47
428.379	360.24
428.756	343.75
429.132	360.47
429.507	359.34
429.883	343.75
430.259	352.34
430.635	340.13
431.011	368.61
431.387	346.46
431.763	347.14
432.138	350.98
432.514	356.63
432.89	370.64
433.265	360.02
433.641	348.95
434.016	354.6
434.392	368.38
434.767	384.42
435.143	350.53
435.518	369.51
435.894	370.41
436.269	376.29
436.644	359.34
437.02	369.51
437.395	355.27
437.77	360.47
438.145	383.97
438.52	392.11
438.895	401.83
439.271	368.61
439.646	368.15
440.021	380.58
440.395	381.26
440.77	393.24
441.145	394.82
441.52	363.18
441.895	379.45
442.27	402.28
442.645	353.01
443.019	387.81
443.394	363.63
443.769	397.31
444.143	379.91
444.518	408.83
444.892	383.3
445.267	403.41
445.641	409.51
446.016	412.67
446.39	398.89
446.764	379.23
447.139	406.35
447.513	400.7
447.887	405.67
448.262	396.63
448.636	405.67
449.01	416.29
449.384	422.16
449.758	397.08
450.132	389.62
450.506	409.51
450.88	409.96
451.254	390.98
451.628	429.4
452.002	402.96
452.376	414.48
452.75	416.97
453.123	417.87
453.497	417.42
453.871	423.52
454.244	426.91
454.618	431.43
454.992	430.07
455.365	439.11
455.739	436.4
456.112	430.75
456.486	412.67
456.859	432.33
457.232	425.78
457.606	437.53
457.979	423.75
458.352	437.3
458.725	423.29
459.099	423.07
459.472	433.24
459.845	443.63
460.218	452.9
460.591	456.74
460.964	433.46
461.337	462.61
461.71	437.08
462.083	461.03
462.456	457.19
462.829	482.5
463.201	471.88
463.574	461.26
463.947	460.36
464.32	474.59
464.692	466
465.065	461.26
465.438	483.41
465.81	472.11
466.183	481.15
466.555	481.37
466.928	488.15
467.3	504.42
467.672	468.49
468.045	487.02
468.417	507.36
468.789	489.28
469.161	503.52
469.534	508.94
469.906	526.12
470.278	506
470.65	505.55
471.022	534.25
471.394	511.88
471.766	543.52
472.138	529.96
472.51	520.92
472.882	527.47
473.253	539.45
473.625	567.24
473.997	553.69
474.369	533.57
474.74	561.82
475.112	565.89
475.484	571.76
475.855	561.82
476.227	582.16
476.598	595.27
476.97	578.32
477.341	589.84
477.713	610.63
478.084	629.62
478.455	604.31
478.827	608.37
479.198	612.67
479.569	635.72
479.94	641.14
480.311	645.44
480.682	654.25
481.053	645.89
481.424	647.02
481.795	658.99
482.166	672.33
482.537	680.46
482.908	665.1
483.279	677.3
483.65	698.31
484.021	697.64
484.391	705.32
484.762	708.94
485.133	724.98
485.503	704.87
485.874	713.46
486.244	736.28
486.615	751.87
486.985	750.97
487.356	748.94
487.726	776.51
488.097	765.66
488.467	793.23
488.837	782.15
489.207	814.02
489.578	787.35
489.948	809.05
490.318	818.09
490.688	826.45
491.058	855.15
491.428	823.74
491.798	843.4
492.168	882.94
492.538	846.79
492.908	865.54
493.278	888.14
493.648	874.36
494.017	882.04
494.387	881.14
494.757	890.63
495.126	907.35
495.496	940.34
495.866	920.23
496.235	913.45
496.605	920
496.974	917.52
497.344	923.62
497.713	955.26
498.082	925.2
498.452	972.88
498.821	939.21
499.19	961.58
499.559	962.26
499.928	951.42
500.298	971.75
500.667	967.91
501.036	975.14
501.405	969.95
501.774	962.49
502.143	971.3
502.512	979.89
502.88	988.7
503.249	986.44
503.618	973.34
503.987	986.67
504.356	1008.82
504.724	1014.92
505.093	1015.37
505.462	1022.37
505.83	1025.31
506.199	1006.78
506.567	1054.69
506.936	1040
507.304	1049.49
507.672	1044.97
508.041	1058.31
508.409	1037.29
508.777	1061.24
509.145	1065.31
509.514	1072.32
509.882	1067.8
510.25	1054.92
510.618	1079.55
510.986	1068.25
511.354	1089.72
511.722	1076.61
512.09	1073.9
512.458	1087.91
512.826	1089.04
513.193	1104.18
513.561	1095.37
513.929	1107.12
514.297	1118.42
514.664	1107.34
515.032	1099.21
515.4	1096.04
515.767	1134.46
516.135	1123.61
516.502	1136.95
516.869	1142.37
517.237	1132.2
517.604	1131.75
517.972	1150.73
518.339	1159.55
518.706	1172.2
519.073	1136.5
519.44	1172.65
519.808	1142.15
520.175	1182.37
520.542	1170.84
520.909	1195.93
521.276	1183.05
521.643	1193.67
522.009	1165.87
522.376	1195.03
522.743	1196.83
523.11	1200
523.477	1204.97
523.843	1245.87
524.21	1232.76
524.577	1197.28
524.943	1231.18
525.31	1236.38
525.676	1219.43
526.043	1228.02
526.409	1256.94
526.776	1243.39
527.142	1257.4
527.508	1249.49
527.874	1266.44
528.241	1255.59
528.607	1271.18
528.973	1288.81
529.339	1263.27
529.705	1253.78
530.071	1285.42
530.437	1265.53
530.803	1271.18
531.169	1313.44
531.535	1287
531.901	1280.45
532.267	1305.3
532.632	1285.64
532.998	1317.06
533.364	1321.8
533.73	1294.23
534.095	1310.05
534.461	1295.81
534.826	1323.16
535.192	1309.6
535.557	1339.65
535.923	1325.42
536.288	1310.05
536.653	1293.33
537.019	1299.88
537.384	1302.37
537.749	1307.56
538.114	1308.92
538.479	1337.17
538.845	1331.52
539.21	1327.68
539.575	1315.7
539.94	1341.01
540.305	1338.98
540.67	1309.15
541.034	1334
541.399	1333.33
541.764	1322.25
542.129	1325.64
542.494	1343.72
542.858	1322.25
543.223	1336.26
543.587	1330.84
543.952	1344.85
544.316	1333.55
544.681	1313.44
545.045	1320.22
545.41	1348.92
545.774	1304.85
546.138	1346.21
546.503	1338.07
546.867	1345.3
547.231	1345.08
547.595	1345.08
547.959	1348.92
548.324	1358.41
548.688	1358.64
549.052	1353.21
549.416	1380.78
549.779	1357.96
550.143	1349.15
550.507	1352.08
550.871	1359.31
551.235	1347.79
551.599	1360.44
551.962	1367
552.326	1363.83
552.689	1380.33
553.053	1354.12
553.417	1378.3
553.78	1376.94
554.143	1361.35
554.507	1366.09
554.87	1365.87
555.234	1385.75
555.597	1378.07
555.96	1399.99
556.323	1394.79
556.686	1388.69
557.05	1380.33
557.413	1425.53
557.776	1357.73
558.139	1385.53
558.502	1396.15
558.865	1381.91
559.228	1413.1
559.59	1405.64
559.953	1417.62
560.316	1422.82
560.679	1406.77
561.041	1407.45
561.404	1412.19
561.767	1391.18
562.129	1411.74
562.492	1442.48
562.854	1420.56
563.217	1441.57
563.579	1434.57
563.941	1456.71
564.304	1443.38
564.666	1459.88
565.028	1426.88
565.39	1419.88
565.753	1444.96
566.115	1468.46
566.477	1450.61
566.839	1443.61
567.201	1447.9
567.563	1478.18
567.925	1487.22
568.287	1457.62
568.648	1475.24
569.01	1458.07
569.372	1488.35
569.734	1494.23
570.095	1479.76
570.457	1443.83
570.819	1484.06
571.18	1462.81
571.542	1447.22
571.903	1473.66
572.265	1494
572.626	1467.79
572.987	1463.27
573.349	1477.73
573.71	1487.67
574.071	1492.19
574.432	1473.21
574.794	1475.92
575.155	1479.31
575.516	1447
575.877	1512.3
576.238	1499.65
576.599	1461.23
576.96	1472.08
577.32	1475.02
577.681	1468.24
578.042	1485.86
578.403	1465.75
578.763	1464.85
579.124	1506.88
579.485	1458.97
579.845	1470.5
580.206	1484.51
580.566	1490.61
580.927	1459.65
581.287	1488.12
581.648	1458.75
582.008	1461.91
582.368	1468.24
582.728	1458.29
583.089	1467.11
583.449	1480.89
583.809	1458.07
584.169	1448.8
584.529	1461.68
584.889	1446.09
585.249	1463.94
585.609	1454.91
585.969	1453.1
586.329	1425.98
586.688	1440.89
587.048	1421.46
587.408	1439.76
587.768	1454
588.127	1453.1
588.487	1420.33
588.846	1415.81
589.206	1424.85
589.565	1405.19
589.925	1412.65
590.284	1435.7
590.643	1418.97
591.003	1439.09
591.362	1416.71
591.721	1426.43
592.08	1439.09
592.44	1410.16
592.799	1427.79
593.158	1422.82
593.517	1424.85
593.876	1402.93
594.235	1445.19
594.593	1415.81
594.952	1394.12
595.311	1407.9
595.67	1437.5
596.029	1438.86
596.387	1420.78
596.746	1405.19
597.104	1439.99
597.463	1411.97
597.822	1405.42
598.18	1405.87
598.538	1440.89
598.897	1415.13
599.255	1411.29
599.613	1445.41
599.972	1449.26
600.33	1445.41
600.688	1436.15
601.046	1437.05
601.404	1432.76
601.762	1411.29
602.12	1417.84
602.478	1446.09
602.836	1431.4
603.194	1426.88
603.552	1431.63
603.91	1451.52
604.268	1426.43
604.625	1460.78
604.983	1436.37
605.341	1430.05
605.698	1462.59
606.056	1446.77
606.413	1416.71
606.771	1431.86
607.128	1440.22
607.485	1431.18
607.843	1445.41
608.2	1486.54
608.557	1439.54
608.914	1453.32
609.272	1445.64
609.629	1453.32
609.986	1472.08
610.343	1449.93
610.7	1461.68
611.057	1458.75
611.414	1442.48
611.771	1463.49
612.127	1449.26
612.484	1448.58
612.841	1484.28
613.198	1443.83
613.554	1443.83
613.911	1467.79
614.267	1483.83
614.624	1488.58
614.98	1485.64
615.337	1463.72
615.693	1489.48
616.05	1469.82
616.406	1472.08
616.762	1481.12
617.118	1467.11
617.475	1457.62
617.831	1491.51
618.187	1473.89
618.543	1472.53
618.899	1499.65
619.255	1520.44
619.611	1493.1
619.967	1486.77
620.323	1482.93
620.678	1482.25
621.034	1469.59
621.39	1485.19
621.746	1474.34
622.101	1500.55
622.457	1494.45
622.812	1483.38
623.168	1488.35
623.523	1476.83
623.879	1472.31
624.234	1493.32
624.589	1475.7
624.945	1482.25
625.3	1479.09
625.655	1496.26
626.01	1482.25
626.365	1475.47
626.72	1485.41
627.075	1469.59
627.43	1520.44
627.785	1482.93
628.14	1465.53
628.495	1488.12
628.85	1492.19
629.205	1494.45
629.559	1474.79
629.914	1485.64
630.269	1468.46
630.623	1489.93
630.978	1458.75
631.332	1481.35
631.687	1454.45
632.041	1512.98
632.396	1477.05
632.75	1462.36
633.104	1480.67
633.459	1447.22
633.813	1458.29
634.167	1472.76
634.521	1463.27
634.875	1432.98
635.229	1464.4
635.583	1434.11
635.937	1452.87
636.291	1441.8
636.645	1468.46
636.999	1446.09
637.352	1442.25
637.706	1463.04
638.06	1464.85
638.413	1449.93
638.767	1482.93
639.121	1449.03
639.474	1423.72
639.828	1438.86
640.181	1455.81
640.534	1461.23
640.888	1464.85
641.241	1458.29
641.594	1440.22
641.947	1482.48
642.301	1465.75
642.654	1455.13
643.007	1439.09
643.36	1473.89
643.713	1461.46
644.066	1501.23
644.419	1456.04
644.771	1434.34
645.124	1442.02
645.477	1469.59
645.83	1444.51
646.182	1470.95
646.535	1431.18
646.888	1459.2
647.24	1412.19
647.593	1463.04
647.945	1435.24
648.298	1449.26
648.65	1449.93
649.002	1443.15
649.355	1449.03
649.707	1460.1
650.059	1471.18
650.411	1491.29
650.763	1470.5
651.115	1489.48
651.467	1525.64
651.819	1481.12
652.171	1505.07
652.523	1519.76
652.875	1510.27
653.227	1497.62
653.578	1503.27
653.93	1537.84
654.282	1553.66
654.633	1566.99
654.985	1550.95
655.337	1562.02
655.688	1544.17
656.039	1557.28
656.391	1564.05
656.742	1572.42
657.094	1585.98
657.445	1587.78
657.796	1579.87
658.147	1595.47
658.498	1577.61
658.849	1568.35
659.2	1606.54
659.551	1601.34
659.902	1623.49
660.253	1640.44
660.604	1621.68
660.955	1679.53
661.306	1637.95
661.656	1636.37
662.007	1680.66
662.358	1673.88
662.708	1670.72
663.059	1691.28
663.409	1701.68
663.76	1687.89
664.11	1703.94
664.461	1749.59
664.811	1730.6
665.161	1728.34
665.511	1720.21
665.862	1742.13
666.212	1782.58
666.562	1780.77
666.912	1800.66
667.262	1778.96
667.612	1783.71
667.962	1780.09
668.312	1813.09
668.662	1840.66
669.011	1849.47
669.361	1891.05
669.711	1896.48
670.06	1869.36
670.41	1879.07
670.76	1879.3
671.109	1886.08
671.459	1901.67
671.808	1934.67
672.157	1967.21
672.507	1979.19
672.856	1985.74
673.205	1964.04
673.554	1998.17
673.904	2007.43
674.253	2029.58
674.602	2047.88
674.951	1993.87
675.3	2017.15
675.649	2032.07
675.998	2058.28
676.346	2082.46
676.695	2093.53
677.044	2096.7
677.393	2120.2
677.741	2163.81
678.09	2169.91
678.438	2173.76
678.787	2213.98
679.135	2200.42
679.484	2206.07
679.832	2226.41
680.181	2229.57
680.529	2292.17
680.877	2267.77
681.225	2270.48
681.573	2315.22
681.922	2319.74
682.27	2303.02
682.618	2346.86
682.966	2390.02
683.314	2375.78
683.661	2404.94
684.009	2431.15
684.357	2448.1
684.705	2421.43
685.053	2463.24
685.4	2475.44
685.748	2445.84
686.095	2472.28
686.443	2512.73
686.79	2509.79
687.138	2533.75
687.485	2580.75
687.832	2549.11
688.18	2613.29
688.527	2606.51
688.874	2614.2
689.221	2654.2
689.568	2642.44
689.915	2645.16
690.262	2718.83
690.609	2680.18
690.956	2673.63
691.303	2738.04
691.65	2708.43
691.997	2761.31
692.344	2781.88
692.69	2779.39
693.037	2836.11
693.383	2828.65
693.73	2865.72
694.077	2821.65
694.423	2841.99
694.769	2873.85
695.116	2912.95
695.462	2900.52
695.808	2919.05
696.155	2967.41
696.501	2924.47
696.847	2945.49
697.193	2983.9
697.539	2985.26
697.885	3017.12
698.231	3072.04
698.577	3000.85
698.923	3056.67
699.269	3069.33
699.614	3059.61
699.96	3084.47
700.306	3098.03
700.651	3103.68
700.997	3139.38
701.342	3133.73
701.688	3192.03
702.033	3173.73
702.379	3187.97
702.724	3175.76
703.069	3214.41
703.415	3268.87
703.76	3246.5
704.105	3256.21
704.45	3258.25
704.795	3277.23
705.14	3286.27
705.485	3302.09
705.83	3277.46
706.175	3375.76
706.52	3343.67
706.865	3357.91
707.209	3382.76
707.554	3364.46
707.899	3411.46
708.243	3396.55
708.588	3432.71
708.932	3396.32
709.277	3450.78
709.621	3460.95
709.966	3464.12
710.31	3484.46
710.654	3478.13
710.998	3515.19
711.342	3488.75
711.687	3533.04
712.031	3538.01
712.375	3545.02
712.719	3538.92
713.063	3577.56
713.407	3589.54
713.75	3608.75
714.094	3600.61
714.438	3592.48
714.782	3605.81
715.125	3608.29
715.469	3592.25
715.812	3618.46
716.156	3617.79
716.499	3619.37
716.843	3668.86
717.186	3653.27
717.53	3665.69
717.873	3741.85
718.216	3740.72
718.559	3702.76
718.902	3724.68
719.246	3712.92
719.589	3704.79
719.932	3708.86
720.275	3736.65
720.617	3752.25
720.96	3736.88
721.303	3763.09
721.646	3773.71
721.989	3726.94
722.331	3743.21
722.674	3787.73
723.016	3792.02
723.359	3809.42
723.701	3812.13
724.044	3822.07
724.386	3831.79
724.729	3824.11
725.071	3790.66
725.413	3817.78
725.755	3820.04
726.097	3807.16
726.439	3806.26
726.782	3826.82
727.124	3895.07
727.465	3849.19
727.807	3850.32
728.149	3865.46
728.491	3847.38
728.833	3898.23
729.175	3880.6
729.516	3834.28
729.858	3865.92
730.199	3845.58
730.541	3838.35
730.882	3851.23
731.224	3894.84
731.565	3891
731.906	3890.55
732.248	3886.93
732.589	3865.24
732.93	3863.66
733.271	3905.24
733.612	3870.66
733.953	3905.91
734.294	3882.19
734.635	3888.29
734.976	3865.46
735.317	3934.61
735.658	3886.48
735.999	3905.69
736.339	3923.77
736.68	3918.12
737.021	3908.85
737.361	3906.82
737.702	3887.84
738.042	3891.68
738.383	3922.19
738.723	3893.49
739.063	3904.56
739.404	3920.15
739.744	3951.11
740.084	3883.54
740.424	3894.16
740.764	3889.64
741.104	3930.55
741.444	3905.46
741.784	3888.97
742.124	3892.13
742.464	3871.11
742.804	3899.81
743.143	3938.68
743.483	3884.45
743.823	3888.51
744.162	3873.15
744.502	3892.13
744.841	3872.92
745.181	3864.11
745.52	3871.79
745.86	3855.97
746.199	3851.23
746.538	3907.27
746.877	3917.21
747.216	3889.19
747.556	3824.56
747.895	3834.5
748.234	3829.76
748.573	3829.76
748.911	3838.35
749.25	3825.46
749.589	3853.26
749.928	3856.42
750.267	3828.4
750.605	3807.16
750.944	3791.57
751.283	3790.44
751.621	3818.91
751.96	3782.75
752.298	3799.7
752.636	3811.68
752.975	3805.8
753.313	3740.95
753.651	3808.74
753.989	3760.38
754.327	3789.31
754.666	3753.38
755.004	3731.23
755.342	3759.25
755.679	3726.48
756.017	3711.57
756.355	3749.99
756.693	3711.12
757.031	3746.6
757.368	3707.28
757.706	3743.66
758.044	3677.45
758.381	3690.78
758.719	3644
759.056	3657.56
759.394	3663.66
759.731	3652.81
760.068	3636.32
760.405	3602.87
760.743	3629.99
761.08	3610.78
761.417	3647.39
761.754	3602.87
762.091	3582.31
762.428	3573.27
762.765	3576.43
763.102	3589.09
763.438	3588.18
763.775	3542.53
764.112	3565.36
764.449	3541.18
764.785	3549.77
765.122	3521.97
765.458	3511.12
765.795	3476.1
766.131	3519.94
766.467	3534.62
766.804	3449.66
767.14	3421.41
767.476	3521.07
767.812	3448.98
768.148	3437.23
768.485	3464.34
768.821	3415.08
769.157	3440.62
769.492	3412.59
769.828	3376.89
770.164	3367.62
770.5	3354.29
770.836	3383.22
771.171	3376.89
771.507	3350.45
771.842	3349.32
772.178	3354.29
772.513	3304.57
772.849	3298.47
773.184	3296.44
