Data from carpet_green_FLMS001491_00006.txt Node
Date: Wed Feb 08 10:34:48 GMT 2017
User: dcchb
Spectrometer: FLMS00149
Trigger mode: 0
Integration Time (sec): 2.000000E-2
Scans to average: 10
Electric dark correction enabled: true
Nonlinearity correction enabled: false
Boxcar width: 0
XAxis mode: Wavelengths
Number of Pixels in Spectrum: 2048
>>>>>Begin Spectral Data<<<<<
341.393	6.13
341.776	6.13
342.16	6.13
342.543	-58.73
342.927	-75.45
343.31	-64.15
343.693	-66.86
344.077	-60.76
344.46	-61.67
344.843	-60.76
345.226	-42.68
345.61	-27.99
345.993	-23.7
346.376	0.25
346.759	-4.49
347.142	26.02
347.525	53.81
347.908	61.72
348.291	66.24
348.674	82.96
349.057	122.06
349.44	131.55
349.823	132
350.206	153.92
350.588	161.61
350.971	168.16
351.354	203.41
351.737	206.35
352.119	218.55
352.502	241.38
352.884	263.98
353.267	248.61
353.65	280.47
354.032	256.29
354.414	263.75
354.797	278.66
355.179	286.8
355.562	289.06
355.944	300.13
356.326	307.36
356.709	318.44
357.091	297.87
357.473	313.24
357.855	317.76
358.238	286.57
358.62	320.92
359.002	331.32
359.384	311.21
359.766	326.35
360.148	313.92
360.53	312.34
360.912	304.43
361.294	322.28
361.676	310.98
362.057	315.05
362.439	299.46
362.821	284.77
363.203	300.81
363.584	299.23
363.966	305.33
364.348	276.63
364.729	299.23
365.111	288.16
365.493	271.43
365.874	289.96
366.256	295.61
366.637	295.84
367.019	272.34
367.4	302.62
367.781	288.83
368.163	302.17
368.544	282.96
368.925	301.94
369.306	296.97
369.688	272.11
370.069	262.85
370.45	274.82
370.831	287.03
371.212	280.02
371.593	292.9
371.974	269.85
372.355	272.11
372.736	286.12
373.117	275.95
373.498	267.82
373.879	280.25
374.26	272.11
374.641	252.68
375.021	275.95
375.402	304.43
375.783	292.45
376.163	296.97
376.544	311.66
376.925	299.68
377.305	293.13
377.686	286.12
378.066	281.83
378.447	278.44
378.827	268.72
379.208	289.51
379.588	283.64
379.968	305.33
380.349	297.65
380.729	293.81
381.109	311.21
381.489	290.64
381.87	290.19
382.25	294.48
382.63	282.96
383.01	307.36
383.39	304.2
383.77	282.96
384.15	298.1
384.53	301.04
384.91	308.04
385.29	309.85
385.67	309.17
386.049	302.85
386.429	310.08
386.809	298.78
387.189	289.29
387.568	308.49
387.948	296.07
388.328	305.78
388.707	303.52
389.087	315.95
389.466	309.85
389.846	316.4
390.225	288.16
390.605	295.39
390.984	308.95
391.363	299.46
391.743	302.85
392.122	312.11
392.501	332.22
392.881	299.46
393.26	301.94
393.639	315.27
394.018	308.95
394.397	318.21
394.776	310.08
395.155	306.23
395.534	312.56
395.913	314.14
396.292	297.65
396.671	314.14
397.05	312.11
397.429	304.43
397.808	284.54
398.186	295.61
398.565	309.17
398.944	323.41
399.323	303.3
399.701	315.27
400.08	320.02
400.458	306.23
400.837	307.36
401.215	317.76
401.594	324.09
401.972	299.68
402.351	316.63
402.729	313.01
403.107	313.69
403.486	330.64
403.864	302.85
404.242	300.81
404.62	310.3
404.999	321.38
405.377	334.48
405.755	317.99
406.133	316.4
406.511	322.73
406.889	339.91
407.267	330.64
407.645	322.51
408.023	324.09
408.401	316.86
408.779	329.51
409.156	331.77
409.534	327.93
409.912	319.57
410.29	322.05
410.667	318.21
411.045	328.61
411.422	308.49
411.8	308.95
412.178	321.83
412.555	319.12
412.933	320.25
413.31	326.12
413.687	309.17
414.065	326.12
414.442	347.82
414.819	327.48
415.197	321.38
415.574	321.38
415.951	350.75
416.328	332.45
416.705	322.28
417.082	336.29
417.46	336.97
417.837	329.51
418.214	327.48
418.591	332.67
418.967	331.77
419.344	341.04
419.721	355.05
420.098	339.45
420.475	334.26
420.852	330.42
421.228	345.56
421.605	346.69
421.982	363.18
422.358	333.35
422.735	344.2
423.111	350.3
423.488	334.03
423.864	347.14
424.241	353.92
424.617	339.45
424.994	344.2
425.37	357.31
425.746	325.67
426.123	321.6
426.499	347.59
426.875	333.58
427.251	321.15
427.627	358.21
428.003	354.37
428.379	363.63
428.756	332
429.132	339
429.507	357.08
429.883	350.75
430.259	359.79
430.635	349.17
431.011	368.38
431.387	361.15
431.763	353.47
432.138	359.34
432.514	350.08
432.89	364.99
433.265	369.28
433.641	353.92
434.016	359.79
434.392	376.74
434.767	351.66
435.143	380.58
435.518	369.06
435.894	371.54
436.269	381.26
436.644	372.67
437.02	356.4
437.395	350.98
437.77	362.96
438.145	380.13
438.52	375.84
438.895	371.09
439.271	378.1
439.646	393.01
440.021	388.72
440.395	377.65
440.77	378.78
441.145	375.16
441.52	369.51
441.895	381.04
442.27	395.95
442.645	373.35
443.019	387.14
443.394	394.82
443.769	386.23
444.143	405.22
444.518	375.61
444.892	385.33
445.267	390.53
445.641	412.9
446.016	390.98
446.39	394.14
446.764	380.36
447.139	379.45
447.513	391.43
447.887	384.42
448.262	384.88
448.636	395.27
449.01	415.38
449.384	411.99
449.758	417.42
450.132	401.6
450.506	384.42
450.88	413.58
451.254	416.29
451.628	404.99
452.002	397.31
452.376	407.93
452.75	403.63
453.123	405.67
453.497	420.36
453.871	450.19
454.244	419.45
454.618	412.9
454.992	421.94
455.365	435.72
455.739	402.5
456.112	434.59
456.486	426.01
456.859	422.16
457.232	431.2
457.606	416.51
457.979	448.15
458.352	440.24
458.725	437.76
459.099	452.9
459.472	446.12
459.845	449.28
460.218	442.73
460.591	446.12
460.964	441.37
461.337	437.98
461.71	464.2
462.083	468.04
462.456	450.64
462.829	437.08
463.201	470.07
463.574	467.59
463.947	472.11
464.32	470.3
464.692	479.11
465.065	449.73
465.438	471.88
465.81	465.33
466.183	488.15
466.555	494.7
466.928	489.28
467.3	495.83
467.672	493.8
468.045	496.74
468.417	499
468.789	501.48
469.161	522.05
469.534	498.09
469.906	514.14
470.278	509.17
470.65	523.63
471.022	524.99
471.394	497.64
471.766	538.77
472.138	534.7
472.51	514.82
472.882	548.71
473.253	553.23
473.625	531.54
473.997	564.53
474.369	556.62
474.74	546
475.112	557.08
475.484	568.37
475.855	573.35
476.227	577.19
476.598	573.8
476.97	588.71
477.341	599.56
477.713	594.14
478.084	613.12
478.455	606.11
478.827	634.14
479.198	632.55
479.569	625.55
479.94	643.63
480.311	646.34
480.682	622.16
481.053	647.47
481.424	679.56
481.795	652.89
482.166	679.56
482.537	674.81
482.908	678.2
483.279	684.76
483.65	675.94
484.021	691.08
484.391	694.7
484.762	702.16
485.133	708.48
485.503	708.26
485.874	721.59
486.244	719.78
486.615	737.64
486.985	734.02
487.356	743.74
487.726	756.39
488.097	744.64
488.467	772.44
488.837	796.84
489.207	778.76
489.578	788.71
489.948	795.26
490.318	813.34
490.688	789.16
491.058	792.55
491.428	783.28
491.798	816.28
492.168	820.8
492.538	834.58
492.908	850.85
493.278	853.34
493.648	826.9
494.017	844.98
494.387	843.17
494.757	848.14
495.126	868.25
495.496	862.6
495.866	879.55
496.235	872.32
496.605	882.26
496.974	888.14
497.344	858.31
497.713	880.23
498.082	908.03
498.452	891.3
498.821	899.67
499.19	916.39
499.559	900.34
499.928	907.35
500.298	915.71
500.667	947.8
501.036	943.73
501.405	944.41
501.774	955.26
502.143	938.99
502.512	971.75
502.88	958.42
503.249	945.99
503.618	944.41
503.987	955.94
504.356	970.62
504.724	985.77
505.093	953.45
505.462	968.82
505.83	979.44
506.199	968.82
506.567	986.44
506.936	1004.52
507.304	1010.17
507.672	991.41
508.041	1001.36
508.409	1006.1
508.777	1015.37
509.145	1031.87
509.514	1035.93
509.882	1021.47
510.25	993
510.618	1013.33
510.986	1005.43
511.354	1043.16
511.722	1035.48
512.09	1039.55
512.458	1044.52
512.826	1023.73
513.193	1047.23
513.561	1045.65
513.929	1052.43
514.297	1055.59
514.664	1045.65
515.032	1052.2
515.4	1089.72
515.767	1067.8
516.135	1106.21
516.502	1077.74
516.869	1084.97
517.237	1093.78
517.604	1071.86
517.972	1104.63
518.339	1103.05
518.706	1113.45
519.073	1095.14
519.44	1095.37
519.808	1110.28
520.175	1112.77
520.542	1100.79
520.909	1103.05
521.276	1144.63
521.643	1129.04
522.009	1152.99
522.376	1155.25
522.743	1152.77
523.11	1156.16
523.477	1163.84
523.843	1140.11
524.21	1152.54
524.577	1163.84
524.943	1169.49
525.31	1158.42
525.676	1160.9
526.043	1167.91
526.409	1179.21
526.776	1184.86
527.142	1206.55
527.508	1195.25
527.874	1182.6
528.241	1173.56
528.607	1192.99
528.973	1188.02
529.339	1203.61
529.705	1218.98
530.071	1211.75
530.437	1203.16
530.803	1176.04
531.169	1213.78
531.535	1203.84
531.901	1205.65
532.267	1232.31
532.632	1244.06
532.998	1234.12
533.364	1232.31
533.73	1228.02
534.095	1237.06
534.461	1218.3
534.826	1241.8
535.192	1237.96
535.557	1230.73
535.923	1223.27
536.288	1221.47
536.653	1235.02
537.019	1220.11
537.384	1221.24
537.749	1248.36
538.114	1223.95
538.479	1227.79
538.845	1232.31
539.21	1235.7
539.575	1232.09
539.94	1258.75
540.305	1254.46
540.67	1224.18
541.034	1236.83
541.399	1252.2
541.764	1251.97
542.129	1230.28
542.494	1238.19
542.858	1232.54
543.223	1253.1
543.587	1256.49
543.952	1273.44
544.316	1237.96
544.681	1225.31
545.045	1256.72
545.41	1240.67
545.774	1258.3
546.138	1273.67
546.503	1250.62
546.867	1257.4
547.231	1271.63
547.595	1261.46
547.959	1254.23
548.324	1238.41
548.688	1274.57
549.052	1261.92
549.416	1251.75
549.779	1281.35
550.143	1244.74
550.507	1259.43
550.871	1281.12
551.235	1234.35
551.599	1259.66
551.962	1235.7
552.326	1299.43
552.689	1263.95
553.053	1249.03
553.417	1269.83
553.78	1278.41
554.143	1289.49
554.507	1258.98
554.87	1281.58
555.234	1298.53
555.597	1295.14
555.96	1289.26
556.323	1263.72
556.686	1291.52
557.05	1274.8
557.413	1267.34
557.776	1301.01
558.139	1299.66
558.502	1308.24
558.865	1313.89
559.228	1300.56
559.59	1328.81
559.953	1299.43
560.316	1282.48
560.679	1299.88
561.041	1312.99
561.404	1333.33
561.767	1333.55
562.129	1331.52
562.492	1353.44
562.854	1334
563.217	1308.24
563.579	1334.91
563.941	1336.26
564.304	1351.18
564.666	1347.11
565.028	1361.12
565.39	1355.7
565.753	1343.04
566.115	1347.11
566.477	1356.83
566.839	1335.59
567.201	1361.57
567.563	1350.05
567.925	1341.24
568.287	1361.12
568.648	1351.63
569.01	1352.99
569.372	1395.7
569.734	1362.7
570.095	1368.35
570.457	1350.95
570.819	1382.36
571.18	1379.43
571.542	1355.25
571.903	1388.69
572.265	1376.49
572.626	1391.4
572.987	1367.9
573.349	1370.61
573.71	1371.97
574.071	1373.33
574.432	1385.75
574.794	1381.23
575.155	1399.09
575.516	1367.9
575.877	1373.55
576.238	1367.45
576.599	1392.99
576.96	1373.78
577.32	1379.88
577.681	1406.54
578.042	1369.71
578.403	1352.08
578.763	1366.32
579.124	1361.8
579.485	1355.02
579.845	1376.04
580.206	1395.25
580.566	1372.87
580.927	1365.64
581.287	1354.79
581.648	1347.56
582.008	1353.89
582.368	1368.13
582.728	1378.52
583.089	1349.37
583.449	1342.37
583.809	1363.83
584.169	1376.49
584.529	1362.25
584.889	1361.35
585.249	1355.47
585.609	1343.95
585.969	1346.21
586.329	1363.16
586.688	1338.07
587.048	1322.03
587.408	1363.16
587.768	1333.78
588.127	1344.85
588.487	1373.1
588.846	1318.64
589.206	1321.12
589.565	1344.4
589.925	1345.3
590.284	1330.16
590.643	1358.64
591.003	1339.43
591.362	1324.51
591.721	1378.07
592.08	1332.65
592.44	1340.78
592.799	1329.71
593.158	1336.94
593.517	1336.04
593.876	1345.53
594.235	1310.5
594.593	1325.42
594.952	1331.52
595.311	1333.1
595.67	1331.07
596.029	1331.07
596.387	1364.74
596.746	1317.51
597.104	1306.21
597.463	1340.56
597.822	1327.68
598.18	1341.24
598.538	1317.06
598.897	1374.68
599.255	1324.29
599.613	1344.85
599.972	1352.54
600.33	1328.58
600.688	1331.74
601.046	1306.66
601.404	1318.86
601.762	1301.01
602.12	1349.6
602.478	1336.94
602.836	1317.28
603.194	1348.47
603.552	1338.3
603.91	1356.6
604.268	1334.46
604.625	1352.99
604.983	1331.29
605.341	1359.54
605.698	1348.24
606.056	1329.26
606.413	1342.14
606.771	1338.52
607.128	1345.98
607.485	1341.01
607.843	1358.41
608.2	1389.82
608.557	1346.66
608.914	1353.66
609.272	1330.61
609.629	1355.7
609.986	1370.61
610.343	1375.59
610.7	1377.85
611.057	1368.58
611.414	1351.63
611.771	1373.78
612.127	1365.19
612.484	1364.06
612.841	1406.77
613.198	1366.32
613.554	1364.96
613.911	1369.03
614.267	1359.54
614.624	1367.68
614.98	1385.98
615.337	1369.03
615.693	1358.41
616.05	1360.22
616.406	1407
616.762	1380.78
617.118	1374.23
617.475	1407.22
617.831	1398.86
618.187	1395.25
618.543	1408.58
618.899	1375.36
619.255	1395.02
619.611	1385.53
619.967	1404.74
620.323	1392.99
620.678	1394.12
621.034	1378.07
621.39	1366.09
621.746	1391.18
622.101	1395.47
622.457	1385.98
622.812	1351.86
623.168	1397.28
623.523	1385.75
623.879	1374.23
624.234	1337.62
624.589	1363.16
624.945	1382.36
625.3	1361.35
625.655	1393.21
626.01	1367.22
626.365	1379.65
626.72	1387.34
627.075	1389.37
627.43	1367.9
627.785	1401.35
628.14	1376.26
628.495	1375.13
628.85	1383.72
629.205	1382.14
629.559	1415.58
629.914	1370.84
630.269	1385.08
630.623	1387.79
630.978	1362.48
631.332	1378.98
631.687	1369.48
632.041	1368.81
632.396	1373.78
632.75	1364.74
633.104	1372.65
633.459	1341.01
633.813	1360.44
634.167	1347.34
634.521	1349.82
634.875	1390.5
635.229	1378.3
635.583	1362.48
635.937	1345.3
636.291	1361.12
636.645	1355.7
636.999	1360.67
637.352	1348.24
637.706	1349.6
638.06	1350.95
638.413	1365.42
638.767	1311.18
639.121	1332.87
639.474	1349.15
639.828	1360.67
640.181	1363.16
640.534	1367.68
640.888	1370.39
641.241	1378.52
641.594	1396.15
641.947	1392.76
642.301	1360.9
642.654	1354.57
643.007	1375.81
643.36	1362.93
643.713	1363.38
644.066	1386.88
644.419	1365.64
644.771	1349.82
645.124	1369.03
645.477	1352.31
645.83	1350.05
646.182	1318.64
646.535	1311.86
646.888	1361.12
647.24	1351.63
647.593	1348.24
647.945	1360.22
648.298	1392.31
648.65	1365.87
649.002	1371.97
649.355	1376.04
649.707	1387.56
650.059	1356.6
650.411	1403.61
650.763	1408.8
651.115	1386.21
651.467	1404.74
651.819	1399.31
652.171	1434.34
652.523	1401.35
652.875	1409.26
653.227	1404.74
653.578	1413.78
653.93	1427.79
654.282	1413.78
654.633	1428.24
654.985	1429.37
655.337	1461.23
655.688	1479.09
656.039	1455.13
656.391	1437.96
656.742	1455.58
657.094	1471.85
657.445	1458.75
657.796	1478.18
658.147	1509.82
658.498	1472.31
658.849	1510.95
659.2	1500.1
659.551	1492.64
659.902	1515.02
660.253	1504.17
660.604	1550.04
660.955	1500.55
661.306	1523.15
661.656	1518.41
662.007	1554.11
662.358	1541
662.708	1589.59
663.059	1571.74
663.409	1564.28
663.76	1558.18
664.11	1596.82
664.461	1604.73
664.811	1613.77
665.161	1628.23
665.511	1612.87
665.862	1619.65
666.212	1659.87
666.562	1679.53
666.912	1651.51
667.262	1666.65
667.612	1682.47
667.962	1713.2
668.312	1714.56
668.662	1740.77
669.011	1743.03
669.361	1742.58
669.711	1764.5
670.06	1773.54
670.41	1785.29
670.76	1783.71
671.109	1799.3
671.459	1802.47
671.808	1833.2
672.157	1824.61
672.507	1841.56
672.856	1822.35
673.205	1885.85
673.554	1918.85
673.904	1908
674.253	1933.99
674.602	1936.7
674.951	1932.41
675.3	1907.77
675.649	1960.2
675.998	1993.42
676.346	1973.99
676.695	1986.64
677.044	2020.54
677.393	2009.01
677.741	2071.39
678.09	2082.69
678.438	2102.12
678.787	2069.8
679.135	2091.95
679.484	2156.36
679.832	2172.4
680.181	2154.1
680.529	2143.93
680.877	2202.91
681.225	2204.94
681.573	2233.64
681.922	2265.28
682.27	2253.98
682.618	2266.86
682.966	2280.42
683.314	2333.75
683.661	2335.11
684.009	2332.17
684.357	2368.78
684.705	2369.91
685.053	2418.04
685.4	2427.08
685.748	2410.81
686.095	2408.33
686.443	2453.75
686.79	2505.27
687.138	2514.54
687.485	2519.51
687.832	2546.4
688.18	2554.54
688.527	2591.6
688.874	2625.04
689.221	2597.93
689.568	2664.59
689.915	2638.15
690.262	2648.55
690.609	2707.75
690.956	2692.39
691.303	2740.97
691.65	2708.21
691.997	2745.72
692.344	2723.35
692.69	2787.98
693.037	2817.81
693.383	2828.88
693.73	2879.5
694.077	2895.09
694.423	2894.19
694.769	2922.66
695.116	2917.47
695.462	2965.15
695.808	2939.16
696.155	2988.42
696.501	3007.18
696.847	3027.07
697.193	3025.03
697.539	3078.14
697.885	3079.04
698.231	3075.65
698.577	3119.72
698.923	3130.34
699.269	3143.22
699.614	3141.41
699.96	3166.72
700.306	3207.18
700.651	3217.57
700.997	3208.08
701.342	3266.84
701.688	3312.26
702.033	3291.24
702.379	3309.77
702.724	3341.86
703.069	3315.42
703.415	3354.52
703.76	3381.41
704.105	3377.34
704.45	3442.65
704.795	3441.97
705.14	3460.05
705.485	3457.34
705.83	3501.63
706.175	3493.04
706.52	3505.02
706.865	3539.82
707.209	3545.47
707.554	3555.19
707.899	3594.51
708.243	3610.33
708.588	3652.81
708.932	3644.45
709.277	3648.75
709.621	3673.38
709.966	3656.2
710.31	3683.55
710.654	3711.57
710.998	3736.65
711.342	3815.07
711.687	3776.43
712.031	3747.5
712.375	3785.92
712.719	3813.49
713.063	3837.22
713.407	3847.38
713.75	3855.97
714.094	3870.66
714.438	3905.01
714.782	3912.47
715.125	3900.72
715.469	3915.63
715.812	3980.94
716.156	3961.28
716.499	3936.65
716.843	3962.18
717.186	3966.93
717.53	4025.91
717.873	4057.55
718.216	4040.6
718.559	4034.95
718.902	3996.08
719.246	4048.28
719.589	4037.66
719.932	4093.48
720.275	4109.07
720.617	4156.76
720.96	4083.31
721.303	4134.38
721.646	4138.45
721.989	4160.82
722.331	4185.91
722.674	4178
723.016	4174.83
723.359	4206.92
723.701	4228.39
724.044	4201.5
724.386	4232.69
724.729	4220.48
725.071	4223.19
725.413	4251.44
725.755	4279.01
726.097	4224.32
726.439	4285.34
726.782	4248.73
727.124	4287.15
727.465	4249.41
727.807	4277.88
728.149	4290.54
728.491	4311.33
728.833	4307.03
729.175	4305
729.516	4305
729.858	4307.03
730.199	4349.29
730.541	4330.54
730.882	4351.55
731.224	4328.95
731.565	4297.54
731.906	4363.53
732.248	4338.9
732.589	4306.58
732.93	4320.82
733.271	4305.45
733.612	4360.59
733.953	4333.25
734.294	4359.46
734.635	4328.73
734.976	4405.34
735.317	4354.26
735.658	4363.76
735.999	4377.99
736.339	4405.34
736.68	4389.74
737.021	4407.37
737.361	4357.65
737.702	4409.18
738.042	4375.05
738.383	4346.13
738.723	4372.12
739.063	4387.94
739.404	4380.03
739.744	4381.61
740.084	4402.4
740.424	4395.84
740.764	4398.78
741.104	4389.52
741.444	4337.99
741.784	4335.28
742.124	4362.85
742.464	4372.79
742.804	4383.19
743.143	4370.99
743.483	4361.04
743.823	4345.45
744.162	4357.43
744.502	4375.28
744.841	4337.99
745.181	4393.81
745.52	4372.79
745.86	4352.91
746.199	4351.78
746.538	4365.11
746.877	4386.58
747.216	4353.13
747.556	4352.23
747.895	4308.39
748.234	4312.46
748.573	4342.96
748.911	4323.76
749.25	4334.83
749.589	4326.02
749.928	4327.82
750.267	4361.27
750.605	4314.72
750.944	4330.54
751.283	4313.14
751.621	4287.15
751.96	4297.77
752.298	4322.17
752.636	4239.92
752.975	4274.72
753.313	4266.81
753.651	4276.3
753.989	4251.89
754.327	4220.48
754.666	4189.52
755.004	4217.32
755.342	4230.65
755.679	4249.63
756.017	4195.62
756.355	4194.04
756.693	4191.56
757.031	4193.36
757.368	4200.82
757.706	4163.99
758.044	4139.35
758.381	4144.78
758.719	4129.64
759.056	4141.16
759.394	4149.98
759.731	4116.3
760.068	4107.94
760.405	4074.27
760.743	4084.44
761.08	4086.7
761.417	4084.44
761.754	4071.33
762.091	4036.76
762.428	4036.53
762.765	4008.06
763.102	4053.03
763.438	4018.23
763.775	4005.57
764.112	4014.39
764.449	3951.79
764.785	3987.04
765.122	3946.37
765.458	3908.63
765.795	3960.38
766.131	3936.87
766.467	3907.04
766.804	3885.12
767.14	3928.06
767.476	3887.38
767.812	3847.16
768.148	3883.32
768.485	3887.61
768.821	3838.12
769.157	3818.91
769.492	3844.9
769.828	3815.75
770.164	3789.08
770.5	3770.55
770.836	3761.29
771.171	3723.77
771.507	3722.42
771.842	3748.86
772.178	3738.46
772.513	3763.09
772.849	3727.84
773.184	3743.43
773.519	3715.41
