Data from carpet_green_FLMS001491_00054.txt Node
Date: Wed Feb 08 10:35:33 GMT 2017
User: dcchb
Spectrometer: FLMS00149
Trigger mode: 0
Integration Time (sec): 2.000000E-2
Scans to average: 10
Electric dark correction enabled: true
Nonlinearity correction enabled: false
Boxcar width: 0
XAxis mode: Wavelengths
Number of Pixels in Spectrum: 2048
>>>>>Begin Spectral Data<<<<<
341.393	-30
341.776	-30
342.16	-30
342.543	-62.09
342.927	-68.64
343.31	-77.91
343.693	-62.54
344.077	-44.91
344.46	-46.95
344.843	-58.25
345.226	-39.26
345.61	-24.35
345.993	-27.06
346.376	4.58
346.759	21.52
347.142	12.49
347.525	28.3
347.908	57.68
348.291	83.22
348.674	71.92
349.057	101.52
349.44	112.14
349.823	142.43
350.206	166.15
350.588	185.14
350.971	203.67
351.354	214.51
351.737	203.21
352.119	234.85
352.502	253.16
352.884	249.54
353.267	259.48
353.65	266.72
354.032	261.97
354.414	280.95
354.797	315.3
355.179	292.03
355.562	289.31
355.944	282.08
356.326	302.65
356.709	307.85
357.091	310.56
357.473	302.65
357.855	322.53
358.238	294.06
358.62	334.28
359.002	303.33
359.384	329.09
359.766	331.12
360.148	322.08
360.53	298.58
360.912	314.17
361.294	318.24
361.676	314.17
362.057	307.17
362.439	307.39
362.821	316.43
363.203	306.49
363.584	326.38
363.966	305.13
364.348	301.07
364.729	318.24
365.111	317.11
365.493	294.51
365.874	286.83
366.256	287.96
366.637	288.41
367.019	293.16
367.4	294.74
367.781	285.7
368.163	307.17
368.544	266.26
368.925	273.5
369.306	301.52
369.688	294.29
370.069	275.3
370.45	282.99
370.831	276.89
371.212	293.61
371.593	297.9
371.974	283.66
372.355	280.95
372.736	289.09
373.117	274.63
373.498	271.24
373.879	270.78
374.26	275.3
374.641	280.73
375.021	276.66
375.402	285.92
375.783	280.5
376.163	287.73
376.544	293.16
376.925	289.54
377.305	286.38
377.686	282.53
378.066	281.41
378.447	323.89
378.827	282.31
379.208	298.35
379.588	268.52
379.968	298.13
380.349	300.84
380.729	287.73
381.109	273.04
381.489	298.13
381.87	288.86
382.25	294.74
382.63	302.42
383.01	289.09
383.39	310.33
383.77	295.19
384.15	297.45
384.53	304.68
384.91	305.36
385.29	285.02
385.67	292.7
386.049	306.49
386.429	289.09
386.809	309.88
387.189	331.8
387.568	308.75
387.948	301.52
388.328	320.27
388.707	290.67
389.087	302.87
389.466	320.95
389.846	299.03
390.225	314.17
390.605	309.43
390.984	293.38
391.363	304.23
391.743	308.75
392.122	318.01
392.501	301.07
392.881	329.09
393.26	291.57
393.639	285.7
394.018	289.31
394.397	306.49
394.776	302.2
395.155	322.08
395.534	308.52
395.913	301.52
396.292	313.27
396.671	312.36
397.05	312.14
397.429	307.17
397.808	302.87
398.186	314.62
398.565	306.26
398.944	326.38
399.323	308.3
399.701	320.27
400.08	313.72
400.458	313.27
400.837	313.95
401.215	321.18
401.594	316.43
401.972	322.53
402.351	306.26
402.729	301.74
403.107	315.08
403.486	326.38
403.864	332.25
404.242	315.08
404.62	312.36
404.999	307.85
405.377	307.39
405.755	314.17
406.133	325.7
406.511	314.62
406.889	302.65
407.267	320.73
407.645	311.23
408.023	325.7
408.401	332.93
408.779	318.01
409.156	312.59
409.534	313.72
409.912	311.23
410.29	334.74
410.667	331.57
411.045	319.6
411.422	325.47
411.8	327.73
412.178	314.62
412.555	334.28
412.933	335.19
413.31	318.47
413.687	326.6
414.065	320.73
414.442	333.16
414.819	322.08
415.197	319.6
415.574	335.64
415.951	315.08
416.328	345.13
416.705	338.8
417.082	353.27
417.46	343.32
417.837	343.1
418.214	339.71
418.591	328.86
418.967	339.03
419.344	338.13
419.721	350.78
420.098	331.35
420.475	326.6
420.852	326.38
421.228	334.51
421.605	344.45
421.982	341.06
422.358	328.41
422.735	357.11
423.111	330.67
423.488	344.45
423.864	336.77
424.241	346.26
424.617	331.35
424.994	335.19
425.37	328.18
425.746	335.19
426.123	337.22
426.499	350.56
426.875	347.84
427.251	336.54
427.627	358.47
428.003	353.95
428.379	358.69
428.756	341.29
429.132	355.98
429.507	333.38
429.883	339.03
430.259	345.81
430.635	354.4
431.011	341.97
431.387	347.39
431.763	343.1
432.138	362.31
432.514	353.04
432.89	379.03
433.265	366.15
433.641	356.88
434.016	355.75
434.392	359.82
434.767	367.96
435.143	363.66
435.518	331.35
435.894	367.5
436.269	356.21
436.644	354.17
437.02	341.06
437.395	375.64
437.77	361.4
438.145	374.51
438.52	359.82
438.895	370.22
439.271	358.01
439.646	339.93
440.021	357.79
440.395	378.13
440.77	361.63
441.145	372.02
441.52	385.13
441.895	394.17
442.27	373.83
442.645	382.65
443.019	371.12
443.394	351.23
443.769	385.81
444.143	377.22
444.518	375.64
444.892	373.38
445.267	373.83
445.641	374.96
446.016	384
446.39	365.47
446.764	389.42
447.139	404.57
447.513	377.9
447.887	384.91
448.262	386.94
448.636	378.8
449.01	407.96
449.384	383.78
449.758	394.62
450.132	370.44
450.506	369.99
450.88	385.13
451.254	384
451.628	402.98
452.002	390.78
452.376	391.01
452.75	416.99
453.123	419.03
453.497	395.07
453.871	394.62
454.244	381.97
454.618	390.1
454.992	386.26
455.365	417.22
455.739	386.49
456.112	398.92
456.486	387.16
456.859	413.38
457.232	423.32
457.606	418.8
457.979	415.19
458.352	405.7
458.725	426.26
459.099	407.05
459.472	396.66
459.845	401.63
460.218	400.5
460.591	391.91
460.964	423.77
461.337	423.55
461.71	406.15
462.083	419.03
462.456	445.02
462.829	431.46
463.201	424
463.574	434.17
463.947	438.69
464.32	449.08
464.692	455.64
465.065	452.93
465.438	429.2
465.81	445.47
466.183	443.66
466.555	440.95
466.928	439.82
467.3	459.93
467.672	482.08
468.045	467.39
468.417	452.02
468.789	476.43
469.161	481.17
469.534	469.42
469.906	471.46
470.278	481.85
470.65	469.2
471.022	481.17
471.394	473.94
471.766	483.89
472.138	489.31
472.51	486.37
472.882	484.11
473.253	512.59
473.625	501.96
473.997	488.18
474.369	513.04
474.74	509.65
475.112	511.23
475.484	506.03
475.855	508.74
476.227	516.88
476.598	522.98
476.97	536.99
477.341	523.88
477.713	541.06
478.084	538.12
478.455	546.93
478.827	545.13
479.198	572.7
479.569	561.85
479.94	545.58
480.311	552.13
480.682	567.73
481.053	571.34
481.424	562.3
481.795	575.86
482.166	580.61
482.537	603.2
482.908	615.41
483.279	600.04
483.65	602.07
484.021	593.26
484.391	605.69
484.762	615.18
485.133	625.12
485.503	647.72
485.874	643.88
486.244	671.68
486.615	648.85
486.985	630.77
487.356	663.99
487.726	685.46
488.097	678.68
488.467	667.61
488.837	680.94
489.207	709.87
489.578	708.74
489.948	683.2
490.318	698.8
490.688	699.7
491.058	718.23
491.428	708.96
491.798	724.11
492.168	741.96
492.538	734.5
492.908	736.99
493.278	743.09
493.648	738.34
494.017	751.22
494.387	744.67
494.757	748.51
495.126	767.72
495.496	751.9
495.866	767.27
496.235	734.73
496.605	770.43
496.974	765.91
497.344	791.22
497.713	804.33
498.082	780.37
498.452	802.75
498.821	783.99
499.19	807.72
499.559	809.98
499.928	794.84
500.298	802.75
500.667	798.23
501.036	808.62
501.405	812.24
501.774	810.43
502.143	837.1
502.512	832.58
502.88	812.24
503.249	823.09
503.618	839.58
503.987	846.14
504.356	831.45
504.724	860.82
505.093	845.01
505.462	828.28
505.83	840.03
506.199	847.72
506.567	844.33
506.936	864.89
507.304	853.82
507.672	869.86
508.041	881.16
508.409	895.17
508.777	882.07
509.145	891.78
509.514	881.16
509.882	874.38
510.25	856.76
510.618	886.59
510.986	881.16
511.354	886.59
511.722	894.04
512.09	892.46
512.458	901.73
512.826	887.94
513.193	915.74
513.561	898.34
513.929	919.58
514.297	894.72
514.664	900.82
515.032	919.58
515.4	908.96
515.767	920.26
516.135	938.56
516.502	903.99
516.869	918.68
517.237	915.74
517.604	913.7
517.972	939.01
518.339	930.2
518.706	922.74
519.073	942.18
519.44	947.15
519.808	947.83
520.175	967.49
520.542	945.57
520.909	955.96
521.276	941.05
521.643	967.26
522.009	955.29
522.376	942.86
522.743	979.47
523.11	957.55
523.477	988.51
523.843	988.73
524.21	1004.1
524.577	971.56
524.943	988.51
525.31	1016.98
525.676	1012.01
526.043	999.58
526.409	986.92
526.776	1019.92
527.142	1011.78
527.508	1024.21
527.874	997.54
528.241	1034.38
528.607	1007.49
528.973	1035.28
529.339	1015.17
529.705	1034.38
530.071	1046.36
530.437	1023.53
530.803	1011.78
531.169	1036.19
531.535	1061.05
531.901	1022.85
532.267	1047.49
532.632	1070.76
532.998	1050.88
533.364	1025.11
533.73	1023.31
534.095	1023.31
534.461	1049.07
534.826	1035.06
535.192	1033.93
535.557	1048.62
535.923	1038.22
536.288	1069.18
536.653	1065.57
537.019	1036.87
537.384	1040.93
537.749	1071.67
538.114	1058.11
538.479	1071.67
538.845	1031.67
539.21	1060.37
539.575	1043.42
539.94	1054.49
540.305	1046.13
540.67	1050.88
541.034	1041.61
541.399	1088.39
541.764	1071.44
542.129	1060.59
542.494	1056.07
542.858	1066.47
543.223	1060.82
543.587	1047.94
543.952	1056.53
544.316	1088.16
544.681	1063.53
545.045	1047.49
545.41	1059.92
545.774	1056.3
546.138	1086.81
546.503	1082.74
546.867	1068.05
547.231	1066.92
547.595	1065.79
547.959	1082.97
548.324	1083.42
548.688	1070.31
549.052	1077.54
549.416	1081.61
549.779	1079.35
550.143	1053.36
550.507	1085.68
550.871	1094.04
551.235	1075.73
551.599	1097.2
551.962	1065.57
552.326	1080.25
552.689	1077.99
553.053	1086.81
553.417	1096.52
553.78	1098.11
554.143	1106.69
554.507	1110.08
554.87	1060.59
555.234	1103.08
555.597	1113.7
555.96	1118.9
556.323	1131.78
556.686	1092.68
557.05	1124.32
557.413	1112.12
557.776	1092.68
558.139	1103.76
558.502	1105.79
558.865	1079.8
559.228	1107.82
559.59	1156.64
559.953	1132.46
560.316	1132.91
560.679	1120.03
561.041	1134.72
561.404	1137.43
561.767	1140.37
562.129	1146.92
562.492	1139.69
562.854	1141.95
563.217	1135.17
563.579	1146.02
563.941	1138.78
564.304	1158.9
564.666	1166.13
565.028	1151.44
565.39	1132.23
565.753	1163.64
566.115	1137.65
566.477	1183.53
566.839	1145.34
567.201	1161.38
567.563	1155.28
567.925	1170.65
568.287	1177.88
568.648	1161.38
569.01	1179.46
569.372	1157.77
569.734	1154.6
570.095	1186.24
570.457	1209.74
570.819	1174.26
571.18	1174.49
571.542	1202.06
571.903	1181.72
572.265	1202.74
572.626	1203.64
572.987	1180.82
573.349	1199.8
573.71	1195.51
574.071	1205.9
574.432	1185.11
574.794	1219.46
575.155	1203.64
575.516	1215.39
575.877	1173.13
576.238	1180.14
576.599	1178.33
576.96	1188.27
577.32	1204.54
577.681	1178.1
578.042	1205.22
578.403	1216.97
578.763	1189.63
579.124	1205.67
579.485	1205.22
579.845	1180.14
580.206	1169.29
580.566	1218.56
580.927	1214.71
581.287	1192.34
581.648	1203.87
582.008	1184.66
582.368	1175.17
582.728	1177.65
583.089	1186.24
583.449	1196.64
583.809	1144.89
584.169	1195.28
584.529	1177.2
584.889	1194.6
585.249	1183.53
585.609	1172.46
585.969	1196.86
586.329	1201.38
586.688	1180.14
587.048	1181.27
587.408	1177.65
587.768	1182.17
588.127	1180.59
588.487	1178.33
588.846	1186.47
589.206	1170.87
589.565	1167.03
589.925	1175.17
590.284	1158.22
590.643	1168.61
591.003	1156.18
591.362	1211.32
591.721	1187.37
592.08	1193.02
592.44	1155.05
592.799	1161.83
593.158	1183.53
593.517	1165.22
593.876	1157.31
594.235	1180.14
594.593	1200.7
594.952	1154.83
595.311	1166.13
595.67	1168.39
596.029	1183.75
596.387	1169.29
596.746	1153.47
597.104	1170.65
597.463	1179.46
597.822	1156.41
598.18	1171.33
598.538	1160.25
598.897	1169.97
599.255	1172.91
599.613	1181.04
599.972	1158.44
600.33	1201.83
600.688	1185.11
601.046	1176.3
601.404	1157.54
601.762	1193.92
602.12	1193.7
602.478	1184.66
602.836	1174.26
603.194	1180.82
603.552	1201.38
603.91	1172.23
604.268	1166.35
604.625	1209.74
604.983	1182.62
605.341	1176.97
605.698	1176.07
606.056	1201.83
606.413	1188.27
606.771	1195.28
607.128	1182.85
607.485	1184.88
607.843	1200.48
608.2	1202.51
608.557	1215.17
608.914	1209.06
609.272	1202.51
609.629	1199.57
609.986	1182.4
610.343	1194.38
610.7	1213.13
611.057	1183.75
611.414	1207.03
611.771	1205.9
612.127	1184.88
612.484	1227.14
612.841	1234.6
613.198	1214.94
613.554	1211.78
613.911	1205.45
614.267	1199.8
614.624	1214.49
614.98	1237.31
615.337	1234.83
615.693	1236.18
616.05	1187.37
616.406	1207.93
616.762	1215.62
617.118	1221.04
617.475	1220.36
617.831	1217.43
618.187	1219.23
618.543	1244.54
618.899	1221.04
619.255	1214.26
619.611	1255.84
619.967	1220.82
620.323	1255.62
620.678	1218.1
621.034	1230.31
621.39	1216.52
621.746	1199.12
622.101	1223.08
622.457	1212.91
622.812	1224.43
623.168	1215.84
623.523	1217.88
623.879	1229.85
624.234	1213.58
624.589	1216.3
624.945	1223.53
625.3	1230.76
625.655	1230.53
626.01	1230.53
626.365	1228.95
626.72	1222.4
627.075	1205.22
627.43	1226.46
627.785	1261.94
628.14	1216.75
628.495	1231.66
628.85	1201.15
629.205	1240.25
629.559	1228.27
629.914	1225.56
630.269	1215.62
630.623	1202.51
630.978	1217.43
631.332	1225.11
631.687	1203.87
632.041	1230.53
632.396	1237.09
632.75	1216.07
633.104	1223.3
633.459	1223.08
633.813	1203.64
634.167	1221.04
634.521	1221.95
634.875	1214.71
635.229	1196.86
635.583	1184.21
635.937	1181.04
636.291	1199.57
636.645	1201.38
636.999	1193.02
637.352	1188.27
637.706	1199.8
638.06	1208.61
638.413	1222.85
638.767	1181.27
639.121	1232.34
639.474	1201.61
639.828	1192.12
640.181	1231.66
640.534	1206.58
640.888	1231.89
641.241	1214.26
641.594	1217.65
641.947	1195.73
642.301	1183.75
642.654	1219.91
643.007	1200.48
643.36	1190.08
643.713	1228.5
644.066	1206.13
644.419	1207.03
644.771	1209.97
645.124	1166.81
645.477	1212.23
645.83	1167.94
646.182	1172
646.535	1173.13
646.888	1188.73
647.24	1199.8
647.593	1187.6
647.945	1202.28
648.298	1182.62
648.65	1164.55
649.002	1196.86
649.355	1199.12
649.707	1199.35
650.059	1209.06
650.411	1231.89
650.763	1216.3
651.115	1239.57
651.467	1232.34
651.819	1228.05
652.171	1241.61
652.523	1221.95
652.875	1236.86
653.227	1238.44
653.578	1220.59
653.93	1220.82
654.282	1242.06
654.633	1256.75
654.985	1229.85
655.337	1249.97
655.688	1261.27
656.039	1261.27
656.391	1281.6
656.742	1262.17
657.094	1284.09
657.445	1261.27
657.796	1280.7
658.147	1259.68
658.498	1280.02
658.849	1277.31
659.2	1282.96
659.551	1277.99
659.902	1294.49
660.253	1301.04
660.604	1314.37
660.955	1312.34
661.306	1306.01
661.656	1308.04
662.007	1298.33
662.358	1342.62
662.708	1330.87
663.059	1344.2
663.409	1344.43
663.76	1338.33
664.11	1351.66
664.461	1374.71
664.811	1350.98
665.161	1408.61
665.511	1394.14
665.862	1392.79
666.212	1409.74
666.562	1420.58
666.912	1432.34
667.262	1458.55
667.612	1414.48
667.962	1430.3
668.312	1430.53
668.662	1471.66
669.011	1453.35
669.361	1478.66
669.711	1439.79
670.06	1517.98
670.41	1534.93
670.76	1489.73
671.109	1514.82
671.459	1521.82
671.808	1525.89
672.157	1538.77
672.507	1537.42
672.856	1575.38
673.205	1577.19
673.554	1587.36
673.904	1587.81
674.253	1598.21
674.602	1607.25
674.951	1597.08
675.3	1585.55
675.649	1631.2
675.998	1646.34
676.346	1613.12
676.695	1663.97
677.044	1681.82
677.393	1700.35
677.741	1725.43
678.09	1710.29
678.438	1738.32
678.787	1748.49
679.135	1757.52
679.484	1778.31
679.832	1751.65
680.181	1769.5
680.529	1786.68
680.877	1853.34
681.225	1820.12
681.573	1828.26
681.922	1865.32
682.27	1878.65
682.618	1854.92
682.966	1882.72
683.314	1906.67
683.661	1883.62
684.009	1927.01
684.357	1915.49
684.705	1970.17
685.053	1967.24
685.4	1996.16
685.748	1995.71
686.095	1972.21
686.443	2044.97
686.79	2050.17
687.138	2009.04
687.485	2080.68
687.832	2060.12
688.18	2105.76
688.527	2113.67
688.874	2092.43
689.221	2138.08
689.568	2169.49
689.915	2161.81
690.262	2179.66
690.609	2188.02
690.956	2201.35
691.303	2228.7
691.65	2255.14
691.997	2253.56
692.344	2294.23
692.69	2252.43
693.037	2292.43
693.383	2235.93
693.73	2313.44
694.077	2311.18
694.423	2357.51
694.769	2340.79
695.116	2372.2
695.462	2398.86
695.808	2395.25
696.155	2428.24
696.501	2445.19
696.847	2448.35
697.193	2470.5
697.539	2481.8
697.885	2529.93
698.231	2480.67
698.577	2526.54
698.923	2541.91
699.269	2551.85
699.614	2558.63
699.96	2576.03
700.306	2599.08
700.651	2578.75
700.997	2632.98
701.342	2665.52
701.688	2680.66
702.033	2684.96
702.379	2704.62
702.724	2708.46
703.069	2720.89
703.415	2713.21
703.76	2728.35
704.105	2765.18
704.45	2781.9
704.795	2781
705.14	2791.62
705.485	2818.51
705.83	2801.34
706.175	2799.76
706.52	2870.94
706.865	2888.57
707.209	2858.06
707.554	2900.32
707.899	2900.32
708.243	2931.05
708.588	2924.05
708.932	2889.7
709.277	2936.48
709.621	2966.53
709.966	2978.51
710.31	2968.11
710.654	2985.74
710.998	3022.58
711.342	3039.75
711.687	3021.67
712.031	3018.96
712.375	3070.71
712.719	3104.61
713.063	3091.27
713.407	3120.65
713.75	3128.34
714.094	3118.84
714.438	3129.69
714.782	3145.06
715.125	3130.14
715.469	3150.03
715.812	3115
716.156	3189.13
716.499	3190.48
716.843	3198.84
717.186	3213.31
717.53	3228.45
717.873	3222.8
718.216	3231.16
718.559	3227.99
718.902	3213.98
719.246	3250.59
719.589	3286.98
719.932	3292.63
720.275	3279.52
720.617	3288.78
720.96	3273.19
721.303	3282.23
721.646	3315.45
721.989	3337.6
722.331	3305.05
722.674	3348.89
723.016	3344.38
723.359	3339.18
723.701	3390.25
724.044	3324.71
724.386	3361.32
724.729	3373.08
725.071	3381.44
725.413	3382.34
725.755	3404.71
726.097	3395.45
726.439	3351.38
726.782	3397.26
727.124	3448.1
727.465	3353.41
727.807	3397.26
728.149	3373.3
728.491	3414.43
728.833	3413.07
729.175	3408.55
729.516	3374.43
729.858	3437.71
730.199	3373.3
730.541	3444.71
730.882	3418.72
731.224	3420.53
731.565	3430.02
731.906	3485.84
732.248	3453.3
732.589	3433.64
732.93	3464.37
733.271	3433.86
733.612	3467.31
733.953	3486.52
734.294	3454.43
734.635	3468.44
734.976	3439.51
735.317	3473.64
735.658	3430.93
735.999	3491.72
736.339	3474.99
736.68	3468.21
737.021	3439.51
737.361	3473.86
737.702	3467.76
738.042	3452.62
738.383	3482.68
738.723	3489.23
739.063	3470.25
739.404	3492.39
739.744	3468.44
740.084	3503.02
740.424	3464.37
740.764	3449.68
741.104	3464.37
741.444	3491.72
741.784	3425.05
742.124	3445.84
742.464	3470.02
742.804	3460.3
743.143	3381.89
743.483	3447.2
743.823	3441.55
744.162	3453.98
744.502	3422.79
744.841	3448.55
745.181	3465.95
745.52	3464.6
745.86	3429.57
746.199	3445.39
746.538	3470.02
746.877	3463.02
747.216	3493.98
747.556	3443.13
747.895	3468.21
748.234	3441.77
748.573	3439.97
748.911	3421.44
749.25	3419.63
749.589	3404.03
749.928	3450.59
750.267	3393.19
750.605	3424.6
750.944	3399.74
751.283	3377.14
751.621	3402
751.96	3397.71
752.298	3379.85
752.636	3427.31
752.975	3407.42
753.313	3359.74
753.651	3355
753.989	3371.95
754.327	3353.87
754.666	3346.86
755.004	3369.91
755.342	3370.82
755.679	3375.33
756.017	3367.88
756.355	3310.25
756.693	3306.41
757.031	3326.52
757.368	3309.8
757.706	3304.83
758.044	3226.64
758.381	3251.95
758.719	3326.52
759.056	3271.16
759.394	3246.07
759.731	3247.65
760.068	3300.08
760.405	3228.9
760.743	3274.09
761.08	3281.1
761.417	3237.49
761.754	3203.81
762.091	3210.59
762.428	3190.03
762.765	3207.2
763.102	3166.75
763.438	3195
763.775	3150.03
764.112	3162.91
764.449	3170.59
764.785	3159.97
765.122	3125.4
765.458	3098.05
765.795	3133.76
766.131	3102.12
766.467	3144.38
766.804	3116.58
767.14	3101.9
767.476	3074.1
767.812	3085.4
768.148	3101.44
768.485	3078.17
768.821	3045.63
769.157	3039.98
769.492	3032.07
769.828	3042.46
770.164	3006.53
770.5	3017.6
770.836	3017.15
771.171	2953.65
771.507	3003.82
771.842	2972.86
772.178	2953.43
772.513	2948.45
772.849	2936.48
773.184	2976.02
773.519	2936.02
773.855	2956.36
774.19	2898.74
774.525	2923.82
