Data from carpet_green_FLMS001491_00099.txt Node
Date: Wed Feb 08 10:36:08 GMT 2017
User: dcchb
Spectrometer: FLMS00149
Trigger mode: 0
Integration Time (sec): 2.000000E-2
Scans to average: 10
Electric dark correction enabled: true
Nonlinearity correction enabled: false
Boxcar width: 0
XAxis mode: Wavelengths
Number of Pixels in Spectrum: 2048
>>>>>Begin Spectral Data<<<<<
341.393	-12.09
341.776	-12.09
342.16	-12.09
342.543	-56.61
342.927	-68.81
343.31	-84.86
343.693	-68.36
344.077	-71.52
344.46	-62.48
344.843	-45.99
345.226	-34.46
345.61	-26.1
345.993	1.24
346.376	-4.41
346.759	14.8
347.142	45.31
347.525	45.54
347.908	52.54
348.291	60.9
348.674	93.67
349.057	84.18
349.44	131.41
349.823	128.25
350.206	173.22
350.588	173.67
350.971	154.46
351.354	204.4
351.737	221.58
352.119	215.7
352.502	239.65
352.884	239.43
353.267	250.28
353.65	271.29
354.032	247.56
354.414	284.63
354.797	279.65
355.179	305.42
355.562	288.24
355.944	295.47
356.326	300.9
356.709	294.57
357.091	309.03
357.473	330.05
357.855	301.57
358.238	299.54
358.62	294.79
359.002	323.95
359.384	321.01
359.766	325.53
360.148	285.3
360.53	314.91
360.912	315.13
361.294	299.54
361.676	304.06
362.057	321.46
362.439	322.36
362.821	301.57
363.203	298.64
363.584	307.45
363.966	297.05
364.348	279.88
364.729	289.82
365.111	283.5
365.493	296.6
365.874	285.98
366.256	292.31
366.637	302.03
367.019	298.41
367.4	285.53
367.781	295.02
368.163	289.37
368.544	274.68
368.925	285.08
369.306	285.76
369.688	280.56
370.069	251.86
370.45	290.73
370.831	290.95
371.212	287.34
371.593	270.16
371.974	274.46
372.355	277.17
372.736	272.42
373.117	278.98
373.498	297.05
373.879	274.46
374.26	271.07
374.641	269.26
375.021	292.08
375.402	294.12
375.783	280.33
376.163	280.56
376.544	275.36
376.925	292.99
377.305	282.14
377.686	274
378.066	299.77
378.447	272.42
378.827	289.37
379.208	286.21
379.588	285.53
379.968	282.82
380.349	286.43
380.729	295.47
381.109	290.73
381.489	287.56
381.87	302.03
382.25	277.85
382.63	290.5
383.01	301.35
383.39	291.18
383.77	264.96
384.15	297.73
384.53	298.18
384.91	299.09
385.29	318.3
385.67	314
386.049	311.97
386.429	303.38
386.809	303.16
387.189	297.05
387.568	296.15
387.948	283.5
388.328	284.63
388.707	308.58
389.087	302.48
389.466	288.24
389.846	331.18
390.225	318.07
390.605	295.47
390.984	292.76
391.363	308.58
391.743	296.38
392.122	332.99
392.501	298.86
392.881	296.38
393.26	310.84
393.639	286.89
394.018	316.49
394.397	299.54
394.776	311.97
395.155	295.25
395.534	308.81
395.913	299.31
396.292	312.65
396.671	303.16
397.05	318.07
397.429	308.81
397.808	305.19
398.186	304.74
398.565	304.51
398.944	310.16
399.323	297.51
399.701	331.86
400.08	325.98
400.458	307.9
400.837	307.68
401.215	322.82
401.594	319.65
401.972	333.89
402.351	312.65
402.729	307.9
403.107	320.33
403.486	326.88
403.864	301.35
404.242	297.51
404.62	314.46
404.999	316.71
405.377	308.13
405.755	309.03
406.133	325.75
406.511	302.7
406.889	321.69
407.267	335.47
407.645	324.17
408.023	310.84
408.401	319.2
408.779	320.1
409.156	329.37
409.534	334.12
409.912	330.95
410.29	315.13
410.667	313.1
411.045	342.7
411.422	327.79
411.8	323.95
412.178	337.96
412.555	345.19
412.933	353.32
413.31	357.62
413.687	331.18
414.065	347.22
414.442	341.35
414.819	357.62
415.197	369.82
415.574	354.23
415.951	323.49
416.328	342.7
416.705	339.99
417.082	350.39
417.46	344.06
417.837	349.93
418.214	379.31
418.591	335.7
418.967	372.76
419.344	353.55
419.721	349.93
420.098	354
420.475	347.9
420.852	338.86
421.228	358.97
421.605	342.48
421.982	356.26
422.358	350.61
422.735	360.78
423.111	350.16
423.488	366.66
423.864	345.19
424.241	349.71
424.617	349.03
424.994	367.33
425.37	367.79
425.746	348.13
426.123	388.8
426.499	372.53
426.875	384.96
427.251	383.61
427.627	372.53
428.003	386.77
428.379	401.68
428.756	377.73
429.132	383.61
429.507	376.15
429.883	374.34
430.259	380.89
430.635	392.19
431.011	385.41
431.387	365.53
431.763	398.97
432.138	414.79
432.514	391.06
432.89	412.31
433.265	394.68
433.641	402.81
434.016	381.57
434.392	375.92
434.767	405.3
435.143	409.82
435.518	422.02
435.894	418.18
436.269	403.27
436.644	422.25
437.02	400.33
437.395	417.73
437.77	417.5
438.145	396.71
438.52	411.4
438.895	417.96
439.271	422.02
439.646	427.67
440.021	437.16
440.395	427.67
440.77	440.55
441.145	439.2
441.52	439.2
441.895	445.3
442.27	453.43
442.645	444.62
443.019	465.41
443.394	449.59
443.769	428.58
444.143	444.62
444.518	445.07
444.892	453.66
445.267	448.69
445.641	456.6
446.016	457.28
446.39	457.95
446.764	454.34
447.139	475.58
447.513	442.14
447.887	450.72
448.262	451.85
448.636	483.04
449.01	459.08
449.384	441.01
449.758	457.28
450.132	460.44
450.506	499.31
450.88	520.78
451.254	482.59
451.628	491.17
452.002	488.01
452.376	493.21
452.75	485.52
453.123	490.27
453.497	481.91
453.871	495.69
454.244	508.12
454.618	492.53
454.992	506.31
455.365	496.6
455.739	509.48
456.112	501.34
456.486	525.97
456.859	508.35
457.232	530.95
457.606	537.5
457.979	532.08
458.352	544.73
458.725	527.56
459.099	538.18
459.472	558.74
459.845	556.48
460.218	532.75
460.591	553.54
460.964	551.74
461.337	559.65
461.71	572.3
462.083	581.11
462.456	572.08
462.829	568.91
463.201	602.36
463.574	559.87
463.947	593.32
464.32	590.38
464.692	596.71
465.065	576.14
465.438	609.59
465.81	608.23
466.183	614.56
466.555	625.41
466.928	612.98
467.3	611.85
467.672	618.85
468.045	647.78
468.417	651.85
468.789	651.17
469.161	662.92
469.534	660.21
469.906	682.35
470.278	656.37
470.65	660.21
471.022	667.44
471.394	725.07
471.766	685.29
472.138	704.73
472.51	714.9
472.882	727.1
473.253	711.96
473.625	729.81
473.997	742.47
474.369	753.54
474.74	738.17
475.112	764.16
475.484	744.05
475.855	789.47
476.227	786.98
476.598	819.75
476.97	812.07
477.341	820.66
477.713	812.52
478.084	813.65
478.455	867.21
478.827	851.62
479.198	857.94
479.569	880.54
479.94	900.65
480.311	896.59
480.682	902.46
481.053	929.58
481.424	917.15
481.795	917.6
482.166	951.05
482.537	965.96
482.908	975.68
483.279	975.45
483.65	994.44
484.021	1018.62
484.391	1018.62
484.762	1041.67
485.133	1018.84
485.503	1043.02
485.874	1089.8
486.244	1066.53
486.615	1073.53
486.985	1115.79
487.356	1095.68
487.726	1145.62
488.097	1154.21
488.467	1151.5
488.837	1167.77
489.207	1187.43
489.578	1194.88
489.948	1221.1
490.318	1253.19
490.688	1224.04
491.058	1251.83
491.428	1245.28
491.798	1247.54
492.168	1266.97
492.538	1291.15
492.908	1263.13
493.278	1302
493.648	1337.03
494.017	1335.9
494.387	1370.7
494.757	1345.39
495.126	1373.41
495.496	1381.55
495.866	1353.07
496.235	1405.27
496.605	1395.56
496.974	1404.82
497.344	1427.65
497.713	1435.56
498.082	1439.17
498.452	1458.83
498.821	1426.29
499.19	1473.07
499.559	1477.36
499.928	1484.82
500.298	1478.72
500.667	1498.6
501.036	1473.75
501.405	1510.81
501.774	1511.71
502.143	1501.99
502.512	1515.55
502.88	1556
503.249	1555.33
503.618	1537.25
503.987	1559.85
504.356	1578.15
504.724	1602.78
505.093	1577.7
505.462	1598.94
505.83	1556.46
506.199	1592.84
506.567	1619.96
506.936	1617.47
507.304	1647.08
507.672	1609.11
508.041	1620.64
508.409	1644.59
508.777	1640.3
509.145	1638.71
509.514	1671.93
509.882	1676
510.25	1688.88
510.618	1693.4
510.986	1729.79
511.354	1717.13
511.722	1730.24
512.09	1750.8
512.458	1759.39
512.826	1764.13
513.193	1755.32
513.561	1761.87
513.929	1764.81
514.297	1780.63
514.664	1753.51
515.032	1799.39
515.4	1768.2
515.767	1808.43
516.135	1790.8
516.502	1819.95
516.869	1862.21
517.237	1818.37
517.604	1831.25
517.972	1820.18
518.339	1853.62
518.706	1860.18
519.073	1859.95
519.44	1885.94
519.808	1874.64
520.175	1890.46
520.542	1935.66
520.909	1932.72
521.276	1912.83
521.643	1933.4
522.009	1967.74
522.376	1958.93
522.743	1955.99
523.11	1979.5
523.477	1980.85
523.843	1996.67
524.21	2000.96
524.577	2027.86
524.943	2016.33
525.31	2015.43
525.676	2061.98
526.043	2079.15
526.409	2057.46
526.776	2064.69
527.142	2094.07
527.508	2073.05
527.874	2104.92
528.241	2129.55
528.607	2097.23
528.973	2106.5
529.339	2112.37
529.705	2118.02
530.071	2172.94
530.437	2152.37
530.803	2163.22
531.169	2127.51
531.535	2149.89
531.901	2164.12
532.267	2133.62
532.632	2171.81
532.998	2159.83
533.364	2178.59
533.73	2193.73
534.095	2192.15
534.461	2190.79
534.826	2183.56
535.192	2215.65
535.557	2219.49
535.923	2217.91
536.288	2198.7
536.653	2233.05
537.019	2210.45
537.384	2238.25
537.749	2218.36
538.114	2227.4
538.479	2240.28
538.845	2210.68
539.21	2213.61
539.575	2231.24
539.94	2207.51
540.305	2224.91
540.67	2226.27
541.034	2238.92
541.399	2222.65
541.764	2273.73
542.129	2221.3
542.494	2239.15
542.858	2231.69
543.223	2268.98
543.587	2240.73
543.952	2245.03
544.316	2271.01
544.681	2306.94
545.045	2281.86
545.41	2273.73
545.774	2285.48
546.138	2299.49
546.503	2313.95
546.867	2314.63
547.231	2323.44
547.595	2297.45
547.959	2281.18
548.324	2287.51
548.688	2292.93
549.052	2318.02
549.416	2301.97
549.779	2291.58
550.143	2272.14
550.507	2311.24
550.871	2316.89
551.235	2308.98
551.599	2365.02
551.962	2315.31
552.326	2355.98
552.689	2354.18
553.053	2344.23
553.417	2334.51
553.78	2355.98
554.143	2336.77
554.507	2370.67
554.87	2343.33
555.234	2359.37
555.597	2366.83
555.96	2358.02
556.323	2350.56
556.686	2385.59
557.05	2388.98
557.413	2348.53
557.776	2389.65
558.139	2402.99
558.502	2372.25
558.865	2421.29
559.228	2418.35
559.59	2404.12
559.953	2408.86
560.316	2400.05
560.679	2414.96
561.041	2439.37
561.404	2418.35
561.767	2455.64
562.129	2413.83
562.492	2446.6
562.854	2465.13
563.217	2457.45
563.579	2470.78
563.941	2471.69
564.304	2471.69
564.666	2489.31
565.028	2467.62
565.39	2494.74
565.753	2505.36
566.115	2466.04
566.477	2505.58
566.839	2499.48
567.201	2524.79
567.563	2497.45
567.925	2514.17
568.287	2557.11
568.648	2540.16
569.01	2553.04
569.372	2557.56
569.734	2571.34
570.095	2522.31
570.457	2570.67
570.819	2565.92
571.18	2549.88
571.542	2584.23
571.903	2552.59
572.265	2582.42
572.626	2570.44
572.987	2550.1
573.349	2569.54
573.71	2585.13
574.071	2557.56
574.432	2594.85
574.794	2581.29
575.155	2580.38
575.516	2538.35
575.877	2557.11
576.238	2586.49
576.599	2567.5
576.96	2588.52
577.32	2603.43
577.681	2581.74
578.042	2587.62
578.403	2565.47
578.763	2580.38
579.124	2579.93
579.485	2578.12
579.845	2579.25
580.206	2572.25
580.566	2565.7
580.927	2564.79
581.287	2585.58
581.648	2568.86
582.008	2577.45
582.368	2552.36
582.728	2558.01
583.089	2554.4
583.449	2558.24
583.809	2558.92
584.169	2560.72
584.529	2576.99
584.889	2531.35
585.249	2530.89
585.609	2516.88
585.969	2538.8
586.329	2544.23
586.688	2520.27
587.048	2534.28
587.408	2495.41
587.768	2502.87
588.127	2505.81
588.487	2518.69
588.846	2530.67
589.206	2522.76
589.565	2513.95
589.925	2518.01
590.284	2477.11
590.643	2514.4
591.003	2522.08
591.362	2484.12
591.721	2494.06
592.08	2524.34
592.44	2503.78
592.799	2489.99
593.158	2532.02
593.517	2468.3
593.876	2504.68
594.235	2493.83
594.593	2454.06
594.952	2528.41
595.311	2506.71
595.67	2509.65
596.029	2498.58
596.387	2518.24
596.746	2511.91
597.104	2485.7
597.463	2503.78
597.822	2494.06
598.18	2513.04
598.538	2484.57
598.897	2505.81
599.255	2502.87
599.613	2535.64
599.972	2504.45
600.33	2532.25
600.688	2519.82
601.046	2517.56
601.404	2487.51
601.762	2528.18
602.12	2521.85
602.478	2511.01
602.836	2511.91
603.194	2543.55
603.552	2500.39
603.91	2508.97
604.268	2511.01
604.625	2525.7
604.983	2541.74
605.341	2532.02
605.698	2547.62
606.056	2522.76
606.413	2535.87
606.771	2547.39
607.128	2559.37
607.485	2544.68
607.843	2524.79
608.2	2552.36
608.557	2526.6
608.914	2567.28
609.272	2588.97
609.629	2565.7
609.986	2591.01
610.343	2546.94
610.7	2584
611.057	2569.08
611.414	2616.77
611.771	2573.83
612.127	2588.07
612.484	2581.29
612.841	2623.09
613.198	2599.59
613.554	2588.29
613.911	2588.52
614.267	2602.3
614.624	2583.32
614.98	2598.46
615.337	2639.37
615.693	2592.14
616.05	2640.27
616.406	2631
616.762	2635.52
617.118	2620.61
617.475	2623.09
617.831	2665.58
618.187	2640.04
618.543	2620.84
618.899	2661.96
619.255	2605.92
619.611	2633.94
619.967	2646.37
620.323	2625.35
620.678	2664.9
621.034	2610.89
621.39	2616.77
621.746	2588.75
622.101	2680.27
622.457	2683.43
622.812	2633.72
623.168	2658.57
623.523	2662.42
623.879	2666.03
624.234	2661.96
624.589	2650.44
624.945	2633.94
625.3	2627.16
625.655	2624.45
626.01	2643.66
626.365	2666.26
626.72	2624.22
627.075	2628.07
627.43	2618.35
627.785	2646.15
628.14	2623.32
628.495	2624.45
628.85	2585.58
629.205	2627.84
629.559	2638.01
629.914	2595.98
630.269	2615.86
630.623	2628.07
630.978	2637.78
631.332	2600.5
631.687	2630.78
632.041	2630.78
632.396	2594.17
632.75	2615.19
633.104	2622.87
633.459	2606.82
633.813	2642.53
634.167	2616.32
634.521	2573.83
634.875	2625.81
635.229	2601.17
635.583	2576.09
635.937	2600.95
636.291	2559.82
636.645	2600.27
636.999	2593.04
637.352	2611.57
637.706	2588.07
638.06	2587.39
638.413	2558.69
638.767	2570.21
639.121	2577.22
639.474	2546.49
639.828	2582.42
640.181	2578.58
640.534	2589.65
640.888	2574.73
641.241	2546.03
641.594	2603.21
641.947	2588.75
642.301	2591.23
642.654	2624.22
643.007	2600.95
643.36	2572.25
643.713	2608.41
644.066	2582.87
644.419	2601.85
644.771	2621.74
645.124	2587.39
645.477	2579.48
645.83	2594.62
646.182	2575.86
646.535	2550.33
646.888	2593.27
647.24	2553.72
647.593	2546.94
647.945	2552.36
648.298	2555.75
648.65	2532.93
649.002	2540.61
649.355	2567.73
649.707	2587.62
650.059	2578.58
650.411	2598.69
650.763	2640.5
651.115	2673.94
651.467	2666.71
651.819	2676.65
652.171	2698.57
652.523	2720.72
652.875	2715.52
653.227	2722.08
653.578	2734.05
653.93	2702.19
654.282	2720.72
654.633	2747.16
654.985	2767.05
655.337	2715.75
655.688	2752.81
656.039	2746.03
656.391	2775.18
656.742	2805.46
657.094	2785.35
657.445	2810.43
657.796	2805.91
658.147	2826.93
658.498	2818.12
658.849	2843.43
659.2	2849.08
659.551	2861.05
659.902	2871.68
660.253	2852.69
660.604	2926.14
660.955	2871.45
661.306	2925.91
661.656	2946.25
662.007	2942.41
662.358	2951.9
662.708	2963.88
663.059	3019.69
663.409	2972.92
663.76	3013.14
664.11	2998.23
664.461	3035.29
664.811	3068.51
665.161	3079.35
665.511	3075.29
665.862	3105.12
666.212	3116.42
666.562	3160.71
666.912	3166.58
667.262	3152.12
667.612	3202.97
667.962	3226.69
668.312	3205
668.662	3222.85
669.011	3246.13
669.361	3277.54
669.711	3292.68
670.06	3295.17
670.41	3302.63
670.76	3327.48
671.109	3381.94
671.459	3406.13
671.808	3390.08
672.157	3420.14
672.507	3409.06
672.856	3458.78
673.205	3472.34
673.554	3483.41
673.904	3476.18
674.253	3505.56
674.602	3542.62
674.951	3515.05
675.3	3549.17
675.649	3640.7
675.998	3633.92
676.346	3623.97
676.695	3676.85
677.044	3636.4
677.393	3688.83
677.741	3735.83
678.09	3782.39
678.438	3790.3
678.787	3835.94
679.135	3819.67
679.484	3848.37
679.832	3870.52
680.181	3872.78
680.529	3882.04
680.877	3917.98
681.225	3950.97
681.573	3998.88
681.922	4014.24
682.27	4004.53
682.618	4027.58
682.966	4046.33
683.314	4078.65
683.661	4078.2
684.009	4150.29
684.357	4141.02
684.705	4156.61
685.053	4165.65
685.4	4221.24
685.748	4218.31
686.095	4246.56
686.443	4248.81
686.79	4262.37
687.138	4263.73
687.485	4336.04
687.832	4343.28
688.18	4356.83
688.527	4388.25
688.874	4404.97
689.221	4425.08
689.568	4431.63
689.915	4465.31
690.262	4462.14
690.609	4486.32
690.956	4521.58
691.303	4536.49
691.65	4551.41
691.997	4578.07
692.344	4576.94
692.69	4604.74
693.037	4662.36
693.383	4670.5
693.73	4693.77
694.077	4705.98
694.423	4683.61
694.769	4753.43
695.116	4775.13
695.462	4748.01
695.808	4815.81
696.155	4840.44
696.501	4814.68
696.847	4861
697.193	4865.07
697.539	4879.31
697.885	4858.74
698.231	4883.6
698.577	4913.66
698.923	4925.86
699.269	4963.6
699.614	4967.21
699.96	4967.44
700.306	4994.78
700.651	4981
700.997	5021
701.342	5047.21
701.688	5028.91
702.033	5067.55
702.379	5075.69
702.724	5102.8
703.069	5135.57
703.415	5056.25
703.76	5134.67
704.105	5124.72
704.45	5130.37
704.795	5133.76
705.14	5152.07
705.485	5171.05
705.83	5156.59
706.175	5188.23
706.52	5202.01
706.865	5236.13
707.209	5230.03
707.554	5229.81
707.899	5262.8
708.243	5233.65
708.588	5309.58
708.932	5253.76
709.277	5302.12
709.621	5313.42
709.966	5325.62
710.31	5356.58
710.654	5298.73
710.998	5328.79
711.342	5385.06
711.687	5373.53
712.031	5368.11
712.375	5334.66
712.719	5359.29
713.063	5340.09
713.407	5402.23
713.75	5444.04
714.094	5393.19
714.438	5408.33
714.782	5427.54
715.125	5348.9
715.469	5491.95
715.812	5497.37
716.156	5442
716.499	5393.87
716.843	5494.43
717.186	5466.41
717.53	5497.82
717.873	5476.81
718.216	5487.65
718.559	5487.43
718.902	5470.25
719.246	5519.29
719.589	5532.62
719.932	5524.26
720.275	5471.38
720.617	5555.67
720.96	5498.05
721.303	5534.2
721.646	5537.37
721.989	5569.91
722.331	5525.62
722.674	5578.27
723.016	5576.46
723.359	5549.12
723.701	5563.81
724.044	5563.36
724.386	5526.52
724.729	5596.8
725.071	5541.21
725.413	5554.32
725.755	5538.5
726.097	5560.19
726.439	5494.88
726.782	5569.68
727.124	5627.08
727.465	5552.28
727.807	5569.23
728.149	5568.33
728.491	5552.51
728.833	5567.42
729.175	5559.06
729.516	5627.99
729.858	5524.94
730.199	5535.56
730.541	5545.96
730.882	5547.54
731.224	5614.88
731.565	5545.28
731.906	5630.7
732.248	5593.19
732.589	5575.56
732.93	5559.97
733.271	5541.66
733.612	5559.74
733.953	5607.88
734.294	5581.89
734.635	5510.48
734.976	5562.9
735.317	5535.33
735.658	5567.42
735.999	5541.44
736.339	5500.53
736.68	5556.35
737.021	5579.18
737.361	5529.01
737.702	5566.97
738.042	5460.99
738.383	5510.93
738.723	5558.61
739.063	5499.4
739.404	5533.53
739.744	5558.38
740.084	5518.61
740.424	5555.45
740.764	5487.88
741.104	5516.8
741.444	5503.7
741.784	5472.06
742.124	5471.61
742.464	5454.66
742.804	5475.22
743.143	5440.87
743.483	5471.83
743.823	5483.36
744.162	5423.47
744.502	5467.31
744.841	5443.13
745.181	5445.17
745.52	5426.64
745.86	5474.77
746.199	5449.69
746.538	5471.16
746.877	5435.45
747.216	5439.74
747.556	5413.08
747.895	5444.72
748.234	5415.56
748.573	5398.39
748.911	5396.36
749.25	5374.89
749.589	5344.61
749.928	5364.27
750.267	5408.33
750.605	5390.25
750.944	5406.98
751.283	5365.85
751.621	5305.96
751.96	5316.13
752.298	5298.96
752.636	5334.66
752.975	5256.47
753.313	5265.96
753.651	5269.13
753.989	5310.48
754.327	5238.85
754.666	5177.38
755.004	5222.8
755.342	5252.18
755.679	5254.89
756.017	5258.51
756.355	5206.3
756.693	5176.47
757.031	5181.45
757.368	5119.98
757.706	5138.06
758.044	5135.35
758.381	5144.61
758.719	5128.57
759.056	5075.01
759.394	5105.97
759.731	5077.95
760.068	5047.89
760.405	5025.97
760.743	5016.48
761.08	5059.41
761.417	5018.96
761.754	5044.95
762.091	4971.73
762.428	4959.08
762.765	4991.39
763.102	4957.95
763.438	4963.15
763.775	4934.45
764.112	4952.07
764.449	4936.71
764.785	4923.83
765.122	4821.68
765.458	4865.97
765.795	4835.47
766.131	4828.01
766.467	4808.35
766.804	4806.54
767.14	4714.57
767.476	4812.19
767.812	4737.16
768.148	4795.47
768.485	4781.23
768.821	4748.24
769.157	4704.62
769.492	4724.06
769.828	4658.3
770.164	4682.7
770.5	4681.35
770.836	4684.74
771.171	4641.8
771.507	4652.19
771.842	4562.48
772.178	4585.98
