Data from carpet_green_FLMS001491_00047.txt Node
Date: Wed Feb 08 10:35:25 GMT 2017
User: dcchb
Spectrometer: FLMS00149
Trigger mode: 0
Integration Time (sec): 2.000000E-2
Scans to average: 10
Electric dark correction enabled: true
Nonlinearity correction enabled: false
Boxcar width: 0
XAxis mode: Wavelengths
Number of Pixels in Spectrum: 2048
>>>>>Begin Spectral Data<<<<<
341.393	-23.23
341.776	-23.23
342.16	-23.23
342.543	-66.4
342.927	-76.57
343.31	-59.17
343.693	-80.18
344.077	-43.57
344.46	-55.1
344.843	-49
345.226	-62.1
345.61	-40.41
345.993	-35.44
346.376	19.7
346.759	3.21
347.142	31.23
347.525	51.11
347.908	49.53
348.291	59.7
348.674	111.68
349.057	98.8
349.44	138.57
349.823	140.83
350.206	151.68
350.588	164.33
350.971	173.15
351.354	175.18
351.737	210.43
352.119	228.74
352.502	242.97
352.884	255.18
353.267	232.58
353.65	247.95
354.032	259.92
354.414	279.13
354.797	278.68
355.179	269.41
355.562	303.31
355.944	293.37
356.326	297.89
356.709	301.73
357.091	292.69
357.473	308.96
357.855	316.87
358.238	300.15
358.62	318
359.002	306.7
359.384	293.37
359.766	290.43
360.148	301.28
360.53	303.09
360.912	310.77
361.294	285.91
361.676	304.22
362.057	298.57
362.439	306.02
362.821	281.39
363.203	271.45
363.584	297.21
363.966	294.72
364.348	287.04
364.729	311.67
365.111	281.62
365.493	287.94
365.874	284.78
366.256	283.88
366.637	298.34
367.019	292.24
367.4	269.41
367.781	295.4
368.163	294.05
368.544	268.28
368.925	275.74
369.306	301.28
369.688	293.59
370.069	267.61
370.45	281.39
370.831	280.26
371.212	307.38
371.593	261.5
371.974	283.42
372.355	281.62
372.736	279.36
373.117	282.29
373.498	262.86
373.879	261.05
374.26	262.18
374.641	273.71
375.021	275.97
375.402	263.99
375.783	285.01
376.163	286.14
376.544	299.02
376.925	278.45
377.305	280.71
377.686	286.36
378.066	290.43
378.447	295.85
378.827	291.33
379.208	288.4
379.588	297.21
379.968	308.06
380.349	282.29
380.729	288.62
381.109	301.5
381.489	299.24
381.87	269.87
382.25	286.59
382.63	298.34
383.01	285.01
383.39	300.37
383.77	272.8
384.15	266.02
384.53	282.52
384.91	289.3
385.29	291.56
385.67	278.68
386.049	289.53
386.429	310.09
386.809	268.06
387.189	275.52
387.568	295.18
387.948	276.87
388.328	282.75
388.707	285.68
389.087	310.32
389.466	284.78
389.846	284.78
390.225	281.16
390.605	286.36
390.984	289.07
391.363	323.65
391.743	269.41
392.122	298.79
392.501	280.04
392.881	305.12
393.26	301.05
393.639	290.2
394.018	326.81
394.397	278.91
394.776	287.72
395.155	284.78
395.534	324.33
395.913	292.69
396.292	308.28
396.671	303.54
397.05	283.65
397.429	310.77
397.808	307.83
398.186	305.8
398.565	318.68
398.944	303.76
399.323	318.23
399.701	306.25
400.08	301.96
400.458	297.44
400.837	315.51
401.215	323.42
401.594	304.44
401.972	312.8
402.351	325.68
402.729	320.26
403.107	313.25
403.486	290.88
403.864	304.22
404.242	326.59
404.62	325.68
404.999	312.58
405.377	303.99
405.755	305.12
406.133	313.25
406.511	305.35
406.889	296.08
407.267	318.9
407.645	330.88
408.023	318.68
408.401	322.97
408.779	330.66
409.156	320.49
409.534	327.72
409.912	305.57
410.29	314.38
410.667	315.29
411.045	308.51
411.422	320.26
411.8	316.19
412.178	315.51
412.555	339.92
412.933	307.6
413.31	313.71
413.687	315.74
414.065	328.17
414.442	325.46
414.819	325.68
415.197	321.62
415.574	346.25
415.951	297.44
416.328	309.86
416.705	316.19
417.082	353.48
417.46	320.26
417.837	346.25
418.214	321.84
418.591	339.92
418.967	331.33
419.344	339.02
419.721	305.35
420.098	347.83
420.475	324.1
420.852	346.7
421.228	336.98
421.605	327.49
421.982	336.3
422.358	329.07
422.735	328.85
423.111	340.6
423.488	326.36
423.864	343.31
424.241	342.63
424.617	333.37
424.994	325.46
425.37	335.17
425.746	338.34
426.123	343.08
426.499	335.63
426.875	325.46
427.251	349.64
427.627	342.86
428.003	350.32
428.379	345.34
428.756	354.61
429.132	347.15
429.507	335.17
429.883	345.34
430.259	347.38
430.635	348.06
431.011	337.89
431.387	348.51
431.763	343.31
432.138	344.67
432.514	362.07
432.89	337.21
433.265	372.91
433.641	353.48
434.016	351.9
434.392	353.71
434.767	348.73
435.143	384.21
435.518	378.79
435.894	360.03
436.269	383.99
436.644	356.64
437.02	382.63
437.395	382.18
437.77	344.89
438.145	363.42
438.52	372.01
438.895	389.64
439.271	381.95
439.646	354.84
440.021	377.43
440.395	374.95
440.77	383.99
441.145	360.26
441.52	386.02
441.895	371.78
442.27	355.29
442.645	384.21
443.019	379.24
443.394	364.33
443.769	370.65
444.143	380.37
444.518	392.35
444.892	379.02
445.267	395.74
445.641	366.36
446.016	386.7
446.39	372.91
446.764	403.2
447.139	397.55
447.513	426.02
447.887	391.22
448.262	407.49
448.636	374.72
449.01	378.79
449.384	420.6
449.758	402.29
450.132	402.97
450.506	396.19
450.88	394.38
451.254	419.92
451.628	402.97
452.002	413.82
452.376	414.04
452.75	395.29
453.123	419.47
453.497	407.04
453.871	406.81
454.244	382.63
454.618	414.95
454.992	400.03
455.365	410.2
455.739	423.99
456.112	421.27
456.486	438.22
456.859	426.25
457.232	431.22
457.606	427.83
457.979	421.05
458.352	421.73
458.725	451.33
459.099	417.21
459.472	428.51
459.845	437.77
460.218	433.25
460.591	450.88
460.964	433.7
461.337	461.5
461.71	437.09
462.083	448.84
462.456	451.1
462.829	452.01
463.201	452.23
463.574	470.31
463.947	476.64
464.32	473.93
464.692	481.16
465.065	459.92
465.438	472.57
465.81	483.87
466.183	480.93
466.555	464.44
466.928	467.15
467.3	474.15
467.672	481.16
468.045	492.01
468.417	494.94
468.789	473.7
469.161	480.26
469.534	488.17
469.906	485.91
470.278	500.37
470.65	512.35
471.022	509.18
471.394	541.5
471.766	508.5
472.138	533.36
472.51	534.94
472.882	515.96
473.253	535.4
473.625	528.16
473.997	523.64
474.369	540.59
474.74	552.57
475.112	547.15
475.484	571.55
475.855	565.68
476.227	558.9
476.598	576.52
476.97	574.94
477.341	584.66
477.713	581.5
478.084	592.8
478.455	607.48
478.827	602.51
479.198	616.07
479.569	624.43
479.94	606.58
480.311	633.25
480.682	625.56
481.053	659.91
481.424	633.25
481.795	658.33
482.166	649.74
482.537	646.81
482.908	662.85
483.279	652.91
483.65	669.86
484.021	695.39
484.391	689.52
484.762	704.43
485.133	724.09
485.503	706.69
485.874	699.46
486.244	725
486.615	716.86
486.985	720.93
487.356	701.94
487.726	738.55
488.097	772.68
488.467	740.14
488.837	773.81
489.207	748.72
489.578	775.39
489.948	774.71
490.318	795.95
490.688	789.4
491.058	791.66
491.428	813.81
491.798	809.74
492.168	826.46
492.538	817.42
492.908	823.98
493.278	829.4
493.648	831.88
494.017	867.14
494.387	837.76
494.757	874.6
495.126	884.54
495.496	818.78
495.866	873.92
496.235	877.31
496.605	894.03
496.974	877.08
497.344	885.22
497.713	874.82
498.082	894.71
498.452	887.7
498.821	898.78
499.19	900.36
499.559	914.82
499.928	915.5
500.298	931.77
500.667	917.76
501.036	902.17
501.405	919.34
501.774	948.49
502.143	945.55
502.512	949.62
502.88	922.96
503.249	970.41
503.618	959.34
503.987	950.98
504.356	943.97
504.724	946.91
505.093	983.29
505.462	952.33
505.83	963.18
506.199	990.52
506.567	976.74
506.936	962.95
507.304	997.98
507.672	993.24
508.041	991.43
508.409	986.68
508.777	999.79
509.145	1012.45
509.514	1000.69
509.882	998.66
510.25	989.17
510.618	998.66
510.986	1012.9
511.354	1007.25
511.722	1031.43
512.09	1059.68
512.458	1007.47
512.826	1054.48
513.193	1043.63
513.561	1023.74
513.929	1039.34
514.297	1060.58
514.664	1050.64
515.032	1068.04
515.4	1089.73
515.767	1070.75
516.135	1057.42
516.502	1075.49
516.869	1067.13
517.237	1076.17
517.604	1078.66
517.972	1047.7
518.339	1087.47
518.706	1089.73
519.073	1097.41
519.44	1087.7
519.808	1085.66
520.175	1102.39
520.542	1115.95
520.909	1102.61
521.276	1124.08
521.643	1127.47
522.009	1134.93
522.376	1126.79
522.743	1129.05
523.11	1086.12
523.477	1167.47
523.843	1129.5
524.21	1147.13
524.577	1147.58
524.943	1144.65
525.31	1153.01
525.676	1150.52
526.043	1193.46
526.409	1175.38
526.776	1153.01
527.142	1180.8
527.508	1170.63
527.874	1187.13
528.241	1193.46
528.607	1197.75
528.973	1190.97
529.339	1188.49
529.705	1181.03
530.071	1184.64
530.437	1205.66
530.803	1232.55
531.169	1213.8
531.535	1211.54
531.901	1206.56
532.267	1186.23
532.632	1217.41
532.998	1225.32
533.364	1208.82
533.73	1233
534.095	1207.92
534.461	1234.81
534.826	1219.45
535.192	1216.51
535.557	1233.46
535.923	1202.72
536.288	1228.26
536.653	1244.53
537.019	1231.65
537.384	1248.15
537.749	1223.74
538.114	1235.04
538.479	1229.61
538.845	1231.87
539.21	1223.06
539.575	1235.04
539.94	1230.74
540.305	1225.09
540.67	1216.06
541.034	1201.37
541.399	1247.69
541.764	1239.33
542.129	1254.25
542.494	1228.48
542.858	1222.38
543.223	1204.76
543.587	1236.85
543.952	1240.91
544.316	1226.45
544.681	1229.39
545.045	1240.01
545.41	1234.13
545.774	1255.38
546.138	1242.04
546.503	1253.57
546.867	1228.71
547.231	1233
547.595	1226.45
547.959	1229.39
548.324	1237.98
548.688	1247.69
549.052	1264.87
549.416	1250.4
549.779	1250.63
550.143	1244.98
550.507	1254.25
550.871	1255.6
551.235	1231.2
551.599	1235.72
551.962	1255.38
552.326	1273
552.689	1266.9
553.053	1221.03
553.417	1240.01
553.78	1253.79
554.143	1246.11
554.507	1257.18
554.87	1272.55
555.234	1269.84
555.597	1261.25
555.96	1251.53
556.323	1268.48
556.686	1287.47
557.05	1276.39
557.413	1279.1
557.776	1261.93
558.139	1268.03
558.502	1303.96
558.865	1325.43
559.228	1306.22
559.59	1295.15
559.953	1284.98
560.316	1310.74
560.679	1300.57
561.041	1308.26
561.404	1299.67
561.767	1296.51
562.129	1310.29
562.492	1299.67
562.854	1327.92
563.217	1279.56
563.579	1289.27
563.941	1312.1
564.304	1337.18
564.666	1334.47
565.028	1325.43
565.39	1328.37
565.753	1297.64
566.115	1318.88
566.477	1324.08
566.839	1349.16
567.201	1342.83
567.563	1316.62
567.925	1336.05
568.287	1349.39
568.648	1358.88
569.01	1330.63
569.372	1363.62
569.734	1320.46
570.095	1347.8
570.457	1367.01
570.819	1359.55
571.18	1334.02
571.542	1346.67
571.903	1348.03
572.265	1352.32
572.626	1364.3
572.987	1342.38
573.349	1366.79
573.71	1336.96
574.071	1324.75
574.432	1337.86
574.794	1348.48
575.155	1329.05
575.516	1375.37
575.877	1341.25
576.238	1328.82
576.599	1319.78
576.96	1348.93
577.32	1362.72
577.681	1353.45
578.042	1323.62
578.403	1345.09
578.763	1341.48
579.124	1340.12
579.485	1379.67
579.845	1357.29
580.206	1346
580.566	1322.27
580.927	1306.67
581.287	1335.37
581.648	1314.81
582.008	1350.29
582.368	1348.03
582.728	1314.81
583.089	1329.72
583.449	1354.36
583.809	1330.85
584.169	1336.05
584.529	1331.76
584.889	1349.39
585.249	1330.85
585.609	1322.95
585.969	1313.23
586.329	1338.09
586.688	1318.88
587.048	1308.48
587.408	1306.22
587.768	1305.54
588.127	1300.57
588.487	1284.3
588.846	1315.04
589.206	1309.39
589.565	1327.92
589.925	1338.76
590.284	1281.14
590.643	1276.62
591.003	1294.02
591.362	1292.44
591.721	1311.19
592.08	1300.12
592.44	1319.56
592.799	1288.37
593.158	1334.24
593.517	1311.65
593.876	1313.68
594.235	1300.12
594.593	1302.83
594.952	1333.79
595.311	1289.05
595.67	1327.01
596.029	1299.9
596.387	1296.73
596.746	1312.78
597.104	1302.16
597.463	1283.62
597.822	1284.98
598.18	1294.47
598.538	1296.28
598.897	1279.78
599.255	1291.53
599.613	1282.27
599.972	1296.73
600.33	1294.25
600.688	1309.84
601.046	1309.84
601.404	1302.16
601.762	1309.61
602.12	1317.52
602.478	1335.6
602.836	1275.94
603.194	1294.02
603.552	1324.75
603.91	1301.03
604.268	1321.82
604.625	1334.24
604.983	1299.67
605.341	1304.19
605.698	1337.86
606.056	1309.61
606.413	1303.28
606.771	1300.35
607.128	1332.44
607.485	1329.05
607.843	1282.72
608.2	1345.77
608.557	1301.48
608.914	1316.84
609.272	1346.9
609.629	1346
609.986	1305.54
610.343	1319.56
610.7	1335.6
611.057	1334.47
611.414	1320.46
611.771	1344.64
612.127	1352.32
612.484	1325.88
612.841	1360.68
613.198	1327.69
613.554	1322.27
613.911	1337.18
614.267	1336.28
614.624	1351.65
614.98	1347.35
615.337	1345.32
615.693	1362.04
616.05	1345.09
616.406	1333.11
616.762	1346.45
617.118	1347.8
617.475	1349.61
617.831	1348.93
618.187	1345.09
618.543	1347.58
618.899	1338.54
619.255	1356.16
619.611	1344.41
619.967	1360.46
620.323	1344.41
620.678	1368.14
621.034	1359.55
621.39	1386.9
621.746	1364.3
622.101	1363.85
622.457	1359.78
622.812	1372.66
623.168	1386.45
623.523	1346.67
623.879	1344.41
624.234	1358.42
624.589	1346
624.945	1363.85
625.3	1350.97
625.655	1360.01
626.01	1319.1
626.365	1360.01
626.72	1367.46
627.075	1326.56
627.43	1350.29
627.785	1344.19
628.14	1340.35
628.495	1336.96
628.85	1326.79
629.205	1364.75
629.559	1350.97
629.914	1325.21
630.269	1325.88
630.623	1333.34
630.978	1353.91
631.332	1346.67
631.687	1323.85
632.041	1330.85
632.396	1352.32
632.75	1340.35
633.104	1320.23
633.459	1324.98
633.813	1306.45
634.167	1320.46
634.521	1321.14
634.875	1305.32
635.229	1338.76
635.583	1308.48
635.937	1327.01
636.291	1336.5
636.645	1339.22
636.999	1310.97
637.352	1328.6
637.706	1327.47
638.06	1318.65
638.413	1338.09
638.767	1316.17
639.121	1316.39
639.474	1318.2
639.828	1335.83
640.181	1322.04
640.534	1305.77
640.888	1302.61
641.241	1326.11
641.594	1338.54
641.947	1327.47
642.301	1339.22
642.654	1363.17
643.007	1327.47
643.36	1327.24
643.713	1317.3
644.066	1323.17
644.419	1356.16
644.771	1298.09
645.124	1303.96
645.477	1325.88
645.83	1298.31
646.182	1322.72
646.535	1302.83
646.888	1320.91
647.24	1311.87
647.593	1342.38
647.945	1331.08
648.298	1324.3
648.65	1319.78
649.002	1319.56
649.355	1331.98
649.707	1315.04
650.059	1342.15
650.411	1363.17
650.763	1334.92
651.115	1364.07
651.467	1382.6
651.819	1373.11
652.171	1363.4
652.523	1373.11
652.875	1372.21
653.227	1377.41
653.578	1393
653.93	1411.98
654.282	1371.53
654.633	1408.59
654.985	1404.53
655.337	1394.36
655.688	1433.23
656.039	1404.75
656.391	1404.98
656.742	1410.17
657.094	1454.24
657.445	1435.94
657.796	1454.69
658.147	1469.16
658.498	1433.45
658.849	1458.54
659.2	1451.98
659.551	1464.41
659.902	1480.68
660.253	1474.13
660.604	1485.43
660.955	1493.56
661.306	1490.4
661.656	1500.79
662.007	1490.85
662.358	1532.21
662.708	1534.01
663.059	1540.79
663.409	1529.04
663.76	1550.28
664.11	1588.25
664.461	1566.78
664.811	1590.96
665.161	1581.47
665.511	1621.24
665.862	1563.17
666.212	1615.82
666.562	1621.24
666.912	1640.45
667.262	1602.71
667.612	1649.94
667.962	1656.72
668.312	1674.57
668.662	1677.29
669.011	1697.4
669.361	1683.84
669.711	1680.22
670.06	1705.31
670.41	1685.42
670.76	1715.7
671.109	1738.53
671.459	1732.65
671.808	1739.88
672.157	1788.92
672.507	1764.29
672.856	1791.41
673.205	1808.36
673.554	1825.98
673.904	1827.56
674.253	1835.7
674.602	1839.77
674.951	1848.36
675.3	1831.41
675.649	1880.9
675.998	1891.29
676.346	1876.15
676.695	1936.94
677.044	1947.56
677.393	1949.37
677.741	1967.9
678.09	1979.2
678.438	2004.06
678.787	1985.98
679.135	1984.17
679.484	2026.2
679.832	2043.83
680.181	2062.14
680.529	2073.89
680.877	2073.89
681.225	2071.85
681.573	2103.72
681.922	2103.49
682.27	2145.97
682.618	2098.29
682.966	2144.17
683.314	2152.53
683.661	2166.99
684.009	2151.62
684.357	2214.45
684.705	2213.77
685.053	2234.79
685.4	2255.8
685.748	2244.28
686.095	2253.32
686.443	2245.18
686.79	2265.07
687.138	2297.61
687.485	2314.78
687.832	2342.13
688.18	2349.36
688.527	2358.85
688.874	2375.12
689.221	2400.21
689.568	2399.98
689.915	2407.44
690.262	2409.24
690.609	2468.45
690.956	2438.85
691.303	2455.8
691.65	2458.28
691.997	2484.27
692.344	2475.91
692.69	2501.45
693.037	2507.1
693.383	2550.03
693.73	2570.6
694.077	2551.84
694.423	2586.42
694.769	2541.22
695.116	2606.75
695.462	2605.62
695.808	2615.57
696.155	2643.14
696.501	2613.53
696.847	2671.61
697.193	2652.85
697.539	2657.15
697.885	2682.23
698.231	2718.61
698.577	2730.82
698.923	2755
699.269	2776.92
699.614	2755.68
699.96	2769.24
700.306	2764.72
700.651	2771.04
700.997	2791.16
701.342	2794.32
701.688	2827.31
702.033	2827.99
702.379	2837.26
702.724	2852.85
703.069	2884.94
703.415	2871.38
703.76	2909.34
704.105	2875.45
704.45	2898.27
704.795	2926.97
705.14	2934.2
705.485	2965.84
705.83	2962.68
706.175	2992.28
706.52	2977.82
706.865	3002.22
707.209	3006.74
707.554	2955.9
707.899	3042.45
708.243	3025.27
708.588	3067.08
708.932	3060.3
709.277	3059.85
709.621	3070.7
709.966	3062.79
710.31	3062.56
710.654	3097.14
710.998	3087.42
711.342	3153.18
711.687	3126.51
712.031	3131.26
712.375	3105.72
712.719	3104.82
713.063	3147.08
713.407	3162.67
713.75	3174.65
714.094	3188.21
714.438	3222.56
714.782	3188.89
715.125	3218.04
715.469	3208.32
715.812	3218.26
716.156	3222.78
716.499	3222.56
716.843	3284.02
717.186	3240.86
717.53	3287.19
717.873	3301.42
718.216	3279.05
718.559	3321.99
718.902	3282.22
719.246	3262.1
719.589	3301.42
719.932	3324.02
720.275	3305.04
720.617	3373.74
720.96	3319.05
721.303	3356.34
721.646	3341.65
721.989	3339.62
722.331	3331.03
722.674	3365.6
723.016	3344.59
723.359	3375.09
723.701	3383.46
724.044	3360.41
724.386	3377.13
724.729	3410.35
725.071	3402.21
725.413	3370.35
725.755	3383
726.097	3383.68
726.439	3360.41
726.782	3387.52
727.124	3394.3
727.465	3355.43
727.807	3432.95
728.149	3412.16
728.491	3401.31
728.833	3412.38
729.175	3412.61
729.516	3400.18
729.858	3404.02
730.199	3422.55
730.541	3385.04
730.882	3449.44
731.224	3422.78
731.565	3404.02
731.906	3476.56
732.248	3447.18
732.589	3386.62
732.93	3439.27
733.271	3430.91
733.612	3411.25
733.953	3387.3
734.294	3480.4
734.635	3441.76
734.976	3471.82
735.317	3437.24
735.658	3407.41
735.999	3467.07
736.339	3427.3
736.68	3440.63
737.021	3422.78
737.361	3397.02
737.702	3439.27
738.042	3443.57
738.383	3417.81
738.723	3423.23
739.063	3413.51
739.404	3414.42
739.744	3437.92
740.084	3448.09
740.424	3391.14
740.764	3434.3
741.104	3436.79
741.444	3432.04
741.784	3412.38
742.124	3417.35
742.464	3414.42
742.804	3406.96
743.143	3408.09
743.483	3401.53
743.823	3414.87
744.162	3409.67
744.502	3393.63
744.841	3359.73
745.181	3416.22
745.52	3385.94
745.86	3390.91
746.199	3391.14
746.538	3373.96
746.877	3389.78
747.216	3436.34
747.556	3349.56
747.895	3424.13
748.234	3369.67
748.573	3331.71
748.911	3348.2
749.25	3319.73
749.589	3350.24
749.928	3358.37
750.267	3395.89
750.605	3349.56
750.944	3349.56
751.283	3338.71
751.621	3335.55
751.96	3355.89
752.298	3342.1
752.636	3293.52
752.975	3330.8
753.313	3308.66
753.651	3304.81
753.989	3285.38
754.327	3278.15
754.666	3291.03
755.004	3305.04
755.342	3291.03
755.679	3231.6
756.017	3296.23
756.355	3278.37
756.693	3270.01
757.031	3252.16
757.368	3260.07
757.706	3228.88
758.044	3248.77
758.381	3246.06
758.719	3198.15
759.056	3215.55
759.394	3174.42
759.731	3221.65
760.068	3197.02
760.405	3193.63
760.743	3154.08
761.08	3206.96
761.417	3152.95
761.754	3190.47
762.091	3140.75
762.428	3124.93
762.765	3136.23
763.102	3180.52
763.438	3080.19
763.775	3089.9
764.112	3080.41
764.449	3093.29
764.785	3086.97
765.122	3041.54
765.458	3086.06
765.795	3059.62
766.131	3033.86
766.467	3051.26
766.804	3021.88
767.14	3015.33
767.476	3017.14
767.812	3014.65
768.148	2978.04
768.485	3010.36
768.821	2968.33
769.157	2978.5
769.492	2997.48
769.828	2962.9
770.164	2988.21
770.5	2936.24
770.836	2905.5
771.171	2903.47
771.507	2912.51
771.842	2891.04
772.178	2890.81
772.513	2896.01
772.849	2904.15
773.184	2851.49
773.519	2869.8
773.855	2851.27
