Data from carpet_green_FLMS001491_00005.txt Node
Date: Wed Feb 08 10:34:47 GMT 2017
User: dcchb
Spectrometer: FLMS00149
Trigger mode: 0
Integration Time (sec): 2.000000E-2
Scans to average: 10
Electric dark correction enabled: true
Nonlinearity correction enabled: false
Boxcar width: 0
XAxis mode: Wavelengths
Number of Pixels in Spectrum: 2048
>>>>>Begin Spectral Data<<<<<
341.393	-6.24
341.776	-6.24
342.16	-6.24
342.543	-69.29
342.927	-62.29
343.31	-68.39
343.693	-64.55
344.077	-73.81
344.46	-70.2
344.843	-45.56
345.226	-47.82
345.61	-40.82
345.993	-16.19
346.376	-7.15
346.759	24.94
347.142	29.01
347.525	55.45
347.908	57.94
348.291	76.69
348.674	98.61
349.057	91.83
349.44	130.48
349.823	123.7
350.206	139.29
350.588	151.27
350.971	182
351.354	215.22
351.737	217.93
352.119	243.02
352.502	226.75
352.884	222.45
353.267	242.79
353.65	284.6
354.032	265.39
354.414	267.65
354.797	274.43
355.179	279.17
355.562	288.44
355.944	296.35
356.326	298.38
356.709	312.17
357.091	308.55
357.473	323.24
357.855	292.96
358.238	318.04
358.62	314.2
359.002	321.43
359.384	313.3
359.766	302.45
360.148	303.58
360.53	312.39
360.912	304.03
361.294	297.48
361.676	297.25
362.057	285.27
362.439	286.63
362.821	300.19
363.203	300.42
363.584	281.89
363.966	288.44
364.348	303.13
364.729	302.68
365.111	299.51
365.493	282.56
365.874	289.79
366.256	272.39
366.637	287.08
367.019	287.53
367.4	300.64
367.781	288.21
368.163	279.85
368.544	274.2
368.925	279.4
369.306	281.43
369.688	277.37
370.069	261.09
370.45	286.86
370.831	270.81
371.212	297.25
371.593	266.52
371.974	279.17
372.355	276.69
372.736	282.56
373.117	263.13
373.498	295.9
373.879	289.57
374.26	272.85
374.641	296.12
375.021	288.89
375.402	270.36
375.783	279.17
376.163	268.78
376.544	270.81
376.925	287.31
377.305	295.9
377.686	295.44
378.066	281.21
378.447	293.18
378.827	279.85
379.208	262
379.588	285.73
379.968	275.78
380.349	300.87
380.729	278.72
381.109	273.75
381.489	287.76
381.87	285.5
382.25	294.54
382.63	270.59
383.01	286.86
383.39	286.86
383.77	298.16
384.15	282.34
384.53	299.06
384.91	301.09
385.29	297.03
385.67	289.79
386.049	301.32
386.429	292.28
386.809	285.27
387.189	292.73
387.568	282.34
387.948	285.5
388.328	289.79
388.707	292.96
389.087	288.66
389.466	297.25
389.846	284.82
390.225	299.74
390.605	305.61
390.984	289.79
391.363	293.86
391.743	313.3
392.122	300.19
392.501	297.48
392.881	328.66
393.26	297.7
393.639	308.55
394.018	311.71
394.397	291.38
394.776	314.88
395.155	296.57
395.534	316.46
395.913	295.67
396.292	329.79
396.671	309
397.05	318.49
397.429	311.04
397.808	298.61
398.186	287.08
398.565	304.48
398.944	301.32
399.323	314.2
399.701	286.63
400.08	306.97
400.458	306.52
400.837	320.53
401.215	311.49
401.594	310.36
401.972	321.66
402.351	299.06
402.729	296.12
403.107	315.1
403.486	319.4
403.864	327.08
404.242	279.17
404.62	324.82
404.999	318.49
405.377	319.85
405.755	326.63
406.133	274.43
406.511	326.18
406.889	327.53
407.267	311.94
407.645	307.87
408.023	313.97
408.401	311.71
408.779	327.31
409.156	321.88
409.534	319.62
409.912	323.47
410.29	327.99
410.667	325.27
411.045	304.94
411.422	307.65
411.8	328.66
412.178	313.52
412.555	305.39
412.933	316.46
413.31	331.38
413.687	315.56
414.065	325.05
414.442	313.97
414.819	327.31
415.197	316.01
415.574	344.48
415.951	325.27
416.328	353.07
416.705	328.89
417.082	325.5
417.46	334.31
417.837	318.49
418.214	323.01
418.591	345.61
418.967	309.91
419.344	326.4
419.721	328.66
420.098	334.77
420.475	337.25
420.852	318.27
421.228	336.8
421.605	324.82
421.982	344.26
422.358	323.69
422.735	346.52
423.111	325.05
423.488	327.76
423.864	333.41
424.241	348.78
424.617	328.66
424.994	328.89
425.37	325.73
425.746	329.79
426.123	344.48
426.499	331.15
426.875	323.24
427.251	333.18
427.627	343.35
428.003	358.27
428.379	349
428.756	367.08
429.132	339.96
429.507	349.68
429.883	324.37
430.259	362.34
430.635	343.58
431.011	342.22
431.387	370.02
431.763	344.03
432.138	355.33
432.514	348.32
432.89	341.32
433.265	359.4
433.641	346.74
434.016	353.75
434.392	364.59
434.767	354.43
435.143	373.18
435.518	367.08
435.894	355.78
436.269	376.35
436.644	380.64
437.02	371.37
437.395	365.05
437.77	384.03
438.145	360.08
438.52	362.79
438.895	374.54
439.271	358.72
439.646	369.34
440.021	375.22
440.395	381.54
440.77	361.66
441.145	370.7
441.52	401.43
441.895	381.77
442.27	370.47
442.645	384.93
443.019	370.7
443.394	402.33
443.769	385.39
444.143	392.39
444.518	400.98
444.892	391.49
445.267	393.97
445.641	376.57
446.016	387.19
446.39	387.87
446.764	373.86
447.139	379.74
447.513	398.27
447.887	414.31
448.262	427.87
448.636	386.29
449.01	416.34
449.384	392.84
449.758	407.76
450.132	387.19
450.506	401.66
450.88	399.85
451.254	403.01
451.628	404.37
452.002	414.09
452.376	389.68
452.75	421.77
453.123	408.89
453.497	402.11
453.871	408.66
454.244	414.31
454.618	428.32
454.992	419.06
455.365	396.68
455.739	423.58
456.112	411.6
456.486	423.35
456.859	425.16
457.232	435.1
457.606	430.13
457.979	425.61
458.352	433.29
458.725	436.46
459.099	427.87
459.472	447.08
459.845	468.32
460.218	450.02
460.591	436.46
460.964	467.19
461.337	453.18
461.71	455.44
462.083	448.43
462.456	458.38
462.829	466.51
463.201	462.9
463.574	452.05
463.947	454.99
464.32	465.38
464.692	472.39
465.065	465.38
465.438	492.28
465.81	485.5
466.183	489.56
466.555	475.1
466.928	509.9
467.3	482.78
467.672	479.39
468.045	502.44
468.417	508.55
468.789	504.7
469.161	488.89
469.534	502.67
469.906	485.5
470.278	496.57
470.65	520.98
471.022	524.59
471.394	537.02
471.766	509
472.138	535.44
472.51	545.38
472.882	533.4
473.253	566.85
473.625	525.95
473.997	564.14
474.369	541.31
474.74	539.28
475.112	559.17
475.484	557.81
475.855	551.26
476.227	567.08
476.598	577.24
476.97	577.7
477.341	584.93
477.713	581.31
478.084	591.93
478.455	620.63
478.827	602.33
479.198	618.6
479.569	622.67
479.94	600.97
480.311	633.29
480.682	659.73
481.053	650.46
481.424	643.46
481.795	673.06
482.166	665.83
482.537	676.45
482.908	664.7
483.279	689.78
483.65	676.45
484.021	700.86
484.391	705.83
484.762	704.25
485.133	732.04
485.503	709.9
485.874	720.97
486.244	744.25
486.615	721.87
486.985	744.25
487.356	770.69
487.726	754.64
488.097	781.99
488.467	752.38
488.837	751.25
489.207	758.26
489.578	769.56
489.948	790.8
490.318	813.62
490.688	796
491.058	796.22
491.428	791.93
491.798	813.62
492.168	819.05
492.538	824.7
492.908	815.2
493.278	853.85
493.648	843
494.017	848.42
494.387	853.4
494.757	855.88
495.126	870.34
495.496	849.1
495.866	874.86
496.235	877.58
496.605	909.21
496.974	891.13
497.344	896.56
497.713	892.72
498.082	884.81
498.452	910.57
498.821	913.73
499.19	899.04
499.559	934.75
499.928	923.45
500.298	911.47
500.667	942.66
501.036	953.05
501.405	903.11
501.774	913.73
502.143	944.01
502.512	936.56
502.88	947.63
503.249	967.06
503.618	967.52
503.987	941.08
504.356	973.17
504.724	968.65
505.093	974.52
505.462	965.48
505.83	990.12
506.199	980.4
506.567	992.6
506.936	994.18
507.304	985.14
507.672	993.73
508.041	972.49
508.409	997.8
508.777	994.63
509.145	996.44
509.514	1012.26
509.882	1009.32
510.25	1001.19
510.618	1027.4
510.986	1045.93
511.354	1024.24
511.722	1043.45
512.09	1036.22
512.458	1010
512.826	1043.45
513.193	1044.58
513.561	1038.25
513.929	1033.5
514.297	1060.4
514.664	1050.9
515.032	1064.01
515.4	1075.08
515.767	1078.25
516.135	1073.05
516.502	1067.18
516.869	1088.87
517.237	1060.85
517.604	1086.61
517.972	1108.08
518.339	1101.3
518.706	1079.6
519.073	1105.14
519.44	1091.58
519.808	1118.02
520.175	1089.1
520.542	1119.38
520.909	1111.92
521.276	1120.28
521.643	1109.89
522.009	1099.72
522.376	1162.99
522.743	1123.22
523.11	1144.24
523.477	1159.15
523.843	1127.96
524.21	1148.98
524.577	1160.05
524.943	1193.5
525.31	1169.77
525.676	1181.07
526.043	1173.61
526.409	1174.07
526.776	1164.57
527.142	1173.16
527.508	1192.14
527.874	1208.64
528.241	1161.41
528.607	1216.1
528.973	1181.3
529.339	1198.25
529.705	1213.61
530.071	1195.08
530.437	1217
530.803	1191.69
531.169	1198.92
531.535	1190.79
531.901	1211.13
532.267	1197.57
532.632	1201.41
532.998	1211.8
533.364	1219.94
533.73	1221.07
534.095	1211.35
534.461	1225.14
534.826	1203.89
535.192	1224.46
535.557	1228.98
535.923	1233.72
536.288	1232.14
536.653	1227.62
537.019	1205.7
537.384	1224.69
537.749	1221.97
538.114	1215.19
538.479	1234.63
538.845	1219.71
539.21	1224.69
539.575	1254.74
539.94	1221.3
540.305	1194.18
540.67	1197.12
541.034	1181.3
541.399	1235.98
541.764	1239.15
542.129	1242.09
542.494	1247.74
542.858	1263.33
543.223	1228.98
543.587	1221.97
543.952	1230.79
544.316	1255.64
544.681	1227.17
545.045	1257.45
545.41	1257.68
545.774	1207.06
546.138	1264.68
546.503	1261.07
546.867	1258.36
547.231	1249.32
547.595	1235.98
547.959	1240.05
548.324	1249.54
548.688	1273.5
549.052	1246.38
549.416	1226.49
549.779	1257.9
550.143	1261.29
550.507	1230.79
550.871	1275.31
551.235	1252.48
551.599	1260.62
551.962	1252.93
552.326	1249.77
552.689	1264.01
553.053	1277.34
553.417	1267.17
553.78	1283.89
554.143	1264.68
554.507	1287.96
554.87	1270.33
555.234	1308.52
555.597	1265.81
555.96	1264.46
556.323	1293.84
556.686	1243.89
557.05	1288.19
557.413	1263.33
557.776	1298.36
558.139	1291.35
558.502	1282.99
558.865	1274.4
559.228	1291.12
559.59	1285.93
559.953	1266.27
560.316	1303.1
560.679	1315.98
561.041	1335.64
561.404	1310.11
561.767	1308.52
562.129	1329.77
562.492	1306.72
562.854	1289.99
563.217	1321.63
563.579	1337
563.941	1322.99
564.304	1342.65
564.666	1334.96
565.028	1333.61
565.39	1338.58
565.753	1349.43
566.115	1346.04
566.477	1345.36
566.839	1318.02
567.201	1367.05
567.563	1382.42
567.925	1351.91
568.287	1349.88
568.648	1334.96
569.01	1363.89
569.372	1390.1
569.734	1379.71
570.095	1356.43
570.457	1344.91
570.819	1376.32
571.18	1354.17
571.542	1376.32
571.903	1376.32
572.265	1344
572.626	1355.76
572.987	1359.37
573.349	1371.8
573.71	1376.32
574.071	1387.84
574.432	1355.98
574.794	1389.2
575.155	1406.38
575.516	1367.73
575.877	1370.44
576.238	1402.08
576.599	1353.72
576.96	1362.99
577.32	1371.35
577.681	1351.01
578.042	1368.41
578.403	1396.66
578.763	1354.4
579.124	1354.63
579.485	1377.45
579.845	1344.68
580.206	1356.66
580.566	1370.22
580.927	1367.96
581.287	1374.29
581.648	1378.35
582.008	1348.3
582.368	1357.79
582.728	1348.52
583.089	1378.13
583.449	1363.21
583.809	1362.08
584.169	1363.89
584.529	1362.31
584.889	1368.41
585.249	1352.82
585.609	1361.86
585.969	1355.08
586.329	1335.19
586.688	1332.71
587.048	1341.74
587.408	1336.77
587.768	1348.52
588.127	1366.15
588.487	1316.21
588.846	1326.83
589.206	1365.92
589.565	1348.75
589.925	1324.57
590.284	1300.62
590.643	1344.68
591.003	1351.46
591.362	1300.39
591.721	1312.59
592.08	1315.98
592.44	1335.64
592.799	1338.81
593.158	1350.33
593.517	1330.67
593.876	1356.21
594.235	1322.99
594.593	1315.08
594.952	1311.46
595.311	1322.76
595.67	1328.41
596.029	1312.59
596.387	1311.46
596.746	1334.29
597.104	1321.41
597.463	1322.08
597.822	1305.36
598.18	1314.63
598.538	1316.21
598.897	1333.16
599.255	1311.46
599.613	1353.72
599.972	1334.96
600.33	1345.59
600.688	1323.44
601.046	1334.29
601.404	1335.64
601.762	1349.43
602.12	1334.06
602.478	1328.19
602.836	1334.29
603.194	1333.16
603.552	1311.46
603.91	1339.03
604.268	1351.91
604.625	1330.22
604.983	1334.51
605.341	1340.39
605.698	1323.44
606.056	1349.2
606.413	1328.41
606.771	1377
607.128	1343.33
607.485	1336.09
607.843	1358.69
608.2	1331.8
608.557	1342.42
608.914	1334.06
609.272	1360.05
609.629	1343.55
609.986	1326.83
610.343	1356.66
610.7	1361.63
611.057	1350.11
611.414	1341.07
611.771	1341.29
612.127	1339.03
612.484	1344
612.841	1330.22
613.198	1372.93
613.554	1379.03
613.911	1382.42
614.267	1350.33
614.624	1359.82
614.98	1368.18
615.337	1405.7
615.693	1366.6
616.05	1368.41
616.406	1401.18
616.762	1390.56
617.118	1360.73
617.475	1398.69
617.831	1389.43
618.187	1399.6
618.543	1386.26
618.899	1407.73
619.255	1385.13
619.611	1404.79
619.967	1381.07
620.323	1395.98
620.678	1385.59
621.034	1360.5
621.39	1363.89
621.746	1378.81
622.101	1396.66
622.457	1342.65
622.812	1368.41
623.168	1372.93
623.523	1382.65
623.879	1382.87
624.234	1374.06
624.589	1372.7
624.945	1402.53
625.3	1346.26
625.655	1356.66
626.01	1381.29
626.365	1380.61
626.72	1344
627.075	1390.33
627.43	1375.87
627.785	1381.29
628.14	1382.65
628.495	1407.73
628.85	1376.09
629.205	1352.37
629.559	1392.59
629.914	1368.18
630.269	1383.1
630.623	1360.5
630.978	1346.26
631.332	1400.05
631.687	1365.02
632.041	1351.69
632.396	1354.63
632.75	1364.79
633.104	1375.19
633.459	1383.78
633.813	1359.15
634.167	1340.16
634.521	1362.76
634.875	1367.73
635.229	1377
635.583	1343.55
635.937	1328.41
636.291	1336.77
636.645	1337.22
636.999	1338.81
637.352	1356.21
637.706	1372.48
638.06	1365.02
638.413	1347.39
638.767	1338.58
639.121	1337.22
639.474	1336.55
639.828	1343.33
640.181	1366.6
640.534	1366.15
640.888	1358.24
641.241	1329.99
641.594	1339.48
641.947	1348.07
642.301	1342.65
642.654	1365.92
643.007	1369.31
643.36	1353.5
643.713	1339.26
644.066	1347.39
644.419	1363.66
644.771	1353.72
645.124	1313.5
645.477	1346.49
645.83	1346.49
646.182	1330.9
646.535	1351.46
646.888	1344.46
647.24	1322.08
647.593	1356.66
647.945	1366.38
648.298	1357.11
648.65	1353.27
649.002	1319.37
649.355	1355.08
649.707	1338.13
650.059	1350.56
650.411	1381.07
650.763	1385.81
651.115	1391.69
651.467	1383.55
651.819	1398.24
652.171	1409.54
652.523	1414.74
652.875	1402.08
653.227	1398.01
653.578	1400.73
653.93	1489.09
654.282	1426.94
654.633	1435.75
654.985	1454.74
655.337	1428.52
655.688	1448.86
656.039	1461.97
656.391	1485.47
656.742	1484.34
657.094	1482.76
657.445	1464.23
657.796	1454.51
658.147	1444.34
658.498	1470.1
658.849	1497.45
659.2	1507.62
659.551	1491.34
659.902	1529.76
660.253	1503.77
660.604	1532.02
660.955	1521.63
661.306	1529.99
661.656	1530.67
662.007	1536.77
662.358	1564.56
662.708	1546.26
663.059	1561.4
663.409	1561.17
663.76	1579.7
664.11	1582.42
664.461	1607.95
664.811	1605.01
665.161	1610.44
665.511	1651.57
665.862	1621.29
666.212	1640.72
666.562	1666.48
666.912	1662.87
667.262	1694.96
667.612	1670.32
667.962	1714.62
668.312	1698.12
668.662	1729.76
669.011	1741.96
669.361	1736.54
669.711	1763.88
670.06	1761.17
670.41	1785.12
670.76	1791.45
671.109	1809.98
671.459	1836.87
671.808	1818.57
672.157	1848.85
672.507	1820.15
672.856	1853.14
673.205	1857.89
673.554	1880.71
673.904	1879.81
674.253	1907.83
674.602	1896.98
674.951	1903.76
675.3	1890.43
675.649	1949.64
675.998	1957.55
676.346	1940.6
676.695	2017.88
677.044	2027.6
677.393	2022.86
677.741	2070.31
678.09	2041.39
678.438	2078.22
678.787	2118.45
679.135	2139.01
679.484	2128.39
679.832	2129.75
680.181	2152.34
680.529	2173.36
680.877	2169.52
681.225	2197.99
681.573	2203.87
681.922	2224.43
682.27	2260.82
682.618	2268.95
682.966	2296.3
683.314	2336.52
683.661	2299.23
684.009	2355.28
684.357	2336.75
684.705	2361.6
685.053	2391.89
685.4	2409.96
685.748	2396.63
686.095	2415.16
686.443	2488.83
686.79	2478.66
687.138	2499.91
687.485	2518.44
687.832	2542.62
688.18	2550.75
688.527	2583.52
688.874	2572.22
689.221	2576.51
689.568	2644.31
689.915	2643.63
690.262	2626.91
690.609	2638.21
690.956	2681.82
691.303	2748.04
691.65	2728.37
691.997	2728.37
692.344	2749.39
692.69	2779.67
693.037	2828.03
693.383	2823.29
693.73	2836.39
694.077	2836.85
694.423	2915.94
694.769	2936.28
695.116	2936.73
695.462	2933.11
695.808	2948.48
696.155	2991.19
696.501	2998.65
696.847	2995.26
697.193	3015.82
697.539	3019.21
697.885	3064.18
698.231	3089.5
698.577	3126.1
698.923	3152.54
699.269	3138.76
699.614	3131.75
699.96	3154.8
700.306	3200.23
700.651	3206.1
700.997	3224.18
701.342	3261.24
701.688	3247.23
702.033	3280.9
702.379	3296.27
702.724	3341.01
703.069	3339.66
703.415	3353.67
703.76	3349.38
704.105	3360
704.45	3454.68
704.795	3435.25
705.14	3420.33
705.485	3437.96
705.83	3485.19
706.175	3523.83
706.52	3528.81
706.865	3564.74
707.209	3576.71
707.554	3555.7
707.899	3590.5
708.243	3620.1
708.588	3611.06
708.932	3628.92
709.277	3635.7
709.621	3676.6
709.966	3637.28
710.31	3692.87
710.654	3712.98
710.998	3746.43
711.342	3733.55
711.687	3750.49
712.031	3786.43
712.375	3773.09
712.719	3809.02
713.063	3826.88
713.407	3830.72
713.75	3805.63
714.094	3886.08
714.438	3853.09
714.782	3900.1
715.125	3913.88
715.469	3936.25
715.812	3945.29
716.156	3969.02
716.499	3944.39
716.843	4003.82
717.186	3999.98
717.53	4013.76
717.873	4038.62
718.216	4067.55
718.559	4067.55
718.902	4043.82
719.246	4080.43
719.589	4022.8
719.932	4069.81
720.275	4077.94
720.617	4069.36
720.96	4119.07
721.303	4130.82
721.646	4122.91
721.989	4102.35
722.331	4171.73
722.674	4204.49
723.016	4182.57
723.359	4197.94
723.701	4205.17
724.044	4178.96
724.386	4188.68
724.729	4153.42
725.071	4183.25
725.413	4225.51
725.755	4234.32
726.097	4200.65
726.439	4199.97
726.782	4241.56
727.124	4259.41
727.465	4268.67
727.807	4248.33
728.149	4302.34
728.491	4293.31
728.833	4312.74
729.175	4257.83
729.516	4302.34
729.858	4275.45
730.199	4294.44
730.541	4329.69
730.882	4307.77
731.224	4313.87
731.565	4308.67
731.906	4354.09
732.248	4380.76
732.589	4355.9
732.93	4326.07
733.271	4345.28
733.612	4364.49
733.953	4350.03
734.294	4332.17
734.635	4329.01
734.976	4346.19
735.317	4333.53
735.658	4337.15
735.999	4383.47
736.339	4346.86
736.68	4329.69
737.021	4345.73
737.361	4386.64
737.702	4374.66
738.042	4314.32
738.383	4406.97
738.723	4376.92
739.063	4357.26
739.404	4405.17
739.744	4374.21
740.084	4393.87
740.424	4362.46
740.764	4341.44
741.104	4390.48
741.444	4389.12
741.784	4369.24
742.124	4328.78
742.464	4351.83
742.804	4347.09
743.143	4399.07
743.483	4330.59
743.823	4310.25
744.162	4383.47
744.502	4317.94
744.841	4347.54
745.181	4335.11
745.52	4360.87
745.86	4370.14
746.199	4333.08
746.538	4314.1
746.877	4347.09
747.216	4310.03
747.556	4333.53
747.895	4307.99
748.234	4316.13
748.573	4315.68
748.911	4277.03
749.25	4321.1
749.589	4315.68
749.928	4320.2
750.267	4315
750.605	4292.18
750.944	4317.71
751.283	4275.45
751.621	4223.02
751.96	4263.02
752.298	4263.7
752.636	4254.89
752.975	4261.67
753.313	4225.06
753.651	4265.96
753.989	4238.39
754.327	4230.48
754.666	4188.9
755.004	4222.8
755.342	4224.83
755.679	4199.07
756.017	4202.23
756.355	4156.59
756.693	4200.65
757.031	4203.82
757.368	4178.73
757.706	4142.12
758.044	4146.87
758.381	4140.31
758.719	4099.64
759.056	4169.92
759.394	4150.94
759.731	4120.65
760.068	4053.99
760.405	4080.43
760.743	4048.57
761.08	4117.72
761.417	4079.75
761.754	4042.01
762.091	4015.57
762.428	3992.97
762.765	3973.99
763.102	4004.73
763.438	4013.31
763.775	3949.36
764.112	3979.42
764.449	4006.08
764.785	3981.45
765.122	3936.93
765.458	3952.98
765.795	3902.36
766.131	3947.1
766.467	3910.94
766.804	3930.6
767.14	3895.35
767.476	3890.83
767.812	3881.11
768.148	3863.71
768.485	3878.85
768.821	3803.6
769.157	3824.39
769.492	3818.29
769.828	3847.22
770.164	3815.35
770.5	3795.69
770.836	3759.99
771.171	3753.88
771.507	3735.13
771.842	3712.53
772.178	3759.08
772.513	3719.31
772.849	3720.44
773.184	3683.6
773.519	3726.77
773.855	3660.1
774.19	3658.52
