Data from carpet_green_FLMS001491_00037.txt Node
Date: Wed Feb 08 10:35:17 GMT 2017
User: dcchb
Spectrometer: FLMS00149
Trigger mode: 0
Integration Time (sec): 2.000000E-2
Scans to average: 10
Electric dark correction enabled: true
Nonlinearity correction enabled: false
Boxcar width: 0
XAxis mode: Wavelengths
Number of Pixels in Spectrum: 2048
>>>>>Begin Spectral Data<<<<<
341.393	-12.73
341.776	-12.73
342.16	-12.73
342.543	-65.15
342.927	-59.73
343.31	-50.01
343.693	-78.49
344.077	-63.12
344.46	-65.15
344.843	-51.37
345.226	-50.01
345.61	-33.52
345.993	-31.26
346.376	-0.75
346.759	-2.1
347.142	30.44
347.525	43.09
347.908	69.98
348.291	58.68
348.674	95.75
349.057	127.84
349.44	128.74
349.823	133.71
350.206	156.76
350.588	168.74
350.971	195.63
351.354	210.55
351.737	228.17
352.119	212.13
352.502	266.36
352.884	263.2
353.267	262.52
353.65	272.01
354.032	267.49
354.414	280.83
354.797	286.48
355.179	288.96
355.562	295.74
355.944	304.55
356.326	305.68
356.709	312.46
357.091	312.46
357.473	304.55
357.855	329.41
358.238	311.79
358.62	307.27
359.002	324.21
359.384	295.06
359.766	300.49
360.148	322.86
360.53	296.19
360.912	312.92
361.294	315.18
361.676	307.94
362.057	296.19
362.439	300.71
362.821	298
363.203	313.59
363.584	323.31
363.966	291.45
364.348	288.74
364.729	299.13
365.111	303.2
365.493	294.84
365.874	301.16
366.256	290.32
366.637	302.97
367.019	272.46
367.4	275.4
367.781	295.06
368.163	269.75
368.544	267.49
368.925	281.28
369.306	277.66
369.688	291.9
370.069	271.56
370.45	309.07
370.831	276.08
371.212	306.81
371.593	265.91
371.974	283.76
372.355	277.66
372.736	288.28
373.117	265.46
373.498	291.9
373.879	285.35
374.26	285.35
374.641	293.93
375.021	288.74
375.402	274.5
375.783	295.97
376.163	289.87
376.544	283.31
376.925	276.76
377.305	283.99
377.686	291.22
378.066	278.79
378.447	302.07
378.827	294.38
379.208	289.64
379.588	300.49
379.968	292.13
380.349	295.97
380.729	293.03
381.109	279.47
381.489	279.02
381.87	304.33
382.25	306.14
382.63	283.76
383.01	303.42
383.39	291.22
383.77	301.84
384.15	309.3
384.53	302.52
384.91	287.61
385.29	288.51
385.67	306.81
386.049	294.38
386.429	308.85
386.809	319.47
387.189	289.64
387.568	311.79
387.948	298.9
388.328	295.51
388.707	307.72
389.087	310.66
389.466	299.13
389.846	297.55
390.225	298.68
390.605	315.4
390.984	302.97
391.363	308.17
391.743	322.18
392.122	315.4
392.501	290.09
392.881	323.54
393.26	316.53
393.639	310.88
394.018	302.97
394.397	300.03
394.776	303.2
395.155	318.11
395.534	316.08
395.913	300.26
396.292	318.79
396.671	286.48
397.05	294.61
397.429	314.05
397.808	293.26
398.186	312.01
398.565	317.44
398.944	295.06
399.323	309.53
399.701	303.65
400.08	305.91
400.458	330.09
400.837	304.55
401.215	322.63
401.594	306.59
401.972	307.27
402.351	316.08
402.729	297.55
403.107	314.95
403.486	300.71
403.864	325.57
404.242	317.89
404.62	319.24
404.999	326.93
405.377	322.86
405.755	325.57
406.133	316.31
406.511	321.95
406.889	322.41
407.267	309.07
407.645	332.35
408.023	331.45
408.401	342.07
408.779	329.64
409.156	319.47
409.534	325.34
409.912	348.39
410.29	343.42
410.667	338.23
411.045	309.98
411.422	331.22
411.8	319.02
412.178	320.82
412.555	317.89
412.933	325.8
413.31	320.37
413.687	333.48
414.065	337.1
414.442	307.49
414.819	335.74
415.197	351.56
415.574	349.75
415.951	322.18
416.328	323.54
416.705	335.29
417.082	311.33
417.46	335.51
417.837	337.1
418.214	335.06
418.591	336.64
418.967	362.63
419.344	343.88
419.721	338.45
420.098	347.72
420.475	351.56
420.852	335.06
421.228	365.57
421.605	353.37
421.982	351.33
422.358	348.85
422.735	334.16
423.111	352.01
423.488	350.2
423.864	345.91
424.241	349.3
424.617	352.46
424.994	339.81
425.37	343.88
425.746	347.26
426.123	360.6
426.499	341.39
426.875	354.5
427.251	348.17
427.627	369.86
428.003	370.54
428.379	349.3
428.756	359.69
429.132	349.07
429.507	351.78
429.883	358.34
430.259	350.2
430.635	353.82
431.011	370.32
431.387	368.51
431.763	360.15
432.138	386.36
432.514	368.28
432.89	370.09
433.265	367.15
433.641	366.02
434.016	348.62
434.392	363.76
434.767	377.55
435.143	385.91
435.518	366.25
435.894	374.16
436.269	373.93
436.644	384.33
437.02	373.93
437.395	386.59
437.77	365.8
438.145	399.92
438.52	362.18
438.895	358.11
439.271	374.83
439.646	376.19
440.021	382.74
440.395	374.83
440.77	395.17
441.145	373.7
441.52	403.76
441.895	392.69
442.27	377.09
442.645	392.46
443.019	425.91
443.394	401.95
443.769	415.51
444.143	373.93
444.518	391.11
444.892	383.2
445.267	415.96
445.641	409.86
446.016	402.63
446.39	383.87
446.764	419.81
447.139	394.04
447.513	400.14
447.887	411.67
448.262	415.51
448.636	406.25
449.01	413.48
449.384	403.08
449.758	426.58
450.132	415.51
450.506	386.13
450.88	406.25
451.254	401.95
451.628	405.34
452.002	407.6
452.376	425.23
452.75	413.93
453.123	427.26
453.497	414.83
453.871	433.59
454.244	416.64
454.618	421.16
454.992	442.4
455.365	405.34
455.739	430.65
456.112	436.98
456.486	425.91
456.859	441.27
457.232	418
457.606	437.21
457.979	447.83
458.352	450.76
458.725	462.52
459.099	437.43
459.472	461.84
459.845	449.86
460.218	455.06
460.591	468.39
460.964	460.48
461.337	469.75
461.71	470.88
462.083	462.97
462.456	463.87
462.829	487.6
463.201	486.92
463.574	485.34
463.947	487.6
464.32	477.66
464.692	492.35
465.065	476.08
465.438	481.27
465.81	474.04
466.183	495.96
466.555	502.74
466.928	502.52
467.3	496.64
467.672	499.58
468.045	511.1
468.417	495.28
468.789	519.46
469.161	498.22
469.534	521.72
469.906	541.16
470.278	531.67
470.65	545
471.022	547.26
471.394	562.17
471.766	542.06
472.138	533.25
472.51	557.43
472.882	575.06
473.253	565.56
473.625	566.69
473.997	586.35
474.369	559.91
474.74	592.23
475.112	599.69
475.484	608.95
475.855	609.63
476.227	611.44
476.598	595.62
476.97	615.51
477.341	624.77
477.713	621.61
478.084	616.86
478.455	654.83
478.827	647.37
479.198	648.27
479.569	649.18
479.94	676.75
480.311	661.61
480.682	663.64
481.053	684.21
481.424	663.64
481.795	709.29
482.166	695.05
482.537	724.2
482.908	688.5
483.279	723.3
483.65	732.34
484.021	742.73
484.391	735.73
484.762	742.28
485.133	771.89
485.503	782.96
485.874	779.34
486.244	796.29
486.615	821.83
486.985	799.46
487.356	787.03
487.726	822.73
488.097	836.97
488.467	820.02
488.837	827.48
489.207	877.42
489.578	837.65
489.948	842.39
490.318	869.51
490.688	879
491.058	888.95
491.428	884.2
491.798	889.85
492.168	891.21
492.538	914.03
492.908	916.06
493.278	919
493.648	918.55
494.017	924.65
494.387	950.41
494.757	921.49
495.126	945.22
495.496	951.99
495.866	963.97
496.235	978.43
496.605	964.42
496.974	984.08
497.344	982.73
497.713	1003.74
498.082	988.38
498.452	1017.98
498.821	1022.05
499.19	1021.37
499.559	1001.71
499.928	1042.16
500.298	1046.68
500.667	1030.41
501.036	1038.09
501.405	1044.2
501.774	1049.85
502.143	1022.28
502.512	1031.54
502.88	1056.85
503.249	1061.37
503.618	1049.62
503.987	1057.53
504.356	1072.67
504.724	1069.05
505.093	1061.37
505.462	1083.06
505.83	1056.62
506.199	1092.56
506.567	1089.62
506.936	1095.72
507.304	1121.26
507.672	1102.27
508.041	1111.99
508.409	1111.31
508.777	1117.41
509.145	1110.41
509.514	1117.87
509.882	1123.97
510.25	1117.19
510.618	1152.44
510.986	1156.28
511.354	1155.38
511.722	1172.78
512.09	1178.43
512.458	1178.2
512.826	1156.06
513.193	1162.61
513.561	1153.8
513.929	1163.51
514.297	1208.94
514.664	1174.36
515.032	1188.37
515.4	1168.49
515.767	1233.34
516.135	1208.49
516.502	1227.02
516.869	1219.56
517.237	1222.72
517.604	1203.74
517.972	1209.62
518.339	1219.33
518.706	1197.41
519.073	1206
519.44	1234.02
519.808	1214.36
520.175	1248.71
520.542	1227.24
520.909	1241.93
521.276	1246.9
521.643	1252.78
522.009	1271.99
522.376	1268.37
522.743	1247.13
523.11	1263.17
523.477	1281.48
523.843	1298.65
524.21	1318.09
524.577	1301.82
524.943	1309.5
525.31	1312.21
525.676	1314.92
526.043	1317.86
526.409	1337.52
526.776	1335.04
527.142	1337.75
527.508	1325.77
527.874	1314.92
528.241	1321.7
528.607	1349.95
528.973	1356.73
529.339	1362.15
529.705	1346.11
530.071	1350.18
530.437	1356.96
530.803	1370.06
531.169	1388.14
531.535	1348.59
531.901	1384.75
532.267	1378.2
532.632	1383.85
532.998	1383.85
533.364	1382.49
533.73	1405.99
534.095	1389.5
534.461	1395.15
534.826	1385.88
535.192	1364.41
535.557	1392.44
535.923	1383.62
536.288	1379.1
536.653	1401.7
537.019	1392.21
537.384	1396.73
537.749	1402.6
538.114	1390.85
538.479	1413.45
538.845	1417.75
539.21	1381.59
539.575	1396.28
539.94	1394.92
540.305	1396.5
540.67	1394.69
541.034	1390.63
541.399	1407.12
541.764	1405.09
542.129	1405.77
542.494	1382.49
542.858	1415.26
543.223	1396.28
543.587	1432.66
543.952	1401.02
544.316	1384.98
544.681	1401.7
545.045	1415.94
545.41	1427.24
545.774	1408.25
546.138	1431.76
546.503	1405.99
546.867	1397.63
547.231	1398.99
547.595	1407.35
547.959	1428.37
548.324	1416.39
548.688	1449.16
549.052	1432.89
549.416	1424.3
549.779	1406.45
550.143	1415.71
550.507	1406.67
550.871	1428.82
551.235	1436.28
551.599	1421.81
551.962	1458.2
552.326	1435.82
552.689	1453.22
553.053	1413.68
553.417	1425.2
553.78	1448.7
554.143	1440.8
554.507	1460.68
554.87	1462.72
555.234	1485.77
555.597	1457.97
555.96	1453
556.323	1459.55
556.686	1464.98
557.05	1442.15
557.413	1459.1
557.776	1480.79
558.139	1483.28
558.502	1460.23
558.865	1485.31
559.228	1450.51
559.59	1467.24
559.953	1474.69
560.316	1477.4
560.679	1483.05
561.041	1483.51
561.404	1464.98
561.767	1493.68
562.129	1493.22
562.492	1494.35
562.854	1488.7
563.217	1509.27
563.579	1510.85
563.941	1522.83
564.304	1527.12
564.666	1554.46
565.028	1509.04
565.39	1566.89
565.753	1556.05
566.115	1542.94
566.477	1544.52
566.839	1554.69
567.201	1535.03
567.563	1558.08
567.925	1557.63
568.287	1544.97
568.648	1538.87
569.01	1526.89
569.372	1560.79
569.734	1539.1
570.095	1554.46
570.457	1552.88
570.819	1556.05
571.18	1567.12
571.542	1558.53
571.903	1552.66
572.265	1564.86
572.626	1562.6
572.987	1581.13
573.349	1561.47
573.71	1554.01
574.071	1597.63
574.432	1547.69
574.794	1574.13
575.155	1582.03
575.516	1577.29
575.877	1554.01
576.238	1560.57
576.599	1573.45
576.96	1540.68
577.32	1564.18
577.681	1530.06
578.042	1571.41
578.403	1541.81
578.763	1535.48
579.124	1543.39
579.485	1596.5
579.845	1564.86
580.206	1570.06
580.566	1529.83
580.927	1550.62
581.287	1560.79
581.648	1561.47
582.008	1543.62
582.368	1554.01
582.728	1570.28
583.089	1534.13
583.449	1516.05
583.809	1558.08
584.169	1523.28
584.529	1547.69
584.889	1526.89
585.249	1512.66
585.609	1504.52
585.969	1544.3
586.329	1493.9
586.688	1493.68
587.048	1553.79
587.408	1509.49
587.768	1508.59
588.127	1506.33
588.487	1493
588.846	1506.1
589.206	1504.75
589.565	1518.08
589.925	1502.49
590.284	1514.47
590.643	1504.3
591.003	1505.88
591.362	1494.58
591.721	1511.3
592.08	1503.17
592.44	1513.11
592.799	1504.52
593.158	1496.16
593.517	1486.67
593.876	1504.75
594.235	1506.56
594.593	1497.74
594.952	1494.13
595.311	1488.48
595.67	1506.33
596.029	1508.59
596.387	1484.86
596.746	1489.38
597.104	1472.66
597.463	1498.87
597.822	1518.08
598.18	1505.2
598.538	1486.67
598.897	1505.2
599.255	1474.69
599.613	1494.81
599.972	1495.94
600.33	1501.36
600.688	1485.99
601.046	1495.71
601.404	1509.72
601.762	1492.55
602.12	1500.91
602.478	1527.8
602.836	1502.04
603.194	1505.88
603.552	1509.49
603.91	1519.89
604.268	1479.21
604.625	1513.79
604.983	1493.9
605.341	1512.21
605.698	1501.58
606.056	1491.87
606.413	1514.92
606.771	1524.18
607.128	1511.98
607.485	1509.04
607.843	1517.86
608.2	1530.74
608.557	1519.21
608.914	1493
609.272	1541.36
609.629	1526.89
609.986	1538.19
610.343	1495.03
610.7	1507.69
611.057	1530.74
611.414	1533.22
611.771	1535.03
612.127	1530.74
612.484	1516.95
612.841	1560.34
613.198	1537.97
613.554	1560.11
613.911	1557.63
614.267	1541.58
614.624	1548.36
614.98	1554.46
615.337	1543.84
615.693	1549.27
616.05	1564.41
616.406	1544.07
616.762	1568.25
617.118	1565.76
617.475	1555.59
617.831	1561.92
618.187	1550.4
618.543	1521.92
618.899	1574.35
619.255	1544.07
619.611	1573
619.967	1578.64
620.323	1556.95
620.678	1552.43
621.034	1514.47
621.39	1551.3
621.746	1543.84
622.101	1518.99
622.457	1586.78
622.812	1550.62
623.168	1543.39
623.523	1558.31
623.879	1562.83
624.234	1582.94
624.589	1569.15
624.945	1562.37
625.3	1537.74
625.655	1542.49
626.01	1574.13
626.365	1568.02
626.72	1556.27
627.075	1560.11
627.43	1546.1
627.785	1529.15
628.14	1533.67
628.495	1552.2
628.85	1571.41
629.205	1522.38
629.559	1587.68
629.914	1526.22
630.269	1560.34
630.623	1573.67
630.978	1547.46
631.332	1554.24
631.687	1532.09
632.041	1519.66
632.396	1514.92
632.75	1535.26
633.104	1530.74
633.459	1527.12
633.813	1532.54
634.167	1541.13
634.521	1522.38
634.875	1520.79
635.229	1521.47
635.583	1544.3
635.937	1550.85
636.291	1503.84
636.645	1530.51
636.999	1535.26
637.352	1519.21
637.706	1500.45
638.06	1526.22
638.413	1521.25
638.767	1518.08
639.121	1519.66
639.474	1506.78
639.828	1531.41
640.181	1531.64
640.534	1516.73
640.888	1538.65
641.241	1517.63
641.594	1534.35
641.947	1528.48
642.301	1535.93
642.654	1529.38
643.007	1528.25
643.36	1514.69
643.713	1534.58
644.066	1542.04
644.419	1536.84
644.771	1540.45
645.124	1485.54
645.477	1502.04
645.83	1514.01
646.182	1518.31
646.535	1503.62
646.888	1496.61
647.24	1522.15
647.593	1532.77
647.945	1522.83
648.298	1542.04
648.65	1507.23
649.002	1515.82
649.355	1517.63
649.707	1535.48
650.059	1534.58
650.411	1528.93
650.763	1577.06
651.115	1595.82
651.467	1574.8
651.819	1582.03
652.171	1589.94
652.523	1614.35
652.875	1563.73
653.227	1612.99
653.578	1619.1
653.93	1642.6
654.282	1611.41
654.633	1610.51
654.985	1608.7
655.337	1601.02
655.688	1612.99
656.039	1632.43
656.391	1620.9
656.742	1620
657.094	1660
657.445	1658.42
657.796	1674.69
658.147	1630.17
658.498	1678.98
658.849	1700.45
659.2	1665.2
659.551	1674.91
659.902	1699.77
660.253	1712.2
660.604	1701.35
660.955	1711.97
661.306	1737.51
661.656	1724.4
662.007	1728.02
662.358	1730.96
662.708	1749.49
663.059	1765.76
663.409	1775.02
663.76	1798.53
664.11	1798.75
664.461	1783.61
664.811	1810.5
665.161	1828.13
665.511	1826.77
665.862	1848.47
666.212	1839.2
666.562	1850.73
666.912	1898.86
667.262	1868.35
667.612	1881.24
667.962	1897.73
668.312	1898.41
668.662	1925.3
669.011	1940.67
669.361	1933.89
669.711	1961.69
670.06	1972.08
670.41	1997.39
670.76	2004.17
671.109	2016.83
671.459	2008.24
671.808	2008.92
672.157	2070.84
672.507	2057.95
672.856	2070.84
673.205	2105.41
673.554	2076.71
673.904	2099.08
674.253	2145.86
674.602	2156.03
674.951	2109.93
675.3	2127.56
675.649	2155.58
675.998	2199.87
676.346	2220.21
676.695	2217.27
677.044	2255.01
677.393	2265.86
677.741	2297.5
678.09	2255.01
678.438	2266.99
678.787	2329.81
679.135	2343.37
679.484	2350.83
679.832	2408.68
680.181	2394.44
680.529	2379.53
680.877	2435.35
681.225	2455.23
681.573	2461.56
681.922	2452.97
682.27	2486.87
682.618	2495.68
682.966	2537.04
683.314	2555.34
683.661	2579.75
684.009	2557.6
684.357	2569.13
684.705	2608.67
685.053	2622.69
685.4	2679.86
685.748	2648.45
686.095	2662.68
686.443	2674.89
686.79	2714.66
687.138	2728.67
687.485	2784.26
687.832	2772.29
688.18	2770.7
688.527	2789.91
688.874	2871.04
689.221	2807.31
689.568	2855
689.915	2846.41
690.262	2899.06
690.609	2906.52
690.956	2904.94
691.303	2947.65
691.65	2972.28
691.997	2978.16
692.344	3006.4
692.69	3014.99
693.037	3017.7
693.383	3047.08
693.73	3068.1
694.077	3067.87
694.423	3063.13
694.769	3063.35
695.116	3115.33
695.462	3128.66
695.808	3141.09
696.155	3170.24
696.501	3205.49
696.847	3185.83
697.193	3222.9
697.539	3203.69
697.885	3242.33
698.231	3244.14
698.577	3313.51
698.923	3305.38
699.269	3313.97
699.614	3324.59
699.96	3307.41
700.306	3339.28
700.651	3327.98
700.997	3375.66
701.342	3376.34
701.688	3386.06
702.033	3440.97
702.379	3462.66
702.724	3424.47
703.069	3494.53
703.415	3457.01
703.76	3520.97
704.105	3493.62
704.45	3508.99
704.795	3527.75
705.14	3568.2
705.485	3532.94
705.83	3577.24
706.175	3579.5
706.52	3645.71
706.865	3638.93
707.209	3631.7
707.554	3614.98
707.899	3652.71
708.243	3652.49
708.588	3737.23
708.932	3682.09
709.277	3725.71
709.621	3732.49
709.966	3691.13
710.31	3782.43
710.654	3727.51
710.998	3759.15
711.342	3781.3
711.687	3799.6
712.031	3767.97
712.375	3813.61
712.719	3812.26
713.063	3841.18
713.407	3855.87
713.75	3852.03
714.094	3877.57
714.438	3860.39
714.782	3874.4
715.125	3887.74
715.469	3940.84
715.812	3941.07
716.156	3904.23
716.499	3909.88
716.843	3926.15
717.186	3944.91
717.53	3969.99
717.873	4037.11
718.216	4010.67
718.559	4004.57
718.902	4008.64
719.246	4028.98
719.589	4012.25
719.932	4016.32
720.275	4036.43
720.617	4027.39
720.96	4042.08
721.303	4007.51
721.646	4097.22
721.989	4051.8
722.331	4038.92
722.674	4074.17
723.016	4118.69
723.359	4085.92
723.701	4100.84
724.044	4070.1
724.386	4116.43
724.729	4153.04
725.071	4094.29
725.413	4169.54
725.755	4154.17
726.097	4133.38
726.439	4153.49
726.782	4148.29
727.124	4179.25
727.465	4157.11
727.807	4144.23
728.149	4114.4
728.491	4147.62
728.833	4178.35
729.175	4165.47
729.516	4143.78
729.858	4184.45
730.199	4191.01
730.541	4175.19
730.882	4151.68
731.224	4182.87
731.565	4176.77
731.906	4164.11
732.248	4198.46
732.589	4182.19
732.93	4191.23
733.271	4213.83
733.612	4244.11
733.953	4201.63
734.294	4166.6
734.635	4181.74
734.976	4188.75
735.317	4152.59
735.658	4212.93
735.999	4174.73
736.339	4183.55
736.68	4182.87
737.021	4160.95
737.361	4168.18
737.702	4233.26
738.042	4192.59
738.383	4178.12
738.723	4200.95
739.063	4199.37
739.404	4184.45
739.744	4186.26
740.084	4170.22
740.424	4207.28
740.764	4200.95
741.104	4197.79
741.444	4158.92
741.784	4184.9
742.124	4170.22
742.464	4211.57
742.804	4148.07
743.143	4195.07
743.483	4164.34
743.823	4161.85
744.162	4173.15
744.502	4179.93
744.841	4176.09
745.181	4164.57
745.52	4155.3
745.86	4200.95
746.199	4188.97
746.538	4131.35
746.877	4156.2
747.216	4160.05
747.556	4173.6
747.895	4157.33
748.234	4152.81
748.573	4137.67
748.911	4164.34
749.25	4180.84
749.589	4111.01
749.928	4089.09
750.267	4092.7
750.605	4157.56
750.944	4150.55
751.283	4078.69
751.621	4080.5
751.96	4095.41
752.298	4078.24
752.636	4073.04
752.975	4066.94
753.313	4059.48
753.651	4097.9
753.989	4018.81
754.327	4064
754.666	4024.68
755.004	3964.8
755.342	3982.88
755.679	3999.82
756.017	3984.23
756.355	4022.2
756.693	4000.28
757.031	3978.13
757.368	3969.32
757.706	4008.41
758.044	3983.1
758.381	3982.2
758.719	3915.31
759.056	3977.45
759.394	3937.45
759.731	3900.84
760.068	3871.69
760.405	3891.35
760.743	3853.61
761.08	3918.92
761.417	3868.08
761.754	3885.48
762.091	3885.48
762.428	3847.29
762.765	3849.09
763.102	3861.52
763.438	3845.25
763.775	3785.59
764.112	3774.75
764.449	3787.63
764.785	3782.88
765.122	3763.9
765.458	3732.71
765.795	3743.33
766.131	3737.68
766.467	3760.06
766.804	3725.03
767.14	3698.82
767.476	3674.41
767.812	3734.07
768.148	3696.33
768.485	3641.64
768.821	3650.23
769.157	3696.33
769.492	3635.99
769.828	3619.27
770.164	3658.36
770.5	3584.02
770.836	3603.68
771.171	3572.04
771.507	3549.21
771.842	3570.23
772.178	3561.87
772.513	3533.85
772.849	3554.41
773.184	3512.38
