Data from carpet_green_FLMS001491_00049.txt Node
Date: Wed Feb 08 10:35:26 GMT 2017
User: dcchb
Spectrometer: FLMS00149
Trigger mode: 0
Integration Time (sec): 2.000000E-2
Scans to average: 10
Electric dark correction enabled: true
Nonlinearity correction enabled: false
Boxcar width: 0
XAxis mode: Wavelengths
Number of Pixels in Spectrum: 2048
>>>>>Begin Spectral Data<<<<<
341.393	-23.86
341.776	-23.86
342.16	-23.86
342.543	-57.3
342.927	-74.7
343.31	-92.1
343.693	-64.98
344.077	-74.93
344.46	-70.63
344.843	-41.03
345.226	-26.34
345.61	-30.86
345.993	-18.43
346.376	-1.71
346.759	4.62
347.142	35.13
347.525	22.25
347.908	74.9
348.291	71.28
348.674	96.59
349.057	116.25
349.44	114.9
349.823	120.55
350.206	135.91
350.588	165.29
350.971	163.94
351.354	177.5
351.737	197.61
352.119	207.33
352.502	220.66
352.884	213.88
353.267	245.74
353.65	265.85
354.032	286.87
354.414	297.27
354.797	281.22
355.179	268.11
355.562	289.36
355.944	284.61
356.326	299.3
356.709	311.73
357.091	289.36
357.473	308.34
357.855	292.07
358.238	290.03
358.62	292.07
359.002	301.56
359.384	299.98
359.766	302.69
360.148	297.04
360.53	302.24
360.912	301.56
361.294	285.06
361.676	292.75
362.057	299.07
362.439	313.31
362.821	314.89
363.203	281
363.584	285.74
363.966	279.87
364.348	311.05
364.729	285.97
365.111	274.44
365.493	288.9
365.874	276.48
366.256	257.72
366.637	279.41
367.019	287.77
367.4	271.5
367.781	272.86
368.163	278.51
368.544	273.31
368.925	281.45
369.306	268.11
369.688	286.19
370.069	282.35
370.45	272.63
370.831	282.58
371.212	255.23
371.593	287.32
371.974	290.03
372.355	286.65
372.736	273.09
373.117	266.76
373.498	282.8
373.879	272.86
374.26	252.07
374.641	268.34
375.021	276.02
375.402	276.48
375.783	267.66
376.163	278.96
376.544	286.19
376.925	281.45
377.305	266.08
377.686	266.53
378.066	266.76
378.447	272.86
378.827	282.8
379.208	272.86
379.588	279.19
379.968	267.66
380.349	272.63
380.729	277.61
381.109	292.52
381.489	264.5
381.87	263.59
382.25	294.78
382.63	285.74
383.01	279.64
383.39	298.17
383.77	283.26
384.15	283.48
384.53	290.26
384.91	297.04
385.29	301.56
385.67	301.11
386.049	277.61
386.429	282.13
386.809	294.1
387.189	285.52
387.568	284.39
387.948	312.18
388.328	296.59
388.707	306.08
389.087	298.85
389.466	285.52
389.846	285.06
390.225	286.87
390.605	289.58
390.984	282.8
391.363	288.9
391.743	289.81
392.122	281.22
392.501	284.39
392.881	297.94
393.26	298.4
393.639	290.94
394.018	285.06
394.397	297.72
394.776	287.77
395.155	290.26
395.534	307.44
395.913	285.52
396.292	302.24
396.671	281.67
397.05	318.06
397.429	305.18
397.808	297.94
398.186	312.41
398.565	306.08
398.944	312.63
399.323	322.12
399.701	292.07
400.08	302.01
400.458	321.45
400.837	313.08
401.215	298.62
401.594	313.99
401.972	309.24
402.351	285.74
402.729	326.87
403.107	307.66
403.486	300.66
403.864	297.49
404.242	303.59
404.62	302.92
404.999	326.64
405.377	310.83
405.755	299.3
406.133	290.49
406.511	302.92
406.889	304.5
407.267	302.92
407.645	329.58
408.023	304.95
408.401	314.21
408.779	298.85
409.156	330.03
409.534	325.51
409.912	311.05
410.29	325.06
410.667	314.67
411.045	337.72
411.422	319.64
411.8	316.25
412.178	296.36
412.555	308.11
412.933	349.24
413.31	313.31
413.687	315.8
414.065	332.07
414.442	318.51
414.819	331.39
415.197	330.94
415.574	347.21
415.951	315.34
416.328	318.96
416.705	323.03
417.082	343.37
417.46	325.51
417.837	320.77
418.214	337.94
418.591	323.03
418.967	325.29
419.344	322.58
419.721	323.93
420.098	315.12
420.475	315.12
420.852	321.45
421.228	316.7
421.605	330.03
421.982	336.59
422.358	342.01
422.735	330.94
423.111	328.68
423.488	320.54
423.864	323.25
424.241	344.5
424.617	351.28
424.994	349.47
425.37	327.1
425.746	333.65
426.123	342.46
426.499	357.38
426.875	351.73
427.251	336.14
427.627	360.99
428.003	351.95
428.379	329.58
428.756	348.11
429.132	353.99
429.507	353.08
429.883	358.73
430.259	344.5
430.635	356.93
431.011	335.68
431.387	344.5
431.763	346.76
432.138	370.03
432.514	353.76
432.89	351.95
433.265	360.99
433.641	355.34
434.016	351.95
434.392	376.13
434.767	381.33
435.143	337.94
435.518	358.73
435.894	359.19
436.269	380.65
436.644	374.33
437.02	354.89
437.395	386.98
437.77	348.79
438.145	377.04
438.52	392.63
438.895	362.58
439.271	369.13
439.646	356.93
440.021	368.9
440.395	382.69
440.77	366.19
441.145	350.37
441.52	386.3
441.895	379.3
442.27	360.54
442.645	379.3
443.019	359.86
443.394	387.21
443.769	377.04
444.143	377.72
444.518	379.3
444.892	384.72
445.267	392.4
445.641	372.74
446.016	375.68
446.39	377.72
446.764	404.16
447.139	386.08
447.513	401.44
447.887	403.93
448.262	388.56
448.636	390.37
449.01	392.4
449.384	390.37
449.758	400.77
450.132	398.96
450.506	388.79
450.88	382.01
451.254	409.35
451.628	400.77
452.002	397.15
452.376	427.21
452.75	403.25
453.123	411.61
453.497	404.16
453.871	396.02
454.244	399.41
454.618	401.44
454.992	419.07
455.365	406.64
455.739	400.09
456.112	405.96
456.486	423.14
456.859	414.55
457.232	443.93
457.606	429.69
457.979	431.95
458.352	425.85
458.725	425.85
459.099	412.74
459.472	419.75
459.845	443.03
460.218	455.68
460.591	448.9
460.964	446.64
461.337	443.25
461.71	452.74
462.083	449.13
462.456	423.82
462.829	460.88
463.201	460.43
463.574	457.71
463.947	467.21
464.32	485.28
464.692	477.37
465.065	451.84
465.438	465.85
465.81	475.11
466.183	482.35
466.555	494.78
466.928	460.2
467.3	478.28
467.672	478.28
468.045	486.19
468.417	513.76
468.789	488.22
469.161	491.16
469.534	495.45
469.906	481.44
470.278	501.33
470.65	504.27
471.022	520.99
471.394	528.22
471.766	510.14
472.138	523.7
472.51	524.15
472.882	525.28
473.253	524.6
473.625	529.58
473.997	541.33
474.369	540.65
474.74	534.1
475.112	558.95
475.484	550.82
475.855	544.27
476.227	575.45
476.598	580.87
476.97	549.46
477.341	568.45
477.713	597.6
478.084	603.7
478.455	584.04
478.827	611.61
479.198	617.94
479.569	603.92
479.94	624.49
480.311	624.94
480.682	599.63
481.053	640.99
481.424	649.35
481.795	637.14
482.166	663.13
482.537	641.89
482.908	665.62
483.279	674.66
483.65	656.8
484.021	686.63
484.391	670.36
484.762	691.61
485.133	679.86
485.503	706.07
485.874	706.29
486.244	700.87
486.615	713.75
486.985	724.37
487.356	729.12
487.726	763.24
488.097	744.94
488.467	742.23
488.837	739.51
489.207	774.77
489.578	792.17
489.948	786.29
490.318	793.98
490.688	787.42
491.058	806.63
491.428	806.41
491.798	789
492.168	844.37
492.538	808.67
492.908	853.64
493.278	867.65
493.648	838.72
494.017	838.49
494.387	863.35
494.757	869.91
495.126	845.95
495.496	873.3
495.866	882.34
496.235	877.36
496.605	865.39
496.974	887.31
497.344	887.53
497.713	859.74
498.082	883.69
498.452	883.24
498.821	912.62
499.19	907.87
499.559	911.71
499.928	909
500.298	918.49
500.667	919.17
501.036	907.42
501.405	937.02
501.774	926.63
502.143	939.28
502.512	926.18
502.88	934.54
503.249	946.97
503.618	961.2
503.987	949.23
504.356	947.87
504.724	973.63
505.093	953.97
505.462	981.32
505.83	963.69
506.199	959.85
506.567	971.82
506.936	979.28
507.304	975.44
507.672	977.02
508.041	1018.6
508.409	1007.98
508.777	976.8
509.145	998.94
509.514	987.87
509.882	1014.76
510.25	1001.2
510.618	1016.8
510.986	1025.16
511.354	1033.52
511.722	1026.96
512.09	1012.05
512.458	1033.97
512.826	1021.99
513.193	1052.73
513.561	1031.26
513.929	1045.27
514.297	1062.9
514.664	1061.99
515.032	1018.83
515.4	1020.19
515.767	1045.95
516.135	1067.42
516.502	1073.74
516.869	1097.02
517.237	1094.76
517.604	1061.31
517.972	1072.39
518.339	1082.33
518.706	1087.3
519.073	1069.68
519.44	1085.27
519.808	1094.76
520.175	1094.99
520.542	1102.67
520.909	1107.64
521.276	1107.19
521.643	1125.27
522.009	1121.43
522.376	1129.56
522.743	1102.67
523.11	1116
523.477	1136.79
523.843	1147.64
524.21	1128.2
524.577	1164.81
524.943	1152.38
525.31	1146.74
525.676	1153.06
526.043	1143.57
526.409	1174.31
526.776	1167.53
527.142	1162.78
527.508	1170.24
527.874	1201.88
528.241	1180.41
528.607	1199.62
528.973	1213.63
529.339	1182.21
529.705	1188.54
530.071	1200.52
530.437	1227.19
530.803	1224.7
531.169	1180.41
531.535	1198.03
531.901	1205.94
532.267	1198.94
532.632	1207.07
532.998	1199.16
533.364	1217.47
533.73	1217.92
534.095	1202.78
534.461	1215.66
534.826	1241.87
535.192	1209.56
535.557	1201.65
535.923	1219.73
536.288	1241.87
536.653	1228.32
537.019	1230.12
537.384	1230.57
537.749	1240.29
538.114	1252.27
538.479	1233.51
538.845	1222.44
539.21	1252.04
539.575	1229.45
539.94	1250.69
540.305	1232.83
540.67	1230.12
541.034	1217.92
541.399	1239.16
541.764	1221.54
542.129	1236.45
542.494	1213.4
542.858	1233.74
543.223	1231.93
543.587	1201.65
543.952	1231.93
544.316	1243.46
544.681	1251.82
545.045	1241.42
545.41	1247.75
545.774	1259.27
546.138	1242.33
546.503	1260.18
546.867	1240.29
547.231	1256.56
547.595	1252.27
547.959	1251.59
548.324	1219.95
548.688	1242.1
549.052	1245.72
549.416	1276.68
549.779	1253.17
550.143	1263.12
550.507	1223.8
550.871	1252.27
551.235	1259.5
551.599	1263.12
551.962	1277.13
552.326	1267.41
552.689	1258.6
553.053	1246.85
553.417	1254.76
553.78	1263.79
554.143	1237.81
554.507	1264.25
554.87	1287.52
555.234	1279.61
555.597	1257.01
555.96	1264.02
556.323	1288.88
556.686	1273.74
557.05	1286.62
557.413	1280.52
557.776	1297.24
558.139	1287.3
558.502	1303.34
558.865	1276.68
559.228	1304.25
559.59	1293.4
559.953	1287.52
560.316	1327.52
560.679	1305.6
561.041	1338.14
561.404	1317.35
561.767	1313.06
562.129	1322.78
562.492	1313.74
562.854	1294.98
563.217	1309.89
563.579	1311.93
563.941	1328.65
564.304	1301.31
564.666	1344.92
565.028	1316.9
565.39	1319.84
565.753	1338.59
566.115	1340.18
566.477	1351.93
566.839	1308.54
567.201	1347.86
567.563	1321.42
567.925	1348.09
568.287	1337.46
568.648	1344.92
569.01	1369.78
569.372	1347.41
569.734	1337.92
570.095	1357.13
570.457	1348.99
570.819	1334.98
571.18	1364.58
571.542	1353.06
571.903	1360.06
572.265	1367.97
572.626	1360.29
572.987	1334.53
573.349	1361.19
573.71	1339.05
574.071	1365.03
574.432	1367.52
574.794	1366.39
575.155	1330.01
575.516	1338.82
575.877	1364.58
576.238	1344.02
576.599	1362.1
576.96	1361.19
577.32	1354.87
577.681	1371.36
578.042	1338.59
578.403	1326.17
578.763	1329.78
579.124	1329.78
579.485	1358.03
579.845	1345.15
580.206	1374.53
580.566	1367.52
580.927	1342.44
581.287	1365.71
581.648	1353.51
582.008	1336.56
582.368	1326.39
582.728	1316.22
583.089	1350.57
583.449	1315.77
583.809	1348.99
584.169	1349.89
584.529	1304.47
584.889	1325.26
585.249	1334.53
585.609	1331.14
585.969	1344.47
586.329	1333.4
586.688	1362.1
587.048	1288.65
587.408	1333.4
587.768	1274.42
588.127	1337.69
588.487	1341.31
588.846	1315.09
589.206	1326.17
589.565	1317.8
589.925	1316.45
590.284	1319.61
590.643	1333.4
591.003	1319.61
591.362	1285.04
591.721	1307.64
592.08	1291.36
592.44	1307.86
592.799	1314.41
593.158	1301.53
593.517	1271.25
593.876	1280.52
594.235	1299.95
594.593	1298.14
594.952	1311.25
595.311	1292.95
595.67	1319.16
596.029	1309.89
596.387	1313.51
596.746	1280.74
597.104	1317.13
597.463	1326.39
597.822	1299.73
598.18	1302.66
598.538	1307.64
598.897	1336.79
599.255	1285.94
599.613	1294.75
599.972	1307.64
600.33	1300.86
600.688	1303.79
601.046	1289.56
601.404	1292.49
601.762	1299.27
602.12	1285.94
602.478	1319.84
602.836	1300.63
603.194	1324.81
603.552	1307.18
603.91	1309.67
604.268	1320.74
604.625	1330.91
604.983	1297.01
605.341	1299.05
605.698	1320.97
606.056	1315.09
606.413	1322.55
606.771	1343.11
607.128	1321.87
607.485	1309.44
607.843	1302.21
608.2	1327.75
608.557	1328.65
608.914	1325.04
609.272	1334.75
609.629	1325.49
609.986	1327.75
610.343	1323
610.7	1343.11
611.057	1336.33
611.414	1330.01
611.771	1315.54
612.127	1337.24
612.484	1350.57
612.841	1323.68
613.198	1339.05
613.554	1338.14
613.911	1337.69
614.267	1374.3
614.624	1350.8
614.98	1350.35
615.337	1359.39
615.693	1360.97
616.05	1373.4
616.406	1369.1
616.762	1367.29
617.118	1321.65
617.475	1362.55
617.831	1362.1
618.187	1375.2
618.543	1377.92
618.899	1367.07
619.255	1356.9
619.611	1344.47
619.967	1374.75
620.323	1365.94
620.678	1339.5
621.034	1372.49
621.39	1329.33
621.746	1359.39
622.101	1344.47
622.457	1371.14
622.812	1368.42
623.168	1343.11
623.523	1358.26
623.879	1348.99
624.234	1321.19
624.589	1359.84
624.945	1353.74
625.3	1380.4
625.655	1356.45
626.01	1373.17
626.365	1395.09
626.72	1342.21
627.075	1342.44
627.43	1334.98
627.785	1344.47
628.14	1345.83
628.495	1365.71
628.85	1356.67
629.205	1369.78
629.559	1365.71
629.914	1342.66
630.269	1350.12
630.623	1342.66
630.978	1369.33
631.332	1350.12
631.687	1332.72
632.041	1308.54
632.396	1330.69
632.75	1360.52
633.104	1356.67
633.459	1299.95
633.813	1297.92
634.167	1327.52
634.521	1313.96
634.875	1330.46
635.229	1316.45
635.583	1334.08
635.937	1363.23
636.291	1318.26
636.645	1319.16
636.999	1315.09
637.352	1319.61
637.706	1346.28
638.06	1346.05
638.413	1322.78
638.767	1337.69
639.121	1333.17
639.474	1304.7
639.828	1322.1
640.181	1319.61
640.534	1370.01
640.888	1335.21
641.241	1341.31
641.594	1330.23
641.947	1330.23
642.301	1304.25
642.654	1323.68
643.007	1324.36
643.36	1310.35
643.713	1333.4
644.066	1333.17
644.419	1366.16
644.771	1333.4
645.124	1285.71
645.477	1305.6
645.83	1322.55
646.182	1325.04
646.535	1331.82
646.888	1318.03
647.24	1325.04
647.593	1310.35
647.945	1337.69
648.298	1346.96
648.65	1344.92
649.002	1323.23
649.355	1335.88
649.707	1298.82
650.059	1348.99
650.411	1345.15
650.763	1354.87
651.115	1354.19
651.467	1345.6
651.819	1373.62
652.171	1376.33
652.523	1386.05
652.875	1380.18
653.227	1374.3
653.578	1379.27
653.93	1428.99
654.282	1403.23
654.633	1401.87
654.985	1392.83
655.337	1430.57
655.688	1407.52
656.039	1447.29
656.391	1418.37
656.742	1457.01
657.094	1447.29
657.445	1458.37
657.796	1461.53
658.147	1469.89
658.498	1451.13
658.849	1495.65
659.2	1482.77
659.551	1468.08
659.902	1480.51
660.253	1479.38
660.604	1489.33
660.955	1467.63
661.306	1488.65
661.656	1490.91
662.007	1517.57
662.358	1523.45
662.708	1527.97
663.059	1522.32
663.409	1550.34
663.76	1558.93
664.11	1552.83
664.461	1583.33
664.811	1566.39
665.161	1587.85
665.511	1563.67
665.862	1594.86
666.212	1597.12
666.562	1613.16
666.912	1640.28
667.262	1620.4
667.612	1658.81
667.962	1627.17
668.312	1659.94
668.662	1691.81
669.011	1681.41
669.361	1662.88
669.711	1685.93
670.06	1695.65
670.41	1720.05
670.76	1734.29
671.109	1755.08
671.459	1762.76
671.808	1728.42
672.157	1806.83
672.507	1757.34
672.856	1775.87
673.205	1837.79
673.554	1812.71
673.904	1831.46
674.253	1845.93
674.602	1857.68
674.951	1829.66
675.3	1865.59
675.649	1883.67
675.998	1920.5
676.346	1903.1
676.695	1931.57
677.044	1925.92
677.393	1969.54
677.741	1949.43
678.09	1970.67
678.438	1981.74
678.787	1969.76
679.135	2030.33
679.484	1998.01
679.832	2038.46
680.181	2079.37
680.529	2061.29
680.877	2062.42
681.225	2077.78
681.573	2108.29
681.922	2128.63
682.27	2142.42
682.618	2162.98
682.966	2173.15
683.314	2157.33
683.661	2212.24
684.009	2176.99
684.357	2158.46
684.705	2187.39
685.053	2223.09
685.4	2234.62
685.748	2248.85
686.095	2240.72
686.443	2287.27
686.79	2299.93
687.138	2290.43
687.485	2362.75
687.832	2304.67
688.18	2373.14
688.527	2365.46
688.874	2387.38
689.221	2379.47
689.568	2417.66
689.915	2402.07
690.262	2407.95
690.609	2453.82
690.956	2461.28
691.303	2487.94
691.65	2477.77
691.997	2526.13
692.344	2501.95
692.69	2463.08
693.037	2535.17
693.383	2553.03
693.73	2522.74
694.077	2593.48
694.423	2625.79
694.769	2563.87
695.116	2608.17
695.462	2662.63
695.808	2656.07
696.155	2666.02
696.501	2675.06
696.847	2659.24
697.193	2640.93
697.539	2674.38
697.885	2703.98
698.231	2709.41
698.577	2722.51
698.923	2752.34
699.269	2734.26
699.614	2733.13
699.96	2782.17
700.306	2827.6
700.651	2795.28
700.997	2793.47
701.342	2819.69
701.688	2825.56
702.033	2863.07
702.379	2857.2
702.724	2855.17
703.069	2915.28
703.415	2881.15
703.76	2903.75
704.105	2913.92
704.45	2943.07
704.795	2948.27
705.14	2941.04
705.485	2950.3
705.83	2926.58
706.175	2973.58
706.52	3004.99
706.865	3014.03
707.209	3029.17
707.554	3051.09
707.899	3026.46
708.243	3037.76
708.588	3041.6
708.932	3039.12
709.277	3064.65
709.621	3071.88
709.966	3102.62
710.31	3101.94
710.654	3108.27
710.998	3111.66
711.342	3124.99
711.687	3150.98
712.031	3122.5
712.375	3092.9
712.719	3188.04
713.063	3153.69
713.407	3173.12
713.75	3176.29
714.094	3207.47
714.438	3181.94
714.782	3197.98
715.125	3200.24
715.469	3256.51
715.812	3240.92
716.156	3252.67
716.499	3254.02
716.843	3239.34
717.186	3249.96
717.53	3300.8
717.873	3251.54
718.216	3286.34
718.559	3324.08
718.902	3290.18
719.246	3263.29
719.589	3326.79
719.932	3275.27
720.275	3299.67
720.617	3319.56
720.96	3298.54
721.303	3320.01
721.646	3370.63
721.989	3347.81
722.331	3373.8
722.674	3336.73
723.016	3331.76
723.359	3351.2
723.701	3426.68
724.044	3352.33
724.386	3386.22
724.729	3394.59
725.071	3414.7
725.413	3408.14
725.755	3379.9
726.097	3379.45
726.439	3382.61
726.782	3396.85
727.124	3419.9
727.465	3389.61
727.807	3399.33
728.149	3424.87
728.491	3393.91
728.833	3431.65
729.175	3409.95
729.516	3371.99
729.858	3419.9
730.199	3407.69
730.541	3386.22
730.882	3412.21
731.224	3428.03
731.565	3435.04
731.906	3470.29
732.248	3421.7
732.589	3405.89
732.93	3434.13
733.271	3434.13
733.612	3436.17
733.953	3466.22
734.294	3430.52
734.635	3449.05
734.976	3441.82
735.317	3448.14
735.658	3456.05
735.999	3426
736.339	3432.33
736.68	3443.4
737.021	3431.87
737.361	3413.12
737.702	3427.13
738.042	3460.35
738.383	3466.45
738.723	3451.99
739.063	3404.08
739.404	3408.37
739.744	3436.17
740.084	3426
740.424	3471.87
740.764	3429.61
741.104	3430.74
741.444	3428.48
741.784	3456.51
742.124	3436.39
742.464	3426.22
742.804	3430.29
743.143	3415.15
743.483	3450.63
743.823	3387.81
744.162	3429.84
744.502	3386
744.841	3393.46
745.181	3403.63
745.52	3385.09
745.86	3434.81
746.199	3441.14
746.538	3388.94
746.877	3421.48
747.216	3394.59
747.556	3386.68
747.895	3364.08
748.234	3363.17
748.573	3370.86
748.911	3400.01
749.25	3342.38
749.589	3381.7
749.928	3383.74
750.267	3369.73
750.605	3357.98
750.944	3371.08
751.283	3310.97
751.621	3353.68
751.96	3371.54
752.298	3360.91
752.636	3349.39
752.975	3291.09
753.313	3333.34
753.651	3321.37
753.989	3304.42
754.327	3287.7
754.666	3268.49
755.004	3284.31
755.342	3315.94
755.679	3289.96
756.017	3273.46
756.355	3300.35
756.693	3265.78
757.031	3265.78
757.368	3257.64
757.706	3263.74
758.044	3214.48
758.381	3244.53
758.719	3251.31
759.056	3219.9
759.394	3234.59
759.731	3180.13
760.068	3179.22
760.405	3169.96
760.743	3113.46
761.08	3160.47
761.417	3152.56
761.754	3186.68
762.091	3157.3
762.428	3156.17
762.765	3166.12
763.102	3108.27
763.438	3120.69
763.775	3119.11
764.112	3091.09
764.449	3144.2
764.785	3066.68
765.122	3081.6
765.458	3031.88
765.795	3064.65
766.131	3048.61
766.467	3050.64
766.804	3022.17
767.14	3016.97
767.476	3013.13
767.812	3039.34
768.148	3022.39
768.485	2964.99
768.821	2979
769.157	3001.38
769.492	3011.32
769.828	2959.34
770.164	2976.74
770.5	2979
770.836	2937.42
771.171	2951.21
771.507	2906.92
771.842	2908.27
772.178	2910.98
772.513	2889.74
772.849	2892.23
773.184	2908.05
773.519	2862.17
