Data from carpet_green_FLMS001491_00016.txt Node
Date: Wed Feb 08 10:34:59 GMT 2017
User: dcchb
Spectrometer: FLMS00149
Trigger mode: 0
Integration Time (sec): 2.000000E-2
Scans to average: 10
Electric dark correction enabled: true
Nonlinearity correction enabled: false
Boxcar width: 0
XAxis mode: Wavelengths
Number of Pixels in Spectrum: 2048
>>>>>Begin Spectral Data<<<<<
341.393	-39
341.776	-39
342.16	-39
342.543	-47.36
342.927	-70.41
343.31	-61.14
343.693	-59.33
344.077	-57.98
344.46	-42.16
344.843	-43.06
345.226	-57.53
345.61	-29.5
345.993	-4.19
346.376	-19.79
346.759	-6
347.142	20.66
347.525	29.02
347.908	62.47
348.291	78.74
348.674	88.91
349.057	100.89
349.44	138.17
349.823	123.03
350.206	157.83
350.588	170.04
350.971	185.86
351.354	196.7
351.737	216.36
352.119	208
352.502	223.37
352.884	248
353.267	238.51
353.65	259.3
354.032	250.71
354.414	269.7
354.797	291.62
355.179	291.84
355.562	290.03
355.944	303.59
356.326	312.86
356.709	300.2
357.091	297.94
357.473	310.83
357.855	324.16
358.238	308.34
358.62	309.92
359.002	324.61
359.384	309.47
359.766	297.72
360.148	317.83
360.53	328
360.912	308.57
361.294	295.91
361.676	291.16
362.057	286.65
362.439	292.75
362.821	289.58
363.203	294.33
363.584	300.43
363.966	301.79
364.348	302.46
364.729	290.71
365.111	280.77
365.493	279.87
365.874	293.42
366.256	285.06
366.637	301.33
367.019	268.34
367.4	288.68
367.781	263.59
368.163	275.12
368.544	272.41
368.925	276.93
369.306	266.08
369.688	267.21
370.069	273.09
370.45	269.02
370.831	269.24
371.212	289.36
371.593	267.44
371.974	276.02
372.355	280.54
372.736	307.66
373.117	273.99
373.498	278.06
373.879	286.87
374.26	297.72
374.641	266.31
375.021	280.77
375.402	292.07
375.783	273.76
376.163	254.56
376.544	267.89
376.925	295.91
377.305	292.52
377.686	288.23
378.066	297.04
378.447	280.77
378.827	276.7
379.208	280.77
379.588	272.41
379.968	283.93
380.349	290.49
380.729	281.22
381.109	293.65
381.489	301.56
381.87	301.56
382.25	286.87
382.63	309.24
383.01	315.34
383.39	287.55
383.77	293.42
384.15	287.55
384.53	293.65
384.91	293.42
385.29	291.84
385.67	312.63
386.049	308.57
386.429	298.4
386.809	308.57
387.189	301.56
387.568	296.36
387.948	298.4
388.328	298.62
388.707	280.32
389.087	298.85
389.466	310.6
389.846	302.92
390.225	287.77
390.605	291.84
390.984	296.36
391.363	278.51
391.743	316.47
392.122	332.52
392.501	306.98
392.881	292.07
393.26	299.53
393.639	300.2
394.018	303.14
394.397	319.64
394.776	303.37
395.155	297.27
395.534	303.82
395.913	333.2
396.292	318.28
396.671	301.56
397.05	302.46
397.429	290.49
397.808	302.92
398.186	303.59
398.565	302.92
398.944	310.15
399.323	304.72
399.701	326.42
400.08	296.14
400.458	309.92
400.837	300.43
401.215	323.93
401.594	323.03
401.972	318.06
402.351	303.82
402.729	314.67
403.107	331.62
403.486	317.15
403.864	314.44
404.242	322.12
404.62	311.05
404.999	296.81
405.377	326.64
405.755	315.12
406.133	314.89
406.511	302.01
406.889	313.76
407.267	300.88
407.645	315.12
408.023	310.37
408.401	299.98
408.779	322.8
409.156	292.97
409.534	330.49
409.912	316.7
410.29	312.18
410.667	330.03
411.045	311.05
411.422	302.69
411.8	339.98
412.178	328.23
412.555	317.6
412.933	334.55
413.31	333.88
413.687	332.07
414.065	327.55
414.442	323.93
414.819	340.43
415.197	314.89
415.574	302.24
415.951	317.15
416.328	331.39
416.705	324.84
417.082	333.88
417.46	336.81
417.837	330.94
418.214	329.13
418.591	345.4
418.967	346.08
419.344	331.84
419.721	330.26
420.098	340.2
420.475	329.81
420.852	318.06
421.228	321.22
421.605	325.06
421.982	358.28
422.358	313.31
422.735	325.29
423.111	332.29
423.488	365.51
423.864	348.79
424.241	357.15
424.617	341.78
424.994	328.45
425.37	354.21
425.746	321.67
426.123	330.03
426.499	325.97
426.875	347.43
427.251	356.25
427.627	347.89
428.003	352.63
428.379	346.53
428.756	335.46
429.132	346.53
429.507	340.65
429.883	356.7
430.259	353.31
430.635	351.73
431.011	364.38
431.387	374.78
431.763	336.81
432.138	362.35
432.514	356.02
432.89	363.93
433.265	361.9
433.641	381.56
434.016	357.6
434.392	355.34
434.767	381.11
435.143	361.45
435.518	360.99
435.894	353.54
436.269	373.42
436.644	363.48
437.02	369.35
437.395	371.61
437.77	382.69
438.145	383.59
438.52	364.16
438.895	380.65
439.271	372.74
439.646	360.32
440.021	376.36
440.395	386.98
440.77	372.97
441.145	362.8
441.52	379.98
441.895	389.69
442.27	387.66
442.645	372.07
443.019	392.63
443.394	385.63
443.769	388.34
444.143	395.34
444.518	411.84
444.892	377.49
445.267	398.05
445.641	397.15
446.016	413.65
446.39	393.76
446.764	384.72
447.139	408.22
447.513	411.61
447.887	412.29
448.262	389.69
448.636	384.72
449.01	389.02
449.384	424.27
449.758	398.28
450.132	423.82
450.506	405.74
450.88	402.35
451.254	398.28
451.628	411.39
452.002	411.61
452.376	413.42
452.75	375.46
453.123	408
453.497	420.2
453.871	404.61
454.244	431.5
454.618	409.58
454.992	434.44
455.365	429.69
455.739	436.25
456.112	447.77
456.486	439.64
456.859	414.55
457.232	449.35
457.606	451.61
457.979	453.19
458.352	432.4
458.725	440.09
459.099	455
459.472	452.06
459.845	466.08
460.218	448
460.591	438.51
460.964	444.83
461.337	428.34
461.71	453.19
462.083	461.1
462.456	439.64
462.829	463.82
463.201	452.74
463.574	485.74
463.947	461.78
464.32	473.31
464.692	473.53
465.065	480.31
465.438	462.46
465.81	469.69
466.183	496.81
466.555	472.85
466.928	489.58
467.3	484.83
467.672	483.7
468.045	518.96
468.417	499.52
468.789	506.07
469.161	496.13
469.534	520.76
469.906	499.52
470.278	509.24
470.65	519.18
471.022	543.81
471.394	560.54
471.766	534.1
472.138	537.49
472.51	522.57
472.882	554.43
473.253	507.43
473.625	532.29
473.997	556.92
474.369	542.46
474.74	562.57
475.112	549.01
475.484	550.59
475.855	589.24
476.227	576.13
476.598	591.72
476.97	583.13
477.341	589.01
477.713	584.26
478.084	603.02
478.455	611.38
478.827	616.58
479.198	627.2
479.569	614.32
479.94	623.59
480.311	639.4
480.682	672.85
481.053	667.88
481.424	656.8
481.795	664.94
482.166	652.74
482.537	678.95
482.908	685.96
483.279	676.24
483.65	685.05
484.021	714.88
484.391	711.27
484.762	726.63
485.133	714.2
485.503	710.59
485.874	728.22
486.244	732.51
486.615	756.24
486.985	745.84
487.356	759.85
487.726	767.54
488.097	778.84
488.467	796.24
488.837	794.65
489.207	781.77
489.578	790.13
489.948	814.09
490.318	818.61
490.688	824.71
491.058	854.77
491.428	845.5
491.798	834.88
492.168	840.08
492.538	853.86
492.908	844.14
493.278	872.39
493.648	865.16
494.017	892.73
494.387	879.17
494.757	877.14
495.126	921.43
495.496	906.29
495.866	933.63
496.235	896.57
496.605	911.26
496.974	900.64
497.344	909.91
497.713	943.8
498.082	944.93
498.452	919.85
498.821	924.82
499.19	939.96
499.559	940.64
499.928	925.27
500.298	962.33
500.667	960.98
501.036	947.42
501.405	926.18
501.774	993.75
502.143	958.72
502.512	966.63
502.88	964.59
503.249	973.18
503.618	1000.52
503.987	985.16
504.356	994.2
504.724	972.5
505.093	1016.8
505.462	998.94
505.83	1033.97
506.199	1004.59
506.567	1031.71
506.936	1007.76
507.304	1032.16
507.672	1051.14
508.041	1016.8
508.409	1051.37
508.777	1045.72
509.145	1043.46
509.514	1057.47
509.882	1068.09
510.25	1047.08
510.618	1077.58
510.986	1059.51
511.354	1077.36
511.722	1062.9
512.09	1108.32
512.458	1101.54
512.826	1110.35
513.193	1077.81
513.561	1104.7
513.929	1090.92
514.297	1111.26
514.664	1091.6
515.032	1101.76
515.4	1109.45
515.767	1112.61
516.135	1114.87
516.502	1118.71
516.869	1140.63
517.237	1140.18
517.604	1125.49
517.972	1154.87
518.339	1158.71
518.706	1130.01
519.073	1122.1
519.44	1149.67
519.808	1173.4
520.175	1158.71
520.542	1175.21
520.909	1178.15
521.276	1165.72
521.643	1204.36
522.009	1167.3
522.376	1187.64
522.743	1183.12
523.11	1193.97
523.477	1172.72
523.843	1193.29
524.21	1224.7
524.577	1219.5
524.943	1232.38
525.31	1215.21
525.676	1235.55
526.043	1246.62
526.409	1235.55
526.776	1251.82
527.142	1269.22
527.508	1226.06
527.874	1239.61
528.241	1250.46
528.607	1264.25
528.973	1257.47
529.339	1254.3
529.705	1271.93
530.071	1276.68
530.437	1234.87
530.803	1287.52
531.169	1288.43
531.535	1265.83
531.901	1277.81
532.267	1293.4
532.632	1266.51
532.998	1259.73
533.364	1291.59
533.73	1310.8
534.095	1313.96
534.461	1288.88
534.826	1307.86
535.192	1326.84
535.557	1297.92
535.923	1292.95
536.288	1319.39
536.653	1303.57
537.019	1313.96
537.384	1285.04
537.749	1306.05
538.114	1293.17
538.479	1276.68
538.845	1339.27
539.21	1326.84
539.575	1304.92
539.94	1304.92
540.305	1328.65
540.67	1315.32
541.034	1338.59
541.399	1329.1
541.764	1287.97
542.129	1338.14
542.494	1320.06
542.858	1341.53
543.223	1304.92
543.587	1311.48
543.952	1316.45
544.316	1325.71
544.681	1340.18
545.045	1316.67
545.41	1351.7
545.774	1336.56
546.138	1313.28
546.503	1312.15
546.867	1323
547.231	1327.52
547.595	1312.61
547.959	1321.87
548.324	1331.82
548.688	1353.96
549.052	1333.85
549.416	1310.57
549.779	1301.31
550.143	1343.57
550.507	1357.58
550.871	1327.07
551.235	1328.88
551.599	1340.85
551.962	1329.78
552.326	1339.5
552.689	1353.28
553.053	1350.12
553.417	1339.27
553.78	1364.36
554.143	1364.58
554.507	1376.79
554.87	1360.29
555.234	1371.36
555.597	1370.68
555.96	1344.7
556.323	1368.65
556.686	1347.86
557.05	1371.36
557.413	1360.29
557.776	1360.06
558.139	1374.53
558.502	1359.84
558.865	1385.15
559.228	1341.08
559.59	1407.29
559.953	1397.8
560.316	1370.46
560.679	1360.52
561.041	1391.02
561.404	1380.85
561.767	1417.46
562.129	1375.66
562.492	1415.88
562.854	1401.87
563.217	1395.54
563.579	1423.34
563.941	1404.81
564.304	1407.75
564.666	1413.4
565.028	1419.5
565.39	1435.09
565.753	1419.95
566.115	1399.61
566.477	1461.08
566.839	1446.39
567.201	1453.39
567.563	1435.77
567.925	1430.34
568.287	1445.71
568.648	1457.69
569.01	1407.29
569.372	1426.73
569.734	1439.38
570.095	1470.12
570.457	1417.01
570.819	1428.76
571.18	1452.49
571.542	1439.16
571.903	1443.68
572.265	1474.18
572.626	1458.37
572.987	1406.16
573.349	1421.08
573.71	1431.02
574.071	1439.84
574.432	1468.53
574.794	1450.46
575.155	1451.59
575.516	1433.06
575.877	1461.76
576.238	1445.71
576.599	1462.66
576.96	1441.64
577.32	1468.76
577.681	1452.26
578.042	1452.49
578.403	1425.6
578.763	1450.91
579.124	1467.86
579.485	1414.98
579.845	1443.9
580.206	1428.54
580.566	1436.45
580.927	1425.37
581.287	1419.27
581.648	1419.72
582.008	1422.89
582.368	1435.77
582.728	1441.64
583.089	1405.94
583.449	1420.63
583.809	1463.79
584.169	1430.8
584.529	1414.3
584.889	1450.91
585.249	1415.88
585.609	1418.59
585.969	1421.76
586.329	1403.45
586.688	1410.46
587.048	1408.2
587.408	1417.91
587.768	1395.77
588.127	1406.84
588.487	1394.41
588.846	1407.29
589.206	1398.03
589.565	1393.73
589.925	1383.57
590.284	1388.54
590.643	1396.22
591.003	1388.54
591.362	1415.2
591.721	1388.76
592.08	1412.27
592.44	1384.7
592.799	1380.4
593.158	1379.72
593.517	1391.25
593.876	1405.26
594.235	1402.1
594.593	1372.04
594.952	1384.24
595.311	1371.59
595.67	1384.92
596.029	1396.45
596.387	1398.25
596.746	1411.59
597.104	1366.84
597.463	1404.81
597.822	1385.37
598.18	1401.87
598.538	1418.82
598.897	1420.4
599.255	1361.19
599.613	1402.55
599.972	1379.05
600.33	1405.71
600.688	1384.92
601.046	1430.34
601.404	1390.34
601.762	1414.98
602.12	1399.38
602.478	1393.06
602.836	1384.92
603.194	1417.46
603.552	1429.67
603.91	1403.23
604.268	1422.21
604.625	1374.3
604.983	1408.42
605.341	1397.58
605.698	1427.63
606.056	1423.79
606.413	1381.98
606.771	1396.67
607.128	1451.59
607.485	1417.69
607.843	1439.61
608.2	1447.74
608.557	1398.71
608.914	1432.83
609.272	1424.02
609.629	1450.91
609.986	1437.35
610.343	1415.88
610.7	1432.38
611.057	1447.07
611.414	1420.85
611.771	1451.81
612.127	1470.79
612.484	1437.35
612.841	1476.67
613.198	1436.9
613.554	1442.09
613.911	1436.67
614.267	1450.46
614.624	1441.87
614.98	1454.07
615.337	1456.11
615.693	1455.65
616.05	1455.43
616.406	1445.71
616.762	1467.86
617.118	1447.29
617.475	1422.43
617.831	1453.39
618.187	1469.21
618.543	1477.8
618.899	1472.6
619.255	1438.03
619.611	1458.82
619.967	1487.07
620.323	1463.11
620.678	1480.51
621.034	1462.89
621.39	1431.02
621.746	1460.4
622.101	1475.99
622.457	1452.72
622.812	1442.77
623.168	1438.71
623.523	1457.24
623.879	1487.29
624.234	1447.97
624.589	1436.67
624.945	1450.68
625.3	1472.15
625.655	1476.44
626.01	1468.99
626.365	1475.77
626.72	1438.71
627.075	1425.82
627.43	1455.65
627.785	1441.19
628.14	1445.03
628.495	1433.51
628.85	1470.79
629.205	1446.16
629.559	1431.47
629.914	1414.52
630.269	1446.16
630.623	1471.47
630.978	1442.32
631.332	1449.78
631.687	1452.72
632.041	1435.99
632.396	1456.33
632.75	1433.51
633.104	1442.77
633.459	1452.04
633.813	1447.74
634.167	1454.3
634.521	1463.11
634.875	1449.55
635.229	1438.71
635.583	1448.2
635.937	1453.62
636.291	1414.98
636.645	1433.28
636.999	1416.56
637.352	1443.68
637.706	1442.77
638.06	1411.36
638.413	1403
638.767	1413.4
639.121	1440.74
639.474	1436.45
639.828	1466.95
640.181	1448.65
640.534	1433.73
640.888	1428.99
641.241	1446.84
641.594	1457.69
641.947	1452.72
642.301	1419.72
642.654	1412.72
643.007	1438.71
643.36	1452.49
643.713	1419.95
644.066	1435.99
644.419	1437.12
644.771	1420.85
645.124	1418.82
645.477	1406.39
645.83	1391.7
646.182	1416.33
646.535	1398.71
646.888	1429.44
647.24	1432.15
647.593	1406.16
647.945	1439.16
648.298	1430.8
648.65	1428.54
649.002	1417.69
649.355	1445.71
649.707	1443.22
650.059	1443.9
650.411	1461.76
650.763	1474.18
651.115	1488.42
651.467	1485.94
651.819	1471.02
652.171	1514.86
652.523	1496.78
652.875	1477.35
653.227	1482.32
653.578	1504.24
653.93	1540.85
654.282	1522.54
654.633	1518.25
654.985	1499.95
655.337	1515.99
655.688	1530.91
656.039	1549.21
656.391	1533.17
656.742	1561.19
657.094	1551.02
657.445	1540.4
657.796	1561.41
658.147	1573.84
658.498	1571.58
658.849	1566.61
659.2	1580.62
659.551	1597.57
659.902	1623.11
660.253	1620.17
660.604	1638.25
660.955	1645.03
661.306	1628.98
661.656	1656.1
662.007	1646.84
662.358	1658.59
662.708	1685.93
663.059	1708.53
663.409	1668.08
663.76	1695.65
664.11	1710.56
664.461	1707.4
664.811	1722.77
665.161	1738.13
665.511	1743.78
665.862	1731.58
666.212	1748.53
666.562	1793.95
666.912	1773.84
667.262	1760.96
667.612	1779.26
667.962	1793.95
668.312	1810.9
668.662	1846.83
669.011	1846.38
669.361	1866.72
669.711	1847.06
670.06	1864
670.41	1867.85
670.76	1862.65
671.109	1924.79
671.459	1912.36
671.808	1919.14
672.157	1965.02
672.507	1954.17
672.856	1947.39
673.205	1948.97
673.554	1999.59
673.904	1977.22
674.253	2022.42
674.602	1981.06
674.951	1977
675.3	2002.31
675.649	2061.06
675.998	2066.94
676.346	2078.69
676.695	2085.24
677.044	2086.82
677.393	2086.82
677.741	2114.62
678.09	2121.63
678.438	2163.21
678.787	2155.97
679.135	2143.77
679.484	2207.72
679.832	2213.6
680.181	2190.78
680.529	2219.7
680.877	2218.8
681.225	2221.96
681.573	2273.26
681.922	2285.69
682.27	2269.19
682.618	2299.25
682.966	2315.97
683.314	2332.01
683.661	2327.5
684.009	2360.04
684.357	2348.96
684.705	2391.67
685.053	2417.89
685.4	2392.58
685.748	2447.27
686.095	2449.53
686.443	2460.15
686.79	2452.24
687.138	2480.49
687.485	2490.43
687.832	2501.05
688.18	2495.85
688.527	2540.15
688.874	2539.92
689.221	2569.52
689.568	2559.35
689.915	2575.85
690.262	2590.31
690.609	2608.62
690.956	2605.45
691.303	2592.57
691.65	2622.85
691.997	2678.45
692.344	2682.74
692.69	2681.84
693.037	2721.84
693.383	2708.05
693.73	2709.86
694.077	2727.26
694.423	2713.93
694.769	2740.37
695.116	2763.64
695.462	2755.96
695.808	2781.72
696.155	2802.96
696.501	2840.48
696.847	2827.82
697.193	2826.24
697.539	2843.41
697.885	2844.09
698.231	2866.24
698.577	2886.35
698.923	2911.43
699.269	2899.91
699.614	2904.88
699.96	2908.95
700.306	2894.49
700.651	2949.4
700.997	2941.26
701.342	2911.43
701.688	2970.19
702.033	2959.34
702.379	3001.15
702.724	2998.44
703.069	3006.35
703.415	3002.51
703.76	3012.68
704.105	3045.22
704.45	3067.36
704.795	3082.5
705.14	3088.38
705.485	3058.32
705.83	3065.78
706.175	3101.26
706.52	3107.14
706.865	3098.77
707.209	3130.19
707.554	3137.64
707.899	3188.94
708.243	3143.07
708.588	3154.82
708.932	3200.01
709.277	3180.81
709.621	3164.08
709.966	3197.3
710.31	3188.26
710.654	3183.52
710.998	3211.99
711.342	3238.43
711.687	3216.51
712.031	3235.72
712.375	3203.63
712.719	3213.12
713.063	3261.26
713.407	3295.61
713.75	3270.07
714.094	3273.01
714.438	3327.24
714.782	3321.37
715.125	3290.86
715.469	3306.23
715.812	3336.06
716.156	3317.75
716.499	3301.71
716.843	3367.24
717.186	3353.68
717.53	3358.43
717.873	3374.47
718.216	3346.23
718.559	3337.86
718.902	3363.4
719.246	3333.12
719.589	3379.9
719.932	3383.74
720.275	3423.29
720.617	3354.59
720.96	3398.88
721.303	3403.17
721.646	3394.13
721.989	3382.38
722.331	3402.5
722.674	3419.22
723.016	3425.55
723.359	3416.05
723.701	3426.45
724.044	3427.58
724.386	3400.46
724.729	3441.82
725.071	3425.09
725.413	3443.4
725.755	3438.2
726.097	3421.03
726.439	3460.35
726.782	3433
727.124	3464.19
727.465	3450.63
727.807	3433.23
728.149	3484.53
728.491	3467.58
728.833	3445.88
729.175	3454.02
729.516	3437.3
729.858	3449.95
730.199	3472.55
730.541	3442.72
730.882	3442.95
731.224	3440.69
731.565	3452.66
731.906	3474.81
732.248	3468.26
732.589	3442.72
732.93	3445.21
733.271	3466
733.612	3451.08
733.953	3520.46
734.294	3495.6
734.635	3501.93
734.976	3431.42
735.317	3464.87
735.658	3437.52
735.999	3457.64
736.339	3424.42
736.68	3479.78
737.021	3488.14
737.361	3472.32
737.702	3447.47
738.042	3437.07
738.383	3457.64
738.723	3435.94
739.063	3437.07
739.404	3443.62
739.744	3456.51
740.084	3457.41
740.424	3408.37
740.764	3438.88
741.104	3413.34
741.444	3424.64
741.784	3411.99
742.124	3412.44
742.464	3453.79
742.804	3416.28
743.143	3433.68
743.483	3425.32
743.823	3393
744.162	3418.31
744.502	3463.96
744.841	3406.79
745.181	3421.03
745.52	3415.83
745.86	3413.79
746.199	3438.2
746.538	3351.2
746.877	3430.74
747.216	3399.33
747.556	3357.07
747.895	3364.76
748.234	3372.44
748.573	3397.07
748.911	3402.72
749.25	3379.9
749.589	3376.96
749.928	3425.09
750.267	3360.46
750.605	3374.25
750.944	3350.29
751.283	3378.54
751.621	3391.42
751.96	3315.72
752.298	3327.02
752.636	3336.28
752.975	3332.89
753.313	3294.02
753.651	3313.68
753.989	3313.23
754.327	3321.14
754.666	3298.32
755.004	3265.32
755.342	3329.95
755.679	3278.2
756.017	3251.09
756.355	3303.29
756.693	3272.33
757.031	3310.29
757.368	3257.41
757.706	3225.1
758.044	3259
758.381	3242.95
758.719	3228.26
759.056	3222.84
759.394	3186
759.731	3182.61
760.068	3172.22
760.405	3218.77
760.743	3153.69
761.08	3210.18
761.417	3162.5
761.754	3174.03
762.091	3166.8
762.428	3175.38
762.765	3129.51
763.102	3158.89
763.438	3123.63
763.775	3072.33
764.112	3136.06
764.449	3156.4
764.785	3120.92
765.122	3080.7
765.458	3042.28
765.795	3078.66
766.131	3060.58
766.467	3058.78
766.804	3077.76
767.14	3009.96
767.476	3044.31
767.812	3035.5
768.148	3042.05
768.485	2996.4
768.821	2966.35
769.157	3001.83
769.492	2980.59
769.828	3018.78
770.164	2938.33
770.5	2980.81
770.836	2940.59
771.171	2958.67
771.507	2962.73
771.842	2930.64
772.178	2904.88
772.513	2903.98
772.849	2908.05
773.184	2901.27
773.519	2889.06
773.855	2893.58
