Data from carpet_green_FLMS001491_00026.txt Node
Date: Wed Feb 08 10:35:08 GMT 2017
User: dcchb
Spectrometer: FLMS00149
Trigger mode: 0
Integration Time (sec): 2.000000E-2
Scans to average: 10
Electric dark correction enabled: true
Nonlinearity correction enabled: false
Boxcar width: 0
XAxis mode: Wavelengths
Number of Pixels in Spectrum: 2048
>>>>>Begin Spectral Data<<<<<
341.393	-37.03
341.776	-37.03
342.16	-37.03
342.543	-63.7
342.927	-49.24
343.31	-68.67
343.693	-66.18
344.077	-87.2
344.46	-41.55
344.843	-65.05
345.226	-33.64
345.61	-43.81
345.993	-12.63
346.376	-4.27
346.759	1.61
347.142	23.98
347.525	59.01
347.908	69.63
348.291	80.25
348.674	82.06
349.057	106.47
349.44	114.15
349.823	147.82
350.206	146.24
350.588	165
350.971	181.49
351.354	195.05
351.737	222.85
352.119	212.45
352.502	225.79
352.884	233.92
353.267	247.25
353.65	249.51
354.032	251.1
354.414	263.75
354.797	285.9
355.179	304.65
355.562	289.96
355.944	299
356.326	285.67
356.709	311.88
357.091	299.91
357.473	316.86
357.855	324.31
358.238	289.74
358.62	317.53
359.002	333.58
359.384	312.79
359.766	302.17
360.148	314.37
360.53	325.44
360.912	294.48
361.294	301.94
361.676	297.65
362.057	291.55
362.439	290.42
362.821	272.56
363.203	292.45
363.584	311.88
363.966	294.48
364.348	306.69
364.729	307.14
365.111	302.85
365.493	278.66
365.874	283.18
366.256	294.26
366.637	288.38
367.019	268.5
367.4	287.93
367.781	288.61
368.163	258.78
368.544	278.89
368.925	255.61
369.306	279.57
369.688	254.48
370.069	281.6
370.45	272.11
370.831	281.15
371.212	288.83
371.593	278.21
371.974	273.02
372.355	281.15
372.736	257.2
373.117	286.57
373.498	277.54
373.879	280.92
374.26	280.02
374.641	297.65
375.021	256.29
375.402	269.4
375.783	288.61
376.163	285.67
376.544	265.33
376.925	274.6
377.305	276.41
377.686	293.13
378.066	281.38
378.447	292
378.827	314.14
379.208	302.62
379.588	289.51
379.968	299.23
380.349	299.46
380.729	292.22
381.109	274.37
381.489	273.24
381.87	313.47
382.25	286.57
382.63	303.75
383.01	279.79
383.39	275.28
383.77	281.15
384.15	286.8
384.53	281.38
384.91	307.59
385.29	304.88
385.67	301.49
386.049	301.94
386.429	323.41
386.809	312.34
387.189	286.57
387.568	306.23
387.948	288.83
388.328	293.58
388.707	297.65
389.087	285.9
389.466	310.3
389.846	304.43
390.225	319.34
390.605	312.56
390.984	306.01
391.363	316.4
391.743	300.81
392.122	302.62
392.501	287.48
392.881	301.94
393.26	299.68
393.639	309.4
394.018	279.79
394.397	293.35
394.776	308.49
395.155	326.12
395.534	298.1
395.913	294.94
396.292	302.17
396.671	300.59
397.05	305.33
397.429	291.09
397.808	293.58
398.186	309.85
398.565	309.85
398.944	287.7
399.323	339.91
399.701	326.35
400.08	310.3
400.458	329.51
400.837	303.07
401.215	301.04
401.594	320.92
401.972	326.8
402.351	315.73
402.729	309.85
403.107	312.11
403.486	320.02
403.864	310.08
404.242	313.47
404.62	313.47
404.999	335.84
405.377	309.85
405.755	297.87
406.133	322.73
406.511	326.57
406.889	331.77
407.267	332.45
407.645	333.58
408.023	332.22
408.401	320.25
408.779	326.57
409.156	320.92
409.534	313.69
409.912	328.38
410.29	329.96
410.667	347.59
411.045	338.55
411.422	346.23
411.8	338.55
412.178	333.13
412.555	327.93
412.933	331.77
413.31	326.12
413.687	326.57
414.065	339.91
414.442	341.49
414.819	341.94
415.197	328.83
415.574	348.49
415.951	351.21
416.328	346.46
416.705	348.72
417.082	357.53
417.46	331.54
417.837	343.07
418.214	339.68
418.591	342.84
418.967	344.65
419.344	348.95
419.721	347.82
420.098	349.62
420.475	349.17
420.852	353.01
421.228	342.84
421.605	343.07
421.982	349.62
422.358	373.13
422.735	358.66
423.111	374.48
423.488	357.08
423.864	360.24
424.241	380.58
424.617	350.98
424.994	377.87
425.37	339.23
425.746	357.76
426.123	367.93
426.499	366.12
426.875	356.86
427.251	366.12
427.627	370.64
428.003	370.87
428.379	357.31
428.756	360.7
429.132	364.31
429.507	366.35
429.883	387.81
430.259	381.49
430.635	383.52
431.011	386.91
431.387	377.19
431.763	393.24
432.138	379.68
432.514	400.47
432.89	382.39
433.265	413.35
433.641	395.5
434.016	363.18
434.392	380.36
434.767	379.68
435.143	383.52
435.518	409.73
435.894	393.46
436.269	402.05
436.644	393.69
437.02	422.84
437.395	423.97
437.77	400.7
438.145	425.55
438.52	405.22
438.895	410.64
439.271	430.98
439.646	423.07
440.021	410.41
440.395	452.67
440.77	397.76
441.145	421.49
441.52	414.93
441.895	436.4
442.27	432.56
442.645	418.77
443.019	426.91
443.394	428.27
443.769	428.27
444.143	430.75
444.518	428.27
444.892	426.68
445.267	410.64
445.641	456.06
446.016	445.21
446.39	430.98
446.764	453.35
447.139	439.56
447.513	446.34
447.887	435.72
448.262	425.33
448.636	430.07
449.01	449.51
449.384	445.21
449.758	448.38
450.132	445.67
450.506	438.43
450.88	434.37
451.254	465.78
451.628	464.65
452.002	456.74
452.376	459.23
452.75	463.97
453.123	475.5
453.497	463.29
453.871	469.62
454.244	460.36
454.618	471.2
454.992	482.05
455.365	489.51
455.739	480.69
456.112	477.53
456.486	497.64
456.859	482.5
457.232	499.9
457.606	486.12
457.979	507.13
458.352	505.33
458.725	533.12
459.099	517.3
459.472	497.19
459.845	513.69
460.218	515.27
460.591	534.25
460.964	511.65
461.337	522.05
461.71	527.25
462.083	548.26
462.456	544.19
462.829	558.21
463.201	557.3
463.574	549.17
463.947	529.05
464.32	552.1
464.692	557.98
465.065	558.43
465.438	562.73
465.81	568.15
466.183	591.2
466.555	588.26
466.928	602.27
467.3	583.97
467.672	596.4
468.045	588.26
468.417	613.35
468.789	606.34
469.161	608.37
469.534	617.19
469.906	621.03
470.278	625.32
470.65	629.39
471.022	626.45
471.394	659.22
471.766	642.05
472.138	652.21
472.51	669.84
472.882	682.95
473.253	696.28
473.625	676.17
473.997	684.76
474.369	695.15
474.74	693.34
475.112	700.12
475.484	713.91
475.855	701.7
476.227	725.21
476.598	732.89
476.97	747.35
477.341	747.58
477.713	752.55
478.084	760.69
478.455	787.35
478.827	786.67
479.198	806.56
479.569	810.18
479.94	836.39
480.311	828.71
480.682	845.2
481.053	864.19
481.424	866.9
481.795	884.3
482.166	878.88
482.537	899.44
482.908	907.35
483.279	918.2
483.65	938.31
484.021	940.57
484.391	950.96
484.762	948.48
485.133	971.08
485.503	1002.94
485.874	1016.5
486.244	1025.99
486.615	1011.75
486.985	1024.63
487.356	1061.24
487.726	1015.14
488.097	1073.22
488.467	1081.36
488.837	1082.49
489.207	1110.06
489.578	1091.07
489.948	1122.71
490.318	1150.28
490.688	1142.37
491.058	1165.87
491.428	1160
491.798	1159.55
492.168	1172.43
492.538	1195.03
492.908	1233.44
493.278	1226.66
493.648	1233.22
494.017	1239.32
494.387	1248.36
494.757	1274.12
495.126	1266.66
495.496	1260.79
495.866	1284.97
496.235	1296.72
496.605	1313.44
496.974	1320.45
497.344	1319.32
497.713	1331.07
498.082	1340.78
498.452	1332.2
498.821	1341.46
499.19	1355.02
499.559	1345.98
499.928	1370.61
500.298	1353.21
500.667	1386.66
501.036	1388.01
501.405	1395.02
501.774	1407.45
502.143	1392.31
502.512	1406.77
502.88	1406.54
503.249	1418.3
503.618	1426.88
503.987	1452.42
504.356	1444.96
504.724	1434.57
505.093	1454.45
505.462	1449.71
505.83	1430.73
506.199	1484.51
506.567	1472.98
506.936	1470.95
507.304	1503.27
507.672	1511.85
508.041	1477.05
508.409	1497.62
508.777	1539.65
509.145	1538.97
509.514	1517.28
509.882	1545.52
510.25	1535.36
510.618	1556.37
510.986	1554.11
511.354	1581
511.722	1546.65
512.09	1590.49
512.458	1576.71
512.826	1586.2
513.193	1558.86
513.561	1577.84
513.929	1614.9
514.297	1629.36
514.664	1672.75
515.032	1616.48
515.4	1613.09
515.767	1654.45
516.135	1635.69
516.502	1634.79
516.869	1659.65
517.237	1643.15
517.604	1664.17
517.972	1653.54
518.339	1671.17
518.706	1672.75
519.073	1686.99
519.44	1683.37
519.808	1678.18
520.175	1706.2
520.542	1698.97
520.909	1682.24
521.276	1705.52
521.643	1707.55
522.009	1721.11
522.376	1724.95
522.743	1740.77
523.11	1768.57
523.477	1769.7
523.843	1773.09
524.21	1784.39
524.577	1792.3
524.943	1783.03
525.31	1804.73
525.676	1812.64
526.043	1814.22
526.409	1829.36
526.776	1828.45
527.142	1845.18
527.508	1848.34
527.874	1822.58
528.241	1836.36
528.607	1859.41
528.973	1856.93
529.339	1853.54
529.705	1877.27
530.071	1888.11
530.437	1891.28
530.803	1903.71
531.169	1891.73
531.535	1894.44
531.901	1909.13
532.267	1906.19
532.632	1893.99
532.998	1917.94
533.364	1914.78
533.73	1917.94
534.095	1921.56
534.461	1910.03
534.826	1941.9
535.192	1945.29
535.557	1903.03
535.923	1921.56
536.288	1929.47
536.653	1931.73
537.019	1931.05
537.384	1933.76
537.749	1916.81
538.114	1911.16
538.479	1932.63
538.845	1909.13
539.21	1932.86
539.575	1918.85
539.94	1920.66
540.305	1952.75
540.67	1949.13
541.034	1923.59
541.399	1923.37
541.764	1919.75
542.129	1890.83
542.494	1931.28
542.858	1940.09
543.223	1915.01
543.587	1951.16
543.952	1934.21
544.316	1940.54
544.681	1941.22
545.045	1917.94
545.41	1914.55
545.774	1930.6
546.138	1959.52
546.503	1958.85
546.867	1934.21
547.231	1964.04
547.595	1966.98
547.959	1955.23
548.324	1978.96
548.688	1961.78
549.052	1968.79
549.416	1940.54
549.779	1967.66
550.143	1976.47
550.507	1970.6
550.871	1990.26
551.235	1958.85
551.599	1988.9
551.962	1992.97
552.326	1985.06
552.689	2011.95
553.053	1962.24
553.417	1990.48
553.78	2028
554.143	1998.85
554.507	1968.11
554.87	2006.98
555.234	2022.35
555.597	1974.44
555.96	2026.64
556.323	2018.28
556.686	1998.17
557.05	2025.06
557.413	2034.1
557.776	2050.37
558.139	2045.85
558.502	2045.17
558.865	2013.76
559.228	2028.68
559.59	2010.82
559.953	2021.44
560.316	2046.3
560.679	2060.31
561.041	2060.31
561.404	2051.73
561.767	2079.52
562.129	2033.65
562.492	2052.4
562.854	2100.76
563.217	2060.77
563.579	2067.09
563.941	2089.46
564.304	2078.84
564.666	2105.28
565.028	2100.31
565.39	2083.36
565.753	2105.28
566.115	2083.36
566.477	2074.1
566.839	2122.23
567.201	2126.75
567.563	2116.36
567.925	2151.61
568.287	2104.61
568.648	2122.91
569.01	2097.83
569.372	2121.78
569.734	2122.91
570.095	2162.91
570.457	2158.62
570.819	2132.63
571.18	2147.99
571.542	2161.33
571.903	2138.5
572.265	2146.19
572.626	2158.16
572.987	2170.14
573.349	2143.93
573.71	2176.02
574.071	2129.69
574.432	2168.56
574.794	2151.84
575.155	2152.51
575.516	2127.43
575.877	2171.5
576.238	2165.62
576.599	2145.96
576.96	2126.3
577.32	2157.94
577.681	2164.72
578.042	2133.98
578.403	2161.78
578.763	2144.6
579.124	2141.21
579.485	2169.24
579.845	2127.2
580.206	2134.44
580.566	2122.23
580.927	2143.47
581.287	2145.73
581.648	2129.24
582.008	2110.71
582.368	2109.35
582.728	2117.94
583.089	2105.74
583.449	2147.54
583.809	2102.12
584.169	2097.37
584.529	2113.64
584.889	2094.66
585.249	2083.36
585.609	2096.7
585.969	2081.56
586.329	2098.05
586.688	2091.72
587.048	2092.85
587.408	2097.6
587.768	2060.99
588.127	2044.04
588.487	2068.9
588.846	2077.04
589.206	2046.75
589.565	2014.44
589.925	2048.79
590.284	2037.94
590.643	2030.03
591.003	2055.79
591.362	2055.12
591.721	2039.07
592.08	2027.55
592.44	2018.73
592.799	2039.75
593.158	2025.96
593.517	2044.72
593.876	2017.83
594.235	2033.87
594.593	2053.53
594.952	2044.04
595.311	2020.09
595.67	2014.21
596.029	2015.57
596.387	2009.47
596.746	2022.12
597.104	1999.3
597.463	2023.48
597.822	2032.07
598.18	1964.27
598.538	2007.21
598.897	2000.88
599.255	2004.72
599.613	2030.03
599.972	2033.87
600.33	2048.79
600.688	2021.67
601.046	2057.38
601.404	2021.22
601.762	2037.49
602.12	2054.21
602.478	2011.73
602.836	2002.01
603.194	2004.5
603.552	2025.51
603.91	2029.13
604.268	2032.52
604.625	2063.7
604.983	2009.69
605.341	2008.34
605.698	1996.59
606.056	2046.53
606.413	2056.7
606.771	2025.51
607.128	2039.75
607.485	2040.65
607.843	2056.7
608.2	2061.89
608.557	2077.26
608.914	2011.95
609.272	2091.05
609.629	2027.77
609.986	2088.79
610.343	2085.62
610.7	2089.46
611.057	2108.22
611.414	2093.08
611.771	2088.79
612.127	2108.67
612.484	2094.89
612.841	2096.02
613.198	2075.91
613.554	2099.86
613.911	2095.34
614.267	2096.92
614.624	2085.17
614.98	2097.37
615.337	2096.24
615.693	2112.29
616.05	2122.23
616.406	2100.54
616.762	2124.04
617.118	2088.56
617.475	2089.92
617.831	2118.16
618.187	2119.52
618.543	2095.34
618.899	2120.88
619.255	2103.02
619.611	2109.8
619.967	2116.36
620.323	2132.18
620.678	2152.51
621.034	2131.05
621.39	2102.8
621.746	2143.7
622.101	2143.25
622.457	2126.98
622.812	2094.44
623.168	2111.16
623.523	2129.92
623.879	2128.56
624.234	2109.8
624.589	2123.59
624.945	2095.79
625.3	2115.23
625.655	2097.83
626.01	2103.02
626.365	2100.99
626.72	2105.51
627.075	2076.36
627.43	2119.07
627.785	2107.77
628.14	2103.93
628.495	2116.58
628.85	2089.92
629.205	2107.77
629.559	2111.61
629.914	2119.97
630.269	2111.16
630.623	2112.29
630.978	2101.44
631.332	2107.09
631.687	2086.3
632.041	2084.72
632.396	2122.68
632.75	2078.17
633.104	2035.45
633.459	2093.76
633.813	2074.32
634.167	2064.15
634.521	2104.61
634.875	2134.89
635.229	2073.87
635.583	2058.96
635.937	2046.75
636.291	2070.03
636.645	2089.46
636.999	2112.97
637.352	2083.36
637.706	2058.73
638.06	2070.48
638.413	2077.26
638.767	2088.33
639.121	2086.53
639.474	2067.32
639.828	2100.54
640.181	2084.95
640.534	2098.28
640.888	2082.91
641.241	2088.33
641.594	2054.21
641.947	2115.68
642.301	2096.02
642.654	2078.39
643.007	2112.06
643.36	2072.06
643.713	2072.52
644.066	2067.32
644.419	2099.41
644.771	2079.97
645.124	2092.18
645.477	2081.56
645.83	2064.38
646.182	2060.99
646.535	2085.85
646.888	2047.43
647.24	2034.1
647.593	2074.32
647.945	2033.87
648.298	2077.26
648.65	2030.48
649.002	2056.92
649.355	2057.38
649.707	2046.98
650.059	2099.63
650.411	2143.7
650.763	2107.77
651.115	2134.89
651.467	2132.63
651.819	2132.63
652.171	2171.72
652.523	2157.71
652.875	2157.49
653.227	2162.23
653.578	2187.54
653.93	2192.29
654.282	2205.62
654.633	2189.8
654.985	2202.91
655.337	2195.22
655.688	2209.01
656.039	2248.1
656.391	2215.34
656.742	2239.74
657.094	2205.39
657.445	2285.62
657.796	2250.36
658.147	2273.19
658.498	2278.84
658.849	2299.85
659.2	2311.83
659.551	2287.2
659.902	2292.4
660.253	2314.09
660.604	2345.96
660.955	2330.59
661.306	2336.46
661.656	2345.5
662.007	2396.12
662.358	2410.13
662.708	2407.2
663.059	2396.58
663.409	2418.95
663.76	2470.25
664.11	2436.57
664.461	2484.71
664.811	2489.91
665.161	2533.75
665.511	2484.03
665.862	2491.49
666.212	2559.73
666.562	2562.67
666.912	2539.17
667.262	2564.93
667.612	2602.45
667.962	2589.56
668.312	2693.52
668.662	2665.27
669.011	2645.38
669.361	2650.58
669.711	2681.31
670.06	2703.91
670.41	2744.36
670.76	2747.3
671.109	2747.53
671.459	2787.75
671.808	2794.98
672.157	2852.83
672.507	2845.15
672.856	2833.63
673.205	2901.65
673.554	2893.06
673.904	2945.49
674.253	2966.96
674.602	2974.41
674.951	2945.04
675.3	2971.02
675.649	3016.45
675.998	3042.66
676.346	3055.54
676.695	3095.54
677.044	3095.31
677.393	3134.86
677.741	3153.39
678.09	3209.44
678.438	3211.92
678.787	3212.6
679.135	3275.65
679.484	3274.97
679.832	3312.71
680.181	3278.81
680.529	3336.89
680.877	3333.5
681.225	3387.74
681.573	3418.24
681.922	3401.07
682.27	3394.97
682.618	3477.22
682.966	3516.55
683.314	3535.08
683.661	3559.93
684.009	3545.92
684.357	3538.24
684.705	3608.97
685.053	3628.41
685.4	3642.64
685.748	3677.67
686.095	3706.15
686.443	3735.75
686.79	3718.35
687.138	3725.58
687.485	3790.66
687.832	3781.4
688.18	3833.37
688.527	3839.7
688.874	3886.25
689.221	3889.87
689.568	3905.46
689.915	3939.13
690.262	3948.4
690.609	4007.61
690.956	3971.68
691.303	4061.16
691.65	4029.98
691.997	4057.55
692.344	4055.51
692.69	4100.71
693.037	4142.97
693.383	4136.64
693.73	4203.99
694.077	4203.53
694.423	4236.98
694.769	4301.61
695.116	4303.19
695.462	4249.86
695.808	4301.38
696.155	4301.84
696.501	4399.23
696.847	4355.39
697.193	4363.3
697.539	4410.08
697.885	4396.3
698.231	4387.94
698.577	4492.34
698.923	4475.39
699.269	4506.58
699.614	4489.63
699.96	4552.22
700.306	4544.99
700.651	4580.92
700.997	4603.75
701.342	4590.64
701.688	4650.98
702.033	4638.32
702.379	4672.22
702.724	4684.65
703.069	4706.8
703.415	4708.61
703.76	4770.3
704.105	4764.2
704.45	4774.59
704.795	4805.1
705.14	4824.53
705.485	4845.55
705.83	4849.62
706.175	4868.83
706.52	4904.08
706.865	4895.27
707.209	4943.4
707.554	4937.98
707.899	4937.07
708.243	4942.5
708.588	4955.15
708.932	4956.51
709.277	4971.42
709.621	5018.2
709.966	5020.01
710.31	5017.75
710.654	5007.81
710.998	5090.97
711.342	5121.25
711.687	5111.53
712.031	5102.94
712.375	5150.85
712.719	5152.89
713.063	5128.71
713.407	5206.22
713.75	5182.49
714.094	5211.19
714.438	5258.87
714.782	5210.51
715.125	5262.94
715.469	5295.26
715.812	5317.18
716.156	5272.43
716.499	5277.4
716.843	5318.98
717.186	5318.76
717.53	5300.68
717.873	5313.79
718.216	5327.12
718.559	5315.37
718.902	5322.15
719.246	5350.4
719.589	5387.91
719.932	5333.67
720.275	5390.62
720.617	5380.45
720.96	5415.48
721.303	5401.47
721.646	5426.33
721.989	5345.88
722.331	5460
722.674	5425.42
723.016	5485.08
723.359	5427
723.701	5481.69
724.044	5465.2
724.386	5473.1
724.729	5502.71
725.071	5432.65
725.413	5462.03
725.755	5489.6
726.097	5511.3
726.439	5518.98
726.782	5489.6
727.124	5502.71
727.465	5500
727.807	5551.75
728.149	5496.38
728.491	5493.9
728.833	5549.49
729.175	5525.76
729.516	5567.11
729.858	5489.6
730.199	5549.03
730.541	5508.36
730.882	5560.79
731.224	5561.92
731.565	5527.34
731.906	5556.72
732.248	5578.64
732.589	5529.15
732.93	5485.53
733.271	5548.58
733.612	5549.03
733.953	5576.15
734.294	5534.57
734.635	5506.1
734.976	5581.58
735.317	5544.74
735.658	5568.47
735.999	5570.96
736.339	5535.48
736.68	5591.52
737.021	5557.17
737.361	5523.5
737.702	5528.02
738.042	5596.49
738.383	5561.46
738.723	5584.97
739.063	5502.48
739.404	5566.66
739.744	5530.05
740.084	5526.89
740.424	5557.85
740.764	5529.37
741.104	5512.43
741.444	5512.65
741.784	5519.21
742.124	5550.39
742.464	5541.8
742.804	5510.84
743.143	5506.55
743.483	5508.58
743.823	5517.62
744.162	5479.43
744.502	5517.17
744.841	5467.91
745.181	5472.43
745.52	5473.1
745.86	5482.14
746.199	5450.51
746.538	5450.96
746.877	5509.49
747.216	5441.24
747.556	5479.88
747.895	5494.57
748.234	5443.5
748.573	5445.08
748.911	5461.81
749.25	5454.8
749.589	5347.91
749.928	5441.69
750.267	5406.44
750.605	5374.58
750.944	5362.15
751.283	5348.36
751.621	5387.23
751.96	5337.06
752.298	5364.18
752.636	5401.92
752.975	5335.93
753.313	5317.4
753.651	5347.23
753.989	5330.28
754.327	5297.97
754.666	5245.54
755.004	5334.8
755.342	5310.4
755.679	5235.82
756.017	5256.16
756.355	5255.48
756.693	5261.58
757.031	5227.69
757.368	5209.83
757.706	5180.23
758.044	5198.76
758.381	5198.76
758.719	5182.72
759.056	5190.63
759.394	5166.9
759.731	5135.03
760.068	5112.21
760.405	5150.18
760.743	5075.15
761.08	5114.7
761.417	5047.58
761.754	5072.66
762.091	4987.69
762.428	4994.93
762.765	5026.34
763.102	5020.91
763.438	4977.75
763.775	4953.12
764.112	4978.2
764.449	4951.54
764.785	4986.79
765.122	4941.59
765.458	4902.27
765.795	4890.3
766.131	4952.21
766.467	4886
766.804	4849.62
767.14	4810.3
767.476	4832.44
767.812	4825.89
768.148	4832.44
768.485	4809.39
768.821	4779.79
769.157	4762.39
769.492	4801.48
769.828	4754.71
770.164	4729.85
770.5	4685.55
770.836	4703.41
771.171	4725.1
771.507	4711.32
771.842	4633.35
772.178	4646.23
772.513	4614.82
