Data from carpet_green_FLMS001491_00033.txt Node
Date: Wed Feb 08 10:35:16 GMT 2017
User: dcchb
Spectrometer: FLMS00149
Trigger mode: 0
Integration Time (sec): 2.000000E-2
Scans to average: 10
Electric dark correction enabled: true
Nonlinearity correction enabled: false
Boxcar width: 0
XAxis mode: Wavelengths
Number of Pixels in Spectrum: 2048
>>>>>Begin Spectral Data<<<<<
341.393	-11.34
341.776	-11.34
342.16	-11.34
342.543	-56.99
342.927	-78.91
343.31	-90.44
343.693	-71.68
344.077	-63.54
344.46	-55.63
344.843	-24.67
345.226	-38.23
345.61	-24.67
345.993	-26.93
346.376	-13.38
346.759	25.72
347.142	26.17
347.525	46.06
347.908	61.65
348.291	70.01
348.674	70.24
349.057	109.33
349.44	119.95
349.823	144.36
350.206	174.19
350.588	169.22
350.971	187.3
351.354	187.75
351.737	225.71
352.119	219.61
352.502	219.39
352.884	249.22
353.267	252.38
353.65	254.64
354.032	276.11
354.414	282.66
354.797	278.59
355.179	283.79
355.562	300.97
355.944	309.1
356.326	316.79
356.709	299.38
357.091	316.79
357.473	309.1
357.855	325.37
358.238	312.49
358.62	313.17
359.002	325.6
359.384	308.42
359.766	314.75
360.148	304.81
360.53	300.06
360.912	308.88
361.294	308.88
361.676	293.28
362.057	287.63
362.439	320.4
362.821	316.11
363.203	298.48
363.584	298.03
363.966	311.81
364.348	299.61
364.729	304.81
365.111	288.31
365.493	290.8
365.874	276.79
366.256	301.87
366.637	287.86
367.019	279.5
367.4	291.02
367.781	281.31
368.163	285.15
368.544	280.4
368.925	290.12
369.306	291.25
369.688	292.15
370.069	286.73
370.45	277.69
370.831	276.56
371.212	294.19
371.593	274.07
371.974	286.5
372.355	273.85
372.736	261.19
373.117	279.5
373.498	281.76
373.879	289.22
374.26	285.83
374.641	284.02
375.021	265.26
375.402	261.42
375.783	280.4
376.163	256.67
376.544	280.63
376.925	287.41
377.305	276.56
377.686	284.7
378.066	279.05
378.447	272.49
378.827	300.74
379.208	301.87
379.588	293.28
379.968	311.14
380.349	283.57
380.729	312.04
381.109	295.09
381.489	290.12
381.87	294.64
382.25	309.78
382.63	304.81
383.01	306.62
383.39	309.78
383.77	286.73
384.15	320.18
384.53	292.15
384.91	287.86
385.29	296
385.67	290.35
386.049	305.26
386.429	292.83
386.809	275.43
387.189	315.88
387.568	311.36
387.948	289.89
388.328	285.37
388.707	296.45
389.087	304.13
389.466	303.68
389.846	305.94
390.225	303.68
390.605	305.49
390.984	325.37
391.363	290.57
391.743	286.28
392.122	293.06
392.501	295.77
392.881	301.19
393.26	305.49
393.639	283.79
394.018	305.71
394.397	319.95
394.776	320.18
395.155	308.42
395.534	316.79
395.913	308.88
396.292	330.57
396.671	300.97
397.05	326.95
397.429	326.73
397.808	304.13
398.186	313.4
398.565	305.71
398.944	325.15
399.323	314.75
399.701	314.75
400.08	286.5
400.458	305.49
400.837	298.71
401.215	294.41
401.594	301.42
401.972	324.92
402.351	326.95
402.729	316.56
403.107	319.05
403.486	312.49
403.864	339.16
404.242	318.82
404.62	309.78
404.999	320.63
405.377	309.33
405.755	325.82
406.133	305.26
406.511	320.63
406.889	305.94
407.267	324.02
407.645	309.33
408.023	308.88
408.401	329.89
408.779	314.07
409.156	319.5
409.534	333.06
409.912	321.98
410.29	316.56
410.667	304.81
411.045	317.24
411.422	328.76
411.8	319.72
412.178	316.56
412.555	313.17
412.933	312.94
413.31	320.18
413.687	332.38
414.065	348.88
414.442	350
414.819	336.45
415.197	335.99
415.574	325.82
415.951	342.77
416.328	320.85
416.705	319.27
417.082	342.55
417.46	348.42
417.837	349.55
418.214	340.29
418.591	334.86
418.967	347.07
419.344	331.25
419.721	335.09
420.098	330.12
420.475	342.1
420.852	326.28
421.228	324.69
421.605	335.54
421.982	345.71
422.358	336.22
422.735	343.23
423.111	330.12
423.488	343
423.864	369.21
424.241	362.21
424.617	347.07
424.994	358.82
425.37	327.18
425.746	348.65
426.123	356.33
426.499	355.43
426.875	359.95
427.251	347.97
427.627	356.33
428.003	338.48
428.379	354.75
428.756	365.37
429.132	376.44
429.507	364.47
429.883	361.53
430.259	366.28
430.635	361.08
431.011	337.8
431.387	368.76
431.763	368.08
432.138	363.79
432.514	378.03
432.89	380.74
433.265	361.76
433.641	361.08
434.016	347.52
434.392	369.21
434.767	377.8
435.143	370.34
435.518	372.83
435.894	374.41
436.269	371.47
436.644	391.59
437.02	379.83
437.395	376.22
437.77	364.69
438.145	376.9
438.52	357.01
438.895	386.84
439.271	385.03
439.646	367.41
440.021	394.98
440.395	402.21
440.77	380.51
441.145	377.57
441.52	371.02
441.895	381.87
442.27	393.62
442.645	364.69
443.019	379.38
443.394	394.07
443.769	401.53
444.143	372.83
444.518	394.98
444.892	407.18
445.267	399.72
445.641	389.55
446.016	410.79
446.39	415.77
446.764	410.34
447.139	387.97
447.513	408.31
447.887	411.47
448.262	399.27
448.636	392.49
449.01	392.94
449.384	415.77
449.758	426.84
450.132	418.7
450.506	431.58
450.88	429.55
451.254	414.86
451.628	423.68
452.002	414.41
452.376	432.04
452.75	419.16
453.123	417.57
453.497	412.15
453.871	424.58
454.244	426.84
454.618	427.07
454.992	451.7
455.365	413.96
455.739	407.63
456.112	430.68
456.486	423.22
456.859	451.25
457.232	445.37
457.606	441.98
457.979	423.68
458.352	439.04
458.725	442.21
459.099	445.37
459.472	463.22
459.845	438.36
460.218	435.65
460.591	458.48
460.964	468.87
461.337	471.13
461.71	461.64
462.083	485.14
462.456	465.03
462.829	472.49
463.201	474.3
463.574	495.31
463.947	453.96
464.32	492.15
464.692	482.66
465.065	476.78
465.438	474.52
465.81	494.41
466.183	493.73
466.555	486.05
466.928	501.19
467.3	516.78
467.672	512.49
468.045	526.95
468.417	497.57
468.789	506.61
469.161	514.29
469.534	504.35
469.906	515.88
470.278	523.56
470.65	517.46
471.022	514.97
471.394	558.36
471.766	550.23
472.138	560.62
472.51	546.84
472.882	569.66
473.253	551.36
473.625	567.85
473.997	570.11
474.369	556.33
474.74	570.34
475.112	570.56
475.484	596.33
475.855	588.87
476.227	611.24
476.598	628.19
476.97	598.13
477.341	608.08
477.713	627.96
478.084	620.51
478.455	630.9
478.827	627.96
479.198	627.51
479.569	674.52
479.94	663.89
480.311	671.35
480.682	658.47
481.053	677.23
481.424	683.78
481.795	692.82
482.166	693.95
482.537	705.7
482.908	690.11
483.279	708.87
483.65	746.6
484.021	746.83
484.391	770.78
484.762	752.03
485.133	747.51
485.503	753.16
485.874	777.79
486.244	767.85
486.615	767.85
486.985	791.12
487.356	825.7
487.726	792.25
488.097	817.56
488.467	812.82
488.837	812.59
489.207	827.96
489.578	846.94
489.948	838.13
490.318	863.89
490.688	876.32
491.058	864.34
491.428	882.87
491.798	885.81
492.168	898.47
492.538	903.21
492.908	903.66
493.278	910.22
493.648	923.1
494.017	940.72
494.387	938.01
494.757	929.65
495.126	922.87
495.496	952.02
495.866	942.98
496.235	954.96
496.605	977.56
496.974	975.98
497.344	975.53
497.713	981.17
498.082	976.2
498.452	972.59
498.821	975.53
499.19	984.11
499.559	1029.31
499.928	1004.9
500.298	987.5
500.667	1006.71
501.036	988.86
501.405	1034.28
501.774	1036.54
502.143	1034.28
502.512	1019.59
502.88	1070.21
503.249	1034.51
503.618	1047.84
503.987	1062.53
504.356	1061.85
504.724	1039.93
505.093	1064.56
505.462	1078.35
505.83	1073.15
506.199	1083.32
506.567	1089.19
506.936	1059.36
507.304	1116.31
507.672	1099.14
508.041	1083.09
508.409	1122.64
508.777	1100.72
509.145	1127.61
509.514	1134.84
509.882	1097.56
510.25	1119.93
510.618	1136.2
510.986	1109.98
511.354	1138.01
511.722	1151.11
512.09	1155.41
512.458	1129.87
512.826	1134.84
513.193	1152.92
513.561	1156.99
513.929	1158.35
514.297	1185.46
514.664	1203.77
515.032	1173.71
515.4	1173.94
515.767	1207.84
516.135	1199.47
516.502	1168.51
516.869	1167.84
517.237	1198.12
517.604	1223.65
517.972	1195.63
518.339	1211
518.706	1238.12
519.073	1207.16
519.44	1201.51
519.808	1260.26
520.175	1230.66
520.542	1247.16
520.909	1256.65
521.276	1255.07
521.643	1234.05
522.009	1247.61
522.376	1271.11
522.743	1274.5
523.11	1260.72
523.477	1254.61
523.843	1271.11
524.21	1260.26
524.577	1260.26
524.943	1280.83
525.31	1283.77
525.676	1289.19
526.043	1304.33
526.409	1307.04
526.776	1329.41
527.142	1307.95
527.508	1328.06
527.874	1340.26
528.241	1312.24
528.607	1329.41
528.973	1327.61
529.339	1313.14
529.705	1312.24
530.071	1373.25
530.437	1358.11
530.803	1336.42
531.169	1367.83
531.535	1342.75
531.901	1350.43
532.267	1362.86
532.632	1354.95
532.998	1348.62
533.364	1362.86
533.73	1368.74
534.095	1361.05
534.461	1344.1
534.826	1375.06
535.192	1378.23
535.557	1368.06
535.923	1390.88
536.288	1376.64
536.653	1366.48
537.019	1383.2
537.384	1390.88
537.749	1386.81
538.114	1366.48
538.479	1356.31
538.845	1398.34
539.21	1385.01
539.575	1386.81
539.94	1408.96
540.305	1385.46
540.67	1401.73
541.034	1381.39
541.399	1391.79
541.764	1406.02
542.129	1388.4
542.494	1378.45
542.858	1406.7
543.223	1398.11
543.587	1401.73
543.952	1383.2
544.316	1394.27
544.681	1397.44
545.045	1396.31
545.41	1407.38
545.774	1356.08
546.138	1388.62
546.503	1392.46
546.867	1415.06
547.231	1394.5
547.595	1384.33
547.959	1412.8
548.324	1418.45
548.688	1413.03
549.052	1402.63
549.416	1399.02
549.779	1428.17
550.143	1401.5
550.507	1433.14
550.871	1433.59
551.235	1423.65
551.599	1423.2
551.962	1405.8
552.326	1429.52
552.689	1422.75
553.053	1437.43
553.417	1408.06
553.78	1441.28
554.143	1432.46
554.507	1428.39
554.87	1465.23
555.234	1439.69
555.597	1440.6
555.96	1464.55
556.323	1423.87
556.686	1453.03
557.05	1444.89
557.413	1436.53
557.776	1426.81
558.139	1445.8
558.502	1461.61
558.865	1475.4
559.228	1453.7
559.59	1449.64
559.953	1486.47
560.316	1503.87
560.679	1491.22
561.041	1468.62
561.404	1472.91
561.767	1486.7
562.129	1467.72
562.492	1490.31
562.854	1501.61
563.217	1473.59
563.579	1480.82
563.941	1520.82
564.304	1498.9
564.666	1486.47
565.028	1494.61
565.39	1497.55
565.753	1521.05
566.115	1517.88
566.477	1511.78
566.839	1538
567.201	1525.34
567.563	1528.05
567.925	1535.74
568.287	1508.39
568.648	1552.69
569.01	1511.33
569.372	1549.75
569.734	1533.7
570.095	1549.52
570.457	1551.1
570.819	1552.69
571.18	1519.24
571.542	1536.41
571.903	1554.27
572.265	1543.19
572.626	1543.87
572.987	1544.55
573.349	1551.78
573.71	1556.98
574.071	1546.13
574.432	1551.56
574.794	1577.32
575.155	1541.61
575.516	1534.15
575.877	1570.76
576.238	1547.94
576.599	1541.16
576.96	1564.44
577.32	1526.7
577.681	1532.35
578.042	1523.08
578.403	1546.81
578.763	1560.37
579.124	1521.5
579.485	1523.08
579.845	1550.2
580.206	1554.94
580.566	1523.99
580.927	1552.01
581.287	1550.43
581.648	1526.92
582.008	1517.21
582.368	1524.89
582.728	1533.7
583.089	1551.33
583.449	1533.93
583.809	1528.51
584.169	1523.31
584.529	1538.9
584.889	1526.02
585.249	1521.95
585.609	1493.25
585.969	1550.2
586.329	1512.69
586.688	1484.89
587.048	1490.54
587.408	1517.21
587.768	1503.19
588.127	1519.69
588.487	1489.41
588.846	1486.25
589.206	1473.59
589.565	1526.25
589.925	1476.3
590.284	1497.32
590.643	1491.22
591.003	1503.19
591.362	1515.17
591.721	1494.16
592.08	1496.19
592.44	1490.31
592.799	1506.81
593.158	1479.01
593.517	1476.75
593.876	1501.84
594.235	1462.97
594.593	1474.27
594.952	1482.63
595.311	1450.09
595.67	1481.95
596.029	1484.66
596.387	1484.21
596.746	1481.95
597.104	1482.63
597.463	1462.97
597.822	1461.39
598.18	1492.35
598.538	1479.24
598.897	1449.41
599.255	1481.5
599.613	1500.48
599.972	1484.66
600.33	1484.44
600.688	1454.16
601.046	1479.01
601.404	1482.63
601.762	1462.29
602.12	1465.68
602.478	1475.17
602.836	1463.42
603.194	1465.23
603.552	1480.37
603.91	1476.53
604.268	1475.17
604.625	1487.15
604.983	1485.12
605.341	1468.62
605.698	1484.21
606.056	1526.7
606.413	1495.29
606.771	1487.83
607.128	1500.26
607.485	1502.52
607.843	1490.77
608.2	1513.14
608.557	1495.96
608.914	1507.71
609.272	1510.2
609.629	1515.17
609.986	1486.92
610.343	1510.43
610.7	1524.44
611.057	1517.88
611.414	1506.36
611.771	1519.69
612.127	1528.28
612.484	1541.84
612.841	1533.7
613.198	1532.57
613.554	1509.07
613.911	1525.12
614.267	1551.33
614.624	1531.44
614.98	1523.53
615.337	1549.97
615.693	1552.01
616.05	1527.15
616.406	1532.57
616.762	1552.91
617.118	1529.86
617.475	1543.87
617.831	1513.36
618.187	1542.52
618.543	1543.42
618.899	1554.27
619.255	1538.22
619.611	1544.32
619.967	1543.19
620.323	1562.85
620.678	1534.61
621.034	1537.09
621.39	1544.32
621.746	1550.88
622.101	1547.94
622.457	1538.45
622.812	1538.9
623.168	1566.24
623.523	1522.18
623.879	1535.06
624.234	1578.67
624.589	1522.4
624.945	1540.03
625.3	1523.31
625.655	1538
626.01	1521.5
626.365	1527.38
626.72	1566.92
627.075	1550.65
627.43	1548.17
627.785	1506.81
628.14	1561.5
628.495	1535.74
628.85	1510.88
629.205	1537.32
629.559	1543.19
629.914	1522.86
630.269	1555.85
630.623	1523.99
630.978	1546.58
631.332	1547.26
631.687	1541.61
632.041	1506.81
632.396	1537.09
632.75	1512.46
633.104	1531.22
633.459	1539.35
633.813	1520.6
634.167	1517.88
634.521	1504.78
634.875	1507.26
635.229	1526.02
635.583	1534.15
635.937	1506.13
636.291	1526.7
636.645	1532.8
636.999	1510.88
637.352	1520.82
637.706	1499.58
638.06	1509.3
638.413	1493.7
638.767	1526.7
639.121	1507.04
639.474	1506.13
639.828	1513.82
640.181	1489.18
640.534	1469.75
640.888	1489.86
641.241	1513.82
641.594	1516.53
641.947	1536.64
642.301	1505.91
642.654	1539.35
643.007	1510.65
643.36	1507.94
643.713	1525.34
644.066	1506.36
644.419	1495.74
644.771	1505.45
645.124	1496.19
645.477	1505.45
645.83	1530.76
646.182	1489.86
646.535	1515.17
646.888	1526.47
647.24	1480.6
647.593	1494.16
647.945	1529.41
648.298	1515.4
648.65	1507.04
649.002	1523.99
649.355	1509.97
649.707	1512.23
650.059	1539.8
650.411	1525.79
650.763	1557.88
651.115	1533.02
651.467	1559.01
651.819	1528.96
652.171	1588.84
652.523	1547.26
652.875	1554.27
653.227	1565.11
653.578	1589.75
653.93	1592.91
654.282	1592.23
654.633	1580.03
654.985	1590.88
655.337	1619.8
655.688	1604.89
656.039	1629.52
656.391	1574.15
656.742	1577.09
657.094	1623.19
657.445	1624.32
657.796	1640.37
658.147	1633.14
658.498	1654.38
658.849	1693.25
659.2	1684.89
659.551	1657.09
659.902	1673.13
660.253	1698.22
660.604	1674.26
660.955	1690.31
661.306	1695.96
661.656	1699.35
662.007	1742.51
662.358	1721.95
662.708	1749.52
663.059	1756.97
663.409	1779.12
663.76	1782.51
664.11	1773.24
664.461	1780.25
664.811	1772.34
665.161	1798.55
665.511	1803.07
665.862	1809.85
666.212	1844.43
666.562	1831.55
666.912	1845.33
667.262	1879
667.612	1882.85
667.962	1874.71
668.312	1862.28
668.662	1911.55
669.011	1924.2
669.361	1931.21
669.711	1962.84
670.06	1958.32
670.41	1961.26
670.76	1981.6
671.109	2002.16
671.459	1954.48
671.808	2055.72
672.157	2023.86
672.507	2048.27
672.856	2018.66
673.205	2052.79
673.554	2126.23
673.904	2079.45
674.253	2133.46
674.602	2125.55
674.951	2121.03
675.3	2097.98
675.649	2176.85
675.998	2197.64
676.346	2182.95
676.695	2229.5
677.044	2224.08
677.393	2229.96
677.741	2286.9
678.09	2276.96
678.438	2279.22
678.787	2317.41
679.135	2305.66
679.484	2361.25
679.832	2382.49
680.181	2365.55
680.529	2412.32
680.877	2390.63
681.225	2387.69
681.573	2460.46
681.922	2430.63
682.27	2447.8
682.618	2499.1
682.966	2531.42
683.314	2524.19
683.661	2549.95
684.009	2543.39
684.357	2547.24
684.705	2621.81
685.053	2601.25
685.4	2627.91
685.748	2656.84
686.095	2655.03
686.443	2629.49
686.79	2676.95
687.138	2701.36
687.485	2746.33
687.832	2736.61
688.18	2713.78
688.527	2756.27
688.874	2801.47
689.221	2802.6
689.568	2813.44
689.915	2828.58
690.262	2885.76
690.609	2863.84
690.956	2938.86
691.303	2877.62
691.65	2953.1
691.997	2950.16
692.344	2953.33
692.69	2931.63
693.037	2996.49
693.383	3005.98
693.73	3035.58
694.077	3030.39
694.423	3058.41
694.769	3081.46
695.116	3123.94
695.462	3160.33
695.808	3127.56
696.155	3161.23
696.501	3170.5
696.847	3165.07
697.193	3176.37
697.539	3189.25
697.885	3204.17
698.231	3232.42
698.577	3239.87
698.923	3248.91
699.269	3271.74
699.614	3301.79
699.96	3352.64
700.306	3311.06
700.651	3326.88
700.997	3308.8
701.342	3367.78
701.688	3400.77
702.033	3403.48
702.379	3399.64
702.724	3471.73
703.069	3474.22
703.415	3448.68
703.76	3495.01
704.105	3486.87
704.45	3511.05
704.795	3509.92
705.14	3505.4
705.485	3542.46
705.83	3552.63
706.175	3564.38
706.52	3623.14
706.865	3586.98
707.209	3619.98
707.554	3593.54
707.899	3636.25
708.243	3659.07
708.588	3708.56
708.932	3681.67
709.277	3649.58
709.621	3713.31
709.966	3673.08
710.31	3702.69
710.654	3728.22
710.998	3735.9
711.342	3791.5
711.687	3738.84
712.031	3785.85
712.375	3776.36
712.719	3808.45
713.063	3806.86
713.407	3864.71
713.75	3817.26
714.094	3857.94
714.438	3868.56
714.782	3831.95
715.125	3903.13
715.469	3884.38
715.812	3904.04
716.156	3839.86
716.499	3920.31
716.843	3914.2
717.186	3921.66
717.53	3983.81
717.873	3925.73
718.216	3965.28
718.559	3943.13
718.902	3949.23
719.246	3930.25
719.589	4014.77
719.932	4001.21
720.275	3981.1
720.617	4015.22
720.96	4017.93
721.303	4039.17
721.646	4046.18
721.989	4064.94
722.331	4042.79
722.674	4008.21
723.016	4022.22
723.359	4054.99
723.701	4085.95
724.044	4051.83
724.386	4081.21
724.729	4114.88
725.071	4120.53
725.413	4063.13
725.755	4080.75
726.097	4104.93
726.439	4121.21
726.782	4097.48
727.124	4153.07
727.465	4100.41
727.807	4108.78
728.149	4127.53
728.491	4155.55
728.833	4170.7
729.175	4177.02
729.516	4126.63
729.858	4127.53
730.199	4172.73
730.541	4136.8
730.882	4138.83
731.224	4210.24
731.565	4150.36
731.906	4164.59
732.248	4160.07
732.589	4203.91
732.93	4115.78
733.271	4164.82
733.612	4192.84
733.953	4175.22
734.294	4186.74
734.635	4156.23
734.976	4172.73
735.317	4168.21
735.658	4167.08
735.999	4167.76
736.339	4182.22
736.68	4194.2
737.021	4196.68
737.361	4171.6
737.702	4180.19
738.042	4148.1
738.383	4182.67
738.723	4146.06
739.063	4125.27
739.404	4160.07
739.744	4185.38
740.084	4199.62
740.424	4195.78
740.764	4171.15
741.104	4172.5
741.444	4115.56
741.784	4143.58
742.124	4192.62
742.464	4172.05
742.804	4184.03
743.143	4127.53
743.483	4179.06
743.823	4154.2
744.162	4159.17
744.502	4174.54
744.841	4114.2
745.181	4166.85
745.52	4146.29
745.86	4158.94
746.199	4148.1
746.538	4132.73
746.877	4128.89
747.216	4138.38
747.556	4105.61
747.895	4099.51
748.234	4132.73
748.573	4100.87
748.911	4147.65
749.25	4129.79
749.589	4086.63
749.928	4123.01
750.267	4093.86
750.605	4085.5
750.944	4050.02
751.283	4041.66
751.621	4105.39
751.96	4016.35
752.298	4050.47
752.636	4076.46
752.975	4064.03
753.313	4058.83
753.651	4008.89
753.989	4006.41
754.327	3979.51
754.666	3971.38
755.004	3995.11
755.342	4016.35
755.679	3979.51
756.017	4012.96
756.355	4008.44
756.693	3967.76
757.031	3986.75
757.368	3971.38
757.706	3934.77
758.044	3952.4
758.381	3945.62
758.719	3932.51
759.056	3958.95
759.394	3920.76
759.731	3911.72
760.068	3887.99
760.405	3864.26
760.743	3852.06
761.08	3880.08
761.417	3856.13
761.754	3846.64
762.091	3816.13
762.428	3866.75
762.765	3845.73
763.102	3858.61
763.438	3776.58
763.775	3790.14
764.112	3775
764.449	3786.3
764.785	3789.91
765.122	3783.59
765.458	3724.38
765.795	3731.61
766.131	3704.49
766.467	3700.2
766.804	3718.5
767.14	3662.46
767.476	3693.65
767.812	3661.1
768.148	3690.48
768.485	3635.57
768.821	3639.41
769.157	3628.56
769.492	3603.03
769.828	3596.25
770.164	3587.43
770.5	3610.48
770.836	3599.41
771.171	3551.73
771.507	3576.13
771.842	3546.08
772.178	3560.54
772.513	3548.56
772.849	3510.15
