Data from carpet_green_FLMS001491_00098.txt Node
Date: Wed Feb 08 10:36:08 GMT 2017
User: dcchb
Spectrometer: FLMS00149
Trigger mode: 0
Integration Time (sec): 2.000000E-2
Scans to average: 10
Electric dark correction enabled: true
Nonlinearity correction enabled: false
Boxcar width: 0
XAxis mode: Wavelengths
Number of Pixels in Spectrum: 2048
>>>>>Begin Spectral Data<<<<<
341.393	-26.51
341.776	-26.51
342.16	-26.51
342.543	-49.79
342.927	-75.1
343.31	-55.66
343.693	-80.97
344.077	-65.15
344.46	-38.04
344.843	-39.17
345.226	-35.78
345.61	-43.91
345.993	-41.88
346.376	-10.69
346.759	13.49
347.142	29.08
347.525	48.06
347.908	53.26
348.291	65.92
348.674	101.17
349.057	100.27
349.44	111.56
349.823	136.2
350.206	155.86
350.588	166.48
350.971	172.58
351.354	189.53
351.737	211
352.119	214.84
352.502	237.89
352.884	251.45
353.267	252.58
353.65	267.27
354.032	254.16
354.414	275.85
354.797	276.08
355.179	311.11
355.562	291.22
355.944	303.42
356.326	293.03
356.709	323.99
357.091	286.48
357.473	305.68
357.855	298.45
358.238	293.26
358.62	327.83
359.002	317.66
359.384	319.92
359.766	316.76
360.148	314.5
360.53	320.37
360.912	312.46
361.294	311.79
361.676	292.35
362.057	283.09
362.439	309.3
362.821	301.84
363.203	304.55
363.584	291.67
363.966	298.9
364.348	314.05
364.729	296.19
365.111	283.76
365.493	299.58
365.874	293.48
366.256	279.24
366.637	296.19
367.019	295.29
367.4	282.41
367.781	276.76
368.163	266.59
368.544	288.06
368.925	262.3
369.306	276.98
369.688	278.11
370.069	286.7
370.45	272.69
370.831	283.76
371.212	290.32
371.593	249.41
371.974	295.74
372.355	288.74
372.736	272.69
373.117	298
373.498	292.35
373.879	287.15
374.26	273.14
374.641	287.15
375.021	278.79
375.402	280.37
375.783	291.67
376.163	307.04
376.544	291.45
376.925	286.93
377.305	292.13
377.686	292.58
378.066	296.19
378.447	274.05
378.827	279.24
379.208	290.09
379.588	282.63
379.968	304.1
380.349	285.57
380.729	295.06
381.109	312.24
381.489	311.56
381.87	307.94
382.25	306.59
382.63	284.44
383.01	288.28
383.39	306.81
383.77	290.32
384.15	299.36
384.53	278.79
384.91	282.86
385.29	309.53
385.67	315.18
386.049	320.37
386.429	316.76
386.809	317.89
387.189	302.29
387.568	311.33
387.948	307.49
388.328	288.96
388.707	307.94
389.087	310.88
389.466	301.16
389.846	306.81
390.225	300.49
390.605	297.32
390.984	310.66
391.363	309.53
391.743	298.68
392.122	302.97
392.501	276.53
392.881	319.69
393.26	310.88
393.639	291.45
394.018	309.98
394.397	295.29
394.776	299.36
395.155	324.67
395.534	304.78
395.913	312.01
396.292	300.26
396.671	314.05
397.05	320.82
397.429	308.62
397.808	315.18
398.186	315.4
398.565	331.9
398.944	322.18
399.323	304.1
399.701	315.63
400.08	294.84
400.458	330.09
400.837	324.21
401.215	319.02
401.594	335.74
401.972	312.92
402.351	305.46
402.729	308.62
403.107	323.99
403.486	334.38
403.864	296.19
404.242	296.19
404.62	334.61
404.999	328.06
405.377	320.37
405.755	338
406.133	330.77
406.511	325.57
406.889	303.65
407.267	336.19
407.645	321.95
408.023	329.64
408.401	322.63
408.779	334.38
409.156	339.58
409.534	327.15
409.912	309.07
410.29	316.98
410.667	340.03
411.045	354.5
411.422	345.23
411.8	344.55
412.178	355.17
412.555	370.54
412.933	331.22
413.31	342.97
413.687	350.2
414.065	367.83
414.442	346.81
414.819	343.88
415.197	371.67
415.574	332.35
415.951	345.91
416.328	361.05
416.705	342.29
417.082	337.1
417.46	355.85
417.837	343.65
418.214	354.04
418.591	343.2
418.967	345.23
419.344	338.45
419.721	355.63
420.098	335.97
420.475	359.24
420.852	374.83
421.228	352.01
421.605	369.41
421.982	360.82
422.358	353.59
422.735	370.09
423.111	352.69
423.488	358.79
423.864	361.28
424.241	376.42
424.617	368.28
424.994	336.42
425.37	350.65
425.746	352.46
426.123	349.07
426.499	392.69
426.875	374.83
427.251	362.41
427.627	376.87
428.003	361.05
428.379	380.94
428.756	396.53
429.132	378.22
429.507	380.94
429.883	406.7
430.259	388.39
430.635	391.78
431.011	400.82
431.387	382.52
431.763	408.96
432.138	398.11
432.514	395.4
432.89	412.8
433.265	390.65
433.641	401.95
434.016	418.22
434.392	392.46
434.767	396.08
435.143	383.2
435.518	394.95
435.894	411.44
436.269	406.7
436.644	420.03
437.02	417.55
437.395	440.82
437.77	401.05
438.145	407.15
438.52	424.33
438.895	421.84
439.271	431.33
439.646	430.43
440.021	420.94
440.395	443.99
440.77	437.88
441.145	462.74
441.52	413.93
441.895	434.72
442.27	446.25
442.645	415.51
443.019	456.64
443.394	441.95
443.769	434.72
444.143	432.69
444.518	448.51
444.892	465.45
445.267	452.8
445.641	462.29
446.016	452.12
446.39	462.97
446.764	460.48
447.139	458.9
447.513	451.89
447.887	480.82
448.262	467.49
448.636	465.68
449.01	479.01
449.384	473.14
449.758	465.45
450.132	488.28
450.506	475.85
450.88	477.66
451.254	467.26
451.628	475.4
452.002	488.05
452.376	500.93
452.75	488.05
453.123	490.54
453.497	507.03
453.871	508.84
454.244	528.73
454.618	482.63
454.992	481.95
455.365	500.03
455.739	513.81
456.112	509.52
456.486	514.04
456.859	510.2
457.232	519.92
457.606	516.98
457.979	526.47
458.352	542.74
458.725	533.93
459.099	541.16
459.472	540.48
459.845	563.3
460.218	538.9
460.591	542.29
460.964	550.2
461.337	564.43
461.71	572.12
462.083	563.3
462.456	561.27
462.829	571.44
463.201	562.63
463.574	580.25
463.947	591.33
464.32	595.39
464.692	589.07
465.065	597.2
465.438	618.44
465.81	608.73
466.183	618.9
466.555	629.07
466.928	627.26
467.3	628.61
467.672	633.81
468.045	634.26
468.417	635.17
468.789	649.18
469.161	679.01
469.534	654.83
469.906	655.05
470.278	679.91
470.65	685.34
471.022	691.89
471.394	693.24
471.766	685.34
472.138	693.02
472.51	711.32
472.882	725.79
473.253	716.97
473.625	722.4
473.997	752.9
474.369	769.4
474.74	758.33
475.112	752.68
475.484	788.16
475.855	767.82
476.227	782.73
476.598	814.37
476.97	811.89
477.341	829.51
477.713	849.17
478.084	820.02
478.455	844.88
478.827	844.65
479.198	855.05
479.569	876.74
479.94	900.02
480.311	880.81
480.682	923.52
481.053	949.06
481.424	925.33
481.795	943.18
482.166	978.66
482.537	969.62
482.908	973.01
483.279	989.73
483.65	983.86
484.021	1039.22
484.391	1048.94
484.762	1048.72
485.133	1032.67
485.503	1053.91
485.874	1069.51
486.244	1083.52
486.615	1082.61
486.985	1097.08
487.356	1145.21
487.726	1096.85
488.097	1129.84
488.467	1139.11
488.837	1158.77
489.207	1157.41
489.578	1203.97
489.948	1199.45
490.318	1240.12
490.688	1243.06
491.058	1251.65
491.428	1264.08
491.798	1257.3
492.168	1288.94
492.538	1305.43
492.908	1303.4
493.278	1352.66
493.648	1309.5
494.017	1350.18
494.387	1357.18
494.757	1361.7
495.126	1361.48
495.496	1384.75
495.866	1365.32
496.235	1391.08
496.605	1428.14
496.974	1401.25
497.344	1417.52
497.713	1409.61
498.082	1446.9
498.452	1446.9
498.821	1454.35
499.19	1447.12
499.559	1492.55
499.928	1476.5
500.298	1476.95
500.667	1470.17
501.036	1474.47
501.405	1521.92
501.774	1514.24
502.143	1512.21
502.512	1531.41
502.88	1542.94
503.249	1554.46
503.618	1568.93
503.987	1573
504.356	1559.21
504.724	1599.66
505.093	1612.54
505.462	1574.58
505.83	1581.58
506.199	1586.1
506.567	1606.89
506.936	1648.02
507.304	1623.39
507.672	1615.48
508.041	1662.94
508.409	1641.69
508.777	1668.59
509.145	1691.18
509.514	1688.47
509.882	1669.49
510.25	1688.92
510.618	1681.92
510.986	1738.19
511.354	1712.88
511.722	1714.91
512.09	1734.12
512.458	1717.4
512.826	1720.34
513.193	1787.45
513.561	1789.03
513.929	1766.89
514.297	1783.84
514.664	1775.7
515.032	1812.09
515.4	1782.48
515.767	1814.8
516.135	1803.05
516.502	1824.97
516.869	1835.36
517.237	1846.21
517.604	1830.39
517.972	1847.79
518.339	1859.99
518.706	1867
519.073	1867.22
519.44	1891.18
519.808	1888.02
520.175	1893.44
520.542	1925.53
520.909	1942.7
521.276	1924.17
521.643	1959.2
522.009	1949.48
522.376	1954.91
522.743	1965.98
523.11	1967.56
523.477	2013.21
523.843	1986.77
524.21	2003.72
524.577	2006.88
524.943	2035.58
525.31	1998.07
525.676	2050.27
526.043	2069.03
526.409	2047.79
526.776	2090.5
527.142	2082.81
527.508	2089.59
527.874	2086.2
528.241	2085.98
528.607	2099.54
528.973	2109.48
529.339	2125.3
529.705	2124.17
530.071	2129.82
530.437	2149.25
530.803	2153.77
531.169	2153.32
531.535	2165.52
531.901	2148.35
532.267	2181.79
532.632	2145.18
532.998	2168.23
533.364	2179.31
533.73	2186.31
534.095	2179.53
534.461	2240.1
534.826	2213.88
535.192	2215.01
535.557	2220.89
535.923	2197.39
536.288	2234.67
536.653	2254.11
537.019	2233.54
537.384	2243.26
537.749	2219.53
538.114	2229.7
538.479	2210.72
538.845	2228.12
539.21	2228.35
539.575	2269.93
539.94	2218.85
540.305	2265.86
540.67	2238.29
541.034	2239.19
541.399	2222.7
541.764	2257.27
542.129	2260.89
542.494	2271.06
542.858	2242.36
543.223	2244.39
543.587	2245.75
543.952	2256.14
544.316	2245.75
544.681	2273.32
545.045	2286.2
545.41	2245.07
545.774	2283.71
546.138	2289.59
546.503	2278.97
546.867	2259.53
547.231	2280.77
547.595	2291.62
547.959	2310.83
548.324	2270.83
548.688	2271.28
549.052	2300.21
549.416	2287.78
549.779	2324.61
550.143	2289.36
550.507	2335.46
550.871	2304.73
551.235	2304.05
551.599	2317.83
551.962	2336.14
552.326	2328.68
552.689	2379.3
553.053	2341.56
553.417	2340.21
553.78	2353.09
554.143	2362.35
554.507	2351.73
554.87	2351.51
555.234	2357.83
555.597	2358.06
555.96	2355.12
556.323	2386.99
556.686	2382.01
557.05	2385.4
557.413	2372.75
557.776	2372.07
558.139	2399.64
558.502	2395.8
558.865	2386.99
559.228	2406.19
559.59	2407.32
559.953	2392.18
560.316	2442.35
560.679	2410.04
561.041	2443.93
561.404	2415.23
561.767	2472.86
562.129	2442.13
562.492	2467.66
562.854	2460.43
563.217	2457.94
563.579	2437.15
563.941	2471.05
564.304	2466.31
564.666	2506.76
565.028	2518.06
565.39	2483.48
565.753	2499.52
566.115	2476.7
566.477	2504.5
566.839	2513.99
567.201	2536.81
567.563	2506.53
567.925	2554.44
568.287	2528
568.648	2554.66
569.01	2562.12
569.372	2549.69
569.734	2583.14
570.095	2520.77
570.457	2575.91
570.819	2583.36
571.18	2558.73
571.542	2576.13
571.903	2575.68
572.265	2546.3
572.626	2606.19
572.987	2588.11
573.349	2599.41
573.71	2566.42
574.071	2584.72
574.432	2590.6
574.794	2582.23
575.155	2580.43
575.516	2568
575.877	2599.64
576.238	2548.56
576.599	2597.38
576.96	2598.51
577.32	2578.17
577.681	2564.61
578.042	2595.57
578.403	2589.47
578.763	2637.15
579.124	2575
579.485	2607.77
579.845	2589.92
580.206	2586.08
580.566	2564.83
580.927	2543.59
581.287	2579.75
581.648	2569.13
582.008	2560.31
582.368	2586.98
582.728	2571.84
583.089	2559.41
583.449	2543.82
583.809	2572.07
584.169	2575.68
584.529	2540.65
584.889	2542.24
585.249	2508.79
585.609	2548.56
585.969	2575.23
586.329	2547.88
586.688	2512.41
587.048	2531.39
587.408	2526.42
587.768	2525.51
588.127	2528.68
588.487	2506.3
588.846	2538.62
589.206	2516.25
589.565	2499.3
589.925	2533.87
590.284	2518.51
590.643	2520.32
591.003	2497.26
591.362	2509.69
591.721	2511.05
592.08	2531.16
592.44	2524.38
592.799	2539.75
593.158	2517.15
593.517	2513.31
593.876	2508.11
594.235	2445.97
594.593	2467.89
594.952	2474.67
595.311	2488.45
595.67	2459.3
596.029	2523.03
596.387	2509.24
596.746	2479.19
597.104	2488.9
597.463	2486.19
597.822	2543.14
598.18	2524.38
598.538	2490.26
598.897	2478.28
599.255	2487.55
599.613	2521.9
599.972	2484.16
600.33	2533.65
600.688	2532.74
601.046	2546.08
601.404	2559.41
601.762	2557.38
602.12	2526.87
602.478	2544.04
602.836	2559.64
603.194	2537.94
603.552	2535.23
603.91	2506.3
604.268	2515.34
604.625	2526.64
604.983	2538.17
605.341	2505.4
605.698	2556.7
606.056	2523.7
606.413	2543.82
606.771	2522.35
607.128	2562.57
607.485	2545.17
607.843	2532.52
608.2	2594.44
608.557	2559.18
608.914	2572.74
609.272	2592.18
609.629	2599.18
609.986	2580.2
610.343	2566.42
610.7	2629.24
611.057	2589.69
611.414	2588.34
611.771	2622.46
612.127	2606.64
612.484	2595.79
612.841	2622.69
613.198	2578.17
613.554	2598.73
613.911	2613.87
614.267	2626.53
614.624	2603.48
614.98	2618.84
615.337	2619.3
615.693	2623.59
616.05	2616.81
616.406	2635.57
616.762	2608
617.118	2620.65
617.475	2610.48
617.831	2641.22
618.187	2684.38
618.543	2658.39
618.899	2652.29
619.255	2627.66
619.611	2646.87
619.967	2610.93
620.323	2676.02
620.678	2652.52
621.034	2629.69
621.39	2618.17
621.746	2676.92
622.101	2677.6
622.457	2652.52
622.812	2626.08
623.168	2636.47
623.523	2641.22
623.879	2642.57
624.234	2612.52
624.589	2683.7
624.945	2696.81
625.3	2630.82
625.655	2642.57
626.01	2639.18
626.365	2598.96
626.72	2638.96
627.075	2657.49
627.43	2644.83
627.785	2660.2
628.14	2611.61
628.495	2666.98
628.85	2640.31
629.205	2604.83
629.559	2633.31
629.914	2624.27
630.269	2641.44
630.623	2620.43
630.978	2622.91
631.332	2631.05
631.687	2643.02
632.041	2657.71
632.396	2627.43
632.75	2591.27
633.104	2598.73
633.459	2614.32
633.813	2586.53
634.167	2596.47
634.521	2602.57
634.875	2591.05
635.229	2577.94
635.583	2573.2
635.937	2598.28
636.291	2558.28
636.645	2599.86
636.999	2620.2
637.352	2615.91
637.706	2610.48
638.06	2600.31
638.413	2572.52
638.767	2570.94
639.121	2573.2
639.474	2595.79
639.828	2582.23
640.181	2602.12
640.534	2571.61
640.888	2599.64
641.241	2580.88
641.594	2589.69
641.947	2564.16
642.301	2602.12
642.654	2585.85
643.007	2596.7
643.36	2562.8
643.713	2568.22
644.066	2582.01
644.419	2614.32
644.771	2592.86
645.124	2588.34
645.477	2559.86
645.83	2570.94
646.182	2577.26
646.535	2589.69
646.888	2543.82
647.24	2524.16
647.593	2569.13
647.945	2568.22
648.298	2546.3
648.65	2608.67
649.002	2574.1
649.355	2568.22
649.707	2573.87
650.059	2629.24
650.411	2648.45
650.763	2685.28
651.115	2666.3
651.467	2686.64
651.819	2668.33
652.171	2705.62
652.523	2685.96
652.875	2693.87
653.227	2723.02
653.578	2706.75
653.93	2759.63
654.282	2702.91
654.633	2750.37
654.985	2716.69
655.337	2767.31
655.688	2772.51
656.039	2783.36
656.391	2812.06
656.742	2809.12
657.094	2798.5
657.445	2764.83
657.796	2803.7
658.147	2826.52
658.498	2831.04
658.849	2829.46
659.2	2867.2
659.551	2864.94
659.902	2869.68
660.253	2885.28
660.604	2935.9
660.955	2904.26
661.306	2952.39
661.656	2949.46
662.007	2965.73
662.358	2958.04
662.708	2997.14
663.059	2976.57
663.409	2990.36
663.76	3042.56
664.11	3034.2
664.461	3077.14
664.811	3081.88
665.161	3066.52
665.511	3064.48
665.862	3098.83
666.212	3130.24
666.562	3120.98
666.912	3157.13
667.262	3174.31
667.612	3164.82
667.962	3230.8
668.312	3175.67
668.662	3216.57
669.011	3241.43
669.361	3299.5
669.711	3307.64
670.06	3315.1
670.41	3302.44
670.76	3323.46
671.109	3352.61
671.459	3380.63
671.808	3378.82
672.157	3437.35
672.507	3398.94
672.856	3401.42
673.205	3475.32
673.554	3468.76
673.904	3545.82
674.253	3555.77
674.602	3544.47
674.951	3543.34
675.3	3542.66
675.649	3603.68
675.998	3606.84
676.346	3658.14
676.695	3699.72
677.044	3653.84
677.393	3713.73
677.741	3752.83
678.09	3779.72
678.438	3801.19
678.787	3794.41
679.135	3867.17
679.484	3835.31
679.832	3847.06
680.181	3882.31
680.529	3914.18
680.877	3922.76
681.225	3970.9
681.573	3980.39
681.922	4011.8
682.27	4020.61
682.618	4017
682.966	4063.78
683.314	4106.71
683.661	4111.91
684.009	4148.52
684.357	4136.77
684.705	4147.84
685.053	4198.01
685.4	4199.14
685.748	4220.84
686.095	4217.67
686.443	4241.4
686.79	4248.41
687.138	4307.61
687.485	4337.89
687.832	4363.2
688.18	4386.71
688.527	4360.04
688.874	4416.76
689.221	4439.13
689.568	4443.43
689.915	4473.71
690.262	4519.36
690.609	4529.3
690.956	4556.19
691.303	4535.18
691.65	4590.09
691.997	4618.11
692.344	4549.41
692.69	4575.63
693.037	4681.16
693.383	4660.6
693.73	4664.67
694.077	4733.36
694.423	4694.72
694.769	4707.83
695.116	4715.29
695.462	4725.45
695.808	4784.66
696.155	4864.66
696.501	4771.33
696.847	4809.07
697.193	4843.19
697.539	4864.66
697.885	4870.76
698.231	4899.46
698.577	4892.91
698.923	4953.25
699.269	4897.43
699.614	4926.58
699.96	4992.34
700.306	4987.14
700.651	5014.94
700.997	4979.91
701.342	5031.44
701.688	5042.51
702.033	5061.49
702.379	5038.89
702.724	5040.93
703.069	5067.14
703.415	5080.7
703.76	5132.9
704.105	5156.4
704.45	5155.73
704.795	5174.93
705.14	5159.12
705.485	5135.16
705.83	5159.57
706.175	5227.36
706.52	5238.66
706.865	5230.07
707.209	5248.6
707.554	5288.38
707.899	5240.02
708.243	5271.66
708.588	5287.47
708.932	5275.5
709.277	5309.85
709.621	5318.66
709.966	5335.83
710.31	5365.66
710.654	5297.87
710.998	5323.18
711.342	5359.79
711.687	5377.87
712.031	5352.33
712.375	5360.47
712.719	5387.58
713.063	5401.37
713.407	5434.14
713.75	5450.41
714.094	5399.34
714.438	5414.7
714.782	5447.7
715.125	5395.27
715.469	5445.89
715.812	5468.03
716.156	5468.94
716.499	5423.06
716.843	5466.9
717.186	5463.06
717.53	5517.98
717.873	5480.92
718.216	5507.81
718.559	5532.67
718.902	5473.46
719.246	5534.02
719.589	5541.48
719.932	5489.05
720.275	5533.34
720.617	5557.3
720.96	5523.17
721.303	5544.42
721.646	5535.6
721.989	5525.89
722.331	5537.64
722.674	5538.54
723.016	5568.82
723.359	5534.02
723.701	5561.14
724.044	5546
724.386	5522.04
724.729	5533.57
725.071	5577.41
725.413	5555.72
725.755	5552.1
726.097	5577.18
726.439	5563.17
726.782	5568.37
727.124	5584.42
727.465	5611.08
727.807	5571.31
728.149	5542.61
728.491	5596.17
728.833	5611.99
729.175	5597.3
729.516	5543.06
729.858	5640.69
730.199	5588.93
730.541	5568.37
730.882	5566.11
731.224	5592.32
731.565	5598.88
731.906	5570.4
732.248	5562.04
732.589	5507.58
732.93	5546.45
733.271	5590.97
733.612	5527.47
733.953	5564.53
734.294	5534.02
734.635	5562.04
734.976	5565.21
735.317	5582.16
735.658	5585.77
735.999	5592.32
736.339	5564.75
736.68	5608.14
737.021	5606.11
737.361	5527.92
737.702	5533.34
738.042	5562.04
738.383	5552.1
738.723	5535.15
739.063	5498.54
739.404	5530.18
739.744	5498.77
740.084	5500.58
740.424	5528.15
740.764	5459.9
741.104	5542.16
741.444	5548.48
741.784	5440.46
742.124	5509.39
742.464	5478.66
742.804	5488.6
743.143	5503.51
743.483	5437.75
743.823	5486.34
744.162	5462.84
744.502	5428.49
744.841	5447.47
745.181	5414.48
745.52	5475.49
745.86	5458.77
746.199	5425.1
746.538	5462.84
746.877	5446.57
747.216	5435.27
747.556	5435.72
747.895	5463.29
748.234	5401.6
748.573	5429.17
748.911	5404.76
749.25	5434.59
749.589	5391.43
749.928	5352.11
750.267	5348.04
750.605	5337.87
750.944	5336.29
751.283	5275.5
751.621	5303.52
751.96	5273.01
752.298	5314.37
752.636	5308.94
752.975	5276.85
753.313	5248.38
753.651	5266.23
753.989	5227.14
754.327	5248.83
754.666	5214.71
755.004	5233.01
755.342	5206.8
755.679	5232.79
756.017	5155.95
756.355	5194.37
756.693	5163.41
757.031	5180.81
757.368	5176.74
757.706	5207.93
758.044	5107.59
758.381	5126.35
758.719	5130.64
759.056	5114.15
759.394	5112.34
759.731	5079.8
760.068	5080.25
760.405	5014.03
760.743	5026.92
761.08	5039.34
761.417	5029.18
761.754	5013.36
762.091	4990.31
762.428	4984.43
762.765	4979.46
763.102	4973.13
763.438	4930.87
763.775	4932.68
764.112	4924.09
764.449	4903.53
764.785	4914.38
765.122	4884.32
765.458	4860.14
765.795	4895.62
766.131	4821.27
766.467	4856.3
766.804	4841.61
767.14	4800.71
767.476	4832.12
767.812	4774.04
768.148	4820.82
768.485	4763.65
768.821	4734.72
769.157	4709.18
769.492	4688.62
769.828	4703.31
770.164	4695.63
770.5	4663.99
770.836	4660.6
771.171	4587.38
771.507	4682.29
771.842	4589.19
772.178	4596.42
772.513	4591.22
