Data from carpet_green_FLMS001491_00096.txt Node
Date: Wed Feb 08 10:36:08 GMT 2017
User: dcchb
Spectrometer: FLMS00149
Trigger mode: 0
Integration Time (sec): 2.000000E-2
Scans to average: 10
Electric dark correction enabled: true
Nonlinearity correction enabled: false
Boxcar width: 0
XAxis mode: Wavelengths
Number of Pixels in Spectrum: 2048
>>>>>Begin Spectral Data<<<<<
341.393	-15.24
341.776	-15.24
342.16	-15.24
342.543	-69.48
342.927	-52.07
343.31	-70.38
343.693	-66.09
344.077	-60.21
344.46	-43.26
344.843	-48.46
345.226	-23.38
345.61	-37.61
345.993	-27.22
346.376	-19.76
346.759	2.39
347.142	30.18
347.525	34.93
347.908	63.63
348.291	87.81
348.674	73.35
349.057	104.08
349.44	146.79
349.823	127.58
350.206	159.22
350.588	177.75
350.971	189.95
351.354	200.8
351.737	208.94
352.119	242.15
352.502	248.26
352.884	250.52
353.267	255.04
353.65	273.34
354.032	271.53
354.414	285.77
354.797	281.7
355.179	280.57
355.562	311.98
355.944	312.44
356.326	319.89
356.709	291.87
357.091	302.49
357.473	300.46
357.855	321.7
358.238	306.56
358.62	321.93
359.002	317.18
359.384	312.89
359.766	302.04
360.148	308.37
360.53	323.96
360.912	302.94
361.294	302.94
361.676	296.84
362.057	315.83
362.439	300.91
362.821	308.82
363.203	293.23
363.584	299.78
363.966	310.18
364.348	294.36
364.729	304.3
365.111	291.42
365.493	293.9
365.874	301.59
366.256	270.85
366.637	287.58
367.019	284.64
367.4	276.73
367.781	297.07
368.163	273.57
368.544	276.05
368.925	288.71
369.306	263.62
369.688	288.48
370.069	299.33
370.45	267.01
370.831	301.36
371.212	302.27
371.593	290.29
371.974	275.6
372.355	253.23
372.736	271.53
373.117	275.37
373.498	276.5
373.879	277.18
374.26	272.21
374.641	284.19
375.021	296.62
375.402	285.09
375.783	293.9
376.163	266.79
376.544	270.18
376.925	289.61
377.305	276.05
377.686	297.07
378.066	295.49
378.447	300.01
378.827	292.77
379.208	288.26
379.588	277.41
379.968	282.83
380.349	301.14
380.729	276.96
381.109	296.84
381.489	303.17
381.87	301.81
382.25	303.17
382.63	282.15
383.01	304.3
383.39	300.68
383.77	298.65
384.15	317.18
384.53	286.67
384.91	303.4
385.29	320.8
385.67	290.06
386.049	285.09
386.429	316.05
386.809	313.34
387.189	316.28
387.568	293.9
387.948	306.56
388.328	311.08
388.707	308.14
389.087	297.52
389.466	321.02
389.846	291.87
390.225	318.31
390.605	307.92
390.984	281.02
391.363	304.07
391.743	328.03
392.122	299.55
392.501	269.72
392.881	303.4
393.26	309.05
393.639	324.19
394.018	314.47
394.397	305.43
394.776	305.88
395.155	301.81
395.534	314.24
395.913	287.13
396.292	312.44
396.671	304.98
397.05	307.69
397.429	307.01
397.808	324.19
398.186	309.72
398.565	330.97
398.944	322.38
399.323	301.59
399.701	317.18
400.08	337.97
400.458	323.28
400.837	330.06
401.215	313.57
401.594	298.42
401.972	317.18
402.351	333
402.729	306.11
403.107	339.33
403.486	320.57
403.864	307.24
404.242	315.37
404.62	316.73
404.999	321.25
405.377	330.29
405.755	313.34
406.133	321.7
406.511	318.54
406.889	307.92
407.267	330.51
407.645	333.68
408.023	343.39
408.401	335.71
408.779	320.57
409.156	305.43
409.534	328.25
409.912	314.7
410.29	329.84
410.667	332.77
411.045	324.19
411.422	336.84
411.8	339.78
412.178	328.03
412.555	344.07
412.933	333.45
413.31	320.57
413.687	364.41
414.065	350.17
414.442	328.25
414.819	343.62
415.197	343.62
415.574	366.9
415.951	343.39
416.328	345.2
416.705	364.64
417.082	353.11
417.46	365.77
417.837	335.71
418.214	335.94
418.591	368.48
418.967	355.37
419.344	345.43
419.721	338.88
420.098	344.75
420.475	347.91
420.852	354.92
421.228	343.17
421.605	369.16
421.982	367.12
422.358	372.09
422.735	356.28
423.111	363.06
423.488	361.47
423.864	349.27
424.241	378.65
424.617	384.07
424.994	347.69
425.37	344.3
425.746	381.36
426.123	384.3
426.499	361.25
426.875	365.32
427.251	376.84
427.627	378.87
428.003	380.91
428.379	376.39
428.756	365.54
429.132	400.79
429.507	388.14
429.883	407.35
430.259	391.53
430.635	405.09
431.011	380.46
431.387	385.2
431.763	404.41
432.138	412.55
432.514	411.19
432.89	395.6
433.265	396.27
433.641	380.23
434.016	405.54
434.392	434.01
434.767	395.37
435.143	413.9
435.518	412.55
435.894	404.18
436.269	423.39
436.644	387.91
437.02	412.09
437.395	436.27
437.77	436.27
438.145	429.72
438.52	419.33
438.895	433.34
439.271	431.53
439.646	427.69
440.021	445.54
440.395	449.83
440.77	422.04
441.145	426.56
441.52	448.02
441.895	437.4
442.27	435.82
442.645	442.83
443.019	446.9
443.394	445.54
443.769	471.75
444.143	422.49
444.518	449.38
444.892	455.93
445.267	445.09
445.641	454.58
446.016	460.68
446.39	430.85
446.764	431.98
447.139	450.06
447.513	446.67
447.887	458.19
448.262	450.28
448.636	470.85
449.01	439.21
449.384	460.23
449.758	485.09
450.132	471.53
450.506	471.75
450.88	454.58
451.254	491.87
451.628	463.17
452.002	473.34
452.376	462.94
452.75	459.55
453.123	506.78
453.497	504.52
453.871	499.32
454.244	485.31
454.618	510.17
454.992	521.24
455.365	507.91
455.739	505.42
456.112	506.78
456.486	507.91
456.859	530.51
457.232	534.35
457.606	537.06
457.979	510.62
458.352	543.62
458.725	542.71
459.099	546.33
459.472	545.2
459.845	560.11
460.218	556.72
460.591	532.54
460.964	556.04
461.337	563.73
461.71	602.6
462.083	568.25
462.456	571.64
462.829	574.8
463.201	576.16
463.574	561.92
463.947	591.52
464.32	575.48
464.692	612.99
465.065	595.59
465.438	606.66
465.81	597.85
466.183	612.99
466.555	629.04
466.928	616.83
467.3	640.11
467.672	627.23
468.045	635.36
468.417	651.41
468.789	653.67
469.161	676.72
469.534	662.93
469.906	656.38
470.278	678.98
470.65	677.4
471.022	692.76
471.394	685.98
471.766	729.37
472.138	691.18
472.51	709.04
472.882	726.44
473.253	711.07
473.625	724.63
473.997	741.58
474.369	755.14
474.74	760.56
475.112	724.63
475.484	768.47
475.855	774.34
476.227	780.22
476.598	799.65
476.97	812.54
477.341	840.11
477.713	838.3
478.084	818.64
478.455	860.67
478.827	861.12
479.198	871.29
479.569	874.91
479.94	877.84
480.311	876.71
480.682	910.39
481.053	949.93
481.424	930.72
481.795	934.11
482.166	944.96
482.537	966.2
482.908	946.77
483.279	970.72
483.65	1012.3
484.021	1025.86
484.391	1038.74
484.762	1055.47
485.133	1068.8
485.503	1087.78
485.874	1099.99
486.244	1099.53
486.615	1097.27
486.985	1109.02
487.356	1123.94
487.726	1132.07
488.097	1139.98
488.467	1158.06
488.837	1158.29
489.207	1201.68
489.578	1191.73
489.948	1199.87
490.318	1222.69
490.688	1208.91
491.058	1230.83
491.428	1267.89
491.798	1279.64
492.168	1277.83
492.538	1258.17
492.908	1333.65
493.278	1294.1
493.648	1311.96
494.017	1325.97
494.387	1342.46
494.757	1343.82
495.126	1345.18
495.496	1371.39
495.866	1388.57
496.235	1394.21
496.605	1422.24
496.974	1407.55
497.344	1429.47
497.713	1428.56
498.082	1457.26
498.452	1455.23
498.821	1439.19
499.19	1438.06
499.559	1479.86
499.928	1490.03
500.298	1489.35
500.667	1465.63
501.036	1458.85
501.405	1498.39
501.774	1512.86
502.143	1522.8
502.512	1530.03
502.88	1504.95
503.249	1546.98
503.618	1564.83
503.987	1523.7
504.356	1570.93
504.724	1579.52
505.093	1570.71
505.462	1577.49
505.83	1586.98
506.199	1606.41
506.567	1636.24
506.936	1618.39
507.304	1652.29
507.672	1686.64
508.041	1645.96
508.409	1640.54
508.777	1664.49
509.145	1678.28
509.514	1698.16
509.882	1691.16
510.25	1671.72
510.618	1698.16
510.986	1718.73
511.354	1699.29
511.722	1727.09
512.09	1737.26
512.458	1732.51
512.826	1744.94
513.193	1781.32
513.561	1779.74
513.929	1786.07
514.297	1789.46
514.664	1800.31
515.032	1785.16
515.4	1804.6
515.767	1821.32
516.135	1831.94
516.502	1797.14
516.869	1824.71
517.237	1850.25
517.604	1847.54
517.972	1840.08
518.339	1852.96
518.706	1892.05
519.073	1852.73
519.44	1883.02
519.808	1884.37
520.175	1865.84
520.542	1909
520.909	1909.91
521.276	1929.79
521.643	1927.08
522.009	1939.51
522.376	1973.41
522.743	1963.69
523.11	1986.52
523.477	2000.75
523.843	1978.15
524.21	2030.58
524.577	1983.13
524.943	2023.35
525.31	2036.91
525.676	2013.41
526.043	2047.98
526.409	2073.29
526.776	2066.74
527.142	2095.89
527.508	2068.55
527.874	2132.5
528.241	2093.63
528.607	2139.05
528.973	2157.13
529.339	2108.77
529.705	2099.96
530.071	2123.69
530.437	2121.43
530.803	2132.05
531.169	2158.71
531.535	2165.27
531.901	2200.75
532.267	2163.91
532.632	2176.34
532.998	2189.45
533.364	2189.9
533.73	2178.6
534.095	2164.36
534.461	2181.54
534.826	2213.4
535.192	2195.32
535.557	2203.68
535.923	2200.07
536.288	2196.68
536.653	2200.3
537.019	2202.33
537.384	2211.82
537.749	2251.59
538.114	2234.64
538.479	2209.33
538.845	2211.59
539.21	2228.54
539.575	2243.23
539.94	2205.27
540.305	2213.18
540.67	2236.68
541.034	2259.95
541.399	2262.89
541.764	2249.11
542.129	2268.77
542.494	2211.37
542.858	2275.32
543.223	2263.34
543.587	2275.32
543.952	2267.41
544.316	2250.46
544.681	2243.46
545.045	2271.71
545.41	2242.55
545.774	2298.15
546.138	2248.88
546.503	2298.6
546.867	2284.13
547.231	2280.07
547.595	2288.43
547.959	2303.8
548.324	2267.64
548.688	2300.86
549.052	2312.38
549.416	2265.38
549.779	2319.84
550.143	2316.68
550.507	2283.46
550.871	2316
551.235	2324.59
551.599	2328.43
551.962	2306.28
552.326	2311.7
552.689	2354.19
553.053	2322.1
553.417	2304.47
553.78	2370.69
554.143	2356.45
554.507	2374.75
554.87	2359.84
555.234	2388.31
555.597	2366.84
555.96	2337.01
556.323	2356.9
556.686	2360.52
557.05	2384.25
557.413	2377.92
557.776	2367.97
558.139	2372.27
558.502	2380.63
558.865	2409.33
559.228	2417.46
559.59	2430.12
559.953	2410.69
560.316	2417.46
560.679	2413.17
561.041	2417.24
561.404	2453.4
561.767	2450.01
562.129	2438.93
562.492	2429.67
562.854	2473.28
563.217	2452.27
563.579	2471.25
563.941	2470.34
564.304	2478.93
564.666	2470.12
565.028	2465.37
565.39	2462.21
565.753	2493.39
566.115	2498.82
566.477	2519.38
566.839	2490.23
567.201	2496.33
567.563	2534.07
567.925	2499.04
568.287	2528.87
568.648	2540.4
569.01	2552.6
569.372	2535.43
569.734	2569.33
570.095	2573.62
570.457	2529.55
570.819	2562.09
571.18	2548.53
571.542	2566.39
571.903	2559.38
572.265	2563.22
572.626	2572.04
572.987	2557.35
573.349	2559.16
573.71	2579.27
574.071	2554.64
574.432	2576.56
574.794	2597.12
575.155	2600.51
575.516	2584.69
575.877	2596.89
576.238	2579.04
576.599	2595.77
576.96	2560.29
577.32	2533.62
577.681	2582.66
578.042	2583.79
578.403	2613.39
578.763	2594.86
579.124	2562.09
579.485	2578.82
579.845	2556.9
580.206	2558.03
580.566	2548.99
580.927	2547.18
581.287	2547.4
581.648	2553.73
582.008	2562.32
582.368	2572.04
582.728	2563.9
583.089	2531.81
583.449	2499.04
583.809	2549.89
584.169	2531.36
584.529	2526.39
584.889	2528.42
585.249	2524.58
585.609	2552.38
585.969	2548.76
586.329	2521.42
586.688	2543.34
587.048	2511.7
587.408	2510.12
587.768	2496.33
588.127	2498.14
588.487	2544.69
588.846	2547.18
589.206	2499.27
589.565	2507.86
589.925	2552.15
590.284	2513.73
590.643	2537.69
591.003	2508.31
591.362	2502.43
591.721	2501.3
592.08	2530.23
592.44	2538.14
592.799	2493.85
593.158	2484.58
593.517	2471.25
593.876	2492.72
594.235	2470.12
594.593	2496.78
594.952	2493.17
595.311	2507.18
595.67	2475.54
596.029	2498.14
596.387	2460.4
596.746	2488.88
597.104	2479.84
597.463	2500.63
597.822	2511.25
598.18	2508.99
598.538	2497.24
598.897	2491.36
599.255	2472.38
599.613	2533.62
599.972	2515.99
600.33	2518.03
600.688	2490.68
601.046	2541.98
601.404	2540.63
601.762	2510.57
602.12	2511.25
602.478	2531.81
602.836	2534.3
603.194	2535.65
603.552	2532.94
603.91	2537.46
604.268	2509.67
604.625	2489.33
604.983	2548.08
605.341	2537.91
605.698	2517.35
606.056	2541.76
606.413	2533.62
606.771	2534.3
607.128	2564.13
607.485	2521.87
607.843	2571.13
608.2	2572.71
608.557	2574.97
608.914	2531.36
609.272	2547.86
609.629	2584.47
609.986	2577.23
610.343	2583.34
610.7	2558.93
611.057	2563.68
611.414	2620.85
611.771	2613.39
612.127	2592.38
612.484	2578.36
612.841	2576.56
613.198	2602.77
613.554	2616.1
613.911	2610.23
614.267	2588.31
614.624	2638.48
614.98	2601.41
615.337	2636.44
615.693	2657.46
616.05	2621.08
616.406	2624.01
616.762	2612.94
617.118	2635.09
617.475	2608.42
617.831	2612.71
618.187	2667.4
618.543	2657.01
618.899	2681.19
619.255	2673.05
619.611	2670.11
619.967	2637.57
620.323	2650.9
620.678	2671.92
621.034	2652.26
621.39	2653.39
621.746	2656.55
622.101	2627.85
622.457	2653.39
622.812	2642.09
623.168	2654.29
623.523	2629.66
623.879	2644.35
624.234	2609.55
624.589	2643.45
624.945	2657.68
625.3	2643.9
625.655	2648.42
626.01	2625.82
626.365	2652.49
626.72	2626.27
627.075	2634.41
627.43	2638.7
627.785	2601.41
628.14	2632.37
628.495	2652.71
628.85	2606.39
629.205	2603.22
629.559	2621.98
629.914	2621.98
630.269	2622.88
630.623	2597.12
630.978	2655.2
631.332	2648.87
631.687	2635.09
632.041	2589.44
632.396	2582.88
632.75	2595.09
633.104	2640.06
633.459	2579.04
633.813	2594.18
634.167	2612.04
634.521	2610.23
634.875	2620.62
635.229	2644.35
635.583	2617.46
635.937	2593.73
636.291	2569.1
636.645	2612.94
636.999	2584.24
637.352	2582.66
637.706	2587.86
638.06	2612.26
638.413	2579.95
638.767	2565.26
639.121	2553.96
639.474	2539.27
639.828	2582.88
640.181	2574.97
640.534	2591.92
640.888	2581.3
641.241	2530
641.594	2579.04
641.947	2635.09
642.301	2585.82
642.654	2593.73
643.007	2599.15
643.36	2607.97
643.713	2581.53
644.066	2634.41
644.419	2593.96
644.771	2597.12
645.124	2579.95
645.477	2585.6
645.83	2557.8
646.182	2598.93
646.535	2537.01
646.888	2532.04
647.24	2542.89
647.593	2561.87
647.945	2562.55
648.298	2558.48
648.65	2562.55
649.002	2563.45
649.355	2579.27
649.707	2592.6
650.059	2652.94
650.411	2666.95
650.763	2661.07
651.115	2637.35
651.467	2695.2
651.819	2642.32
652.171	2682.09
652.523	2668.31
652.875	2685.93
653.227	2718.02
653.578	2721.41
653.93	2694.29
654.282	2715.31
654.633	2697.46
654.985	2754.4
655.337	2733.61
655.688	2752.37
656.039	2759.15
656.391	2751.02
656.742	2764.8
657.094	2781.97
657.445	2798.02
657.796	2825.82
658.147	2802.77
658.498	2838.24
658.849	2839.15
659.2	2864.46
659.551	2867.17
659.902	2885.02
660.253	2863.1
660.604	2902.88
660.955	2914.17
661.306	2919.6
661.656	2956.66
662.007	2936.1
662.358	2956.43
662.708	2977.68
663.059	2978.35
663.409	3005.02
663.76	3001.4
664.11	3040.73
664.461	3054.28
664.811	3081.85
665.161	3051.35
665.511	3054.06
665.862	3075.3
666.212	3144
666.562	3126.15
666.912	3137.9
667.262	3145.81
667.612	3163.21
667.962	3218.57
668.312	3191
668.662	3238.23
669.011	3233.49
669.361	3226.71
669.711	3306.03
670.06	3309.19
670.41	3312.36
670.76	3327.72
671.109	3343.99
671.459	3368.4
671.808	3389.42
672.157	3419.25
672.507	3394.84
672.856	3453.37
673.205	3409.98
673.554	3489.98
673.904	3475.29
674.253	3537.89
674.602	3535.18
674.951	3492.92
675.3	3492.92
675.649	3573.59
675.998	3602.29
676.346	3656.08
676.695	3689.97
677.044	3630.31
677.393	3729.29
677.741	3735.4
678.09	3745.34
678.438	3753.7
678.787	3816.52
679.135	3810.65
679.484	3823.98
679.832	3827.15
680.181	3835.73
680.529	3868.27
680.877	3928.84
681.225	3947.82
681.573	3975.39
681.922	3980.59
682.27	3999.12
682.618	4049.74
682.966	4037.76
683.314	4082.28
683.661	4124.31
684.009	4085.44
684.357	4082.05
684.705	4136.06
685.053	4199.34
685.4	4223.97
685.748	4195.95
686.095	4244.99
686.443	4242.05
686.79	4260.13
687.138	4268.72
687.485	4363.63
687.832	4352.33
688.18	4354.81
688.527	4364.76
688.874	4410.86
689.221	4422.16
689.568	4442.27
689.915	4487.92
690.262	4538.09
690.609	4497.41
690.956	4496.28
691.303	4554.13
691.65	4550.29
691.997	4578.76
692.344	4587.13
692.69	4553.68
693.037	4630.97
693.383	4645.65
693.73	4672.09
694.077	4725.88
694.423	4748.02
694.769	4736.05
695.116	4700.57
695.462	4768.36
695.808	4806.55
696.155	4816.05
696.501	4803.39
696.847	4808.14
697.193	4872.99
697.539	4920.9
697.885	4907.34
698.231	4921.58
698.577	4896.04
698.923	4915.48
699.269	4925.65
699.614	4924.52
699.96	4934.69
700.306	4990.5
700.651	4992.31
700.997	5016.27
701.342	4992.54
701.688	5063.5
702.033	5078.19
702.379	5068.69
702.724	5089.71
703.069	5129.94
703.415	5085.64
703.76	5108.47
704.105	5132.42
704.45	5141.91
704.795	5122.25
705.14	5143.04
705.485	5172.65
705.83	5201.57
706.175	5181.01
706.52	5278.63
706.865	5223.04
707.209	5198.18
707.554	5285.64
707.899	5268.46
708.243	5270.5
708.588	5276.6
708.932	5263.04
709.277	5259.88
709.621	5259.65
709.966	5306.88
710.31	5342.81
710.654	5291.51
710.998	5357.05
711.342	5381.45
711.687	5345.3
712.031	5362.02
712.375	5354.79
712.719	5377.84
713.063	5398.4
713.407	5388.23
713.75	5421.45
714.094	5437.05
714.438	5398.63
714.782	5458.97
715.125	5412.19
715.469	5443.37
715.812	5460.32
716.156	5447.67
716.499	5459.87
716.843	5454.22
717.186	5467.78
717.53	5463.94
717.873	5534.67
718.216	5463.71
718.559	5459.42
718.902	5443.37
719.246	5489.25
719.589	5544.84
719.932	5496.03
720.275	5505.97
720.617	5480.89
720.96	5497.38
721.303	5515.69
721.646	5481.34
721.989	5531.73
722.331	5549.81
722.674	5555.24
723.016	5535.35
723.359	5546.65
723.701	5538.74
724.044	5546.87
724.386	5499.42
724.729	5569.92
725.071	5577.83
725.413	5544.39
725.755	5570.6
726.097	5555.24
726.439	5528.57
726.782	5586.19
727.124	5572.86
727.465	5533.31
727.807	5601.79
728.149	5571.28
728.491	5607.66
728.833	5596.59
729.175	5588.68
729.516	5592.75
729.858	5594.33
730.199	5522.92
730.541	5572.86
730.882	5631.62
731.224	5519.3
731.565	5563.14
731.906	5605.18
732.248	5557.04
732.589	5582.13
732.93	5547.78
733.271	5520.66
733.612	5552.52
733.953	5529.02
734.294	5541
734.635	5600.88
734.976	5588.45
735.317	5554.11
735.658	5547.78
735.999	5558.17
736.339	5550.04
736.68	5543.71
737.021	5546.2
737.361	5493.77
737.702	5503.49
738.042	5519.98
738.383	5582.13
738.723	5516.37
739.063	5519.3
739.404	5551.85
739.744	5486.31
740.084	5494.22
740.424	5499.64
740.764	5506.65
741.104	5533.77
741.444	5491.73
741.784	5475.69
742.124	5470.72
742.464	5491.73
742.804	5508.23
743.143	5451.51
743.483	5445.86
743.823	5448.12
744.162	5414.67
744.502	5479.08
744.841	5455.58
745.181	5506.87
745.52	5450.83
745.86	5442.47
746.199	5415.8
746.538	5396.82
746.877	5391.62
747.216	5467.78
747.556	5417.16
747.895	5418.97
748.234	5355.47
748.573	5403.6
748.911	5378.29
749.25	5380.55
749.589	5355.69
749.928	5382.13
750.267	5392.53
750.605	5324.05
750.944	5360.66
751.283	5259.65
751.621	5344.85
751.96	5276.15
752.298	5287.9
752.636	5270.5
752.975	5280.21
753.313	5247.45
753.651	5312.76
753.989	5250.38
754.327	5249.48
754.666	5197.28
755.004	5222.14
755.342	5257.16
755.679	5230.5
756.017	5144.85
756.355	5223.94
756.693	5193.89
757.031	5168.8
757.368	5192.98
757.706	5178.07
758.044	5162.48
758.381	5161.8
758.719	5077.06
759.056	5083.84
759.394	5117.73
759.731	5119.31
760.068	5079.99
760.405	5028.7
760.743	5034.8
761.08	5052.88
761.417	5023.72
761.754	4942.14
762.091	5002.71
762.428	4976.95
762.765	4980.34
763.102	4949.83
763.438	4930.17
763.775	4978.3
764.112	4944.63
764.449	4909.38
764.785	4929.49
765.122	4871.86
765.458	4841.58
765.795	4829.83
766.131	4868.93
766.467	4829.38
766.804	4825.99
767.14	4810.17
767.476	4816.5
767.812	4738.99
768.148	4747.12
768.485	4744.86
768.821	4701.47
769.157	4716.39
769.492	4701.02
769.828	4724.3
770.164	4691.76
770.5	4659.44
770.836	4665.54
771.171	4623.96
771.507	4607.24
771.842	4584.87
