Data from carpet_green_FLMS001491_00073.txt Node
Date: Wed Feb 08 10:35:49 GMT 2017
User: dcchb
Spectrometer: FLMS00149
Trigger mode: 0
Integration Time (sec): 2.000000E-2
Scans to average: 10
Electric dark correction enabled: true
Nonlinearity correction enabled: false
Boxcar width: 0
XAxis mode: Wavelengths
Number of Pixels in Spectrum: 2048
>>>>>Begin Spectral Data<<<<<
341.393	-25.62
341.776	-25.62
342.16	-25.62
342.543	-63.36
342.927	-83.02
343.31	-62.23
343.693	-55
344.077	-59.07
344.46	-48.67
344.843	-71.04
345.226	-48.22
345.61	-21.55
345.993	-21.1
346.376	1.5
346.759	4.66
347.142	12.57
347.525	48.28
347.908	59.57
348.291	59.8
348.674	101.83
349.057	98.67
349.44	121.27
349.823	134.15
350.206	161.04
350.588	161.72
350.971	189.51
351.354	192.45
351.737	201.49
352.119	250.08
352.502	234.49
352.884	228.16
353.267	248.27
353.65	274.26
354.032	272.9
354.414	280.81
354.797	289.63
355.179	295.05
355.562	311.09
355.944	299.79
356.326	302.05
356.709	317.42
357.091	326.46
357.473	296.18
357.855	332.56
358.238	320.58
358.62	322.62
359.002	294.82
359.384	299.79
359.766	315.16
360.148	311.32
360.53	325.33
360.912	283.75
361.294	310.42
361.676	310.87
362.057	297.76
362.439	301.83
362.821	306.35
363.203	299.57
363.584	299.12
363.966	307.25
364.348	312
364.729	285.78
365.111	285.56
365.493	280.59
365.874	286.46
366.256	289.85
366.637	286.01
367.019	294.82
367.4	272.68
367.781	292.34
368.163	271.77
368.544	292.11
368.925	287.59
369.306	288.5
369.688	277.42
370.069	248.5
370.45	277.42
370.831	291.43
371.212	297.76
371.593	277.42
371.974	276.97
372.355	286.46
372.736	275.84
373.117	256.86
373.498	273.81
373.879	269.51
374.26	300.25
374.641	301.6
375.021	289.17
375.402	292.11
375.783	289.17
376.163	282.39
376.544	275.16
376.925	274.71
377.305	318.32
377.686	291.88
378.066	279.91
378.447	281.26
378.827	297.08
379.208	302.28
379.588	290.53
379.968	286.91
380.349	291.43
380.729	303.18
381.109	286.69
381.489	302.05
381.87	293.69
382.25	314.03
382.63	301.38
383.01	297.08
383.39	307.93
383.77	303.18
384.15	287.59
384.53	307.7
384.91	316.07
385.29	313.58
385.67	306.12
386.049	314.48
386.429	307.93
386.809	299.57
387.189	312
387.568	295.27
387.948	317.87
388.328	286.69
388.707	318.55
389.087	317.2
389.466	307.48
389.846	305.67
390.225	310.87
390.605	299.34
390.984	310.64
391.363	303.86
391.743	320.13
392.122	296.86
392.501	307.25
392.881	316.07
393.26	306.12
393.639	311.09
394.018	306.12
394.397	307.48
394.776	308.83
395.155	318.78
395.534	301.15
395.913	306.8
396.292	316.52
396.671	295.05
397.05	312.45
397.429	321.94
397.808	320.81
398.186	313.81
398.565	327.14
398.944	302.28
399.323	328.49
399.701	322.84
400.08	305.44
400.458	307.93
400.837	323.75
401.215	309.96
401.594	343.18
401.972	331.88
402.351	352.45
402.729	318.55
403.107	325.33
403.486	310.42
403.864	319
404.242	338.21
404.62	326.23
404.999	322.84
405.377	326.91
405.755	329.4
406.133	342.96
406.511	330.75
406.889	326.01
407.267	350.64
407.645	328.72
408.023	324.2
408.401	331.21
408.779	344.09
409.156	317.65
409.534	353.8
409.912	337.99
410.29	351.54
410.667	354.71
411.045	342.28
411.422	332.79
411.8	330.3
412.178	336.18
412.555	339.57
412.933	343.41
413.31	336.4
413.687	336.18
414.065	341.6
414.442	348.15
414.819	337.31
415.197	336.4
415.574	344.31
415.951	332.79
416.328	354.26
416.705	341.6
417.082	367.36
417.46	345.44
417.837	373.69
418.214	345.89
418.591	355.61
418.967	348.83
419.344	348.15
419.721	359.91
420.098	347.93
420.475	381.6
420.852	375.95
421.228	359.23
421.605	372.56
421.982	358.1
422.358	346.57
422.735	368.72
423.111	356.74
423.488	366.69
423.864	369.4
424.241	372.79
424.617	374.37
424.994	356.06
425.37	368.49
425.746	383.86
426.123	391.32
426.499	397.42
426.875	363.07
427.251	359.68
427.627	389.96
428.003	397.42
428.379	401.71
428.756	372.33
429.132	369.85
429.507	411.2
429.883	387.7
430.259	393.8
430.635	389.51
431.011	385.67
431.387	386.35
431.763	389.74
432.138	401.49
432.514	416.4
432.89	396.74
433.265	423.18
433.641	404.2
434.016	405.78
434.392	426.57
434.767	394.48
435.143	417.08
435.518	429.28
435.894	423.63
436.269	438.32
436.644	417.08
437.02	422.5
437.395	408.94
437.77	434.25
438.145	410.3
438.52	421.6
438.895	442.84
439.271	438.1
439.646	432.67
440.021	420.92
440.395	455.04
440.77	420.02
441.145	445.78
441.52	445.1
441.895	454.59
442.27	464.99
442.645	480.13
443.019	459.34
443.394	459.56
443.769	440.58
444.143	452.56
444.518	457.3
444.892	449.17
445.267	453.46
445.641	460.92
446.016	470.41
446.39	458.21
446.764	457.76
447.139	459.56
447.513	469.28
447.887	475.16
448.262	474.25
448.636	481.03
449.01	475.83
449.384	473.58
449.758	486.68
450.132	500.02
450.506	489.62
450.88	482.84
451.254	500.47
451.628	496.17
452.002	500.92
452.376	511.54
452.75	494.37
453.123	505.21
453.497	506.12
453.871	514.7
454.244	510.64
454.618	509.96
454.992	506.57
455.365	524.65
455.739	517.19
456.112	511.31
456.486	509.51
456.859	524.2
457.232	528.94
457.606	551.54
457.979	528.49
458.352	546.57
458.725	539.34
459.099	545.66
459.472	554.93
459.845	551.09
460.218	557.19
460.591	564.19
460.964	567.58
461.337	586.34
461.71	575.72
462.083	608.71
462.456	592.44
462.829	586.79
463.201	599.67
463.574	594.25
463.947	595.15
464.32	597.19
464.692	634.7
465.065	600.8
465.438	620.92
465.81	615.04
466.183	626.57
466.555	619.56
466.928	645.77
467.3	652.55
467.672	653.23
468.045	641.71
468.417	641.48
468.789	669.95
469.161	652.78
469.534	660.01
469.906	689.84
470.278	687.81
470.65	670.86
471.022	713.34
471.394	675.6
471.766	728.03
472.138	731.42
472.51	730.07
472.882	723.74
473.253	738.65
473.625	748.14
473.997	769.84
474.369	779.1
474.74	780.91
475.112	766
475.484	781.14
475.855	811.42
476.227	810.29
476.598	824.07
476.97	820.68
477.341	841.25
477.713	833.34
478.084	845.54
478.455	880.57
478.827	870.4
479.198	889.84
479.569	900.68
479.94	926.22
480.311	927.35
480.682	937.97
481.053	933
481.424	957.18
481.795	964.41
482.166	954.47
482.537	965.99
482.908	1026.55
483.279	1004.41
483.65	989.04
484.021	1075.37
484.391	1023.62
484.762	1056.16
485.133	1057.74
485.503	1091.19
485.874	1097.97
486.244	1109.94
486.615	1127.57
486.985	1136.16
487.356	1151.07
487.726	1144.07
488.097	1169.83
488.467	1177.74
488.837	1217.28
489.207	1201.69
489.578	1221.58
489.948	1208.25
490.318	1225.87
490.688	1260.22
491.058	1278.75
491.428	1293.67
491.798	1283.95
492.168	1309.71
492.538	1327.56
492.908	1332.08
493.278	1351.29
493.648	1333.89
494.017	1376.83
494.387	1351.52
494.757	1416.15
495.126	1407.11
495.496	1383.38
495.866	1410.73
496.235	1417.51
496.605	1423.15
496.974	1423.61
497.344	1440.56
497.713	1451.63
498.082	1466.54
498.452	1481.68
498.821	1488.46
499.19	1480.55
499.559	1495.92
499.928	1494.79
500.298	1531.4
500.667	1516.71
501.036	1547.67
501.405	1522.59
501.774	1545.64
502.143	1569.59
502.512	1552.64
502.88	1565.98
503.249	1594.9
503.618	1561.68
503.987	1588.12
504.356	1603.94
504.724	1592.64
505.093	1589.7
505.462	1619.76
505.83	1634.67
506.199	1650.49
506.567	1665.41
506.936	1669.25
507.304	1663.15
507.672	1681.45
508.041	1705.63
508.409	1678.74
508.777	1728.68
509.145	1699.31
509.514	1715.8
509.882	1702.47
510.25	1726.65
510.618	1731.62
510.986	1740.89
511.354	1766.2
511.722	1776.59
512.09	1773.88
512.458	1774.33
512.826	1774.11
513.193	1800.32
513.561	1772.98
513.929	1826.31
514.297	1820.66
514.664	1794.67
515.032	1826.99
515.4	1818.17
515.767	1852.75
516.135	1852.75
516.502	1847.78
516.869	1873.54
517.237	1874.67
517.604	1872.41
517.972	1907.66
518.339	1867.21
518.706	1921.22
519.073	1942.46
519.44	1922.8
519.808	1944.95
520.175	1914.89
520.542	1933.88
520.909	1963.93
521.276	1975.23
521.643	1989.92
522.009	1979.3
522.376	1993.99
522.743	1980.43
523.11	1993.76
523.477	2034.89
523.843	2048
524.21	2063.14
524.577	2060.65
524.943	2058.62
525.31	2064.72
525.676	2137.49
526.043	2110.82
526.409	2108.11
526.776	2114.21
527.142	2130.03
527.508	2161.21
527.874	2148.79
528.241	2155.34
528.607	2164.15
528.973	2156.24
529.339	2175.45
529.705	2174.77
530.071	2181.1
530.437	2192.17
530.803	2225.39
531.169	2205.96
531.535	2191.27
531.901	2239.18
532.267	2224.72
532.632	2257.03
532.998	2202.57
533.364	2207.99
533.73	2210.03
534.095	2248.22
534.461	2257.48
534.826	2248.67
535.192	2259.97
535.557	2251.83
535.923	2264.49
536.288	2247.54
536.653	2302
537.019	2261.32
537.384	2280.76
537.749	2281.66
538.114	2287.76
538.479	2313.07
538.845	2291.83
539.21	2296.35
539.575	2280.53
539.94	2338.61
540.305	2291.61
540.67	2306.07
541.034	2321.21
541.399	2293.64
541.764	2315.79
542.129	2328.89
542.494	2322.79
542.858	2294.77
543.223	2332.96
543.587	2324.6
543.952	2350.59
544.316	2356.24
544.681	2339.29
545.045	2315.33
545.41	2313.3
545.774	2343.36
546.138	2362.11
546.503	2350.36
546.867	2323.24
547.231	2350.59
547.595	2351.94
547.959	2378.38
548.324	2367.54
548.688	2344.49
549.052	2380.19
549.416	2370.25
549.779	2348.55
550.143	2355.56
550.507	2377.48
550.871	2387.88
551.235	2380.42
551.599	2390.36
551.962	2410.93
552.326	2378.38
552.689	2403.24
553.053	2401.21
553.417	2380.42
553.78	2424.71
554.143	2427.2
554.507	2440.53
554.87	2462
555.234	2424.03
555.597	2409.57
555.96	2422
556.323	2444.37
556.686	2431.26
557.05	2437.82
557.413	2435.56
557.776	2436.01
558.139	2436.24
558.502	2457.25
558.865	2476.69
559.228	2463.58
559.59	2507.65
559.953	2470.36
560.316	2493.63
560.679	2494.54
561.041	2504.03
561.404	2506.29
561.767	2528.89
562.129	2516.69
562.492	2543.13
562.854	2535.67
563.217	2539.06
563.579	2573.18
563.941	2569.11
564.304	2595.55
564.666	2582.45
565.028	2552.62
565.39	2578.15
565.753	2562.33
566.115	2631.03
566.477	2634.87
566.839	2579.73
567.201	2628.32
567.563	2604.82
567.925	2660.64
568.287	2649.56
568.648	2631.71
569.01	2619.28
569.372	2656.12
569.734	2648.89
570.095	2631.26
570.457	2676.23
570.819	2643.46
571.18	2664.03
571.542	2656.79
571.903	2654.76
572.265	2639.39
572.626	2670.81
572.987	2680.3
573.349	2675.78
573.71	2710.13
574.071	2727.75
574.432	2633.74
574.794	2688.43
575.155	2691.82
575.516	2659.05
575.877	2690.92
576.238	2686.4
576.599	2677.13
576.96	2663.57
577.32	2659.96
577.681	2653.4
578.042	2682.56
578.403	2680.75
578.763	2685.04
579.124	2671.26
579.485	2664.25
579.845	2669.22
580.206	2667.64
580.566	2638.94
580.927	2701.99
581.287	2717.36
581.648	2662.9
582.008	2677.36
582.368	2637.59
582.728	2651.6
583.089	2685.27
583.449	2594.65
583.809	2651.37
584.169	2660.18
584.529	2629.45
584.889	2653.63
585.249	2638.26
585.609	2638.26
585.969	2653.86
586.329	2620.41
586.688	2640.3
587.048	2633.07
587.408	2577.7
587.768	2614.54
588.127	2640.75
588.487	2617.25
588.846	2628.32
589.206	2611.37
589.565	2617.7
589.925	2606.63
590.284	2626.51
590.643	2621.77
591.003	2586.74
591.362	2600.98
591.721	2600.75
592.08	2582.22
592.44	2594.2
592.799	2616.34
593.158	2584.03
593.517	2577.25
593.876	2589.45
594.235	2605.27
594.593	2586.29
594.952	2589.23
595.311	2600.3
595.67	2569.79
596.029	2605.5
596.387	2603.01
596.746	2590.81
597.104	2624.03
597.463	2589.68
597.822	2585.61
598.18	2568.21
598.538	2608.21
598.897	2612.73
599.255	2571.83
599.613	2607.98
599.972	2629
600.33	2598.72
600.688	2603.01
601.046	2625.83
601.404	2625.61
601.762	2617.02
602.12	2641.2
602.478	2608.21
602.836	2634.2
603.194	2610.92
603.552	2599.39
603.91	2627.64
604.268	2624.93
604.625	2607.98
604.983	2611.82
605.341	2617.93
605.698	2616.12
606.056	2634.65
606.413	2634.42
606.771	2597.36
607.128	2677.81
607.485	2657.7
607.843	2631.71
608.2	2635.1
608.557	2665.61
608.914	2633.52
609.272	2683.46
609.629	2651.6
609.986	2680.97
610.343	2670.81
610.7	2684.14
611.057	2687.3
611.414	2664.93
611.771	2711.48
612.127	2686.4
612.484	2699.51
612.841	2694.53
613.198	2699.28
613.554	2714.42
613.911	2744.48
614.267	2716
614.624	2692.95
614.98	2650.02
615.337	2730.92
615.693	2750.58
616.05	2740.86
616.406	2746.28
616.762	2725.72
617.118	2721.2
617.475	2718.94
617.831	2709
618.187	2709
618.543	2723.91
618.899	2748.77
619.255	2745.61
619.611	2723.23
619.967	2751.93
620.323	2712.39
620.678	2738.15
621.034	2749
621.39	2707.64
621.746	2726.4
622.101	2740.63
622.457	2722.33
622.812	2743.8
623.168	2738.37
623.523	2744.02
623.879	2743.8
624.234	2723.91
624.589	2709.45
624.945	2727.3
625.3	2748.54
625.655	2759.16
626.01	2765.94
626.365	2733.85
626.72	2722.56
627.075	2735.66
627.43	2728.66
627.785	2736.11
628.14	2704.7
628.495	2711.71
628.85	2684.36
629.205	2722.33
629.559	2738.83
629.914	2687.08
630.269	2689.79
630.623	2706.06
630.978	2726.62
631.332	2714.42
631.687	2707.19
632.041	2759.62
632.396	2689.34
632.75	2728.66
633.104	2706.96
633.459	2705.83
633.813	2706.96
634.167	2690.24
634.521	2670.13
634.875	2687.3
635.229	2671.71
635.583	2660.18
635.937	2669.45
636.291	2666.74
636.645	2664.93
636.999	2683.23
637.352	2676
637.706	2670.13
638.06	2644.82
638.413	2673.97
638.767	2668.09
639.121	2682.56
639.474	2639.62
639.828	2671.03
640.181	2692.5
640.534	2677.58
640.888	2674.42
641.241	2663.57
641.594	2686.85
641.947	2700.86
642.301	2671.94
642.654	2679.84
643.007	2704.93
643.36	2683.23
643.713	2686.17
644.066	2681.43
644.419	2700.18
644.771	2664.03
645.124	2634.2
645.477	2681.65
645.83	2666.06
646.182	2643.69
646.535	2654.53
646.888	2667.64
647.24	2649.79
647.593	2658.15
647.945	2676.46
648.298	2663.8
648.65	2658.6
649.002	2631.71
649.355	2707.41
649.707	2677.58
650.059	2678.04
650.411	2681.65
650.763	2758.26
651.115	2753.29
651.467	2739.73
651.819	2750.13
652.171	2782.89
652.523	2780.41
652.875	2800.52
653.227	2789.9
653.578	2857.02
653.93	2840.07
654.282	2832.38
654.633	2822.67
654.985	2812.72
655.337	2807.07
655.688	2847.98
656.039	2843.68
656.391	2841.87
656.742	2882.55
657.094	2872.38
657.445	2884.36
657.796	2919.84
658.147	2909.22
658.498	2892.27
658.849	2947.86
659.2	2954.64
659.551	2946.28
659.902	2988.54
660.253	2994.19
660.604	2970.46
660.955	3008.42
661.306	3049.55
661.656	2996.67
662.007	3046.16
662.358	3091.81
662.708	3129.55
663.059	3079.61
663.409	3053.85
663.76	3106.05
664.11	3130.68
664.461	3138.59
664.811	3152.6
665.161	3138.82
665.511	3176.55
665.862	3191.02
666.212	3191.47
666.562	3186.27
666.912	3275.54
667.262	3200.06
667.612	3244.58
667.962	3274.18
668.312	3341.07
668.662	3301.07
669.011	3321.18
669.361	3330
669.711	3392.59
670.06	3387.62
670.41	3372.48
670.76	3410.9
671.109	3465.59
671.459	3418.58
671.808	3473.72
672.157	3497.9
672.507	3502.2
672.856	3493.61
673.205	3527.05
673.554	3574.51
673.904	3552.14
674.253	3628.52
674.602	3625.58
674.951	3602.08
675.3	3616.54
675.649	3675.75
675.998	3692.47
676.346	3702.87
676.695	3753.04
677.044	3724.34
677.393	3792.13
677.741	3831.68
678.09	3807.27
678.438	3851.79
678.787	3884.78
679.135	3900.38
679.484	3901.73
679.832	3922.3
680.181	3948.29
680.529	3984.44
680.877	4000.04
681.225	4012.01
681.573	4020.83
681.922	4073.25
682.27	4027.38
682.618	4062.41
682.966	4123.42
683.314	4122.29
683.661	4154.38
684.009	4162.97
684.357	4148.51
684.705	4253.14
685.053	4259.01
685.4	4221.73
685.748	4237.77
686.095	4281.38
686.443	4273.02
686.79	4345.11
687.138	4369.29
687.485	4400.7
687.832	4378.11
688.18	4426.01
688.527	4434.6
688.874	4463.53
689.221	4494.49
689.568	4454.49
689.915	4486.58
690.262	4535.39
690.609	4551.21
690.956	4592.34
691.303	4548.27
691.65	4600.7
691.997	4671.43
692.344	4609.29
692.69	4642.28
693.037	4699.45
693.383	4672.79
693.73	4686.57
694.077	4709.17
694.423	4768.83
694.769	4768.83
695.116	4784.65
695.462	4852.22
695.808	4799.11
696.155	4882.05
696.501	4868.94
696.847	4847.02
697.193	4891.99
697.539	4903.29
697.885	4887.24
698.231	4928.6
698.577	4942.61
698.923	4980.8
699.269	4988.03
699.614	4967.92
699.96	5038.88
700.306	5064.64
700.651	5004.53
700.997	5096.96
701.342	5094.47
701.688	5091.53
702.033	5134.92
702.379	5154.58
702.724	5130.63
703.069	5189.61
703.415	5164.53
703.76	5172.43
704.105	5244.52
704.45	5179.44
704.795	5241.36
705.14	5221.47
705.485	5203.39
705.83	5257.63
706.175	5296.05
706.52	5322.71
706.865	5324.3
707.209	5376.95
707.554	5318.87
707.899	5385.76
708.243	5349.83
708.588	5362.26
708.932	5398.19
709.277	5407.91
709.621	5487.23
709.966	5447.46
710.31	5415.59
710.654	5474.57
710.998	5472.77
711.342	5510.5
711.687	5504.18
712.031	5489.04
712.375	5524.52
712.719	5532.88
713.063	5532.43
713.407	5581.69
713.75	5557.74
714.094	5635.02
714.438	5573.33
714.782	5604.29
715.125	5604.97
715.469	5658.52
715.812	5665.75
716.156	5612.88
716.499	5634.8
716.843	5665.08
717.186	5661.91
717.53	5702.82
717.873	5710.95
718.216	5700.56
718.559	5701.01
718.902	5683.38
719.246	5726.09
719.589	5721.8
719.932	5702.82
720.275	5758.63
720.617	5684.29
720.96	5719.76
721.303	5805.41
721.646	5765.19
721.989	5702.59
722.331	5849.7
722.674	5754.11
723.016	5705.75
723.359	5781.91
723.701	5815.13
724.044	5845.86
724.386	5797.5
724.729	5778.52
725.071	5811.51
725.413	5830.95
725.755	5799.31
726.097	5801.34
726.439	5784.17
726.782	5848.12
727.124	5870.04
727.465	5808.12
727.807	5826.2
728.149	5871.4
728.491	5860.78
728.833	5855.81
729.175	5872.76
729.516	5846.54
729.858	5804.96
730.199	5877.5
730.541	5869.59
730.882	5861.91
731.224	5873.21
731.565	5843.38
731.906	5838.18
732.248	5846.99
732.589	5896.26
732.93	5861.46
733.271	5846.54
733.612	5912.3
733.953	5878.86
734.294	5831.17
734.635	5850.61
734.976	5890.83
735.317	5863.04
735.658	5831.17
735.999	5858.52
736.339	5878.4
736.68	5866.43
737.021	5825.52
737.361	5832.76
737.702	5835.92
738.042	5784.17
738.383	5857.39
738.723	5896.03
739.063	5809.93
739.404	5853.09
739.744	5873.66
740.084	5839.31
740.424	5803.83
740.764	5851.51
741.104	5767.67
741.444	5844.06
741.784	5788.24
742.124	5811.97
742.464	5786.66
742.804	5795.7
743.143	5824.85
743.483	5863.94
743.823	5739.43
744.162	5740.33
744.502	5823.49
744.841	5764.74
745.181	5753.21
745.52	5745.07
745.86	5757.28
746.199	5784.17
746.538	5719.54
746.877	5741.46
747.216	5756.37
747.556	5763.38
747.895	5740.33
748.234	5689.26
748.573	5663.27
748.911	5760.67
749.25	5703.72
749.589	5681.12
749.928	5705.53
750.267	5702.14
750.605	5698.07
750.944	5625.98
751.283	5644.74
751.621	5638.19
751.96	5628.92
752.298	5646.77
752.636	5665.53
752.975	5616.26
753.313	5588.69
753.651	5591.86
753.989	5547.57
754.327	5576.72
754.666	5525.87
755.004	5601.58
755.342	5538.53
755.679	5577.85
756.017	5514.12
756.355	5541.01
756.693	5484.52
757.031	5468.47
757.368	5498.98
757.706	5479.32
758.044	5414.24
758.381	5428.47
758.719	5418.08
759.056	5476.16
759.394	5431.86
759.731	5392.54
760.068	5422.37
760.405	5367.91
760.743	5338.31
761.08	5379.66
761.417	5326.78
761.754	5325.65
762.091	5279.78
762.428	5328.36
762.765	5257.4
763.102	5309.15
763.438	5215.37
763.775	5230.29
764.112	5258.31
764.449	5231.42
764.785	5172.66
765.122	5142.15
765.458	5133.79
765.795	5156.39
766.131	5162.94
766.467	5122.04
766.804	5122.27
767.14	5097.41
767.476	5068.71
767.812	5036.39
768.148	5052.44
768.485	5042.72
768.821	5002.72
769.157	5022.16
769.492	5004.98
769.828	4988.94
770.164	4952.1
770.5	4912.33
770.836	4919.11
771.171	4931.76
771.507	4912.55
771.842	4830.3
772.178	4835.72
772.513	4843.18
