Data from carpet_green_FLMS001491_00013.txt Node
Date: Wed Feb 08 10:34:58 GMT 2017
User: dcchb
Spectrometer: FLMS00149
Trigger mode: 0
Integration Time (sec): 2.000000E-2
Scans to average: 10
Electric dark correction enabled: true
Nonlinearity correction enabled: false
Boxcar width: 0
XAxis mode: Wavelengths
Number of Pixels in Spectrum: 2048
>>>>>Begin Spectral Data<<<<<
341.393	-16.99
341.776	-16.99
342.16	-16.99
342.543	-65.35
342.927	-64.67
343.31	-56.54
343.693	-66.71
344.077	-68.29
344.46	-65.35
344.843	-63.77
345.226	-42.98
345.61	-24.22
345.993	-4.56
346.376	5.16
346.759	17.81
347.142	35.66
347.525	40.18
347.908	60.52
348.291	59.84
348.674	75.44
349.057	97.81
349.44	107.98
349.823	145.94
350.206	152.95
350.588	154.3
350.971	182.33
351.354	200.63
351.737	217.13
352.119	224.36
352.502	248.31
352.884	251.7
353.267	256.22
353.65	245.15
354.032	260.52
354.414	283.11
354.797	281.98
355.179	305.26
355.562	279.05
355.944	300.97
356.326	297.8
356.709	291.93
357.091	303
357.473	300.97
357.855	312.72
358.238	300.74
358.62	297.12
359.002	289.22
359.384	305.49
359.766	318.59
360.148	324.69
360.53	314.3
360.912	307.29
361.294	300.51
361.676	301.87
362.057	303.9
362.439	313.62
362.821	314.53
363.203	320.4
363.584	311.59
363.966	305.71
364.348	288.99
364.729	295.54
365.111	289.22
365.493	298.25
365.874	290.35
366.256	290.8
366.637	298.03
367.019	292.38
367.4	262.32
367.781	289.22
368.163	290.57
368.544	286.5
368.925	264.81
369.306	307.07
369.688	288.76
370.069	267.07
370.45	284.7
370.831	280.85
371.212	273.62
371.593	274.75
371.974	289.67
372.355	291.48
372.736	253.51
373.117	265.71
373.498	281.08
373.879	280.63
374.26	264.81
374.641	270.68
375.021	261.19
375.402	297.35
375.783	289.89
376.163	274.75
376.544	270.01
376.925	293.74
377.305	279.95
377.686	264.36
378.066	296.67
378.447	291.7
378.827	295.54
379.208	291.93
379.588	294.64
379.968	292.15
380.349	279.72
380.729	281.98
381.109	313.4
381.489	290.8
381.87	290.35
382.25	284.92
382.63	299.84
383.01	298.03
383.39	299.38
383.77	298.03
384.15	302.32
384.53	295.32
384.91	300.06
385.29	323.11
385.67	304.58
386.049	293.28
386.429	300.51
386.809	292.61
387.189	297.58
387.568	296.9
387.948	308.65
388.328	297.8
388.707	320.63
389.087	286.73
389.466	281.31
389.846	304.13
390.225	299.16
390.605	292.61
390.984	301.19
391.363	288.99
391.743	304.81
392.122	309.78
392.501	306.39
392.881	299.84
393.26	319.95
393.639	298.93
394.018	296.45
394.397	307.07
394.776	300.74
395.155	300.97
395.534	324.02
395.913	293.51
396.292	297.35
396.671	290.57
397.05	303.23
397.429	299.61
397.808	312.27
398.186	327.63
398.565	308.65
398.944	295.32
399.323	295.54
399.701	301.87
400.08	317.46
400.458	302.1
400.837	309.1
401.215	306.62
401.594	313.62
401.972	308.65
402.351	299.61
402.729	319.95
403.107	308.88
403.486	313.85
403.864	323.11
404.242	298.03
404.62	319.72
404.999	296.67
405.377	323.11
405.755	299.84
406.133	317.46
406.511	318.82
406.889	321.98
407.267	331.25
407.645	323.34
408.023	307.52
408.401	318.37
408.779	336.67
409.156	321.53
409.534	326.05
409.912	324.02
410.29	333.28
410.667	326.28
411.045	318.82
411.422	319.05
411.8	312.72
412.178	306.16
412.555	321.98
412.933	317.46
413.31	333.96
413.687	340.29
414.065	327.86
414.442	325.15
414.819	320.85
415.197	344.13
415.574	311.36
415.951	331.02
416.328	345.03
416.705	345.26
417.082	317.24
417.46	310.23
417.837	334.64
418.214	340.06
418.591	350.46
418.967	333.51
419.344	329.44
419.721	340.74
420.098	333.28
420.475	330.57
420.852	323.56
421.228	356.11
421.605	312.27
421.982	343
422.358	329.21
422.735	337.58
423.111	340.97
423.488	311.14
423.864	336.67
424.241	332.15
424.617	344.13
424.994	347.29
425.37	346.16
425.746	346.84
426.123	352.04
426.499	328.08
426.875	336.45
427.251	338.93
427.627	341.64
428.003	348.42
428.379	347.97
428.756	346.16
429.132	354.98
429.507	357.01
429.883	338.93
430.259	358.59
430.635	361.53
431.011	351.81
431.387	375.09
431.763	367.63
432.138	366.28
432.514	350.68
432.89	364.92
433.265	374.19
433.641	353.62
434.016	359.95
434.392	359.27
434.767	359.04
435.143	347.75
435.518	368.08
435.894	374.41
436.269	367.86
436.644	363.11
437.02	363.11
437.395	375.54
437.77	361.76
438.145	355.43
438.52	371.7
438.895	356.33
439.271	367.86
439.646	379.61
440.021	396.78
440.395	397.46
440.77	368.99
441.145	373.96
441.52	375.99
441.895	385.94
442.27	391.13
442.645	373.51
443.019	387.07
443.394	381.64
443.769	394.07
444.143	371.7
444.518	375.99
444.892	394.75
445.267	395.65
445.641	381.19
446.016	418.7
446.39	383.9
446.764	375.99
447.139	396.11
447.513	402.66
447.887	404.47
448.262	397.69
448.636	439.72
449.01	403.56
449.384	394.52
449.758	409.44
450.132	391.36
450.506	420.96
450.88	395.43
451.254	402.21
451.628	403.34
452.002	409.89
452.376	412.38
452.75	422.09
453.123	438.82
453.497	420.06
453.871	416.22
454.244	406.5
454.618	415.09
454.992	425.26
455.365	409.21
455.739	398.14
456.112	407.86
456.486	445.6
456.859	420.96
457.232	425.94
457.606	448.08
457.979	440.4
458.352	431.81
458.725	446.05
459.099	429.55
459.472	435.43
459.845	441.75
460.218	445.82
460.591	428.87
460.964	439.27
461.337	448.08
461.71	462.54
462.083	450.79
462.456	446.05
462.829	469.78
463.201	467.52
463.574	467.52
463.947	451.47
464.32	465.48
464.692	471.36
465.065	494.41
465.438	480.17
465.81	509.32
466.183	481.53
466.555	489.66
466.928	494.41
467.3	491.47
467.672	510
468.045	488.53
468.417	499.61
468.789	506.61
469.161	516.1
469.534	500.51
469.906	512.49
470.278	516.1
470.65	515.65
471.022	528.98
471.394	521.75
471.766	550.45
472.138	518.81
472.51	543.67
472.882	549.55
473.253	537.12
473.625	543.67
473.997	548.42
474.369	557.68
474.74	548.87
475.112	570.11
475.484	573.28
475.855	559.26
476.227	601.75
476.598	597.68
476.97	581.19
477.341	605.82
477.713	588.64
478.084	605.82
478.455	599.49
478.827	621.41
479.198	617.34
479.569	645.82
479.94	630.68
480.311	658.92
480.682	625.03
481.053	670.45
481.424	671.58
481.795	654.63
482.166	658.02
482.537	673.84
482.908	668.41
483.279	689.43
483.65	680.62
484.021	715.19
484.391	704.35
484.762	716.55
485.133	714.06
485.503	718.36
485.874	747.73
486.244	707.74
486.615	755.42
486.985	749.77
487.356	769.2
487.726	766.94
488.097	768.3
488.467	785.7
488.837	777.56
489.207	804.23
489.578	783.89
489.948	837
490.318	829.77
490.688	816.89
491.058	831.12
491.428	837.45
491.798	832.25
492.168	865.02
492.538	841.29
492.908	877.22
493.278	878.13
493.648	860.27
494.017	847.62
494.387	884.68
494.757	892.82
495.126	887.62
495.496	885.13
495.866	895.3
496.235	924.91
496.605	911.57
496.974	925.13
497.344	905.7
497.713	899.59
498.082	934.17
498.452	925.58
498.821	948.86
499.19	954.28
499.559	947.05
499.928	958.8
500.298	940.72
500.667	949.09
501.036	929.65
501.405	972.36
501.774	929.88
502.143	966.26
502.512	975.3
502.88	950.67
503.249	979.82
503.618	980.04
503.987	1001.06
504.356	995.19
504.724	999.25
505.093	1040.16
505.462	1022.3
505.83	1004.68
506.199	985.92
506.567	1030.66
506.936	1026.6
507.304	1046.26
507.672	1056.65
508.041	1048.74
508.409	1019.82
508.777	1057.1
509.145	1034.51
509.514	1051
509.882	1057.56
510.25	1064.11
510.618	1043.09
510.986	1048.29
511.354	1067.73
511.722	1080.16
512.09	1077.9
512.458	1070.89
512.826	1086.93
513.193	1055.3
513.561	1102.98
513.929	1091.23
514.297	1096.2
514.664	1102.3
515.032	1107.27
515.4	1100.04
515.767	1125.8
516.135	1074.51
516.502	1121.74
516.869	1162.64
517.237	1124.45
517.604	1142.75
517.972	1140.94
518.339	1134.84
518.706	1133.94
519.073	1144.33
519.44	1172.58
519.808	1163.09
520.175	1153.37
520.542	1168.06
520.909	1170.77
521.276	1140.49
521.643	1177.1
522.009	1190.89
522.376	1195.86
522.743	1174.62
523.11	1190.89
523.477	1198.12
523.843	1185.24
524.21	1212.58
524.577	1204.22
524.943	1202.19
525.31	1211.23
525.676	1212.58
526.043	1248.06
526.409	1237.21
526.776	1242.41
527.142	1244.67
527.508	1245.57
527.874	1229.76
528.241	1278.34
528.607	1264.78
528.973	1262.52
529.339	1232.02
529.705	1258
530.071	1252.35
530.437	1256.87
530.803	1264.11
531.169	1291.45
531.535	1301.84
531.901	1286.7
532.267	1273.82
532.632	1295.29
532.998	1281.28
533.364	1287.38
533.73	1282.64
534.095	1291.68
534.461	1289.42
534.826	1305.46
535.192	1289.87
535.557	1307.04
535.923	1296.87
536.288	1322.41
536.653	1295.29
537.019	1330.09
537.384	1304.78
537.749	1306.36
538.114	1307.49
538.479	1305.01
538.845	1316.53
539.21	1328.28
539.575	1322.41
539.94	1313.14
540.305	1304.1
540.67	1312.92
541.034	1298.23
541.399	1331.67
541.764	1307.72
542.129	1319.02
542.494	1315.18
542.858	1305.69
543.223	1305.01
543.587	1315.86
543.952	1328.96
544.316	1322.18
544.681	1322.63
545.045	1315.63
545.41	1329.87
545.774	1326.93
546.138	1337.1
546.503	1310.66
546.867	1342.3
547.231	1308.62
547.595	1316.53
547.959	1340.49
548.324	1312.01
548.688	1327.15
549.052	1338.45
549.416	1338
549.779	1335.52
550.143	1360.15
550.507	1347.27
550.871	1347.72
551.235	1350.66
551.599	1328.28
551.962	1359.92
552.326	1369.64
552.689	1340.71
553.053	1326.93
553.417	1352.01
553.78	1309.75
554.143	1340.49
554.507	1350.88
554.87	1362.86
555.234	1349.3
555.597	1342.07
555.96	1365.12
556.323	1355.4
556.686	1365.35
557.05	1334.61
557.413	1354.05
557.776	1359.92
558.139	1403.08
558.502	1385.68
558.865	1361.96
559.228	1387.27
559.59	1388.17
559.953	1380.94
560.316	1406.25
560.679	1360.37
561.041	1407.15
561.404	1380.03
561.767	1415.06
562.129	1400.82
562.492	1404.21
562.854	1389.75
563.217	1408.28
563.579	1439.02
563.941	1416.64
564.304	1412.35
564.666	1392.01
565.028	1396.53
565.39	1405.8
565.753	1455.96
566.115	1400.15
566.477	1426.59
566.839	1427.26
567.201	1435.63
567.563	1413.25
567.925	1413.93
568.287	1449.64
568.648	1407.83
569.01	1446.47
569.372	1444.21
569.734	1470.43
570.095	1415.29
570.457	1449.41
570.819	1461.39
571.18	1466.13
571.542	1457.32
571.903	1433.14
572.265	1437.43
572.626	1457.32
572.987	1463.42
573.349	1442.18
573.71	1460.71
574.071	1463.65
574.432	1456.87
574.794	1455.29
575.155	1443.99
575.516	1452.57
575.877	1451.22
576.238	1446.02
576.599	1439.24
576.96	1502.07
577.32	1434.27
577.681	1441.73
578.042	1430.65
578.403	1460.26
578.763	1468.17
579.124	1439.02
579.485	1453.48
579.845	1439.47
580.206	1440.37
580.566	1439.24
580.927	1432.91
581.287	1454.38
581.648	1441.28
582.008	1407.83
582.368	1429.98
582.728	1449.64
583.089	1444.89
583.449	1444.44
583.809	1454.61
584.169	1422.29
584.529	1434.5
584.889	1429.52
585.249	1427.49
585.609	1403.76
585.969	1427.04
586.329	1408.28
586.688	1409.64
587.048	1404.21
587.408	1408.96
587.768	1395.63
588.127	1406.25
588.487	1413.25
588.846	1391.56
589.206	1399.02
589.565	1393.37
589.925	1433.14
590.284	1403.08
590.643	1412.35
591.003	1407.15
591.362	1411.22
591.721	1396.76
592.08	1370.54
592.44	1403.08
592.799	1363.99
593.158	1374.38
593.517	1403.08
593.876	1397.89
594.235	1376.19
594.593	1397.66
594.952	1402.86
595.311	1409.19
595.67	1383.65
596.029	1375.74
596.387	1373.03
596.746	1375.97
597.104	1384.55
597.463	1355.63
597.822	1390.88
598.18	1389.98
598.538	1367.83
598.897	1417.77
599.255	1361.5
599.613	1405.57
599.972	1406.25
600.33	1382.29
600.688	1414.61
601.046	1393.82
601.404	1399.47
601.762	1385.91
602.12	1403.08
602.478	1413.03
602.836	1385.46
603.194	1434.72
603.552	1403.99
603.91	1418.9
604.268	1425.23
604.625	1403.08
604.983	1397.44
605.341	1396.08
605.698	1405.34
606.056	1439.24
606.413	1428.39
606.771	1411.9
607.128	1407.6
607.485	1445.8
607.843	1394.27
608.2	1406.7
608.557	1399.02
608.914	1422.75
609.272	1411.67
609.629	1438.56
609.986	1430.88
610.343	1421.16
610.7	1459.58
611.057	1465.46
611.414	1429.75
611.771	1434.27
612.127	1426.59
612.484	1456.42
612.841	1461.16
613.198	1474.27
613.554	1460.03
613.911	1455.74
614.267	1455.29
614.624	1448.96
614.98	1440.6
615.337	1442.63
615.693	1455.51
616.05	1463.2
616.406	1443.99
616.762	1439.69
617.118	1434.27
617.475	1430.88
617.831	1454.16
618.187	1454.61
618.543	1465.68
618.899	1462.97
619.255	1443.76
619.611	1443.76
619.967	1468.62
620.323	1443.31
620.678	1479.24
621.034	1465.23
621.39	1436.53
621.746	1462.74
622.101	1463.65
622.457	1462.97
622.812	1468.85
623.168	1452.8
623.523	1451.22
623.879	1450.99
624.234	1455.06
624.589	1459.13
624.945	1447.83
625.3	1448.28
625.655	1431.11
626.01	1456.87
626.365	1436.53
626.72	1433.14
627.075	1459.13
627.43	1489.64
627.785	1423.65
628.14	1442.41
628.495	1444.89
628.85	1431.33
629.205	1449.64
629.559	1461.16
629.914	1460.26
630.269	1445.34
630.623	1438.11
630.978	1464.1
631.332	1444.67
631.687	1428.62
632.041	1440.6
632.396	1422.75
632.75	1439.69
633.104	1461.84
633.459	1453.7
633.813	1426.59
634.167	1447.38
634.521	1417.32
634.875	1445.57
635.229	1427.26
635.583	1436.98
635.937	1412.58
636.291	1449.19
636.645	1437.89
636.999	1447.38
637.352	1395.85
637.706	1458.22
638.06	1449.86
638.413	1420.26
638.767	1408.28
639.121	1420.94
639.474	1432.91
639.828	1407.6
640.181	1428.62
640.534	1425
640.888	1434.72
641.241	1421.39
641.594	1437.43
641.947	1400.37
642.301	1405.12
642.654	1442.86
643.007	1410.09
643.36	1426.36
643.713	1421.62
644.066	1419.58
644.419	1434.72
644.771	1444.21
645.124	1436.08
645.477	1409.86
645.83	1399.69
646.182	1410.32
646.535	1409.64
646.888	1419.81
647.24	1373.25
647.593	1419.13
647.945	1440.15
648.298	1456.19
648.65	1422.07
649.002	1437.89
649.355	1447.15
649.707	1440.6
650.059	1434.72
650.411	1457.77
650.763	1478.34
651.115	1495.74
651.467	1503.87
651.819	1484.89
652.171	1504.55
652.523	1482.18
652.875	1506.81
653.227	1502.97
653.578	1521.27
653.93	1516.53
654.282	1503.65
654.633	1505
654.985	1530.54
655.337	1483.53
655.688	1528.73
656.039	1538
656.391	1533.48
656.742	1546.36
657.094	1581.61
657.445	1579.8
657.796	1569.41
658.147	1591.33
658.498	1585.9
658.849	1595.62
659.2	1644.43
659.551	1618.9
659.902	1609.41
660.253	1606.47
660.604	1641.04
660.955	1628.84
661.306	1640.14
661.656	1660.03
662.007	1670.87
662.358	1656.19
662.708	1676.52
663.059	1657.32
663.409	1681.27
663.76	1717.88
664.11	1690.31
664.461	1681.95
664.811	1703.87
665.161	1739.57
665.511	1734.83
665.862	1724.66
666.212	1755.84
666.562	1775.5
666.912	1765.33
667.262	1794.49
667.612	1761.72
667.962	1804.88
668.312	1803.53
668.662	1822.96
669.011	1829.97
669.361	1855.05
669.711	1864.99
670.06	1852.56
670.41	1853.47
670.76	1882.17
671.109	1886.01
671.459	1893.69
671.808	1906.12
672.157	1966.46
672.507	1916.97
672.856	1950.41
673.205	1930.08
673.554	1973.92
673.904	1982.96
674.253	2020.47
674.602	2048.94
674.951	2008.49
675.3	2014.82
675.649	2025.22
675.998	2079.22
676.346	2070.41
676.695	2094.37
677.044	2101.37
677.393	2128.49
677.741	2117.64
678.09	2155.83
678.438	2125.33
678.787	2159.67
679.135	2183.18
679.484	2147.92
679.832	2179.56
680.181	2216.4
680.529	2248.26
680.877	2214.59
681.225	2263.17
681.573	2277.64
681.922	2286.23
682.27	2301.14
682.618	2298.65
682.966	2318.54
683.314	2327.58
683.661	2337.98
684.009	2331.42
684.357	2348.6
684.705	2394.24
685.053	2398.54
685.4	2410.74
685.748	2425.66
686.095	2448.48
686.443	2435.83
686.79	2468.59
687.138	2485.54
687.485	2495.94
687.832	2573.45
688.18	2500.46
688.527	2522.83
688.874	2543.17
689.221	2535.71
689.568	2570.29
689.915	2602.15
690.262	2622.26
690.609	2608.7
690.956	2622.71
691.303	2630.17
691.65	2643.96
691.997	2649.83
692.344	2657.06
692.69	2677.85
693.037	2716.27
693.383	2711.75
693.73	2726.21
694.077	2748.81
694.423	2734.12
694.769	2735.03
695.116	2763.95
695.462	2767.12
695.808	2768.92
696.155	2814.8
696.501	2801.47
696.847	2807.34
697.193	2861.13
697.539	2845.08
697.885	2834.69
698.231	2882.82
698.577	2913.33
698.923	2910.62
699.269	2913.1
699.614	2893.67
699.96	2921.46
700.306	2933.89
700.651	2927.56
700.997	2940.67
701.342	2969.6
701.688	2943.84
702.033	3001.91
702.379	2983.83
702.724	2973.89
703.069	3017.05
703.415	3017.96
703.76	3035.36
704.105	3045.53
704.45	3044.62
704.795	3010.95
705.14	3072.42
705.485	3073.78
705.83	3085.75
706.175	3086.2
706.52	3104.28
706.865	3117.84
707.209	3090.05
707.554	3121.91
707.899	3169.82
708.243	3110.61
708.588	3155.13
708.932	3163.94
709.277	3158.07
709.621	3225.64
709.966	3217.95
710.31	3234.22
710.654	3212.08
710.998	3212.98
711.342	3218.18
711.687	3232.64
712.031	3215.01
712.375	3214.56
712.719	3284.84
713.063	3297.5
713.407	3262.24
713.75	3276.71
714.094	3271.28
714.438	3322.13
714.782	3318.29
715.125	3286.42
715.469	3307.67
715.812	3315.12
716.156	3297.95
716.499	3312.64
716.843	3375.46
717.186	3297.27
717.53	3302.47
717.873	3335.01
718.216	3362.81
718.559	3375.91
718.902	3351.73
719.246	3339.53
719.589	3392.86
719.932	3395.35
720.275	3348.12
720.617	3387.44
720.96	3429.47
721.303	3416.14
721.646	3414.78
721.989	3386.54
722.331	3408
722.674	3427.21
723.016	3404.84
723.359	3438.74
723.701	3452.97
724.044	3409.36
724.386	3412.75
724.729	3404.16
725.071	3469.7
725.413	3449.81
725.755	3433.77
726.097	3410.94
726.439	3393.09
726.782	3449.81
727.124	3443.93
727.465	3401.9
727.807	3445.52
728.149	3441
728.491	3468.79
728.833	3476.02
729.175	3443.03
729.516	3480.32
729.858	3467.21
730.199	3458.85
730.541	3463.82
730.882	3483.93
731.224	3476.7
731.565	3465.4
731.906	3470.15
732.248	3459.08
732.589	3495.91
732.93	3449.58
733.271	3452.52
733.612	3444.16
733.953	3462.92
734.294	3455.23
734.635	3452.3
734.976	3473.76
735.317	3453.88
735.658	3457.49
735.999	3479.87
736.339	3477.38
736.68	3405.52
737.021	3506.31
737.361	3451.17
737.702	3466.31
738.042	3446.65
738.383	3486.65
738.723	3463.82
739.063	3422.24
739.404	3444.84
739.744	3421.11
740.084	3446.65
740.424	3466.08
740.764	3455.23
741.104	3483.26
741.444	3421.79
741.784	3425.18
742.124	3468.12
742.464	3443.26
742.804	3416.59
743.143	3426.76
743.483	3455.69
743.823	3409.81
744.162	3422.92
744.502	3393.31
744.841	3429.25
745.181	3414.11
745.52	3410.72
745.86	3427.66
746.199	3409.13
746.538	3384.95
746.877	3405.97
747.216	3439.42
747.556	3379.98
747.895	3435.57
748.234	3375.24
748.573	3399.42
748.911	3387.21
749.25	3392.41
749.589	3391.05
749.928	3356.71
750.267	3385.86
750.605	3391.96
750.944	3360.77
751.283	3375.01
751.621	3354.45
751.96	3298.63
752.298	3350.6
752.636	3291.17
752.975	3340.89
753.313	3315.58
753.651	3297.72
753.989	3328.01
754.327	3296.82
754.666	3289.14
755.004	3285.07
755.342	3294.33
755.679	3309.02
756.017	3302.24
756.355	3318.97
756.693	3248.46
757.031	3279.87
757.368	3274.9
757.706	3259.98
758.044	3258.4
758.381	3196.03
758.719	3246.65
759.056	3276.03
759.394	3250.49
759.731	3235.8
760.068	3227.67
760.405	3170.95
760.743	3167.33
761.08	3183.6
761.417	3197.61
761.754	3165.07
762.091	3171.17
762.428	3158.52
762.765	3154.68
763.102	3127.78
763.438	3111.97
763.775	3110.84
764.112	3117.39
764.449	3136.15
764.785	3093.21
765.122	3075.58
765.458	3089.59
765.795	3086.43
766.131	3066.09
766.467	3104.28
766.804	3054.79
767.14	3062.7
767.476	3008.92
767.812	3005.75
768.148	3040.33
768.485	3004.62
768.821	3001.23
769.157	3004.85
769.492	2952.2
769.828	2998.3
770.164	2932.08
770.5	2972.76
770.836	2956.04
771.171	2929.82
771.507	2932.54
771.842	2952.2
772.178	2917.17
772.513	2928.24
772.849	2907.23
773.184	2908.13
