Data from carpet_green_FLMS001491_00058.txt Node
Date: Wed Feb 08 10:35:34 GMT 2017
User: dcchb
Spectrometer: FLMS00149
Trigger mode: 0
Integration Time (sec): 2.000000E-2
Scans to average: 10
Electric dark correction enabled: true
Nonlinearity correction enabled: false
Boxcar width: 0
XAxis mode: Wavelengths
Number of Pixels in Spectrum: 2048
>>>>>Begin Spectral Data<<<<<
341.393	5.54
341.776	5.54
342.16	5.54
342.543	-65.65
342.927	-69.26
343.31	-78.08
343.693	-67.68
344.077	-65.65
344.46	-54.35
344.843	-44.18
345.226	-35.59
345.61	-31.07
345.993	-11.64
346.376	-27.91
346.759	26.55
347.142	25.88
347.525	44.86
347.908	46.89
348.291	85.31
348.674	88.92
349.057	97.74
349.44	141.13
349.823	147
350.206	158.3
350.588	192.2
350.971	185.19
351.354	199.66
351.737	215.7
352.119	225.87
352.502	241.46
352.884	238.07
353.267	268.13
353.65	279.65
354.032	271.97
354.414	274.91
354.797	280.33
355.179	283.27
355.562	288.92
355.944	285.76
356.326	292.99
356.709	303.61
357.091	314
357.473	299.09
357.855	309.94
358.238	317.62
358.62	317.84
359.002	299.31
359.384	330.27
359.766	321.23
360.148	297.96
360.53	314.68
360.912	290.05
361.294	299.09
361.676	297.28
362.057	303.61
362.439	314.68
362.821	274.46
363.203	315.81
363.584	305.19
363.966	290.73
364.348	275.36
364.729	299.99
365.111	294.57
365.493	287.79
365.874	290.95
366.256	279.88
366.637	308.81
367.019	295.92
367.4	281.91
367.781	272.65
368.163	271.07
368.544	284.4
368.925	270.61
369.306	298.86
369.688	267
370.069	270.16
370.45	281.24
370.831	287.34
371.212	279.2
371.593	272.65
371.974	287.11
372.355	261.8
372.736	275.13
373.117	280.11
373.498	289.6
373.879	270.61
374.26	276.26
374.641	296.38
375.021	268.81
375.402	278.07
375.783	272.87
376.163	287.56
376.544	273.55
376.925	277.39
377.305	275.59
377.686	267.45
378.066	285.53
378.447	289.82
378.827	279.43
379.208	303.83
379.588	286.21
379.968	268.13
380.349	287.79
380.729	304.96
381.109	288.69
381.489	304.06
381.87	304.06
382.25	295.7
382.63	270.61
383.01	295.7
383.39	281.24
383.77	288.02
384.15	298.41
384.53	295.92
384.91	294.34
385.29	306.55
385.67	310.39
386.049	286.89
386.429	308.35
386.809	304.96
387.189	299.54
387.568	309.03
387.948	321.01
388.328	301.12
388.707	291.4
389.087	294.57
389.466	325.3
389.846	301.57
390.225	303.38
390.605	299.54
390.984	288.02
391.363	318.07
391.743	309.71
392.122	314.46
392.501	302.93
392.881	303.61
393.26	297.05
393.639	291.18
394.018	293.89
394.397	303.16
394.776	302.48
395.155	308.81
395.534	304.74
395.913	299.09
396.292	300.9
396.671	290.05
397.05	314.68
397.429	309.94
397.808	292.76
398.186	304.06
398.565	297.28
398.944	301.57
399.323	313.78
399.701	291.86
400.08	307.68
400.458	311.74
400.837	322.14
401.215	328.47
401.594	307.22
401.972	311.52
402.351	313.1
402.729	318.52
403.107	307
403.486	325.98
403.864	304.51
404.242	289.6
404.62	302.25
404.999	315.81
405.377	303.16
405.755	296.15
406.133	297.96
406.511	323.95
406.889	292.08
407.267	320.78
407.645	318.07
408.023	327.34
408.401	316.71
408.779	326.66
409.156	306.09
409.534	324.62
409.912	304.74
410.29	336.15
410.667	309.71
411.045	304.29
411.422	316.04
411.8	310.84
412.178	314.68
412.555	324.4
412.933	328.47
413.31	322.36
413.687	331.86
414.065	331.18
414.442	320.33
414.819	290.73
415.197	320.1
415.574	322.14
415.951	339.09
416.328	331.4
416.705	325.53
417.082	316.94
417.46	338.18
417.837	320.78
418.214	317.17
418.591	320.33
418.967	315.13
419.344	302.03
419.721	303.16
420.098	317.62
420.475	325.98
420.852	353.78
421.228	318.75
421.605	349.93
421.982	323.04
422.358	347.67
422.735	345.19
423.111	319.65
423.488	327.11
423.864	331.86
424.241	357.17
424.617	330.5
424.994	353.78
425.37	362.59
425.746	334.57
426.123	331.63
426.499	325.75
426.875	342.93
427.251	347.45
427.627	339.31
428.003	344.51
428.379	333.44
428.756	341.8
429.132	349.48
429.507	338.41
429.883	336.83
430.259	330.5
430.635	349.93
431.011	347.9
431.387	341.12
431.763	362.36
432.138	342.93
432.514	342.7
432.89	348.35
433.265	350.61
433.641	373.44
434.016	354.45
434.392	348.58
434.767	345.19
435.143	360.56
435.518	367.56
435.894	361.23
436.269	347.9
436.644	358.52
437.02	378.18
437.395	358.97
437.77	355.81
438.145	352.19
438.52	348.58
438.895	365.98
439.271	368.24
439.646	369.59
440.021	340.67
440.395	346.32
440.77	363.72
441.145	367.11
441.52	364.4
441.895	338.18
442.27	365.98
442.645	368.69
443.019	381.35
443.394	382.25
443.769	390.16
444.143	380.44
444.518	382.93
444.892	377.05
445.267	379.09
445.641	382.7
446.016	378.86
446.39	381.35
446.764	375.7
447.139	368.69
447.513	381.8
447.887	376.83
448.262	379.31
448.636	395.81
449.01	378.86
449.384	376.37
449.758	391.52
450.132	364.62
450.506	408.46
450.88	398.97
451.254	383.61
451.628	387.45
452.002	394
452.376	389.26
452.75	387.67
453.123	374.79
453.497	400.1
453.871	398.52
454.244	403.27
454.618	422.25
454.992	392.19
455.365	415.24
455.739	392.87
456.112	404.4
456.486	404.85
456.859	410.95
457.232	414.34
457.606	408.01
457.979	407.56
458.352	404.4
458.725	415.47
459.099	432.42
459.472	407.79
459.845	416.6
460.218	423.15
460.591	423.83
460.964	437.84
461.337	420.67
461.71	434.9
462.083	412.76
462.456	431.29
462.829	403.72
463.201	431.74
463.574	422.02
463.947	444.85
464.32	457.95
464.692	441.23
465.065	454.34
465.438	436.71
465.81	460.67
466.183	444.62
466.555	443.94
466.928	434.68
467.3	425.86
467.672	452.3
468.045	448.24
468.417	464.96
468.789	459.08
469.161	462.93
469.534	469.93
469.906	457.73
470.278	492.08
470.65	447.33
471.022	476.94
471.394	474.22
471.766	457.28
472.138	492.3
472.51	507.67
472.882	484.39
473.253	487.78
473.625	496.37
473.997	485.98
474.369	485.3
474.74	513.55
475.112	512.42
475.484	525.07
475.855	517.39
476.227	512.64
476.598	533.66
476.97	531.62
477.341	551.74
477.713	544.28
478.084	524.39
478.455	543.15
478.827	549.7
479.198	565.3
479.569	556.26
479.94	558.29
480.311	574.11
480.682	570.95
481.053	578.18
481.424	584.96
481.795	579.53
482.166	608.23
482.537	594.67
482.908	598.97
483.279	591.51
483.65	602.58
484.021	619.98
484.391	617.27
484.762	613.43
485.133	633.09
485.503	619.53
485.874	635.35
486.244	634.67
486.615	645.07
486.985	640.55
487.356	650.27
487.726	660.43
488.097	670.83
488.467	670.6
488.837	655.69
489.207	674.45
489.578	700.66
489.948	696.59
490.318	705.41
490.688	688.23
491.058	708.34
491.428	700.66
491.798	725.29
492.168	721.68
492.538	702.47
492.908	737.27
493.278	723.71
493.648	734.1
494.017	743.82
494.387	744.73
494.757	762.35
495.126	746.53
495.496	774.56
495.866	771.62
496.235	734.1
496.605	773.88
496.974	788.11
497.344	749.92
497.713	799.87
498.082	770.04
498.452	779.98
498.821	786.76
499.19	815.01
499.559	794.89
499.928	790.15
500.298	804.84
500.667	818.17
501.036	791.28
501.405	820.2
501.774	809.58
502.143	817.94
502.512	830.15
502.88	838.74
503.249	836.7
503.618	805.97
503.987	822.01
504.356	818.4
504.724	838.28
505.093	858.17
505.462	852.07
505.83	848.68
506.199	847.1
506.567	850.94
506.936	844.38
507.304	855.46
507.672	857.94
508.041	859.07
508.409	855.91
508.777	861.33
509.145	861.79
509.514	844.84
509.882	868.79
510.25	870.6
510.618	857.49
510.986	875.34
511.354	879.41
511.722	890.26
512.09	878.28
512.458	898.85
512.826	874.89
513.193	895.91
513.561	871.28
513.929	909.92
514.297	913.31
514.664	928.22
515.032	882.12
515.4	938.17
515.767	897.49
516.135	909.24
516.502	921.22
516.869	919.18
517.237	930.71
517.604	927.32
517.972	943.14
518.339	942.69
518.706	956.47
519.073	935
519.44	953.53
519.808	926.87
520.175	943.14
520.542	939.3
520.909	963.25
521.276	951.95
521.643	959.18
522.009	963.93
522.376	952.63
522.743	930.26
523.11	979.75
523.477	997.15
523.843	1024.27
524.21	957.38
524.577	968.45
524.943	1004.83
525.31	982.46
525.676	968
526.043	977.26
526.409	1019.52
526.776	999.18
527.142	995.34
527.508	983.59
527.874	1010.93
528.241	1036.92
528.607	1022.68
528.973	1019.07
529.339	1007.32
529.705	1015.68
530.071	1046.64
530.437	1017.26
530.803	1022.46
531.169	1044.15
531.535	1031.72
531.901	1025.17
532.267	1034.89
532.632	1035.79
532.998	1022.01
533.364	1038.96
533.73	1030.14
534.095	1050.03
534.461	1039.18
534.826	1051.84
535.192	1059.07
535.557	1059.75
535.923	1036.02
536.288	1035.11
536.653	1061.55
537.019	1063.59
537.384	1037.15
537.749	1040.31
538.114	1053.64
538.479	1048.67
538.845	1073.08
539.21	1050.71
539.575	1064.49
539.94	1033.76
540.305	1061.55
540.67	1040.54
541.034	1061.33
541.399	1087.54
541.764	1044.38
542.129	1049.58
542.494	1058.84
542.858	1067.2
543.223	1071.72
543.587	1067.43
543.952	1058.16
544.316	1080.76
544.681	1045.06
545.045	1063.14
545.41	1052.51
545.774	1053.64
546.138	1087.99
546.503	1062.01
546.867	1059.75
547.231	1054.77
547.595	1039.18
547.959	1095.23
548.324	1040.09
548.688	1090.25
549.052	1091.61
549.416	1058.39
549.779	1078.73
550.143	1075.79
550.507	1069.24
550.871	1114.89
551.235	1091.61
551.599	1076.69
551.962	1070.37
552.326	1105.17
552.689	1094.1
553.053	1086.64
553.417	1063.81
553.78	1094.77
554.143	1086.64
554.507	1102.46
554.87	1098.62
555.234	1087.32
555.597	1074.21
555.96	1093.19
556.323	1093.19
556.686	1103.81
557.05	1093.42
557.413	1142.46
557.776	1113.98
558.139	1111.95
558.502	1115.56
558.865	1089.35
559.228	1100.65
559.59	1124.83
559.953	1138.84
560.316	1110.14
560.679	1138.39
561.041	1130.48
561.404	1142.46
561.767	1128.9
562.129	1157.6
562.492	1132.96
562.854	1145.17
563.217	1153.75
563.579	1131.61
563.941	1136.35
564.304	1152.63
564.666	1138.84
565.028	1153.3
565.39	1135.9
565.753	1150.59
566.115	1142.68
566.477	1161.44
566.839	1161.89
567.201	1170.25
567.563	1170.48
567.925	1167.77
568.287	1158.05
568.648	1169.35
569.01	1163.25
569.372	1154.66
569.734	1158.05
570.095	1165.73
570.457	1189.23
570.819	1168.9
571.18	1181.78
571.542	1181.1
571.903	1179.97
572.265	1206.63
572.626	1192.4
572.987	1202.57
573.349	1170.25
573.71	1166.18
574.071	1213.87
574.432	1199.86
574.794	1173.42
575.155	1225.39
575.516	1201.44
575.877	1200.08
576.238	1174.32
576.599	1184.94
576.96	1208.22
577.32	1214.77
577.681	1222.23
578.042	1198.95
578.403	1181.78
578.763	1182.91
579.124	1198.5
579.485	1225.39
579.845	1169.57
580.206	1214.09
580.566	1204.15
580.927	1185.17
581.287	1189.46
581.648	1180.19
582.008	1207.31
582.368	1193.53
582.728	1172.51
583.089	1182.23
583.449	1203.02
583.809	1176.13
584.169	1178.39
584.529	1172.29
584.889	1183.81
585.249	1164.6
585.609	1168.67
585.969	1207.09
586.329	1177.03
586.688	1162.57
587.048	1183.81
587.408	1153.3
587.768	1186.3
588.127	1184.04
588.487	1159.86
588.846	1167.31
589.206	1163.25
589.565	1163.47
589.925	1169.8
590.284	1156.24
590.643	1182
591.003	1167.31
591.362	1186.97
591.721	1194.21
592.08	1185.39
592.44	1179.29
592.799	1156.24
593.158	1136.13
593.517	1172.96
593.876	1162.34
594.235	1170.48
594.593	1168.67
594.952	1156.92
595.311	1190.82
595.67	1157.37
596.029	1183.58
596.387	1173.64
596.746	1162.12
597.104	1139.97
597.463	1174.77
597.822	1165.05
598.18	1165.96
598.538	1179.74
598.897	1181.78
599.255	1150.37
599.613	1185.17
599.972	1166.18
600.33	1193.75
600.688	1172.96
601.046	1186.97
601.404	1165.28
601.762	1182.68
602.12	1192.4
602.478	1187.65
602.836	1163.47
603.194	1144.04
603.552	1175.22
603.91	1149.91
604.268	1185.62
604.625	1177.26
604.983	1170.48
605.341	1196.24
605.698	1179.97
606.056	1186.3
606.413	1200.99
606.771	1191.49
607.128	1181.32
607.485	1177.03
607.843	1193.08
608.2	1189.23
608.557	1187.88
608.914	1189.69
609.272	1188.33
609.629	1198.5
609.986	1217.26
610.343	1203.92
610.7	1211.15
611.057	1214.54
611.414	1192.17
611.771	1226.3
612.127	1197.37
612.484	1200.76
612.841	1196.24
613.198	1195.79
613.554	1201.44
613.911	1194.21
614.267	1228.33
614.624	1215.22
614.98	1201.89
615.337	1196.47
615.693	1183.13
616.05	1193.98
616.406	1234.43
616.762	1207.99
617.118	1226.75
617.475	1196.69
617.831	1214.09
618.187	1234.2
618.543	1211.83
618.899	1218.61
619.255	1226.75
619.611	1228.33
619.967	1242.11
620.323	1214.09
620.678	1198.95
621.034	1193.08
621.39	1209.35
621.746	1212.51
622.101	1227.2
622.457	1204.83
622.812	1215.45
623.168	1196.24
623.523	1217.71
623.879	1207.09
624.234	1204.6
624.589	1229.01
624.945	1215.67
625.3	1207.99
625.655	1230.14
626.01	1228.78
626.365	1218.39
626.72	1196.01
627.075	1223.36
627.43	1209.35
627.785	1215.9
628.14	1216.8
628.495	1198.27
628.85	1226.07
629.205	1208.44
629.559	1224.94
629.914	1203.92
630.269	1208.22
630.623	1211.61
630.978	1213.41
631.332	1226.52
631.687	1202.12
632.041	1209.35
632.396	1182.91
632.75	1216.8
633.104	1191.27
633.459	1193.98
633.813	1210.93
634.167	1215.9
634.521	1189.46
634.875	1210.02
635.229	1194.21
635.583	1183.36
635.937	1190.36
636.291	1192.17
636.645	1203.92
636.999	1204.83
637.352	1184.26
637.706	1171.16
638.06	1200.76
638.413	1212.06
638.767	1222.68
639.121	1195.79
639.474	1205.51
639.828	1220.87
640.181	1216.13
640.534	1193.08
640.888	1196.92
641.241	1200.31
641.594	1201.89
641.947	1212.96
642.301	1179.29
642.654	1197.82
643.007	1217.26
643.36	1234.2
643.713	1206.18
644.066	1183.58
644.419	1168.22
644.771	1180.65
645.124	1167.31
645.477	1175.45
645.83	1205.51
646.182	1172.74
646.535	1188.33
646.888	1195.56
647.24	1187.65
647.593	1196.01
647.945	1198.27
648.298	1181.32
648.65	1196.47
649.002	1209.12
649.355	1202.57
649.707	1202.57
650.059	1213.41
650.411	1197.37
650.763	1208.89
651.115	1213.87
651.467	1222
651.819	1208.89
652.171	1235.33
652.523	1243.24
652.875	1241.21
653.227	1237.59
653.578	1253.41
653.93	1252.06
654.282	1278.95
654.633	1254.77
654.985	1242.57
655.337	1265.62
655.688	1239.4
656.039	1283.7
656.391	1261.55
656.742	1264.71
657.094	1275.56
657.445	1269.01
657.796	1257.26
658.147	1279.85
658.498	1313.98
658.849	1284.6
659.2	1274.88
659.551	1258.84
659.902	1268.55
660.253	1290.02
660.604	1267.2
660.955	1310.81
661.306	1315.56
661.656	1311.72
662.007	1303.36
662.358	1325.28
662.708	1318.95
663.059	1363.92
663.409	1337.93
663.76	1356.01
664.11	1337.03
664.461	1359.17
664.811	1351.94
665.161	1363.02
665.511	1393.3
665.862	1391.49
666.212	1411.83
666.562	1412.73
666.912	1398.49
667.262	1430.58
667.612	1436.69
667.962	1414.99
668.312	1440.3
668.662	1462
669.011	1468.77
669.361	1466.06
669.711	1475.55
670.06	1484.59
670.41	1489.79
670.76	1459.96
671.109	1490.24
671.459	1522.78
671.808	1529.34
672.157	1517.81
672.507	1533.18
672.856	1529.79
673.205	1579.96
673.554	1597.13
673.904	1599.17
674.253	1580.64
674.602	1588.09
674.951	1614.31
675.3	1610.47
675.649	1618.83
675.998	1636.45
676.346	1652.95
676.695	1688.2
677.044	1669.67
677.393	1689.11
677.741	1679.16
678.09	1699.28
678.438	1712.84
678.787	1753.06
679.135	1797.13
679.484	1775.66
679.832	1763.23
680.181	1760.97
680.529	1822.89
680.877	1774.76
681.225	1797.81
681.573	1856.56
681.922	1851.59
682.27	1880.74
682.618	1870.57
682.966	1889.33
683.314	1884.36
683.661	1909.22
684.009	1927.75
684.357	1943.34
684.705	1925.71
685.053	1987.86
685.4	1995.54
685.748	1988.08
686.095	1974.07
686.443	2003.45
686.79	2021.98
687.138	2020.85
687.485	2085.26
687.832	2108.08
688.18	2099.27
688.527	2109.21
688.874	2136.33
689.221	2162.99
689.568	2127.97
689.915	2177.91
690.262	2180.39
690.609	2167.97
690.956	2217
691.303	2221.3
691.65	2228.75
691.997	2244.8
692.344	2256.1
692.69	2274.4
693.037	2307.62
693.383	2280.28
693.73	2323.44
694.077	2325.7
694.423	2338.58
694.769	2341.07
695.116	2384.68
695.462	2389.43
695.808	2398.02
696.155	2435.3
696.501	2395.3
696.847	2455.19
697.193	2473.04
697.539	2499.93
697.885	2493.83
698.231	2500.16
698.577	2492.02
698.923	2545.36
699.269	2529.54
699.614	2537.67
699.96	2525.24
700.306	2565.92
700.651	2585.36
700.997	2613.6
701.342	2638.46
701.688	2681.17
702.033	2675.3
702.379	2707.84
702.724	2702.19
703.069	2714.84
703.415	2680.72
703.76	2726.37
704.105	2773.37
704.45	2766.82
704.795	2779.47
705.14	2741.51
705.485	2822.86
705.83	2800.94
706.175	2838.68
706.52	2851.56
706.865	2879.59
707.209	2868.29
707.554	2883.43
707.899	2920.04
708.243	2886.14
708.588	2947.61
708.932	2939.92
709.277	2964.55
709.621	3004.1
709.966	2959.36
710.31	2967.04
710.654	2997.32
710.998	2989.86
711.342	3016.76
711.687	3047.04
712.031	3037.1
712.375	3063.76
712.719	3080.94
713.063	3087.94
713.407	3081.84
713.75	3085.23
714.094	3091.78
714.438	3123.19
714.782	3152.35
715.125	3137.88
715.469	3160.48
715.812	3164.1
716.156	3144.89
716.499	3163.87
716.843	3210.2
717.186	3220.82
717.53	3202.74
717.873	3210.65
718.216	3234.38
718.559	3237.32
718.902	3248.39
719.246	3285.9
719.589	3269.86
719.932	3245.68
720.275	3288.16
720.617	3301.95
720.96	3270.99
721.303	3306.92
721.646	3329.07
721.989	3307.37
722.331	3339.91
722.674	3320.25
723.016	3353.92
723.359	3318.44
723.701	3316.86
724.044	3357.09
724.386	3352.34
724.729	3375.84
725.071	3368.16
725.413	3400.25
725.755	3398.44
726.097	3375.17
726.439	3376.52
726.782	3404.77
727.124	3419.23
727.465	3390.31
727.807	3421.49
728.149	3384.43
728.491	3401.61
728.833	3404.09
729.175	3406.13
729.516	3384.66
729.858	3406.58
730.199	3428.05
730.541	3410.64
730.882	3465.56
731.224	3470.08
731.565	3444.54
731.906	3421.49
732.248	3461.94
732.589	3452.45
732.93	3453.58
733.271	3460.36
733.612	3469.63
733.953	3459.68
734.294	3420.14
734.635	3499.91
734.976	3489.06
735.317	3485.67
735.658	3457.65
735.999	3448.16
736.339	3470.08
736.68	3523.64
737.021	3467.82
737.361	3409.97
737.702	3471.43
738.042	3454.71
738.383	3477.31
738.723	3482.96
739.063	3473.92
739.404	3482.73
739.744	3443.64
740.084	3475.95
740.424	3482.96
740.764	3452.45
741.104	3491.09
741.444	3428.05
741.784	3452.23
742.124	3436.86
742.464	3447.71
742.804	3454.03
743.143	3460.59
743.483	3470.08
743.823	3455.62
744.162	3410.64
744.502	3428.05
744.841	3432.34
745.181	3461.04
745.52	3431.89
745.86	3450.87
746.199	3439.34
746.538	3450.64
746.877	3423.3
747.216	3419.23
747.556	3396.86
747.895	3420.36
748.234	3434.37
748.573	3455.16
748.911	3462.39
749.25	3431.21
749.589	3378.1
749.928	3432.57
750.267	3447.71
750.605	3403.19
750.944	3400.93
751.283	3397.76
751.621	3401.83
751.96	3419.68
752.298	3419.46
752.636	3368.84
752.975	3353.92
753.313	3385.79
753.651	3361.38
753.989	3377.43
754.327	3364.09
754.666	3326.35
755.004	3319.35
755.342	3341.72
755.679	3324.55
756.017	3332
756.355	3301.72
756.693	3319.35
757.031	3308.73
757.368	3331.55
757.706	3278.9
758.044	3267.15
758.381	3293.59
758.719	3264.43
759.056	3303.98
759.394	3284.32
759.731	3259.69
760.068	3289.07
760.405	3248.62
760.743	3246.81
761.08	3212.46
761.417	3231.67
761.754	3203.64
762.091	3221.95
762.428	3204.77
762.765	3203.42
763.102	3230.76
763.438	3165.68
763.775	3167.26
764.112	3167.26
764.449	3203.87
764.785	3178.33
765.122	3113.93
765.458	3115.51
765.795	3128.62
766.131	3141.27
766.467	3146.92
766.804	3114.38
767.14	3067.38
767.476	3085.23
767.812	3061.73
768.148	3085.91
768.485	3060.15
768.821	3042.07
769.157	3075.51
769.492	3044.55
769.828	3053.37
770.164	3014.05
770.5	2978.34
770.836	3004.1
771.171	3012.92
771.507	3011.79
771.842	2964.33
772.178	2991.45
772.513	2996.64
772.849	2945.8
773.184	2936.98
773.519	2970.66
773.855	2912.8
774.19	2984.22
774.525	2911
774.86	2889.3
