Data from carpet_green_FLMS001491_00034.txt Node
Date: Wed Feb 08 10:35:16 GMT 2017
User: dcchb
Spectrometer: FLMS00149
Trigger mode: 0
Integration Time (sec): 2.000000E-2
Scans to average: 10
Electric dark correction enabled: true
Nonlinearity correction enabled: false
Boxcar width: 0
XAxis mode: Wavelengths
Number of Pixels in Spectrum: 2048
>>>>>Begin Spectral Data<<<<<
341.393	-13.28
341.776	-13.28
342.16	-13.28
342.543	-61.18
342.927	-74.52
343.31	-71.35
343.693	-59.6
344.077	-53.73
344.46	-50.79
344.843	-56.67
345.226	-53.95
345.61	-28.87
345.993	-16.44
346.376	-26.61
346.759	16.78
347.142	40.96
347.525	28.53
347.908	58.81
348.291	76.66
348.674	82.31
349.057	113.95
349.44	128.19
349.823	137.91
350.206	151.69
350.588	174.52
350.971	183.1
351.354	204.34
351.737	196.89
352.119	216.77
352.502	237.34
352.884	253.84
353.267	239.37
353.65	266.49
354.032	279.6
354.414	284.79
354.797	288.18
355.179	315.98
355.562	289.77
355.944	310.56
356.326	288.86
356.709	329.09
357.091	306.49
357.473	318.69
357.855	317.34
358.238	314.62
358.62	314.4
359.002	327.51
359.384	312.36
359.766	276.89
360.148	293.61
360.53	304.46
360.912	306.49
361.294	323.66
361.676	332.25
362.057	308.97
362.439	318.24
362.821	314.85
363.203	298.35
363.584	309.43
363.966	307.39
364.348	295.87
364.729	293.83
365.111	296.55
365.493	283.44
365.874	279.82
366.256	306.94
366.637	296.09
367.019	289.99
367.4	266.49
367.781	271.69
368.163	281.18
368.544	287.96
368.925	294.51
369.306	292.25
369.688	298.13
370.069	280.5
370.45	277.34
370.831	291.12
371.212	288.64
371.593	254.29
371.974	284.57
372.355	292.7
372.736	284.57
373.117	279.6
373.498	271.69
373.879	268.75
374.26	285.7
374.641	284.79
375.021	276.66
375.402	283.21
375.783	277.34
376.163	286.6
376.544	294.06
376.925	291.8
377.305	276.43
377.686	287.28
378.066	292.25
378.447	307.85
378.827	311.46
379.208	310.78
379.588	289.77
379.968	294.74
380.349	303.1
380.729	296.55
381.109	293.38
381.489	286.15
381.87	294.06
382.25	318.24
382.63	289.99
383.01	295.19
383.39	275.08
383.77	300.84
384.15	301.29
384.53	306.94
384.91	302.42
385.29	289.77
385.67	304
386.049	308.75
386.429	309.2
386.809	301.29
387.189	280.05
387.568	264.91
387.948	288.86
388.328	282.53
388.707	298.35
389.087	296.55
389.466	283.44
389.846	303.1
390.225	295.87
390.605	303.78
390.984	315.3
391.363	294.96
391.743	307.17
392.122	325.02
392.501	308.07
392.881	321.63
393.26	300.84
393.639	295.87
394.018	319.37
394.397	308.75
394.776	294.29
395.155	305.13
395.534	308.07
395.913	315.53
396.292	321.63
396.671	303.1
397.05	307.85
397.429	315.53
397.808	303.33
398.186	324.34
398.565	299.48
398.944	312.36
399.323	317.34
399.701	308.75
400.08	292.7
400.458	292.7
400.837	308.75
401.215	308.75
401.594	313.49
401.972	319.14
402.351	305.59
402.729	314.4
403.107	320.27
403.486	329.31
403.864	327.51
404.242	314.62
404.62	312.14
404.999	302.42
405.377	307.85
405.755	313.95
406.133	308.07
406.511	314.4
406.889	310.78
407.267	337.67
407.645	324.34
408.023	315.3
408.401	327.05
408.779	308.07
409.156	328.18
409.534	329.31
409.912	315.08
410.29	326.83
410.667	321.4
411.045	321.4
411.422	333.83
411.8	319.82
412.178	326.83
412.555	333.38
412.933	335.87
413.31	327.51
413.687	340.39
414.065	337.22
414.442	338.8
414.819	332.48
415.197	339.48
415.574	332.93
415.951	329.99
416.328	334.96
416.705	319.37
417.082	331.8
417.46	318.92
417.837	335.41
418.214	334.28
418.591	322.76
418.967	355.53
419.344	342.19
419.721	345.13
420.098	339.71
420.475	340.84
420.852	339.93
421.228	348.75
421.605	319.37
421.982	329.31
422.358	327.73
422.735	340.84
423.111	334.28
423.488	317.79
423.864	331.35
424.241	326.6
424.617	364.79
424.994	353.95
425.37	330.44
425.746	365.02
426.123	358.24
426.499	359.14
426.875	335.64
427.251	370.89
427.627	357.79
428.003	334.74
428.379	341.29
428.756	368.86
429.132	357.34
429.507	333.16
429.883	360.05
430.259	355.98
430.635	351.01
431.011	361.4
431.387	362.98
431.763	381.06
432.138	365.24
432.514	375.64
432.89	368.86
433.265	356.21
433.641	340.16
434.016	375.87
434.392	364.57
434.767	360.5
435.143	369.31
435.518	367.5
435.894	377.45
436.269	366.15
436.644	378.58
437.02	360.05
437.395	375.64
437.77	382.42
438.145	379.48
438.52	387.84
438.895	382.19
439.271	373.83
439.646	387.16
440.021	386.71
440.395	382.65
440.77	374.74
441.145	379.71
441.52	386.94
441.895	385.36
442.27	378.13
442.645	414.28
443.019	377.9
443.394	382.65
443.769	400.27
444.143	394.4
444.518	385.13
444.892	390.33
445.267	376.32
445.641	376.09
446.016	410.22
446.39	413.15
446.764	412.25
447.139	397.11
447.513	410.22
447.887	410.22
448.262	400.5
448.636	387.62
449.01	399.82
449.384	405.7
449.758	410.22
450.132	423.77
450.506	426.03
450.88	408.41
451.254	435.98
451.628	416.32
452.002	425.36
452.376	415.64
452.75	399.82
453.123	413.6
453.497	420.84
453.871	444.79
454.244	459.25
454.618	419.25
454.992	431.23
455.365	441.17
455.739	431.01
456.112	460.84
456.486	451.34
456.859	450.21
457.232	432.59
457.606	452.7
457.979	438.92
458.352	456.54
458.725	450.67
459.099	442.53
459.472	433.04
459.845	450.44
460.218	467.16
460.591	461.97
460.964	471.68
461.337	454.73
461.71	466.26
462.083	459.03
462.456	477.33
462.829	483.43
463.201	477.33
463.574	457.45
463.947	470.1
464.32	492.02
464.692	502.42
465.065	482.53
465.438	482.53
465.81	498.57
466.183	520.27
466.555	489.08
466.928	520.95
467.3	501.29
467.672	508.97
468.045	509.65
468.417	505.58
468.789	488.63
469.161	518.91
469.534	557.1
469.906	537.67
470.278	520.27
470.65	507.61
471.022	561.85
471.394	536.77
471.766	544.22
472.138	554.84
472.51	544
472.882	562.08
473.253	590.55
473.625	558.23
473.997	574.73
474.369	592.36
474.74	586.03
475.112	580.61
475.484	593.94
475.855	608.4
476.227	617.44
476.598	609.98
476.97	613.37
477.341	620.38
477.713	615.18
478.084	625.35
478.455	624.67
478.827	655.18
479.198	649.76
479.569	661.06
479.94	636.88
480.311	670.1
480.682	696.08
481.053	670.1
481.424	690.66
481.795	685.91
482.166	677.55
482.537	716.87
482.908	718.46
483.279	740.38
483.65	707.16
484.021	722.98
484.391	730.66
484.762	734.73
485.133	761.17
485.503	762.3
485.874	767.72
486.244	788.96
486.615	800.26
486.985	802.52
487.356	787.83
487.726	816.98
488.097	853.59
488.467	821.73
488.837	840.49
489.207	834.61
489.578	845.46
489.948	860.82
490.318	868.96
490.688	848.85
491.058	889.07
491.428	875.97
491.798	894.27
492.168	893.14
492.538	915.51
492.908	919.81
493.278	911.44
493.648	925.68
494.017	941.05
494.387	938.11
494.757	965
495.126	958.22
495.496	973.82
495.866	969.97
496.235	981.27
496.605	963.65
496.974	968.17
497.344	981.27
497.713	990.54
498.082	994.38
498.452	1003.42
498.821	979.69
499.19	1007.71
499.559	1034.83
499.928	1000.48
500.298	1016.98
500.667	1039.8
501.036	1038.9
501.405	1038.9
501.774	1033.93
502.143	1031.44
502.512	1066.24
502.88	1046.81
503.249	1035.51
503.618	1060.82
503.987	1058.56
504.356	1070.76
504.724	1114.83
505.093	1081.61
505.462	1063.53
505.83	1068.73
506.199	1090.65
506.567	1103.76
506.936	1073.93
507.304	1094.04
507.672	1104.43
508.041	1101.04
508.409	1113.93
508.777	1112.8
509.145	1125
509.514	1148.73
509.882	1145.79
510.25	1132
510.618	1159.57
510.986	1132.91
511.354	1148.5
511.722	1162.51
512.09	1164.32
512.458	1194.6
512.826	1167.71
513.193	1162.96
513.561	1161.61
513.929	1184.21
514.297	1206.8
514.664	1197.77
515.032	1171.78
515.4	1174.94
515.767	1212.91
516.135	1227.14
516.502	1187.37
516.869	1204.32
517.237	1210.42
517.604	1210.42
517.972	1230.31
518.339	1199.35
518.706	1185.11
519.073	1224.21
519.44	1236.86
519.808	1233.24
520.175	1216.52
520.542	1216.3
520.909	1273.47
521.276	1247.03
521.643	1273.7
522.009	1245.9
522.376	1255.16
522.743	1278.67
523.11	1289.29
523.477	1273.92
523.843	1263.98
524.21	1295.16
524.577	1305.11
524.943	1300.81
525.31	1325.67
525.676	1313.02
526.043	1329.06
526.409	1318.21
526.776	1316.63
527.142	1349.4
527.508	1316.18
527.874	1353.47
528.241	1360.92
528.607	1360.25
528.973	1315.73
529.339	1375.61
529.705	1362.28
530.071	1370.42
530.437	1375.84
530.803	1384.88
531.169	1400.7
531.535	1348.95
531.901	1365.67
532.267	1367.7
532.632	1364.09
532.998	1383.3
533.364	1374.26
533.73	1400.47
534.095	1386.01
534.461	1364.77
534.826	1383.97
535.192	1397.08
535.557	1394.14
535.923	1391.88
536.288	1379.68
536.653	1403.18
537.019	1408.16
537.384	1365.22
537.749	1388.27
538.114	1360.02
538.479	1411.77
538.845	1394.82
539.21	1392.56
539.575	1394.14
539.94	1389.62
540.305	1388.95
540.67	1417.19
541.034	1397.99
541.399	1404.09
541.764	1413.13
542.129	1404.77
542.494	1411.54
542.858	1386.46
543.223	1424.43
543.587	1412
543.952	1434.37
544.316	1422.62
544.681	1395.27
545.045	1419.23
545.41	1408.38
545.774	1402.05
546.138	1400.02
546.503	1421.94
546.867	1426.69
547.231	1396.18
547.595	1417.42
547.959	1445.22
548.324	1428.27
548.688	1411.09
549.052	1416.74
549.416	1438.89
549.779	1411.54
550.143	1420.13
550.507	1423.52
550.871	1420.58
551.235	1426.23
551.599	1434.14
551.962	1430.98
552.326	1418.32
552.689	1431.43
553.053	1406.35
553.417	1434.82
553.78	1430.98
554.143	1434.37
554.507	1429.62
554.87	1453.8
555.234	1441.15
555.597	1432.34
555.96	1444.54
556.323	1457.65
556.686	1460.36
557.05	1496.51
557.413	1470.07
557.776	1448.15
558.139	1498.1
558.502	1491.09
558.865	1487.48
559.228	1447.93
559.59	1484.54
559.953	1470.3
560.316	1521.15
560.679	1468.04
561.041	1479.57
561.404	1480.92
561.767	1492.9
562.129	1504.65
562.492	1518.43
562.854	1512.11
563.217	1521.82
563.579	1509.62
563.941	1526.57
564.304	1521.15
564.666	1539
565.028	1535.38
565.39	1511.2
565.753	1520.02
566.115	1549.17
566.477	1520.69
566.839	1496.97
567.201	1520.02
567.563	1545.55
567.925	1564.31
568.287	1516.4
568.648	1573.12
569.01	1556.85
569.372	1549.39
569.734	1513.69
570.095	1555.5
570.457	1561.15
570.819	1537.87
571.18	1573.35
571.542	1559.11
571.903	1566.57
572.265	1582.61
572.626	1552.56
572.987	1558.21
573.349	1579.22
573.71	1571.99
574.071	1578.55
574.432	1554.37
574.794	1585.55
575.155	1564.08
575.516	1559.79
575.877	1570.18
576.238	1526.34
576.599	1552.11
576.96	1535.16
577.32	1560.69
577.681	1557.76
578.042	1589.62
578.403	1543.52
578.763	1538.77
579.124	1572.67
579.485	1602.95
579.845	1568.6
580.206	1524.31
580.566	1536.06
580.927	1539.23
581.287	1546
581.648	1516.85
582.008	1561.6
582.368	1539.45
582.728	1517.76
583.089	1538.55
583.449	1552.56
583.809	1538.55
584.169	1539.68
584.529	1536.74
584.889	1532.45
585.249	1529.96
585.609	1511.2
585.969	1519.34
586.329	1534.93
586.688	1521.37
587.048	1513.01
587.408	1526.12
587.768	1477.08
588.127	1483.86
588.487	1541.26
588.846	1533.58
589.206	1501.94
589.565	1517.98
589.925	1518.43
590.284	1509.85
590.643	1501.03
591.003	1504.2
591.362	1514.59
591.721	1494.71
592.08	1480.02
592.44	1518.21
592.799	1460.13
593.158	1484.09
593.517	1505.78
593.876	1487.93
594.235	1476.63
594.593	1497.64
594.952	1495.16
595.311	1484.99
595.67	1449.06
596.029	1480.02
596.387	1502.16
596.746	1507.36
597.104	1468.04
597.463	1506.23
597.822	1466.46
598.18	1489.96
598.538	1493.12
598.897	1447.93
599.255	1482.28
599.613	1469.85
599.972	1496.74
600.33	1482.05
600.688	1498.1
601.046	1489.28
601.404	1493.12
601.762	1469.62
602.12	1465.1
602.478	1516.85
602.836	1507.81
603.194	1475.05
603.552	1470.98
603.91	1479.57
604.268	1504.65
604.625	1490.64
604.983	1451.54
605.341	1502.84
605.698	1515.27
606.056	1475.5
606.413	1504.2
606.771	1493.8
607.128	1503.29
607.485	1493.12
607.843	1506.01
608.2	1513.01
608.557	1506.23
608.914	1513.01
609.272	1536.06
609.629	1524.54
609.986	1528.83
610.343	1499
610.7	1530.64
611.057	1525.89
611.414	1541.03
611.771	1515.72
612.127	1526.12
612.484	1536.97
612.841	1538.55
613.198	1548.04
613.554	1524.76
613.911	1531.77
614.267	1523.63
614.624	1546
614.98	1546.91
615.337	1520.69
615.693	1579.22
616.05	1584.42
616.406	1556.63
616.762	1528.38
617.118	1529.96
617.475	1546.91
617.831	1543.07
618.187	1550.3
618.543	1541.48
618.899	1575.38
619.255	1577.87
619.611	1542.61
619.967	1558.21
620.323	1564.31
620.678	1525.21
621.034	1550.07
621.39	1535.84
621.746	1566.12
622.101	1590.98
622.457	1531.77
622.812	1584.87
623.168	1531.54
623.523	1559.56
623.879	1559.34
624.234	1551.88
624.589	1553.69
624.945	1586.68
625.3	1554.59
625.655	1547.36
626.01	1554.37
626.365	1541.71
626.72	1560.92
627.075	1541.71
627.43	1527.02
627.785	1544.87
628.14	1535.38
628.495	1548.72
628.85	1554.82
629.205	1552.11
629.559	1578.55
629.914	1538.77
630.269	1533.12
630.623	1527.47
630.978	1535.61
631.332	1533.35
631.687	1506.23
632.041	1527.25
632.396	1547.13
632.75	1541.94
633.104	1543.07
633.459	1543.52
633.813	1550.98
634.167	1552.33
634.521	1556.17
634.875	1533.58
635.229	1537.87
635.583	1545.1
635.937	1543.07
636.291	1530.41
636.645	1524.54
636.999	1543.07
637.352	1535.38
637.706	1502.16
638.06	1535.84
638.413	1510.53
638.767	1535.38
639.121	1514.82
639.474	1538.55
639.828	1505.33
640.181	1534.25
640.534	1515.95
640.888	1533.58
641.241	1504.2
641.594	1523.63
641.947	1491.77
642.301	1536.29
642.654	1499.45
643.007	1539.9
643.36	1518.43
643.713	1542.16
644.066	1534.25
644.419	1512.56
644.771	1510.53
645.124	1493.35
645.477	1499.45
645.83	1487.02
646.182	1483.86
646.535	1515.72
646.888	1499.45
647.24	1545.78
647.593	1531.99
647.945	1520.47
648.298	1513.24
648.65	1513.91
649.002	1513.01
649.355	1536.74
649.707	1537.42
650.059	1514.59
650.411	1550.52
650.763	1556.4
651.115	1570.41
651.467	1574.48
651.819	1549.62
652.171	1635.72
652.523	1585.55
652.875	1589.85
653.227	1582.84
653.578	1614.93
653.93	1603.63
654.282	1571.99
654.633	1598.43
654.985	1617.64
655.337	1619.9
655.688	1614.25
656.039	1628.94
656.391	1633.01
656.742	1609.73
657.094	1651.09
657.445	1659.67
657.796	1647.7
658.147	1667.13
658.498	1647.92
658.849	1656.74
659.2	1688.6
659.551	1690.86
659.902	1682.5
660.253	1744.87
660.604	1710.75
660.955	1707.58
661.306	1734.7
661.656	1701.93
662.007	1731.08
662.358	1734.93
662.708	1744.64
663.059	1764.08
663.409	1774.47
663.76	1738.32
664.11	1779.44
664.461	1799.33
664.811	1824.19
665.161	1816.51
665.511	1817.86
665.862	1814.02
666.212	1853.12
666.562	1859.89
666.912	1862.38
667.262	1881.59
667.612	1881.59
667.962	1889.05
668.312	1898.31
668.662	1939.21
669.011	1935.15
669.361	1980.34
669.711	1957.07
670.06	1955.49
670.41	1992.09
670.76	2022.15
671.109	2014.24
671.459	2032.55
671.808	2060.12
672.157	2035.71
672.507	2070.06
672.856	2083.17
673.205	2079.1
673.554	2122.71
673.904	2098.98
674.253	2141.92
674.602	2133.79
674.951	2122.94
675.3	2154.12
675.649	2187.57
675.998	2171.3
676.346	2205.42
676.695	2234.12
677.044	2248.36
677.393	2246.55
677.741	2304.18
678.09	2285.65
678.438	2312.31
678.787	2295.59
679.135	2319.77
679.484	2355.25
679.832	2366.77
680.181	2399.54
680.529	2399.99
680.877	2422.14
681.225	2442.25
681.573	2486.32
681.922	2457.84
682.27	2471.63
682.618	2495.36
682.966	2517.96
683.314	2529.71
683.661	2558.18
684.009	2568.35
684.357	2557.73
684.705	2598.18
685.053	2584.85
685.4	2619.65
685.748	2644.28
686.095	2669.59
686.443	2692.87
686.79	2691.29
687.138	2755.69
687.485	2732.41
687.832	2743.71
688.18	2762.47
688.527	2801.56
688.874	2802.47
689.221	2812.19
689.568	2861.45
689.915	2853.77
690.262	2892.18
690.609	2914.33
690.956	2915.46
691.303	2947.32
691.65	2962.01
691.997	2951.39
692.344	3005.85
692.69	2999.53
693.037	3045.85
693.383	3004.27
693.73	3077.26
694.077	3064.38
694.423	3081.56
694.769	3065.96
695.116	3112.52
695.462	3170.14
695.808	3180.09
696.155	3203.59
696.501	3164.27
696.847	3239.75
697.193	3201.55
697.539	3244.49
697.885	3218.05
698.231	3266.41
698.577	3270.25
698.923	3304.38
699.269	3326.3
699.614	3350.25
699.96	3291.5
700.306	3362.23
700.651	3350.93
700.997	3358.39
701.342	3398.39
701.688	3401.55
702.033	3449.01
702.379	3445.39
702.724	3447.42
703.069	3497.37
703.415	3488.55
703.76	3516.12
704.105	3515.9
704.45	3534.43
704.795	3534.65
705.14	3536.91
705.485	3543.92
705.83	3592.96
706.175	3566.06
706.52	3620.3
706.865	3594.31
707.209	3620.3
707.554	3668.43
707.899	3647.64
708.243	3667.08
708.588	3652.84
708.932	3646.97
709.277	3721.09
709.621	3692.39
709.966	3722.9
710.31	3752.05
710.654	3739.17
710.998	3761.99
711.342	3800.18
711.687	3783.91
712.031	3775.1
712.375	3797.02
712.719	3830.24
713.063	3819.17
713.407	3891.93
713.75	3875.89
714.094	3831.82
714.438	3848.54
714.782	3912.27
715.125	3928.77
715.469	3906.39
715.812	3928.77
716.156	3907.52
716.499	3897.58
716.843	3944.59
717.186	3942.33
717.53	4013.96
717.873	3982.1
718.216	3984.81
718.559	3945.49
718.902	3981.19
719.246	3996.79
719.589	3981.42
719.932	3991.36
720.275	4072.04
720.617	4057.58
720.96	4024.36
721.303	4070.46
721.646	4040.18
721.989	4057.35
722.331	4084.69
722.674	4075.66
723.016	4080.4
723.359	4095.09
723.701	4112.04
724.044	4073.85
724.386	4140.06
724.729	4096.22
725.071	4072.04
725.413	4121.08
725.755	4117.91
726.097	4132.15
726.439	4119.27
726.782	4145.71
727.124	4138.03
727.465	4103.68
727.807	4149.33
728.149	4183.22
728.491	4141.42
728.833	4150.68
729.175	4163.34
729.516	4184.35
729.858	4189.55
730.199	4205.82
730.541	4194.3
730.882	4174.86
731.224	4204.92
731.565	4174.64
731.906	4137.57
732.248	4239.04
732.589	4209.66
732.93	4151.36
733.271	4169.89
733.612	4166.27
733.953	4202.43
734.294	4211.25
734.635	4190.68
734.976	4135.77
735.317	4178.03
735.658	4197.01
735.999	4142.09
736.339	4182.09
736.68	4203.34
737.021	4209.66
737.361	4160.4
737.702	4193.39
738.042	4215.09
738.383	4196.78
738.723	4190.68
739.063	4251.47
739.404	4192.71
739.744	4247.85
740.084	4171.02
740.424	4237.46
740.764	4213.73
741.104	4213.28
741.444	4194.75
741.784	4160.63
742.124	4177.12
742.464	4197.23
742.804	4190
743.143	4170.79
743.483	4166.73
743.823	4159.5
744.162	4169.89
744.502	4125.82
744.841	4155.43
745.181	4168.08
745.52	4151.81
745.86	4154.75
746.199	4178.03
746.538	4164.69
746.877	4154.07
747.216	4197.69
747.556	4144.13
747.895	4155.88
748.234	4146.16
748.573	4091.93
748.911	4137.57
749.25	4118.14
749.589	4101.19
749.928	4125.37
750.267	4135.09
750.605	4081.31
750.944	4116.78
751.283	4104.58
751.621	4085.82
751.96	4064.36
752.298	4063.23
752.636	4113.85
752.975	4041.76
753.313	3989.78
753.651	4008.09
753.989	4076.56
754.327	4011.93
754.666	4006.05
755.004	4005.15
755.342	3967.41
755.679	4042.89
756.017	3981.65
756.355	4001.08
756.693	4022.1
757.031	4036.33
757.368	3996.79
757.706	3970.8
758.044	3976.9
758.381	3978.71
758.719	3949.56
759.056	3935.32
759.394	3964.7
759.731	3919.28
760.068	3903.68
760.405	3879.28
760.743	3832.5
761.08	3863.91
761.417	3853.97
761.754	3821.42
762.091	3883.57
762.428	3847.64
762.765	3814.87
763.102	3845.61
763.438	3862.1
763.775	3778.26
764.112	3777.13
764.449	3817.81
764.785	3790.92
765.122	3720.86
765.458	3779.62
765.795	3761.77
766.131	3763.57
766.467	3743.23
766.804	3706.63
767.14	3741.43
767.476	3711.15
767.812	3669.11
768.148	3712.05
768.485	3674.54
768.821	3629.34
769.157	3624.14
769.492	3656.23
769.828	3611.71
770.164	3613.75
770.5	3587.76
770.836	3585.5
771.171	3555.67
771.507	3562.22
771.842	3541.21
772.178	3585.95
772.513	3566.74
772.849	3566.74
