Data from carpet_green_FLMS001491_00100.txt Node
Date: Wed Feb 08 10:36:08 GMT 2017
User: dcchb
Spectrometer: FLMS00149
Trigger mode: 0
Integration Time (sec): 2.000000E-2
Scans to average: 10
Electric dark correction enabled: true
Nonlinearity correction enabled: false
Boxcar width: 0
XAxis mode: Wavelengths
Number of Pixels in Spectrum: 2048
>>>>>Begin Spectral Data<<<<<
341.393	-32.57
341.776	-32.57
342.16	-32.57
342.543	-69.86
342.927	-71.66
343.31	-77.54
343.693	-89.29
344.077	-54.26
344.46	-54.26
344.843	-44.77
345.226	-55.85
345.61	-46.35
345.993	-5.9
346.376	-9.29
346.759	9.24
347.142	35.9
347.525	56.02
347.908	58.5
348.291	73.87
348.674	102.34
349.057	101.66
349.44	140.31
349.823	117.48
350.206	159.29
350.588	169.01
350.971	187.76
351.354	185.73
351.737	197.93
352.119	228.67
352.502	230.7
352.884	227.99
353.267	245.16
353.65	258.27
354.032	269.57
354.414	292.39
354.797	297.37
355.179	275.67
355.562	303.47
355.944	299.85
356.326	286.07
356.709	306.4
357.091	297.59
357.473	297.59
357.855	318.61
358.238	288.1
358.62	322.45
359.002	303.01
359.384	311.15
359.766	309.34
360.148	297.82
360.53	324.71
360.912	294.88
361.294	293.52
361.676	290.36
362.057	305.5
362.439	304.14
362.821	294.43
363.203	291.72
363.584	280.42
363.966	303.01
364.348	288.55
364.729	288.33
365.111	272.73
365.493	277.93
365.874	287.65
366.256	276.57
366.637	290.59
367.019	275.22
367.4	274.09
367.781	267.99
368.163	286.07
368.544	278.61
368.925	265.28
369.306	292.85
369.688	275.9
370.069	283.81
370.45	283.58
370.831	266.86
371.212	273.86
371.593	263.24
371.974	291.26
372.355	280.64
372.736	272.51
373.117	291.72
373.498	278.83
373.879	265.95
374.26	297.59
374.641	275.9
375.021	272.96
375.402	276.35
375.783	293.98
376.163	291.49
376.544	275.67
376.925	262.56
377.305	288.33
377.686	286.07
378.066	276.12
378.447	282
378.827	291.72
379.208	293.75
379.588	275.67
379.968	302.34
380.349	286.52
380.729	295.11
381.109	310.7
381.489	285.61
381.87	296.91
382.25	284.94
382.63	305.95
383.01	299.4
383.39	271.83
383.77	294.2
384.15	282
384.53	292.39
384.91	308.89
385.29	302.11
385.67	306.86
386.049	316.35
386.429	288.78
386.809	305.5
387.189	297.14
387.568	303.69
387.948	306.4
388.328	300.3
388.707	299.17
389.087	296.91
389.466	296.24
389.846	311.38
390.225	302.34
390.605	293.3
390.984	308.21
391.363	308.89
391.743	296.91
392.122	286.97
392.501	293.98
392.881	306.63
393.26	279.51
393.639	311.6
394.018	310.47
394.397	309.79
394.776	290.81
395.155	314.99
395.534	305.73
395.913	297.82
396.292	314.99
396.671	302.79
397.05	331.71
397.429	306.86
397.808	295.56
398.186	302.79
398.565	302.34
398.944	305.27
399.323	310.47
399.701	300.3
400.08	313.18
400.458	305.5
400.837	329
401.215	338.72
401.594	330.13
401.972	313.18
402.351	320.64
402.729	313.18
403.107	306.4
403.486	313.64
403.864	331.26
404.242	330.13
404.62	338.49
404.999	323.35
405.377	327.19
405.755	326.29
406.133	331.71
406.511	316.35
406.889	313.18
407.267	326.52
407.645	309.12
408.023	338.27
408.401	307.99
408.779	328.55
409.156	311.15
409.534	338.27
409.912	322
410.29	335.78
410.667	329
411.045	348.66
411.422	319.96
411.8	339.62
412.178	318.16
412.555	312.51
412.933	330.36
413.31	348.66
413.687	324.71
414.065	342.56
414.442	346.86
414.819	354.31
415.197	332.62
415.574	337.82
415.951	332.62
416.328	348.21
416.705	353.86
417.082	343.01
417.46	341.66
417.837	343.47
418.214	382.56
418.591	338.72
418.967	323.35
419.344	341.21
419.721	337.14
420.098	348.66
420.475	342.79
420.852	370.36
421.228	347.31
421.605	342.34
421.982	354.31
422.358	352.5
422.735	370.13
423.111	355.44
423.488	352.5
423.864	353.41
424.241	378.72
424.617	346.4
424.994	350.92
425.37	358.83
425.746	362.22
426.123	376.91
426.499	352.73
426.875	379.85
427.251	354.09
427.627	359.96
428.003	375.78
428.379	353.86
428.756	394.31
429.132	349.12
429.507	384.14
429.883	401.32
430.259	412.84
430.635	392.5
431.011	373.07
431.387	374.88
431.763	380.53
432.138	390.47
432.514	377.14
432.89	375.33
433.265	395.22
433.641	387.76
434.016	402.22
434.392	402.45
434.767	398.38
435.143	410.36
435.518	400.19
435.894	415.78
436.269	408.55
436.644	399.74
437.02	427.98
437.395	412.62
437.77	421.66
438.145	414.65
438.52	413.97
438.895	433.63
439.271	385.27
439.646	432.05
440.021	428.21
440.395	434.08
440.77	409.9
441.145	425.5
441.52	425.5
441.895	450.36
442.27	433.63
442.645	409.45
443.019	439.96
443.394	438.83
443.769	448.32
444.143	467.98
444.518	446.51
444.892	445.16
445.267	443.8
445.641	432.05
446.016	455.78
446.39	453.07
446.764	443.8
447.139	448.1
447.513	466.4
447.887	455.1
448.262	457.36
448.636	453.75
449.01	468.66
449.384	459.62
449.758	470.47
450.132	488.32
450.506	464.14
450.88	472.05
451.254	485.38
451.628	472.5
452.002	485.38
452.376	483.57
452.75	498.04
453.123	492.61
453.497	473.86
453.871	492.61
454.244	500.98
454.618	495.55
454.992	499.39
455.365	507.53
455.739	491.48
456.112	499.39
456.486	508.21
456.859	524.7
457.232	528.77
457.606	515.66
457.979	529.22
458.352	529
458.725	541.88
459.099	523.12
459.472	527.64
459.845	550.24
460.218	554.76
460.591	538.26
460.964	551.14
461.337	567.19
461.71	575.55
462.083	556.79
462.456	570.13
462.829	595.21
463.201	591.59
463.574	599.96
463.947	578.04
464.32	596.57
464.692	605.83
465.065	584.14
465.438	611.03
465.81	618.49
466.183	603.35
466.555	624.36
466.928	652.61
467.3	623.46
467.672	629.56
468.045	656.9
468.417	641.31
468.789	679.5
469.161	657.58
469.534	651.48
469.906	639.73
470.278	672.27
470.65	707.07
471.022	695.32
471.394	686.51
471.766	665.72
472.138	690.12
472.51	701.42
472.882	709.11
473.253	728.77
473.625	733.06
473.997	757.92
474.369	749.1
474.74	752.72
475.112	756.79
475.484	778.03
475.855	767.18
476.227	778.93
476.598	806.5
476.97	808.76
477.341	798.37
477.713	820.97
478.084	844.24
478.455	853.96
478.827	855.99
479.198	864.13
479.569	869.33
479.94	885.6
480.311	906.39
480.682	894.86
481.053	918.82
481.424	913.17
481.795	955.88
482.166	930.12
482.537	953.17
482.908	977.8
483.279	973.73
483.65	1001.98
484.021	1009.21
484.391	1020.51
484.762	1048.98
485.133	1038.14
485.503	1059.38
485.874	1061.19
486.244	1046.5
486.615	1110.9
486.985	1110.68
487.356	1112.71
487.726	1128.98
488.097	1138.7
488.467	1165.82
488.837	1187.06
489.207	1200.17
489.578	1193.61
489.948	1212.14
490.318	1218.02
490.688	1223.67
491.058	1249.88
491.428	1276.1
491.798	1275.87
492.168	1275.19
492.538	1304.12
492.908	1294.85
493.278	1312.48
493.648	1309.77
494.017	1326.04
494.387	1326.72
494.757	1379.82
495.126	1373.27
495.496	1371.01
495.866	1374.4
496.235	1377.56
496.605	1398.13
496.974	1394.06
497.344	1423.21
497.713	1411.69
498.082	1432.02
498.452	1448.3
498.821	1469.54
499.19	1416.21
499.559	1437.9
499.928	1485.36
500.298	1481.97
500.667	1472.48
501.036	1501.4
501.405	1524.68
501.774	1503.89
502.143	1479.71
502.512	1526.94
502.88	1545.69
503.249	1531.46
503.618	1538.46
503.987	1566.94
504.356	1563.55
504.724	1550.21
505.093	1578.91
505.462	1575.98
505.83	1589.53
506.199	1610.78
506.567	1625.92
506.936	1611.23
507.304	1623.43
507.672	1651.45
508.041	1636.54
508.409	1664.79
508.777	1658.46
509.145	1646.26
509.514	1688.29
509.882	1682.41
510.25	1684
510.618	1696.65
510.986	1720.83
511.354	1741.17
511.722	1723.09
512.09	1723.32
512.458	1733.26
512.826	1779.36
513.193	1762.41
513.561	1742.07
513.929	1790.66
514.297	1756.99
514.664	1803.54
515.032	1788.85
515.4	1793.82
515.767	1826.59
516.135	1783.88
516.502	1798.57
516.869	1816.65
517.237	1821.62
517.604	1827.72
517.972	1841.73
518.339	1847.38
518.706	1882.18
519.073	1870.21
519.44	1904.33
519.808	1878.11
520.175	1905.23
520.542	1927.83
520.909	1914.72
521.276	1921.5
521.643	1954.95
522.009	1927.15
522.376	1958.79
522.743	1970.54
523.11	1946.14
523.477	1987.94
523.843	1985
524.21	2032.91
524.577	2022.74
524.943	2029.3
525.31	2027.26
525.676	2059.8
526.043	2034.95
526.409	2065
526.776	2043.53
527.142	2091.22
527.508	2067.71
527.874	2113.36
528.241	2113.59
528.607	2143.19
528.973	2135.51
529.339	2096.64
529.705	2112.91
530.071	2149.29
530.437	2142.51
530.803	2143.87
531.169	2136.86
531.535	2148.39
531.901	2190.2
532.267	2160.82
532.632	2189.74
532.998	2179.35
533.364	2156.98
533.73	2184.77
534.095	2188.61
534.461	2173.25
534.826	2192
535.192	2208.05
535.557	2218.22
535.923	2210.31
536.288	2214.83
536.653	2220.03
537.019	2206.47
537.384	2252.79
537.749	2228.16
538.114	2216.18
538.479	2233.81
538.845	2253.25
539.21	2192.23
539.575	2208.73
539.94	2242.4
540.305	2244.88
540.67	2265
541.034	2204.21
541.399	2249.63
541.764	2232.68
542.129	2279.91
542.494	2267.93
542.858	2266.13
543.223	2280.59
543.587	2254.15
543.952	2248.73
544.316	2305
544.681	2289.63
545.045	2256.86
545.41	2277.43
545.774	2289.63
546.138	2262.74
546.503	2309.06
546.867	2276.75
547.231	2308.61
547.595	2281.27
547.959	2292.34
548.324	2321.94
548.688	2264.09
549.052	2305.22
549.416	2298.89
549.779	2311.1
550.143	2319.68
550.507	2332.79
550.871	2314.94
551.235	2323.75
551.599	2306.58
551.962	2350.42
552.326	2323.07
552.689	2326.46
553.053	2315.39
553.417	2340.7
553.78	2369.17
554.143	2382.28
554.507	2340.25
554.87	2349.97
555.234	2385.67
555.597	2379.8
555.96	2347.71
556.323	2329.63
556.686	2360.59
557.05	2399.23
557.413	2368.72
557.776	2372.34
558.139	2397.65
558.502	2384.99
558.865	2377.08
559.228	2432.45
559.59	2412.11
559.953	2401.49
560.316	2429.51
560.679	2394.94
561.041	2434.03
561.404	2448.27
561.767	2460.7
562.129	2434.71
562.492	2460.02
562.854	2464.31
563.217	2428.16
563.579	2485.56
563.941	2496.18
564.304	2495.73
564.666	2485.1
565.028	2495.27
565.39	2476.52
565.753	2476.29
566.115	2513.58
566.477	2528.72
566.839	2495.5
567.201	2529.17
567.563	2516.52
567.925	2503.41
568.287	2532.11
568.648	2530.07
569.01	2569.4
569.372	2542.96
569.734	2512.67
570.095	2555.61
570.457	2559.45
570.819	2553.58
571.18	2570.53
571.542	2602.62
571.903	2579.11
572.265	2574.59
572.626	2601.03
572.987	2601.03
573.349	2555.61
573.71	2587.25
574.071	2543.41
574.432	2556.51
574.794	2613.01
575.155	2597.64
575.516	2544.54
575.877	2572.33
576.238	2575.5
576.599	2616.85
576.96	2559
577.32	2567.59
577.681	2565.1
578.042	2566.46
578.403	2611.2
578.763	2599.9
579.124	2592.9
579.485	2587.25
579.845	2590.41
580.206	2573.01
580.566	2548.38
580.927	2547.93
581.287	2582.95
581.648	2528.04
582.008	2586.8
582.368	2529.17
582.728	2557.64
583.089	2554.93
583.449	2553.35
583.809	2521.49
584.169	2537.76
584.529	2536.4
584.889	2527.14
585.249	2555.16
585.609	2537.53
585.969	2525.33
586.329	2537.98
586.688	2522.84
587.048	2514.93
587.408	2534.14
587.768	2525.56
588.127	2521.94
588.487	2518.78
588.846	2493.01
589.206	2504.76
589.565	2518.78
589.925	2529.62
590.284	2489.85
590.643	2511.77
591.003	2500.47
591.362	2524.88
591.721	2522.84
592.08	2466.35
592.44	2495.95
592.799	2504.09
593.158	2478.32
593.517	2519.91
593.876	2512
594.235	2488.04
594.593	2538.89
594.952	2487.59
595.311	2495.05
595.67	2507.48
596.029	2518.1
596.387	2483.07
596.746	2495.73
597.104	2526.01
597.463	2480.81
597.822	2514.71
598.18	2512.45
598.538	2516.29
598.897	2513.58
599.255	2510.41
599.613	2516.29
599.972	2531.66
600.33	2548.15
600.688	2489.62
601.046	2532.11
601.404	2522.39
601.762	2500.92
602.12	2524.43
602.478	2539.57
602.836	2534.14
603.194	2503.18
603.552	2522.62
603.91	2519.91
604.268	2566.46
604.625	2516.52
604.983	2512.22
605.341	2504.76
605.698	2542.73
606.056	2522.84
606.413	2544.76
606.771	2537.08
607.128	2525.78
607.485	2534.14
607.843	2561.71
608.2	2550.64
608.557	2615.04
608.914	2531.88
609.272	2606
609.629	2562.16
609.986	2596.51
610.343	2582.5
610.7	2585.44
611.057	2591.54
611.414	2575.5
611.771	2583.63
612.127	2629.06
612.484	2592.22
612.841	2612.33
613.198	2584.54
613.554	2579.79
613.911	2604.42
614.267	2604.88
614.624	2610.3
614.98	2604.88
615.337	2627.93
615.693	2619.79
616.05	2616.85
616.406	2635.83
616.762	2616.4
617.118	2677.64
617.475	2635.38
617.831	2652.11
618.187	2667.92
618.543	2634.7
618.899	2637.19
619.255	2667.25
619.611	2652.56
619.967	2648.49
620.323	2643.52
620.678	2634.25
621.034	2625.21
621.39	2646
621.746	2617.98
622.101	2694.14
622.457	2627.47
622.812	2629.96
623.168	2672.44
623.523	2651.65
623.879	2627.93
624.234	2631.09
624.589	2651.88
624.945	2644.2
625.3	2662.5
625.655	2659.79
626.01	2645.1
626.365	2668.6
626.72	2639.9
627.075	2656.4
627.43	2640.13
627.785	2641.26
628.14	2653.69
628.495	2615.27
628.85	2635.16
629.205	2602.62
629.559	2622.28
629.914	2636.51
630.269	2612.78
630.623	2614.82
630.978	2631.77
631.332	2627.47
631.687	2638.77
632.041	2634.7
632.396	2580.92
632.75	2608.72
633.104	2621.15
633.459	2623.86
633.813	2638.09
634.167	2619.34
634.521	2601.49
634.875	2593.35
635.229	2595.16
635.583	2599.68
635.937	2600.58
636.291	2587.47
636.645	2612.11
636.999	2595.61
637.352	2591.77
637.706	2570.3
638.06	2616.17
638.413	2589.51
638.767	2571.43
639.121	2580.47
639.474	2574.82
639.828	2605.78
640.181	2632.22
640.534	2623.86
640.888	2601.94
641.241	2597.87
641.594	2597.42
641.947	2593.8
642.301	2591.77
642.654	2610.07
643.007	2637.42
643.36	2582.95
643.713	2578.44
644.066	2610.07
644.419	2593.12
644.771	2617.76
645.124	2597.19
645.477	2580.47
645.83	2574.59
646.182	2562.62
646.535	2537.08
646.888	2547.7
647.24	2551.09
647.593	2568.94
647.945	2567.81
648.298	2561.03
648.65	2554.25
649.002	2559.9
649.355	2588.6
649.707	2581.15
650.059	2584.54
650.411	2641.71
650.763	2646.46
651.115	2706.12
651.467	2703.63
651.819	2706.12
652.171	2683.07
652.523	2681.94
652.875	2726.45
653.227	2715.38
653.578	2772.1
653.93	2745.89
654.282	2748.83
654.633	2728.26
654.985	2698.88
655.337	2757.19
655.688	2744.53
656.039	2804.42
656.391	2754.48
656.742	2784.31
657.094	2806.23
657.445	2820.01
657.796	2818.2
658.147	2811.42
658.498	2832.67
658.849	2892.1
659.2	2830.18
659.551	2882.16
659.902	2863.17
660.253	2874.47
660.604	2897.97
660.955	2909.5
661.306	2945.66
661.656	2916.51
662.007	2948.14
662.358	2940.91
662.708	2959.89
663.059	2955.6
663.409	2974.36
663.76	3059.55
664.11	3023.62
664.461	3033.11
664.811	3030.4
665.161	3070.63
665.511	3085.54
665.862	3111.53
666.212	3151.08
666.562	3155.82
666.912	3170.74
667.262	3168.93
667.612	3175.48
667.962	3246.44
668.312	3227.46
668.662	3223.62
669.011	3253.45
669.361	3273.11
669.711	3281.92
670.06	3301.35
670.41	3340
670.76	3355.59
671.109	3359.88
671.459	3393.1
671.808	3394.01
672.157	3422.71
672.507	3375.93
672.856	3420.9
673.205	3479.65
673.554	3504.74
673.904	3530.27
674.253	3539.54
674.602	3518.52
674.951	3513.33
675.3	3537.73
675.649	3599.65
675.998	3626.77
676.346	3645.75
676.695	3677.84
677.044	3641.91
677.393	3731.4
677.741	3750.38
678.09	3782.02
678.438	3800.55
678.787	3801.68
679.135	3831.96
679.484	3807.78
679.832	3843.49
680.181	3877.38
680.529	3934.11
680.877	3959.19
681.225	3954.22
681.573	4003.93
681.922	4017.27
682.27	4014.56
682.618	4028.11
682.966	4049.58
683.314	4077.38
683.661	4116.93
684.009	4140.88
684.357	4090.26
684.705	4131.16
685.053	4182.69
685.4	4176.81
685.748	4234.89
686.095	4254.32
686.443	4251.39
686.79	4313.3
687.138	4353.76
687.485	4344.94
687.832	4316.47
688.18	4395.11
688.527	4376.35
688.874	4416.13
689.221	4419.97
689.568	4456.13
689.915	4439.86
690.262	4530.7
690.609	4518.95
690.956	4534.09
691.303	4489.57
691.65	4563.02
691.997	4539.29
692.344	4623.35
692.69	4625.61
693.037	4660.87
693.383	4574.09
693.73	4701.09
694.077	4723.46
694.423	4720.98
694.769	4743.8
695.116	4751.49
695.462	4736.57
695.808	4773.41
696.155	4813.18
696.501	4781.99
696.847	4878.04
697.193	4845.27
697.539	4880.07
697.885	4840.97
698.231	4863.12
698.577	4867.41
698.923	4955.77
699.269	4922.1
699.614	4919.84
699.96	4933.18
700.306	4977.69
700.651	4995.09
700.997	5015.89
701.342	5043
701.688	5017.92
702.033	5048.43
702.379	5089.33
702.724	5069.67
703.069	5123.68
703.415	5064.47
703.76	5124.58
704.105	5138.14
704.45	5125.94
704.795	5134.3
705.14	5189.89
705.485	5176.78
705.83	5198.25
706.175	5212.94
706.52	5222.43
706.865	5262.43
707.209	5268.08
707.554	5262.66
707.899	5277.57
708.243	5191.47
708.588	5270.34
708.932	5317.57
709.277	5265.6
709.621	5286.16
709.966	5300.85
710.31	5360.51
710.654	5317.57
710.998	5338.14
711.342	5369.55
711.687	5377.46
712.031	5324.13
712.375	5326.61
712.719	5380.4
713.063	5414.74
713.407	5391.69
713.75	5384.24
714.094	5410
714.438	5411.35
714.782	5439.38
715.125	5428.98
715.469	5451.81
715.812	5420.17
716.156	5400.06
716.499	5465.36
716.843	5480.96
717.186	5457.91
717.53	5519.83
717.873	5501.3
718.216	5488.42
718.559	5516.89
718.902	5472.37
719.246	5513.27
719.589	5497.68
719.932	5517.11
720.275	5532.26
720.617	5547.17
720.96	5510.34
721.303	5507.4
721.646	5553.95
721.989	5473.95
722.331	5503.56
722.674	5543.78
723.016	5563.89
723.359	5557.57
723.701	5646.38
724.044	5554.18
724.386	5558.02
724.729	5566.83
725.071	5547.62
725.413	5569.99
725.755	5570.67
726.097	5531.35
726.439	5534.74
726.782	5561.41
727.124	5593.72
727.465	5537
727.807	5567.73
728.149	5558.47
728.491	5567.73
728.833	5587.17
729.175	5588.53
729.516	5573.38
729.858	5607.28
730.199	5529.09
730.541	5623.33
730.882	5547.17
731.224	5605.7
731.565	5566.15
731.906	5590.79
732.248	5565.93
732.589	5551.69
732.93	5560.73
733.271	5591.01
733.612	5569.54
733.953	5581.29
734.294	5602.76
734.635	5574.51
734.976	5583.55
735.317	5568.19
735.658	5542.88
735.999	5551.01
736.339	5556.89
736.68	5555.76
737.021	5565.7
737.361	5500.62
737.702	5565.25
738.042	5518.24
738.383	5486.38
738.723	5528.64
739.063	5490.22
739.404	5521.41
739.744	5499.04
740.084	5520.28
740.424	5507.85
740.764	5524.57
741.104	5478.02
741.444	5443.67
741.784	5480.51
742.124	5472.37
742.464	5515.31
742.804	5486.61
743.143	5437.57
743.483	5466.95
743.823	5467.85
744.162	5491.58
744.502	5433.73
744.841	5466.27
745.181	5461.52
745.52	5458.36
745.86	5418.81
746.199	5410
746.538	5437.57
746.877	5459.94
747.216	5421.52
747.556	5394.86
747.895	5427.63
748.234	5396.67
748.573	5384.91
748.911	5376.55
749.25	5372.26
749.589	5331.58
749.928	5323.45
750.267	5346.95
750.605	5329.55
750.944	5355.76
751.283	5280.51
751.621	5354.18
751.96	5316.67
752.298	5301.75
752.636	5309.44
752.975	5248.87
753.313	5225.6
753.651	5279.38
753.989	5317.35
754.327	5246.39
754.666	5186.05
755.004	5190.12
755.342	5224.02
755.679	5211.59
756.017	5197.58
756.355	5230.12
756.693	5170.01
757.031	5223.34
757.368	5182.43
757.706	5154.64
758.044	5131.81
758.381	5164.36
758.719	5158.25
759.056	5152.15
759.394	5129.55
759.731	5074.19
760.068	5103.57
760.405	5020.86
760.743	5025.15
761.08	5004.81
761.417	5046.84
761.754	5008.65
762.091	4952.84
762.428	4978.15
762.765	4938.82
763.102	4926.62
763.438	4976.79
763.775	4910.8
764.112	4959.39
764.449	4889.33
764.785	4899.96
765.122	4873.52
765.458	4905.38
765.795	4819.73
766.131	4823.35
766.467	4804.37
766.804	4824.25
767.14	4790.81
767.476	4795.55
767.812	4790.13
768.148	4782.44
768.485	4759.39
768.821	4698.38
769.157	4683.46
769.492	4758.72
769.828	4699.96
770.164	4669.91
770.5	4652.05
770.836	4674.65
771.171	4619.51
771.507	4619.29
771.842	4588.1
772.178	4604.6
772.513	4597.82
772.849	4561.43
