Data from carpet_green_FLMS001491_00023.txt Node
Date: Wed Feb 08 10:35:07 GMT 2017
User: dcchb
Spectrometer: FLMS00149
Trigger mode: 0
Integration Time (sec): 2.000000E-2
Scans to average: 10
Electric dark correction enabled: true
Nonlinearity correction enabled: false
Boxcar width: 0
XAxis mode: Wavelengths
Number of Pixels in Spectrum: 2048
>>>>>Begin Spectral Data<<<<<
341.393	-23.36
341.776	-23.36
342.16	-23.36
342.543	-51.38
342.927	-58.16
343.31	-78.5
343.693	-51.61
344.077	-62
344.46	-59.74
344.843	-61.33
345.226	-50.7
345.61	-40.31
345.993	-13.42
346.376	1.72
346.759	1.27
347.142	22.74
347.525	55.51
347.908	59.12
348.291	67.94
348.674	84.43
349.057	124.88
349.44	124.43
349.823	158.33
350.206	161.27
350.588	161.27
350.971	205.11
351.354	220.7
351.737	214.37
352.119	241.94
352.502	222.51
352.884	253.69
353.267	256.86
353.65	256.63
354.032	278.78
354.414	310.87
354.797	276.97
355.179	291.43
355.562	282.39
355.944	290.53
356.326	307.25
356.709	330.3
357.091	304.99
357.473	319.23
357.855	300.47
358.238	310.19
358.62	304.31
359.002	321.04
359.384	316.52
359.766	321.49
360.148	301.6
360.53	314.26
360.912	295.5
361.294	307.7
361.676	314.48
362.057	308.83
362.439	323.3
362.821	328.27
363.203	329.85
363.584	288.72
363.966	280.59
364.348	286.91
364.729	311.77
365.111	268.83
365.493	291.43
365.874	285.33
366.256	295.95
366.637	272.22
367.019	295.5
367.4	303.86
367.781	295.05
368.163	283.3
368.544	295.05
368.925	273.81
369.306	284.43
369.688	284.88
370.069	283.98
370.45	277.65
370.831	290.3
371.212	269.51
371.593	268.16
371.974	262.28
372.355	279.91
372.736	286.01
373.117	267.93
373.498	282.39
373.879	294.6
374.26	279.91
374.641	303.64
375.021	286.24
375.402	282.17
375.783	290.76
376.163	287.59
376.544	285.56
376.925	284.88
377.305	300.02
377.686	294.37
378.066	290.76
378.447	292.56
378.827	289.17
379.208	290.53
379.588	294.14
379.968	301.38
380.349	302.73
380.729	282.85
381.109	286.24
381.489	285.78
381.87	271.77
382.25	295.05
382.63	292.11
383.01	287.37
383.39	312
383.77	287.37
384.15	306.12
384.53	299.12
384.91	297.53
385.29	301.83
385.67	300.25
386.049	324.2
386.429	292.34
386.809	296.63
387.189	310.64
387.568	292.56
387.948	297.99
388.328	322.17
388.707	318.55
389.087	313.13
389.466	314.71
389.846	330.98
390.225	316.07
390.605	312.9
390.984	312.68
391.363	307.93
391.743	305.67
392.122	316.07
392.501	322.84
392.881	304.77
393.26	315.61
393.639	296.63
394.018	317.87
394.397	327.59
394.776	303.64
395.155	293.69
395.534	286.01
395.913	319.68
396.292	349.74
396.671	315.61
397.05	322.84
397.429	307.93
397.808	313.81
398.186	303.41
398.565	315.16
398.944	315.84
399.323	330.08
399.701	307.25
400.08	318.55
400.458	318.78
400.837	309.51
401.215	310.42
401.594	309.96
401.972	324.43
402.351	331.66
402.729	322.84
403.107	325.56
403.486	327.36
403.864	320.81
404.242	304.31
404.62	330.75
404.999	333.24
405.377	321.26
405.755	334.6
406.133	318.1
406.511	330.75
406.889	324.88
407.267	321.04
407.645	330.75
408.023	300.7
408.401	342.51
408.779	347.02
409.156	341.15
409.534	340.7
409.912	333.24
410.29	336.18
410.667	341.6
411.045	329.62
411.422	330.98
411.8	346.35
412.178	329.17
412.555	335.27
412.933	366.23
413.31	347.7
413.687	326.46
414.065	333.24
414.442	362.17
414.819	356.06
415.197	362.17
415.574	339.57
415.951	343.86
416.328	351.77
416.705	362.17
417.082	341.15
417.46	331.43
417.837	333.47
418.214	351.77
418.591	373.24
418.967	363.75
419.344	344.76
419.721	349.96
420.098	361.26
420.475	343.41
420.852	349.06
421.228	352.45
421.605	360.58
421.982	354.48
422.358	360.58
422.735	358.78
423.111	347.25
423.488	353.8
423.864	334.82
424.241	361.94
424.617	365.1
424.994	354.26
425.37	348.38
425.746	362.39
426.123	363.52
426.499	354.93
426.875	374.37
427.251	359.68
427.627	361.26
428.003	379.34
428.379	393.35
428.756	362.84
429.132	392.22
429.507	366.69
429.883	383.63
430.259	393.58
430.635	364.2
431.011	373.69
431.387	383.63
431.763	410.75
432.138	406.23
432.514	392.9
432.89	394.03
433.265	392.67
433.641	402.62
434.016	394.93
434.392	403.29
434.767	406.46
435.143	396.51
435.518	404.65
435.894	413.92
436.269	389.06
436.644	410.07
437.02	412.79
437.395	401.49
437.77	417.98
438.145	430.64
438.52	409.4
438.895	432.22
439.271	409.4
439.646	419.79
440.021	427.47
440.395	427.93
440.77	406.91
441.145	419.34
441.52	427.93
441.895	426.8
442.27	440.13
442.645	424.54
443.019	422.28
443.394	440.36
443.769	418.44
444.143	438.55
444.518	420.92
444.892	427.02
445.267	446.23
445.641	444.88
446.016	430.86
446.39	441.71
446.764	437.64
447.139	449.85
447.513	465.44
447.887	446.46
448.262	441.26
448.636	463.18
449.01	444.88
449.384	461.82
449.758	467.25
450.132	462.28
450.506	452.33
450.88	430.41
451.254	446.46
451.628	438.1
452.002	439
452.376	443.75
452.75	465.89
453.123	480.35
453.497	464.54
453.871	471.32
454.244	486.91
454.618	457.76
454.992	496.63
455.365	506.57
455.739	501.37
456.112	492.33
456.486	483.07
456.859	525.1
457.232	513.12
457.606	511.31
457.979	523.74
458.352	505.44
458.725	505.66
459.099	487.81
459.472	529.17
459.845	546.12
460.218	537.75
460.591	526.91
460.964	523.97
461.337	535.72
461.71	525.1
462.083	549.51
462.456	542.5
462.829	545.89
463.201	524.2
463.574	551.99
463.947	557.41
464.32	555.61
464.692	564.42
465.065	572.78
465.438	567.58
465.81	579.56
466.183	602.39
466.555	593.35
466.928	595.38
467.3	589.5
467.672	586.79
468.045	610.29
468.417	602.16
468.789	619.56
469.161	635.38
469.534	623.4
469.906	620.46
470.278	633.34
470.65	630.41
471.022	638.54
471.394	653.46
471.766	651.65
472.138	644.19
472.51	670.86
472.882	650.07
473.253	681.48
473.625	690.29
473.997	704.3
474.369	711.08
474.74	704.08
475.112	722.61
475.484	708.82
475.855	738.2
476.227	743.4
476.598	772.78
476.97	750.4
477.341	794.24
477.713	774.13
478.084	779.1
478.455	811.42
478.827	796.05
479.198	809.39
479.569	827.24
479.94	851.42
480.311	856.62
480.682	870.17
481.053	846.67
481.424	883.28
481.795	882.6
482.166	903.85
482.537	906.33
482.908	898.2
483.279	935.71
483.65	930.51
484.021	956.5
484.391	971.19
484.762	948.82
485.133	985.65
485.503	989.95
485.874	1003.73
486.244	1019.78
486.615	1018.19
486.985	1042.83
487.356	1051.64
487.726	1052.09
488.097	1072.66
488.467	1080.34
488.837	1063.39
489.207	1106.55
489.578	1117.17
489.948	1135.03
490.318	1102.94
490.688	1131.64
491.058	1151.3
491.428	1191.07
491.798	1197.4
492.168	1176.83
492.538	1208.25
492.908	1212.76
493.278	1241.69
493.648	1195.14
494.017	1223.61
494.387	1250.73
494.757	1238.98
495.126	1267
495.496	1302.25
495.866	1275.36
496.235	1302.03
496.605	1322.59
496.974	1323.72
497.344	1318.75
497.713	1303.16
498.082	1347
498.452	1358.52
498.821	1367.56
499.19	1380.67
499.559	1373.89
499.928	1384.06
500.298	1381.35
500.667	1358.52
501.036	1391.52
501.405	1408.47
501.774	1404.62
502.143	1406.88
502.512	1422.7
502.88	1435.81
503.249	1406.88
503.618	1444.85
503.987	1424.28
504.356	1422.93
504.724	1451.18
505.093	1467.9
505.462	1468.35
505.83	1438.52
506.199	1474.9
506.567	1487.79
506.936	1493.44
507.304	1520.1
507.672	1517.62
508.041	1505.64
508.409	1517.84
508.777	1520.78
509.145	1527.78
509.514	1548.35
509.882	1552.87
510.25	1548.35
510.618	1557.16
510.986	1552.42
511.354	1569.59
511.722	1592.64
512.09	1579.31
512.458	1590.16
512.826	1619.76
513.193	1605.52
513.561	1586.54
513.929	1642.81
514.297	1643.49
514.664	1644.62
515.032	1629.02
515.4	1636.03
515.767	1639.19
516.135	1645.52
516.502	1647.33
516.869	1657.72
517.237	1636.93
517.604	1661.57
517.972	1675.8
518.339	1661.11
518.706	1661.11
519.073	1682.58
519.44	1678.97
519.808	1663.37
520.175	1704.96
520.542	1715.35
520.909	1737.72
521.276	1729.59
521.643	1738.63
522.009	1753.09
522.376	1746.76
522.743	1735.24
523.11	1757.38
523.477	1770.49
523.843	1776.14
524.21	1773.2
524.577	1803.71
524.943	1788.34
525.31	1817.27
525.676	1798.06
526.043	1838.96
526.409	1819.75
526.776	1824.95
527.142	1822.24
527.508	1838.28
527.874	1849.81
528.241	1828.34
528.607	1856.36
528.973	1864.05
529.339	1848.68
529.705	1892.97
530.071	1879.19
530.437	1854.78
530.803	1863.6
531.169	1882.13
531.535	1896.59
531.901	1916.48
532.267	1900.88
532.632	1949.47
532.998	1899.07
533.364	1941.79
533.73	1901.56
534.095	1933.88
534.461	1903.37
534.826	1932.29
535.192	1910.83
535.557	1923.03
535.923	1936.14
536.288	1944.95
536.653	1956.93
537.019	1923.25
537.384	1933.42
537.749	1927.55
538.114	1933.2
538.479	1891.62
538.845	1937.49
539.21	1906.08
539.575	1961.22
539.94	1945.17
540.305	1984.27
540.67	1903.14
541.034	1915.57
541.399	1956.7
541.764	1929.81
542.129	1969.13
542.494	1948.79
542.858	1928.9
543.223	1929.36
543.587	1923.25
543.952	1939.53
544.316	1923.71
544.681	1944.72
545.045	1971.61
545.41	1976.59
545.774	1956.47
546.138	1928.45
546.503	1963.48
546.867	1964.16
547.231	1977.26
547.595	1943.82
547.959	1938.4
548.324	1944.72
548.688	1991.5
549.052	1977.49
549.416	1982.24
549.779	2010.26
550.143	1981.11
550.507	1989.69
550.871	1984.5
551.235	1955.12
551.599	2000.54
551.962	1981.56
552.326	1993.76
552.689	1978.85
553.053	1984.95
553.417	1993.08
553.78	1976.36
554.143	1984.27
554.507	2017.49
554.87	2016.59
555.234	2046.42
555.597	2019.98
555.96	2052.29
556.323	2027.88
556.686	2029.47
557.05	2021.33
557.413	2037.38
557.776	2018.62
558.139	2008
558.502	2057.04
558.865	2038.73
559.228	2031.73
559.59	2049.58
559.953	2047.09
560.316	2081.44
560.679	2036.92
561.041	2071.95
561.404	2057.49
561.767	2065.17
562.129	2047.55
562.492	2073.08
562.854	2078.5
563.217	2079.18
563.579	2091.84
563.941	2111.95
564.304	2089.8
564.666	2110.14
565.028	2098.62
565.39	2095.68
565.753	2090.26
566.115	2079.63
566.477	2080.09
566.839	2088.67
567.201	2134.77
567.563	2116.24
567.925	2136.58
568.287	2151.72
568.648	2122.8
569.01	2124.15
569.372	2135.9
569.734	2149.69
570.095	2156.69
570.457	2134.32
570.819	2177.26
571.18	2148.56
571.542	2161.89
571.903	2153.08
572.265	2181.33
572.626	2159.18
572.987	2162.34
573.349	2175.68
573.71	2164.83
574.071	2172.51
574.432	2170.93
574.794	2155.11
575.155	2129.12
575.516	2131.84
575.877	2177.03
576.238	2143.36
576.599	2190.82
576.96	2135.23
577.32	2133.64
577.681	2130.71
578.042	2153.98
578.403	2118.96
578.763	2141.78
579.124	2154.89
579.485	2189.24
579.845	2121.22
580.206	2132.06
580.566	2133.19
580.927	2138.84
581.287	2149.24
581.648	2124.38
582.008	2147.43
582.368	2108.56
582.728	2155.56
583.089	2151.72
583.449	2118.05
583.809	2136.58
584.169	2104.04
584.529	2076.02
584.889	2121.22
585.249	2095.91
585.609	2090.71
585.969	2097.26
586.329	2071.95
586.688	2104.04
587.048	2079.86
587.408	2081.44
587.768	2052.06
588.127	2065.17
588.487	2044.61
588.846	2065.4
589.206	2048.67
589.565	2022.23
589.925	2054.55
590.284	2033.76
590.643	2027.43
591.003	2048.45
591.362	2036.92
591.721	2066.75
592.08	2066.98
592.44	2036.92
592.799	2042.8
593.158	2069.01
593.517	2051.61
593.876	2039.64
594.235	2057.71
594.593	1984.27
594.952	2032.63
595.311	2003.03
595.67	2012.52
596.029	2037.6
596.387	2016.81
596.746	2048.9
597.104	2038.05
597.463	2021.78
597.822	2017.94
598.18	2024.72
598.538	1996.47
598.897	2007.32
599.255	2026.53
599.613	2030.6
599.972	2019.75
600.33	2022.91
600.688	2049.13
601.046	2068.34
601.404	2042.12
601.762	2046.42
602.12	2045.06
602.478	2055.91
602.836	2038.05
603.194	2040.09
603.552	2019.98
603.91	2049.58
604.268	2059.75
604.625	2025.4
604.983	2036.02
605.341	2017.04
605.698	2028.11
606.056	2061.56
606.413	2073.99
606.771	2038.96
607.128	2050.03
607.485	2079.63
607.843	2056.13
608.2	2059.97
608.557	2079.41
608.914	2066.53
609.272	2086.41
609.629	2092.97
609.986	2085.96
610.343	2078.73
610.7	2136.58
611.057	2096.58
611.414	2080.54
611.771	2071.95
612.127	2113.53
612.484	2103.36
612.841	2093.87
613.198	2092.29
613.554	2092.06
613.911	2115.79
614.267	2120.09
614.624	2119.18
614.98	2087.32
615.337	2104.94
615.693	2113.76
616.05	2104.27
616.406	2108.56
616.762	2109.24
617.118	2139.29
617.475	2094.32
617.831	2126.86
618.187	2122.35
618.543	2083.25
618.899	2125.28
619.255	2118.28
619.611	2132.74
619.967	2146.98
620.323	2174.1
620.678	2127.09
621.034	2130.93
621.39	2127.77
621.746	2098.62
622.101	2164.15
622.457	2128.67
622.812	2119.18
623.168	2151.5
623.523	2135.9
623.879	2120.31
624.234	2126.86
624.589	2108.79
624.945	2146.98
625.3	2116.7
625.655	2100.2
626.01	2132.97
626.365	2106.75
626.72	2085.51
627.075	2091.61
627.43	2082.35
627.785	2047.32
628.14	2132.06
628.495	2116.7
628.85	2118.05
629.205	2106.75
629.559	2123.25
629.914	2122.57
630.269	2110.14
630.623	2122.57
630.978	2102.01
631.332	2105.17
631.687	2112.18
632.041	2059.3
632.396	2093.42
632.75	2123.7
633.104	2090.93
633.459	2111.05
633.813	2091.61
634.167	2078.05
634.521	2102.68
634.875	2094.1
635.229	2084.83
635.583	2064.27
635.937	2073.76
636.291	2091.61
636.645	2095.91
636.999	2082.57
637.352	2104.04
637.706	2063.59
638.06	2093.19
638.413	2083.25
638.767	2089.58
639.121	2075.34
639.474	2090.71
639.828	2068.79
640.181	2076.24
640.534	2051.61
640.888	2079.86
641.241	2101.1
641.594	2111.05
641.947	2056.58
642.301	2065.62
642.654	2104.94
643.007	2101.55
643.36	2098.84
643.713	2083.93
644.066	2102.46
644.419	2117.37
644.771	2071.95
645.124	2071.05
645.477	2062.01
645.83	2084.61
646.182	2059.97
646.535	2060.65
646.888	2082.35
647.24	2073.76
647.593	2081.67
647.945	2035.12
648.298	2081.89
648.65	2096.36
649.002	2081.22
649.355	2092.29
649.707	2086.87
650.059	2106.75
650.411	2108.11
650.763	2106.3
651.115	2156.02
651.467	2156.02
651.819	2157.15
652.171	2191.04
652.523	2174.55
652.875	2215.68
653.227	2164.15
653.578	2182
653.93	2171.84
654.282	2213.64
654.633	2167.54
654.985	2247.77
655.337	2208.44
655.688	2204.38
656.039	2246.64
656.391	2231.95
656.742	2225.85
657.094	2239.86
657.445	2261.1
657.796	2280.31
658.147	2257.93
658.498	2275.11
658.849	2282.79
659.2	2300.87
659.551	2293.41
659.902	2293.87
660.253	2340.19
660.604	2329.12
660.955	2329.57
661.306	2382
661.656	2391.72
662.007	2370.25
662.358	2381.77
662.708	2424.71
663.059	2401.43
663.409	2404.15
663.76	2479.17
664.11	2529.11
664.461	2454.31
664.811	2483.01
665.161	2459.74
665.511	2485.05
665.862	2506.52
666.212	2558.94
666.562	2536.12
666.912	2560.75
667.262	2580.86
667.612	2586.29
667.962	2657.02
668.312	2618.6
668.662	2674.65
669.011	2644.14
669.361	2675.78
669.711	2722.1
670.06	2690.69
670.41	2743.8
670.76	2764.59
671.109	2775.66
671.459	2795.55
671.808	2796
672.157	2805.27
672.507	2877.35
672.856	2875.09
673.205	2911.03
673.554	2898.82
673.904	2908.09
674.253	2992.83
674.602	2995.54
674.951	2987.18
675.3	2960.74
675.649	3036.22
675.998	3073.96
676.346	3084.35
676.695	3092.49
677.044	3133.17
677.393	3123.9
677.741	3160.06
678.09	3166.16
678.438	3238.7
678.787	3206.16
679.135	3250.68
679.484	3276.89
679.832	3291.35
680.181	3301.98
680.529	3328.19
680.877	3354.4
681.225	3404.8
681.573	3427.17
681.922	3436.21
682.27	3461.07
682.618	3455.19
682.966	3479.6
683.314	3501.74
683.661	3512.59
684.009	3525.47
684.357	3559.37
684.705	3626.94
685.053	3629.88
685.4	3622.64
685.748	3662.64
686.095	3689.76
686.443	3703.77
686.79	3691.12
687.138	3748.29
687.485	3802.53
687.832	3804.79
688.18	3878.01
688.527	3834.16
688.874	3860.83
689.221	3897.21
689.568	3921.17
689.915	3920.94
690.262	4021.5
690.609	4008.4
690.956	3975.4
691.303	4022.86
691.65	4051.11
691.997	4087.27
692.344	4101.5
692.69	4115.97
693.037	4179.24
693.383	4115.51
693.73	4196.19
694.077	4190.31
694.423	4236.64
694.769	4234.61
695.116	4262.18
695.462	4321.84
695.808	4277.32
696.155	4356.86
696.501	4345.56
696.847	4389.63
697.193	4387.82
697.539	4428.73
697.885	4396.18
698.231	4403.87
698.577	4491.32
698.923	4464.43
699.269	4501.27
699.614	4532
699.96	4516.86
700.306	4532.45
700.651	4564.09
700.997	4572
701.342	4636.86
701.688	4631.43
702.033	4636.18
702.379	4669.17
702.724	4733.8
703.069	4704.2
703.415	4705.55
703.76	4748.49
704.105	4782.39
704.45	4785.55
704.795	4795.5
705.14	4835.95
705.485	4836.62
705.83	4846.57
706.175	4908.49
706.52	4854.02
706.865	4863.74
707.209	4895.15
707.554	4915.04
707.899	4948.49
708.243	4957.53
708.588	4989.16
708.932	4972.44
709.277	5019.9
709.621	5077.75
709.966	4996.62
710.31	5033.68
710.654	5047.24
710.998	5101.48
711.342	5101.93
711.687	5131.53
712.031	5082.72
712.375	5090.4
712.719	5158.88
713.063	5204.3
713.407	5229.61
713.75	5186.9
714.094	5199.55
714.438	5240.91
714.782	5253.34
715.125	5235.03
715.469	5235.26
715.812	5270.74
716.156	5280.23
716.499	5274.35
716.843	5312.77
717.186	5308.7
717.53	5318.87
717.873	5362.26
718.216	5353.22
718.559	5312.77
718.902	5292.43
719.246	5389.38
719.589	5348.7
719.932	5335.59
720.275	5400.68
720.617	5441.13
720.96	5372.43
721.303	5451.52
721.646	5421.02
721.989	5433.44
722.331	5474.57
722.674	5412.43
723.016	5445.42
723.359	5449.94
723.701	5473.22
724.044	5470.28
724.386	5474.12
724.729	5455.14
725.071	5491.07
725.413	5434.57
725.755	5467.12
726.097	5465.31
726.439	5487.91
726.782	5489.49
727.124	5522.26
727.465	5484.74
727.807	5512.54
728.149	5499.21
728.491	5493.78
728.833	5504.18
729.175	5543.05
729.516	5507.12
729.858	5497.62
730.199	5545.53
730.541	5588.69
730.882	5547.57
731.224	5567.9
731.565	5497.62
731.906	5555.25
732.248	5562.25
732.589	5517.51
732.93	5540.79
733.271	5564.29
733.612	5565.42
733.953	5595.7
734.294	5553.89
734.635	5563.61
734.976	5519.77
735.317	5498.53
735.658	5524.74
735.999	5512.54
736.339	5548.47
736.68	5530.17
737.021	5497.4
737.361	5548.02
737.702	5570.62
738.042	5505.99
738.383	5467.57
738.723	5529.94
739.063	5485.19
739.404	5569.03
739.744	5569.71
740.084	5527.45
740.424	5514.35
740.764	5519.09
741.104	5536.49
741.444	5516.83
741.784	5498.53
742.124	5540.11
742.464	5530.62
742.804	5466.66
743.143	5479.55
743.483	5509.37
743.823	5444.52
744.162	5487.68
744.502	5535.81
744.841	5505.76
745.181	5551.63
745.52	5490.84
745.86	5513.89
746.199	5501.69
746.538	5538.75
746.877	5494.69
747.216	5491.3
747.556	5473.44
747.895	5440.68
748.234	5423.5
748.573	5442.94
748.911	5411.07
749.25	5363.62
749.589	5404.07
749.928	5401.13
750.267	5451.3
750.605	5427.57
750.944	5381.92
751.283	5353.45
751.621	5362.94
751.96	5381.24
752.298	5298.53
752.636	5358.19
752.975	5312.54
753.313	5310.06
753.651	5349.15
753.989	5317.74
754.327	5313.9
754.666	5280.68
755.004	5255.6
755.342	5292.66
755.679	5293.79
756.017	5270.51
756.355	5248.36
756.693	5205.88
757.031	5267.57
757.368	5244.52
757.706	5204.3
758.044	5154.58
758.381	5159.33
758.719	5138.09
759.056	5196.61
759.394	5147.12
759.731	5113.68
760.068	5138.99
760.405	5080.46
760.743	5061.7
761.08	5052.44
761.417	5073.45
761.754	5080.23
762.091	5059.9
762.428	4992.55
762.765	5040.23
763.102	5026.68
763.438	4988.26
763.775	4987.81
764.112	5048.6
764.449	4961.82
764.785	4968.6
765.122	4921.59
765.458	4912.33
765.795	4895.83
766.131	4891.76
766.467	4886.11
766.804	4872.56
767.14	4830.52
767.476	4834.82
767.812	4850.18
768.148	4837.3
768.485	4774.7
768.821	4752.56
769.157	4809.73
769.492	4765.67
769.828	4779.9
770.164	4741.71
770.5	4708.72
770.836	4701.49
771.171	4703.07
771.507	4677.08
771.842	4649.51
772.178	4608.38
772.513	4670.98
