Data from carpet_green_FLMS001491_00024.txt Node
Date: Wed Feb 08 10:35:07 GMT 2017
User: dcchb
Spectrometer: FLMS00149
Trigger mode: 0
Integration Time (sec): 2.000000E-2
Scans to average: 10
Electric dark correction enabled: true
Nonlinearity correction enabled: false
Boxcar width: 0
XAxis mode: Wavelengths
Number of Pixels in Spectrum: 2048
>>>>>Begin Spectral Data<<<<<
341.393	-21.34
341.776	-21.34
342.16	-21.34
342.543	-63.37
342.927	-67.44
343.31	-72.19
343.693	-60.89
344.077	-72.87
344.46	-62.92
344.843	-46.2
345.226	-51.4
345.61	-32.64
345.993	-19.53
346.376	-6.43
346.759	5.78
347.142	33.8
347.525	40.35
347.908	65.66
348.291	92.78
348.674	73.57
349.057	113.12
349.44	113.34
349.823	143.17
350.206	152.21
350.588	175.72
350.971	186.56
351.354	191.08
351.737	204.42
352.119	208.94
352.502	224.08
352.884	240.57
353.267	239.22
353.65	262.27
354.032	266.56
354.414	278.76
354.797	273.57
355.179	275.15
355.562	285.09
355.944	304.75
356.326	316.95
356.709	316.5
357.091	297.07
357.473	317.18
357.855	298.88
358.238	298.65
358.62	302.94
359.002	309.95
359.384	291.87
359.766	315.37
360.148	314.24
360.53	289.39
360.912	304.53
361.294	290.06
361.676	326.22
362.057	274.02
362.439	297.07
362.821	284.87
363.203	293.68
363.584	293.23
363.966	295.94
364.348	294.13
364.729	289.39
365.111	275.37
365.493	283.28
365.874	292.1
366.256	275.15
366.637	287.13
367.019	284.87
367.4	297.07
367.781	268.37
368.163	275.83
368.544	269.5
368.925	264.07
369.306	278.76
369.688	273.57
370.069	286.22
370.45	283.06
370.831	272.66
371.212	289.84
371.593	283.96
371.974	281.7
372.355	291.64
372.736	282.38
373.117	272.66
373.498	268.59
373.879	268.82
374.26	270.18
374.641	282.61
375.021	295.26
375.402	284.64
375.783	285.77
376.163	284.87
376.544	286.45
376.925	271.98
377.305	264.07
377.686	276.73
378.066	289.61
378.447	272.44
378.827	288.03
379.208	269.27
379.588	275.15
379.968	278.31
380.349	287.35
380.729	264.3
381.109	297.97
381.489	284.19
381.87	264.75
382.25	281.02
382.63	318.76
383.01	261.14
383.39	303.85
383.77	304.07
384.15	296.84
384.53	282.38
384.91	299.1
385.29	293
385.67	292.32
386.049	282.15
386.429	319.89
386.809	304.3
387.189	312.66
387.568	298.2
387.948	301.81
388.328	272.66
388.707	272.44
389.087	308.59
389.466	295.26
389.846	279.22
390.225	316.28
390.605	307.92
390.984	310.18
391.363	300.01
391.743	307.01
392.122	303.4
392.501	292.32
392.881	304.75
393.26	314.02
393.639	316.05
394.018	303.62
394.397	308.82
394.776	298.42
395.155	323.73
395.534	310.63
395.913	322.15
396.292	295.71
396.671	311.98
397.05	298.2
397.429	317.18
397.808	311.76
398.186	321.7
398.565	316.73
398.944	302.27
399.323	297.97
399.701	328.93
400.08	320.34
400.458	308.59
400.837	309.05
401.215	338.88
401.594	303.85
401.972	317.41
402.351	318.31
402.729	324.64
403.107	309.95
403.486	308.37
403.864	320.8
404.242	333.23
404.62	330.74
404.999	322.6
405.377	317.63
405.755	325.99
406.133	321.47
406.511	326.22
406.889	312.21
407.267	332.1
407.645	320.57
408.023	323.06
408.401	314.92
408.779	330.97
409.156	343.85
409.534	312.21
409.912	325.09
410.29	333.68
410.667	313.34
411.045	334.36
411.422	314.7
411.8	346.11
412.178	332.77
412.555	336.84
412.933	333.23
413.31	321.25
413.687	323.73
414.065	335.03
414.442	347.69
414.819	360.12
415.197	341.81
415.574	364.41
415.951	351.3
416.328	335.26
416.705	362.83
417.082	339.78
417.46	351.98
417.837	351.53
418.214	354.69
418.591	343.62
418.967	348.14
419.344	349.95
419.721	341.59
420.098	344.52
420.475	348.59
420.852	353.79
421.228	352.21
421.605	368.48
421.982	359.67
422.358	381.36
422.735	359.44
423.111	367.12
423.488	368.25
423.864	350.63
424.241	356.73
424.617	343.62
424.994	331.42
425.37	369.83
425.746	359.67
426.123	377.29
426.499	340.68
426.875	346.33
427.251	372.09
427.627	378.42
428.003	368.03
428.379	368.25
428.756	375.03
429.132	369.16
429.507	360.12
429.883	365.54
430.259	375.03
430.635	386.56
431.011	368.25
431.387	376.16
431.763	392.66
432.138	389.27
432.514	399.44
432.89	374.35
433.265	391.98
433.641	402.15
434.016	371.19
434.392	399.66
434.767	404.64
435.143	387.01
435.518	399.21
435.894	403.73
436.269	399.44
436.644	403.73
437.02	391.08
437.395	409.16
437.77	401.7
438.145	422.04
438.52	406.22
438.895	389.72
439.271	404.41
439.646	390.17
440.021	410.51
440.395	422.26
440.77	396.5
441.145	431.75
441.52	422.49
441.895	428.36
442.27	429.27
442.645	413
443.019	418.2
443.394	424.3
443.769	440.57
444.143	413
444.518	434.92
444.892	438.31
445.267	431.53
445.641	438.99
446.016	454.35
446.39	418.65
446.764	444.41
447.139	454.8
447.513	445.09
447.887	433.11
448.262	434.24
448.636	439.44
449.01	451.41
449.384	470.85
449.758	441.7
450.132	464.3
450.506	468.36
450.88	441.47
451.254	453.9
451.628	479.44
452.002	468.14
452.376	448.02
452.75	478.31
453.123	455.03
453.497	471.75
453.871	472.66
454.244	458.87
454.618	481.47
454.992	478.53
455.365	493.9
455.739	495.03
456.112	490.28
456.486	504.97
456.859	490.06
457.232	494.13
457.606	494.8
457.979	491.64
458.352	493.22
458.725	495.03
459.099	512.2
459.472	513.79
459.845	505.88
460.218	530.96
460.591	524.18
460.964	543.84
461.337	522.83
461.71	536.16
462.083	547.46
462.456	544.75
462.829	525.31
463.201	560.34
463.574	543.84
463.947	544.52
464.32	550.85
464.692	542.94
465.065	555.37
465.438	570.96
465.81	579.09
466.183	558.76
466.555	584.29
466.928	587.23
467.3	572.77
467.672	602.6
468.045	588.81
468.417	627
468.789	601.02
469.161	612.31
469.534	620.9
469.906	610.73
470.278	636.72
470.65	618.87
471.022	647.57
471.394	668.13
471.766	654.8
472.138	650.96
472.51	682.82
472.882	674.23
473.253	651.64
473.625	683.5
473.997	686.89
474.369	705.19
474.74	689.37
475.112	706.32
475.484	693.67
475.855	725.53
476.227	730.5
476.598	744.29
476.97	733.22
477.341	756.49
477.713	782.93
478.084	757.62
478.455	779.09
478.827	809.6
479.198	829.94
479.569	818.64
479.94	805.98
480.311	848.01
480.682	846.21
481.053	882.14
481.424	853.89
481.795	848.92
482.166	889.82
482.537	882.82
482.908	905.64
483.279	937.73
483.65	924.85
484.021	948.12
484.391	946.54
484.762	972.08
485.133	984.73
485.503	965.53
485.874	987.67
486.244	1006.43
486.615	1011.85
486.985	1038.07
487.356	1044.85
487.726	1059.08
488.097	1062.92
488.467	1050.72
488.837	1074.68
489.207	1087.1
489.578	1119.87
489.948	1124.84
490.318	1137.5
490.688	1150.61
491.058	1145.86
491.428	1192.64
491.798	1198.51
492.168	1200.77
492.538	1200.55
492.908	1224.95
493.278	1222.02
493.648	1244.16
494.017	1236.7
494.387	1245.07
494.757	1257.95
495.126	1231.28
495.496	1256.37
495.866	1272.41
496.235	1294.78
496.605	1288.45
496.974	1310.38
497.344	1330.26
497.713	1341.33
498.082	1328.23
498.452	1346.08
498.821	1340.43
499.19	1362.8
499.559	1356.25
499.928	1384.27
500.298	1394.89
500.667	1397.6
501.036	1400.77
501.405	1377.94
501.774	1383.59
502.143	1396.93
502.512	1410.49
502.88	1410.26
503.249	1415.91
503.618	1433.99
503.987	1444.38
504.356	1442.8
504.724	1462.01
505.093	1462.46
505.462	1448.22
505.83	1463.37
506.199	1453.2
506.567	1466.98
506.936	1489.13
507.304	1501.1
507.672	1512.86
508.041	1513.99
508.409	1525.74
508.777	1494.78
509.145	1516.47
509.514	1547.66
509.882	1542.46
510.25	1526.87
510.618	1556.02
510.986	1547.88
511.354	1537.04
511.722	1574.1
512.09	1583.36
512.458	1572.52
512.826	1601.21
513.193	1606.64
513.561	1614.32
513.929	1648.67
514.297	1595.57
514.664	1608.22
515.032	1600.76
515.4	1627.88
515.767	1614.55
516.135	1657.71
516.502	1637.6
516.869	1673.08
517.237	1677.82
517.604	1651.16
517.972	1662.46
518.339	1690.25
518.706	1650.71
519.073	1671.27
519.44	1712.17
519.808	1658.16
520.175	1711.27
520.542	1718.95
520.909	1710.59
521.276	1714.88
521.643	1718.95
522.009	1720.53
522.376	1739.74
522.743	1753.75
523.11	1764.37
523.477	1746.07
523.843	1780.19
524.21	1780.65
524.577	1834.2
524.943	1780.42
525.31	1803.47
525.676	1793.75
526.043	1812.96
526.409	1865.39
526.776	1824.03
527.142	1832.4
527.508	1834.66
527.874	1850.93
528.241	1855.9
528.607	1865.16
528.973	1854.32
529.339	1883.24
529.705	1857.48
530.071	1842.56
530.437	1885.95
530.803	1851.15
531.169	1896.35
531.535	1876.46
531.901	1902
532.267	1905.39
532.632	1909.91
532.998	1927.31
533.364	1927.76
533.73	1920.98
534.095	1930.25
534.461	1925.73
534.826	1901.32
535.192	1948.32
535.557	1937.48
535.923	1925.5
536.288	1911.72
536.653	1925.5
537.019	1909.23
537.384	1906.07
537.749	1948.78
538.114	1921.66
538.479	1932.51
538.845	1925.73
539.21	1923.92
539.575	1935.22
539.94	1940.42
540.305	1946.06
540.67	1947.87
541.034	1912.62
541.399	1924.14
541.764	1924.14
542.129	1953.52
542.494	1952.17
542.858	1938.16
543.223	1967.31
543.587	1935.67
543.952	1948.1
544.316	1970.02
544.681	1917.36
545.045	1970.92
545.41	1939.06
545.774	1941.32
546.138	1937.7
546.503	1955.78
546.867	1956.01
547.231	1956.01
547.595	1937.03
547.959	1956.23
548.324	1932.51
548.688	1966.4
549.052	1965.73
549.416	1957.59
549.779	1989.23
550.143	1961.66
550.507	1985.39
550.871	1990.36
551.235	1991.04
551.599	1968.44
551.962	1987.65
552.326	1991.26
552.689	1983.35
553.053	1976.12
553.417	1977.02
553.78	2021.09
554.143	2012.73
554.507	1998.49
554.87	2001.43
555.234	2001.88
555.597	2019.96
555.96	2024.93
556.323	2030.13
556.686	2003.92
557.05	2021.54
557.413	2021.77
557.776	2023.12
558.139	2022.45
558.502	2039.4
558.865	2009.11
559.228	2061.77
559.59	2053.86
559.953	2032.84
560.316	2057.93
560.679	2059.96
561.041	2051.15
561.404	2065.61
561.767	2063.8
562.129	2099.28
562.492	2099.05
562.854	2100.41
563.217	2081.2
563.579	2073.29
563.941	2075.78
564.304	2073.29
564.666	2108.55
565.028	2098.15
565.39	2120.3
565.753	2084.59
566.115	2090.69
566.477	2090.24
566.839	2145.38
567.201	2140.41
567.563	2139.51
567.925	2119.85
568.287	2098.15
568.648	2119.39
569.01	2112.16
569.372	2160.75
569.734	2142.9
570.095	2137.02
570.457	2134.08
570.819	2161.2
571.18	2143.57
571.542	2122.33
571.903	2129.79
572.265	2158.71
572.626	2171.6
572.987	2148.77
573.349	2142.22
573.71	2156.23
574.071	2153.74
574.432	2137.92
574.794	2166.85
575.155	2169.34
575.516	2140.86
575.877	2159.17
576.238	2148.32
576.599	2160.07
576.96	2144.48
577.32	2123.46
577.681	2162.1
578.042	2150.81
578.403	2141.77
578.763	2140.18
579.124	2144.25
579.485	2087.53
579.845	2169.11
580.206	2130.69
580.566	2133.18
580.927	2130.47
581.287	2117.59
581.648	2146.74
582.008	2120.98
582.368	2171.37
582.728	2122.56
583.089	2107.64
583.449	2115.78
583.809	2130.01
584.169	2115.33
584.529	2084.14
584.889	2108.09
585.249	2093.41
585.609	2060.64
585.969	2100.64
586.329	2075.55
586.688	2077.81
587.048	2086.4
587.408	2015.67
587.768	2025.61
588.127	2061.77
588.487	2054.99
588.846	2085.95
589.206	2069.45
589.565	2048.21
589.925	2020.64
590.284	2034.65
590.643	2028.1
591.003	2062.45
591.362	2065.84
591.721	2064.25
592.08	2028.32
592.44	2011.15
592.799	2045.72
593.158	2040.75
593.517	2033.29
593.876	2020.41
594.235	2046.18
594.593	1983.58
594.952	2025.84
595.311	2038.04
595.67	2055.21
596.029	2035.33
596.387	2017.48
596.746	2025.38
597.104	2054.99
597.463	2014.31
597.822	2019.51
598.18	2019.74
598.538	2033.97
598.897	2001.43
599.255	2002.11
599.613	2026.51
599.972	2028.1
600.33	2012.96
600.688	2056.34
601.046	2045.72
601.404	2059.06
601.762	2050.47
602.12	2049.56
602.478	2045.05
602.836	2051.82
603.194	2034.2
603.552	2045.72
603.91	2033.75
604.268	2043.92
604.625	2031.03
604.983	2026.74
605.341	2010.24
605.698	2026.97
606.056	2010.24
606.413	2007.76
606.771	2062.67
607.128	2041.88
607.485	2048.89
607.843	2036.01
608.2	2057.7
608.557	2059.51
608.914	2066.29
609.272	2059.96
609.629	2044.59
609.986	2063.8
610.343	2092.5
610.7	2106.06
611.057	2114.65
611.414	2061.09
611.771	2072.16
612.127	2096.8
612.484	2102.22
612.841	2099.51
613.198	2105.38
613.554	2070.81
613.911	2101.31
614.267	2093.63
614.624	2092.95
614.98	2103.8
615.337	2126.4
615.693	2147.19
616.05	2099.73
616.406	2094.99
616.762	2134.53
617.118	2085.72
617.475	2117.36
617.831	2108.55
618.187	2130.01
618.543	2116.91
618.899	2097.25
619.255	2122.11
619.611	2107.87
619.967	2114.87
620.323	2124.59
620.678	2117.59
621.034	2131.82
621.39	2135.21
621.746	2115.1
622.101	2130.47
622.457	2126.85
622.812	2118.04
623.168	2138.83
623.523	2080.3
623.879	2149.45
624.234	2092.28
624.589	2125.49
624.945	2123.69
625.3	2127.53
625.655	2127.08
626.01	2100.18
626.365	2116.46
626.72	2104.25
627.075	2089.56
627.43	2120.52
627.785	2123.24
628.14	2131.14
628.495	2103.57
628.85	2117.59
629.205	2114.42
629.559	2122.56
629.914	2117.36
630.269	2089.56
630.623	2118.49
630.978	2094.08
631.332	2121.43
631.687	2108.55
632.041	2107.42
632.396	2116.46
632.75	2083.46
633.104	2108.32
633.459	2127.53
633.813	2084.37
634.167	2077.81
634.521	2075.55
634.875	2061.54
635.229	2078.94
635.583	2019.28
635.937	2066.29
636.291	2076.91
636.645	2050.24
636.999	2059.51
637.352	2047.76
637.706	2070.13
638.06	2072.16
638.413	2113.29
638.767	2058.38
639.121	2063.8
639.474	2073.97
639.828	2085.04
640.181	2056.34
640.534	2057.93
640.888	2073.07
641.241	2066.06
641.594	2106.51
641.947	2065.61
642.301	2101.99
642.654	2067.87
643.007	2068.77
643.36	2081.43
643.713	2057.93
644.066	2085.04
644.419	2081.43
644.771	2088.43
645.124	2092.73
645.477	2063.12
645.83	2050.02
646.182	2056.34
646.535	2063.58
646.888	2044.37
647.24	2064.48
647.593	2055.44
647.945	2041.2
648.298	2061.09
648.65	2058.83
649.002	2048.89
649.355	2071.49
649.707	2080.98
650.059	2095.44
650.411	2115.33
650.763	2120.52
651.115	2162.33
651.467	2129.56
651.819	2117.36
652.171	2181.54
652.523	2155.55
652.875	2138.15
653.227	2183.12
653.578	2182.44
653.93	2189.45
654.282	2188.77
654.633	2175.89
654.985	2223.12
655.337	2202.33
655.688	2204.14
656.039	2240.52
656.391	2200.3
656.742	2224.02
657.094	2234.42
657.445	2279.16
657.796	2256.56
658.147	2212.27
658.498	2264.02
658.849	2303.57
659.2	2290.69
659.551	2296.79
659.902	2317.81
660.253	2306.06
660.604	2330.69
660.955	2344.02
661.306	2348.09
661.656	2352.16
662.007	2349.9
662.358	2404.58
662.708	2400.97
663.059	2407.52
663.409	2400.52
663.76	2432.15
664.11	2442.1
664.461	2480.29
664.811	2497.69
665.161	2489.55
665.511	2518.25
665.862	2547.18
666.212	2550.12
666.562	2554.41
666.912	2549.66
667.262	2607.06
667.612	2579.95
667.962	2641.64
668.312	2621.75
668.662	2666.05
669.011	2640.74
669.361	2671.24
669.711	2720.28
670.06	2714.41
670.41	2727.51
670.76	2770.22
671.109	2779.94
671.459	2789.43
671.808	2821.3
672.157	2870.56
672.507	2825.59
672.856	2871.24
673.205	2876.21
673.554	2932.03
673.904	2886.15
674.253	2954.4
674.602	2972.7
674.951	2957.11
675.3	2955.98
675.649	3013.83
675.998	3081.63
676.346	3045.92
676.695	3111.68
677.044	3086.6
677.393	3126.15
677.741	3141.51
678.09	3151.68
678.438	3179.25
678.787	3209.31
679.135	3230.1
679.484	3283.88
679.832	3276.43
680.181	3288.85
680.529	3341.06
680.877	3350.55
681.225	3380.83
681.573	3435.74
681.922	3424.44
682.27	3438.91
682.618	3452.01
682.966	3467.61
683.314	3563.2
683.661	3528.62
684.009	3588.96
684.357	3542.63
684.705	3593.03
685.053	3623.99
685.4	3640.94
685.748	3616.08
686.095	3629.41
686.443	3706.47
686.79	3680.03
687.138	3750.54
687.485	3797.09
687.832	3772.46
688.18	3849.07
688.527	3834.38
688.874	3870.31
689.221	3852.68
689.568	3919.57
689.915	3948.5
690.262	3946.46
690.609	3993.24
690.956	4022.39
691.303	4037.08
691.65	4042.51
691.997	4094.03
692.344	4146.01
692.69	4130.19
693.037	4156.85
693.383	4113.24
693.73	4181.49
694.077	4196.85
694.423	4230.07
694.769	4204.99
695.116	4239.11
695.462	4306
695.808	4320.69
696.155	4333.12
696.501	4342.61
696.847	4336.51
697.193	4385.1
697.539	4403.85
697.885	4394.14
698.231	4431.87
698.577	4437.98
698.923	4505.77
699.269	4537.63
699.614	4503.51
699.96	4543.96
700.306	4561.14
700.651	4587.35
700.997	4598.42
701.342	4633.23
701.688	4673.45
702.033	4653.11
702.379	4689.95
702.724	4708.7
703.069	4736.5
703.415	4730.62
703.76	4751.41
704.105	4773.56
704.45	4788.48
704.795	4730.17
705.14	4842.49
705.485	4805.42
705.83	4826.21
706.175	4867.8
706.52	4860.79
706.865	4874.8
707.209	4929.49
707.554	4894.01
707.899	4999.09
708.243	4967.68
708.588	4980.34
708.932	4964.52
709.277	5028.7
709.621	5028.92
709.966	5039.99
710.31	5092.2
710.654	5048.58
710.998	5093.55
711.342	5077.06
711.687	5165.42
712.031	5129.26
712.375	5156.38
712.719	5162.48
713.063	5164.29
713.407	5191.86
713.75	5220.55
714.094	5164.29
714.438	5202.25
714.782	5253.32
715.125	5263.72
715.469	5227.33
715.812	5291.29
716.156	5248.58
716.499	5292.64
716.843	5324.96
717.186	5288.58
717.53	5311.85
717.873	5337.39
718.216	5364.96
718.559	5372.64
718.902	5387.1
719.246	5374.45
719.589	5369.7
719.932	5379.42
720.275	5366.31
720.617	5403.37
720.96	5404.28
721.303	5384.84
721.646	5453.77
721.989	5469.59
722.331	5449.93
722.674	5505.29
723.016	5475.69
723.359	5470.94
723.701	5483.82
724.044	5430.04
724.386	5493.32
724.729	5497.84
725.071	5455.35
725.413	5496.93
725.755	5472.75
726.097	5425.97
726.439	5475.01
726.782	5456.93
727.124	5537.16
727.465	5475.01
727.807	5501.23
728.149	5529.02
728.491	5542.35
728.833	5555.91
729.175	5499.19
729.516	5491.06
729.858	5498.06
730.199	5559.08
730.541	5569.25
730.882	5530.38
731.224	5564.27
731.565	5538.74
731.906	5551.62
732.248	5571.73
732.589	5512.07
732.93	5545.97
733.271	5540.32
733.612	5559.98
733.953	5586.42
734.294	5556.82
734.635	5568.57
734.976	5560.43
735.317	5547.78
735.658	5569.92
735.999	5527.44
736.339	5533.77
736.68	5541.9
737.021	5513.2
737.361	5561.34
737.702	5561.56
738.042	5552.75
738.383	5536.7
738.723	5547.1
739.063	5548
739.404	5564.95
739.744	5501.9
740.084	5502.13
740.424	5488.8
740.764	5514.56
741.104	5559.98
741.444	5526.31
741.784	5538.96
742.124	5502.13
742.464	5548
742.804	5499.42
743.143	5500.32
743.483	5485.41
743.823	5462.81
744.162	5538.74
744.502	5464.39
744.841	5523.82
745.181	5495.58
745.52	5421
745.86	5507.78
746.199	5457.38
746.538	5519.08
746.877	5487.89
747.216	5498.06
747.556	5443.6
747.895	5472.07
748.234	5429.36
748.573	5463.26
748.911	5435.69
749.25	5394.56
749.589	5394.56
749.928	5377.39
750.267	5395.69
750.605	5420.32
750.944	5429.59
751.283	5362.47
751.621	5407.67
751.96	5309.37
752.298	5374.22
752.636	5312.98
752.975	5324.51
753.313	5328.35
753.651	5337.84
753.989	5362.92
754.327	5282.47
754.666	5225.98
755.004	5311.4
755.342	5247.22
755.679	5278.86
756.017	5243.38
756.355	5268.69
756.693	5241.8
757.031	5251.74
757.368	5201.12
757.706	5205.87
758.044	5229.14
758.381	5186.88
758.719	5194.11
759.056	5135.59
759.394	5162.7
759.731	5151.86
760.068	5132.2
760.405	5132.65
760.743	5125.42
761.08	5055.59
761.417	5020.79
761.754	5063.04
762.091	5051.29
762.428	5075.02
762.765	5061.01
763.102	5041.58
763.438	4989.83
763.775	4970.84
764.112	5028.47
764.449	4980.34
764.785	4926.55
765.122	4944.18
765.458	4895.14
765.795	4909.38
766.131	4873.45
766.467	4883.84
766.804	4885.87
767.14	4879.55
767.476	4855.14
767.812	4791.87
768.148	4838.87
768.485	4757.52
768.821	4760.68
769.157	4778.98
769.492	4765.2
769.828	4774.92
770.164	4690.17
770.5	4702.83
770.836	4721.36
771.171	4653.11
771.507	4653.79
771.842	4656.95
772.178	4653.34
