Data from carpet_green_FLMS001491_00080.txt Node
Date: Wed Feb 08 10:35:51 GMT 2017
User: dcchb
Spectrometer: FLMS00149
Trigger mode: 0
Integration Time (sec): 2.000000E-2
Scans to average: 10
Electric dark correction enabled: true
Nonlinearity correction enabled: false
Boxcar width: 0
XAxis mode: Wavelengths
Number of Pixels in Spectrum: 2048
>>>>>Begin Spectral Data<<<<<
341.393	-16.51
341.776	-16.51
342.16	-16.51
342.543	-49.5
342.927	-68.03
343.31	-83.63
343.693	-91.09
344.077	-72.33
344.46	-29.39
344.843	-70.75
345.226	-33.46
345.61	-26
345.993	-15.61
346.376	-4.53
346.759	25.97
347.142	18.74
347.525	35.01
347.908	79.53
348.291	70.72
348.674	100.32
349.057	96.48
349.44	118.4
349.823	133.54
350.206	151.17
350.588	181.68
350.971	173.99
351.354	206.53
351.737	211.05
352.119	240.88
352.502	251.96
352.884	270.26
353.267	270.71
353.65	255.35
354.032	270.49
354.414	266.65
354.797	280.2
355.179	274.33
355.562	303.71
355.944	297.61
356.326	286.31
356.709	319.07
357.091	311.16
357.473	324.27
357.855	313.88
358.238	312.97
358.62	310.03
359.002	303.71
359.384	317.04
359.766	319.75
360.148	312.29
360.53	297.38
360.912	281.79
361.294	315.01
361.676	311.39
362.057	311.16
362.439	290.37
362.821	305.06
363.203	303.25
363.584	287.21
363.966	282.01
364.348	275.46
364.729	309.36
365.111	306.42
365.493	269.81
365.874	294.22
366.256	312.97
366.637	279.75
367.019	289.02
367.4	285.85
367.781	281.11
368.163	267.78
368.544	268
368.925	265.52
369.306	293.76
369.688	282.46
370.069	278.4
370.45	288.34
370.831	275.46
371.212	275.23
371.593	289.47
371.974	261.67
372.355	281.56
372.736	275.46
373.117	274.33
373.498	302.8
373.879	274.55
374.26	294.44
374.641	297.15
375.021	281.11
375.402	303.48
375.783	299.64
376.163	288.79
376.544	296.02
376.925	267.78
377.305	286.31
377.686	309.81
378.066	302.8
378.447	289.92
378.827	286.08
379.208	275.46
379.588	292.41
379.968	301.22
380.349	305.74
380.729	299.19
381.109	279.75
381.489	296.02
381.87	279.3
382.25	279.75
382.63	290.37
383.01	285.85
383.39	311.16
383.77	302.35
384.15	301.67
384.53	293.76
384.91	298.06
385.29	310.26
385.67	296.7
386.049	298.96
386.429	280.43
386.809	282.46
387.189	292.63
387.568	318.85
387.948	298.96
388.328	298.96
388.707	324.95
389.087	296.48
389.466	306.64
389.846	301.22
390.225	335.34
390.605	319.07
390.984	316.59
391.363	306.19
391.743	321.11
392.122	295.35
392.501	304.61
392.881	326.08
393.26	320.66
393.639	311.84
394.018	325.63
394.397	308.23
394.776	331.28
395.155	327.43
395.534	316.36
395.913	301.9
396.292	319.3
396.671	303.25
397.05	319.3
397.429	286.31
397.808	308.23
398.186	335.57
398.565	308.23
398.944	329.69
399.323	337.6
399.701	314.78
400.08	291.28
400.458	312.75
400.837	311.62
401.215	317.27
401.594	329.92
401.972	330.82
402.351	327.21
402.729	315.68
403.107	336.25
403.486	320.43
403.864	326.76
404.242	306.87
404.62	314.55
404.999	324.5
405.377	340.09
405.755	336.7
406.133	331.73
406.511	335.34
406.889	348.68
407.267	329.24
407.645	333.31
408.023	315.23
408.401	324.95
408.779	332.18
409.156	358.39
409.534	343.25
409.912	306.42
410.29	339.64
410.667	306.42
411.045	357.26
411.422	336.25
411.8	345.74
412.178	337.38
412.555	336.7
412.933	345.74
413.31	333.99
413.687	335.57
414.065	352.97
414.442	349.36
414.819	368.11
415.197	353.65
415.574	332.41
415.951	350.94
416.328	353.87
416.705	363.59
417.082	341.45
417.46	347.32
417.837	345.97
418.214	368.34
418.591	355.46
418.967	367.66
419.344	358.62
419.721	343.71
420.098	380.09
420.475	364.72
420.852	348.9
421.228	378.73
421.605	363.14
421.982	364.04
422.358	384.16
422.735	352.07
423.111	375.57
423.488	373.08
423.864	387.55
424.241	366.98
424.617	384.38
424.994	378.73
425.37	381.9
425.746	367.21
426.123	375.12
426.499	367.21
426.875	371.5
427.251	378.73
427.627	380.31
428.003	374.21
428.379	403.82
428.756	390.71
429.132	385.74
429.507	381.44
429.883	392.97
430.259	387.55
430.635	393.65
431.011	382.12
431.387	390.71
431.763	408.79
432.138	412.86
432.514	405.4
432.89	418.51
433.265	406.08
433.641	397.72
434.016	416.25
434.392	406.3
434.767	413.31
435.143	411.5
435.518	413.53
435.894	415.79
436.269	434.32
436.644	439.52
437.02	422.12
437.395	410.14
437.77	424.16
438.145	422.12
438.52	432.52
438.895	461.44
439.271	433.42
439.646	461.44
440.021	444.49
440.395	432.52
440.77	429.58
441.145	441.78
441.52	432.97
441.895	460.99
442.27	452.4
442.645	455.79
443.019	445.85
443.394	446.3
443.769	451.95
444.143	460.31
444.518	459.41
444.892	445.4
445.267	464.61
445.641	465.28
446.016	465.96
446.39	470.93
446.764	460.76
447.139	448.56
447.513	470.93
447.887	480.88
448.262	473.42
448.636	471.84
449.01	461.67
449.384	477.71
449.758	459.63
450.132	485.17
450.506	486.98
450.88	498.73
451.254	493.31
451.628	493.76
452.002	510.48
452.376	499.41
452.75	487.66
453.123	506.87
453.497	501.44
453.871	511.16
454.244	518.62
454.618	508.9
454.992	515.23
455.365	498.28
455.739	519.29
456.112	516.81
456.486	522.46
456.859	542.34
457.232	538.5
457.606	544.38
457.979	550.93
458.352	542.8
458.725	532.18
459.099	552.97
459.472	550.48
459.845	569.01
460.218	582.12
460.591	580.08
460.964	557.94
461.337	589.35
461.71	582.34
462.083	575.34
462.456	559.97
462.829	597.26
463.201	574.89
463.574	589.35
463.947	641.32
464.32	608.56
464.692	620.76
465.065	636.35
465.438	595.22
465.81	624.38
466.183	629.12
466.555	667.31
466.928	642.68
467.3	633.42
467.672	644.04
468.045	675.45
468.417	672.28
468.789	677.71
469.161	673.64
469.534	656.24
469.906	693.3
470.278	695.79
470.65	699.63
471.022	711.83
471.394	705.96
471.766	738.95
472.138	702.11
472.51	716.58
472.882	757.71
473.253	727.65
473.625	763.58
473.997	762.9
474.369	749.8
474.74	797.48
475.112	784.37
475.484	800.64
475.855	795.67
476.227	805.16
476.598	818.95
476.97	813.75
477.341	852.39
477.713	841.32
478.084	884.26
478.455	876.8
478.827	891.26
479.198	892.17
479.569	929.9
479.94	926.06
480.311	914.09
480.682	948.89
481.053	950.24
481.424	941.2
481.795	969
482.166	993.18
482.537	989.34
482.908	991.15
483.279	1028.43
483.65	1019.85
484.021	1053.07
484.391	1034.99
484.762	1074.53
485.133	1081.99
485.503	1112.05
485.874	1109.34
486.244	1092.84
486.615	1155.66
486.985	1151.82
487.356	1184.81
487.726	1183.91
488.097	1193.63
488.467	1212.38
488.837	1213.51
489.207	1214.19
489.578	1222.55
489.948	1286.05
490.318	1272.27
490.688	1286.51
491.058	1291.25
491.428	1306.17
491.798	1296
492.168	1336.9
492.538	1298.26
492.908	1377.12
493.278	1338.26
493.648	1365.6
494.017	1370.35
494.387	1387.97
494.757	1414.86
495.126	1400.18
495.496	1396.79
495.866	1446.95
496.235	1424.36
496.605	1425.49
496.974	1432.94
497.344	1493.96
497.713	1482.21
498.082	1500.74
498.452	1496.67
498.821	1504.35
499.19	1525.14
499.559	1533.96
499.928	1512.26
500.298	1547.06
500.667	1526.05
501.036	1526.5
501.405	1558.36
501.774	1579.15
502.143	1539.38
502.512	1579.61
502.88	1581.41
503.249	1611.69
503.618	1608.76
503.987	1629.32
504.356	1607.4
504.724	1646.27
505.093	1624.35
505.462	1623.9
505.83	1636.33
506.199	1691.24
506.567	1655.54
506.936	1674.07
507.304	1675.87
507.672	1700.96
508.041	1702.77
508.409	1714.97
508.777	1704.57
509.145	1724.01
509.514	1734.63
509.882	1735.31
510.25	1771.46
510.618	1763.1
510.986	1782.09
511.354	1782.54
511.722	1785.02
512.09	1782.99
512.458	1774.63
512.826	1777.11
513.193	1816.44
513.561	1799.03
513.929	1804.23
514.297	1830.9
514.664	1869.77
515.032	1851.91
515.4	1869.32
515.767	1888.98
516.135	1900.73
516.502	1863.21
516.869	1921.74
517.237	1893.72
517.604	1870.9
517.972	1930.33
518.339	1919.94
518.706	1933.04
519.073	1931.91
519.44	1938.24
519.808	1956.77
520.175	1975.08
520.542	2015.07
520.909	1978.46
521.276	1985.47
521.643	1993.61
522.009	2010.33
522.376	2025.24
522.743	2003.77
523.11	2038.58
523.477	2043.77
523.843	2065.24
524.21	2071.34
524.577	2106.82
524.943	2104.56
525.31	2100.95
525.676	2094.85
526.043	2140.95
526.409	2142.75
526.776	2162.87
527.142	2153.38
527.508	2166.03
527.874	2168.74
528.241	2139.82
528.607	2158.57
528.973	2211.45
529.339	2190.66
529.705	2181.4
530.071	2244.67
530.437	2206.48
530.803	2255.52
531.169	2219.81
531.535	2225.46
531.901	2252.13
532.267	2270.43
532.632	2283.99
532.998	2273.37
533.364	2297.1
533.73	2278.12
534.095	2268.63
534.461	2288.97
534.826	2318.34
535.192	2305.69
535.557	2301.17
535.923	2287.38
536.288	2259.36
536.653	2307.04
537.019	2324.67
537.384	2287.61
537.749	2299.36
538.114	2343.65
538.479	2306.37
538.845	2346.14
539.21	2332.13
539.575	2323.54
539.94	2311.11
540.305	2328.51
540.67	2306.14
541.034	2356.08
541.399	2336.2
541.764	2346.59
542.129	2354.95
542.494	2331.22
542.858	2389.98
543.223	2387.72
543.587	2379.13
543.952	2366.7
544.316	2334.16
544.681	2342.52
545.045	2351.79
545.41	2415.52
545.774	2387.27
546.138	2385.91
546.503	2396.08
546.867	2384.78
547.231	2392.92
547.595	2387.27
547.959	2386.14
548.324	2383.2
548.688	2401.96
549.052	2421.39
549.416	2416.65
549.779	2364.9
550.143	2416.42
550.507	2403.09
550.871	2429.75
551.235	2425.01
551.599	2443.31
551.962	2394.73
552.326	2437.21
552.689	2406.7
553.053	2429.3
553.417	2389.53
553.78	2460.49
554.143	2459.36
554.507	2455.97
554.87	2469.75
555.234	2459.36
555.597	2470.66
555.96	2489.41
556.323	2465.23
556.686	2477.89
557.05	2485.34
557.413	2483.54
557.776	2466.81
558.139	2535.51
558.502	2488.06
558.865	2513.14
559.228	2524.21
559.59	2514.72
559.953	2503.2
560.316	2533.7
560.679	2513.82
561.041	2548.39
561.404	2571.44
561.767	2562.63
562.129	2558.79
562.492	2582.97
562.854	2570.09
563.217	2573.03
563.579	2593.59
563.941	2601.73
564.304	2615.51
564.666	2586.58
565.028	2634.04
565.39	2605.79
565.753	2642.85
566.115	2652.57
566.477	2606.47
566.839	2644.66
567.201	2665.68
567.563	2650.76
567.925	2651.67
568.287	2667.03
568.648	2675.62
569.01	2661.61
569.372	2702.06
569.734	2681.95
570.095	2663.87
570.457	2729.63
570.819	2679.01
571.18	2669.52
571.542	2667.71
571.903	2687.37
572.265	2707.71
572.626	2709.29
572.987	2692.12
573.349	2716.52
573.71	2731.44
574.071	2700.03
574.432	2697.99
574.794	2738.44
575.155	2742.96
575.516	2682.4
575.877	2705.23
576.238	2732.57
576.599	2737.09
576.96	2697.32
577.32	2728.28
577.681	2701.38
578.042	2724.89
578.403	2711.33
578.763	2724.66
579.124	2699.35
579.485	2713.13
579.845	2691.67
580.206	2691.21
580.566	2693.25
580.927	2712.91
581.287	2726.92
581.648	2705.9
582.008	2700.71
582.368	2677.88
582.728	2688.05
583.089	2678.33
583.449	2632.91
583.809	2665
584.169	2680.14
584.529	2666.58
584.889	2674.04
585.249	2706.13
585.609	2642.63
585.969	2700.03
586.329	2649.18
586.688	2690.76
587.048	2675.4
587.408	2658
587.768	2649.41
588.127	2649.41
588.487	2653.93
588.846	2657.54
589.206	2627.26
589.565	2659.35
589.925	2660.25
590.284	2649.18
590.643	2687.15
591.003	2671.78
591.362	2606.7
591.721	2661.61
592.08	2634.94
592.44	2628.84
592.799	2599.24
593.158	2619.35
593.517	2627.71
593.876	2626.13
594.235	2601.05
594.593	2639.69
594.952	2634.72
595.311	2650.54
595.67	2631.1
596.029	2648.73
596.387	2661.16
596.746	2648.05
597.104	2640.37
597.463	2648.5
597.822	2610.09
598.18	2631.1
598.538	2622.97
598.897	2662.74
599.255	2610.99
599.613	2640.14
599.972	2660.03
600.33	2629.97
600.688	2608.28
601.046	2655.51
601.404	2660.48
601.762	2669.97
602.12	2669.97
602.478	2693.93
602.836	2669.29
603.194	2623.42
603.552	2648.5
603.91	2687.82
604.268	2658.67
604.625	2634.27
604.983	2715.62
605.341	2666.13
605.698	2644.44
606.056	2676.3
606.413	2685.79
606.771	2679.92
607.128	2664.1
607.485	2668.39
607.843	2676.07
608.2	2690.99
608.557	2708.84
608.914	2694.6
609.272	2684.44
609.629	2683.98
609.986	2733.93
610.343	2698.67
610.7	2714.26
611.057	2706.81
611.414	2712.91
611.771	2738.44
612.127	2728.95
612.484	2740.03
612.841	2755.39
613.198	2715.17
613.554	2777.54
613.911	2740.25
614.267	2765.79
614.624	2739.12
614.98	2727.6
615.337	2766.69
615.693	2753.13
616.05	2790.65
616.406	2786.13
616.762	2775.96
617.118	2730.08
617.475	2774.6
617.831	2802.62
618.187	2779.8
618.543	2785
618.899	2764.21
619.255	2800.59
619.611	2751.78
619.967	2759.69
620.323	2770.99
620.678	2779.35
621.034	2768.5
621.39	2780.93
621.746	2769.86
622.101	2773.7
622.457	2773.25
622.812	2759.69
623.168	2791.32
623.523	2772.79
623.879	2808.73
624.234	2786.81
624.589	2775.73
624.945	2782.74
625.3	2768.05
625.655	2785.9
626.01	2802.62
626.365	2799.01
626.72	2771.44
627.075	2759.69
627.43	2763.98
627.785	2743.87
628.14	2795.17
628.495	2731.67
628.85	2770.76
629.205	2709.07
629.559	2737.54
629.914	2740.48
630.269	2798.56
630.623	2736.86
630.978	2688.73
631.332	2756.98
631.687	2740.03
632.041	2728.05
632.396	2762.63
632.75	2755.85
633.104	2765.34
633.459	2714.72
633.813	2704.1
634.167	2735.06
634.521	2709.97
634.875	2715.39
635.229	2769.4
635.583	2741.16
635.937	2736.41
636.291	2709.29
636.645	2696.19
636.999	2705.23
637.352	2772.34
637.706	2712.68
638.06	2728.95
638.413	2681.27
638.767	2717.88
639.121	2747.48
639.474	2719.46
639.828	2700.48
640.181	2728.28
640.534	2736.19
640.888	2701.16
641.241	2728.05
641.594	2719.69
641.947	2685.56
642.301	2692.12
642.654	2739.8
643.007	2732.12
643.36	2686.47
643.713	2759.46
644.066	2756.98
644.419	2723.3
644.771	2704.1
645.124	2696.19
645.477	2725.11
645.83	2715.62
646.182	2692.57
646.535	2689.41
646.888	2723.08
647.24	2698.45
647.593	2766.24
647.945	2730.54
648.298	2684.21
648.65	2715.62
649.002	2704.32
649.355	2738.22
649.707	2711.1
650.059	2729.63
650.411	2759.91
650.763	2769.63
651.115	2818.67
651.467	2801.95
651.819	2827.93
652.171	2844.43
652.523	2809.63
652.875	2826.35
653.227	2834.26
653.578	2812.34
653.93	2857.31
654.282	2898.44
654.633	2864.32
654.985	2874.49
655.337	2883.98
655.688	2934.82
656.039	2930.76
656.391	2884.43
656.742	2942.28
657.094	2916.75
657.445	2966.69
657.796	2957.2
658.147	2982.05
658.498	2999.91
658.849	3003.3
659.2	2979.34
659.551	2994.71
659.902	3030.41
660.253	3036.29
660.604	3037.87
660.955	3009.85
661.306	3032.67
661.656	3058.21
662.007	3085.55
662.358	3085.55
662.708	3086.91
663.059	3142.5
663.409	3126.68
663.76	3146.34
664.11	3191.31
664.461	3174.82
664.811	3165.55
665.161	3181.37
665.511	3248.71
665.862	3247.58
666.212	3238.54
666.562	3269.96
666.912	3265.89
667.262	3314.93
667.612	3352.67
667.962	3344.53
668.312	3334.81
668.662	3376.39
669.011	3388.37
669.361	3434.02
669.711	3420.23
670.06	3452.55
670.41	3502.04
670.76	3479.22
671.109	3529.84
671.459	3494.36
671.808	3525.77
672.157	3543.62
672.507	3564.86
672.856	3551.98
673.205	3603.28
673.554	3624.07
673.904	3633.56
674.253	3640.57
674.602	3698.19
674.951	3645.99
675.3	3664.52
675.649	3746.78
675.998	3740
676.346	3797.63
676.695	3824.07
677.044	3828.81
677.393	3834.46
677.741	3881.92
678.09	3851.41
678.438	3875.82
678.787	3913.1
679.135	3954.23
679.484	3971.86
679.832	3995.14
680.181	3999.88
680.529	4041.01
680.877	4061.8
681.225	4099.31
681.573	4108.58
681.922	4109.93
682.27	4126.88
682.618	4162.36
682.966	4149.93
683.314	4207.11
683.661	4234.45
684.009	4260.89
684.357	4233.09
684.705	4285.3
685.053	4322.81
685.4	4321.23
685.748	4330.27
686.095	4390.6
686.443	4431.96
686.79	4432.64
687.138	4435.8
687.485	4442.13
687.832	4488.91
688.18	4466.76
688.527	4481
688.874	4521
689.221	4553.76
689.568	4545.63
689.915	4557.61
690.262	4605.51
690.609	4641.45
690.956	4608.45
691.303	4644.16
691.65	4622.01
691.997	4657.72
692.344	4685.29
692.69	4704.49
693.037	4752.86
693.383	4727.32
693.73	4785.85
694.077	4790.82
694.423	4835.34
694.769	4861.78
695.116	4832.63
695.462	4857.94
695.808	4876.02
696.155	4923.7
696.501	4882.57
696.847	4952.4
697.193	4985.62
697.539	4956.69
697.885	5025.62
698.231	4970.25
698.577	5056.8
698.923	4991.72
699.269	5045.28
699.614	5073.75
699.96	5062.9
700.306	5131.83
700.651	5116.46
700.997	5132.51
701.342	5178.61
701.688	5165.05
702.033	5165.5
702.379	5175.89
702.724	5213.63
703.069	5282.11
703.415	5219.06
703.76	5249.79
704.105	5248.89
704.45	5228.77
704.795	5279.85
705.14	5286.63
705.485	5279.4
705.83	5337.25
706.175	5306.74
706.52	5372.5
706.865	5352.16
707.209	5395.78
707.554	5411.14
707.899	5437.36
708.243	5430.13
708.588	5431.71
708.932	5420.18
709.277	5501.54
709.621	5470.12
709.966	5470.12
710.31	5542.66
710.654	5460.18
710.998	5581.08
711.342	5518.48
711.687	5583.34
712.031	5583.79
712.375	5544.47
712.719	5592.38
713.063	5620.63
713.407	5645.94
713.75	5628.09
714.094	5659.95
714.438	5618.37
714.782	5652.72
715.125	5678.71
715.469	5690.46
715.812	5681.19
716.156	5659.27
716.499	5682.55
716.843	5704.69
717.186	5713.73
717.53	5699.5
717.873	5812.71
718.216	5761.64
718.559	5789.89
718.902	5704.92
719.246	5746.5
719.589	5736.78
719.932	5732.94
720.275	5781.08
720.617	5788.99
720.96	5791.25
721.303	5832.15
721.646	5805.93
721.989	5777.46
722.331	5852.71
722.674	5879.83
723.016	5840.06
723.359	5818.14
723.701	5871.47
724.044	5831.02
724.386	5806.84
724.729	5850.91
725.071	5868.53
725.413	5852.04
725.755	5902.66
726.097	5873.28
726.439	5853.17
726.782	5900.62
727.124	5924.12
727.465	5908.08
727.807	5918.25
728.149	5902.88
728.491	5915.76
728.833	5902.2
729.175	5883
729.516	5859.04
729.858	5905.14
730.199	5864.46
730.541	5904.69
730.882	5897.46
731.224	5959.38
731.565	5890.9
731.906	5880.51
732.248	5965.25
732.589	5931.13
732.93	5916.21
733.271	5901.98
733.612	5906.05
733.953	5923.67
734.294	5905.59
734.635	5942.65
734.976	5935.87
735.317	5896.78
735.658	5884.58
735.999	5905.82
736.339	5911.92
736.68	5908.53
737.021	5888.87
737.361	5935.87
737.702	5885.93
738.042	5887.74
738.383	5879.61
738.723	5923.45
739.063	5890.23
739.404	5905.59
739.744	5858.81
740.084	5845.71
740.424	5877.8
740.764	5862.43
741.104	5892.94
741.444	5843.22
741.784	5904.01
742.124	5816.78
742.464	5794.64
742.804	5818.36
743.143	5824.24
743.483	5858.59
743.823	5818.36
744.162	5805.03
744.502	5835.09
744.841	5762.09
745.181	5814.97
745.52	5770.46
745.86	5803.9
746.199	5779.27
746.538	5834.63
746.877	5802.55
747.216	5795.09
747.556	5755.54
747.895	5772.72
748.234	5736.33
748.573	5770.46
748.911	5749.21
749.25	5744.92
749.589	5761.42
749.928	5751.47
750.267	5736.56
750.605	5732.04
750.944	5686.84
751.283	5638.26
751.621	5666.05
751.96	5718.25
752.298	5664.7
752.636	5679.84
752.975	5618.82
753.313	5603.68
753.651	5670.35
753.989	5615.21
754.327	5598.93
754.666	5579.95
755.004	5617.92
755.342	5602.1
755.679	5591.25
756.017	5589.44
756.355	5598.93
756.693	5532.95
757.031	5550.12
757.368	5500.41
757.706	5488.43
758.044	5466.96
758.381	5537.92
758.719	5493.4
759.056	5440.29
759.394	5450.01
759.731	5448.66
760.068	5397.58
760.405	5374.76
760.743	5372.5
761.08	5420.86
761.417	5404.14
761.754	5333.86
762.091	5361.2
762.428	5371.6
762.765	5326.4
763.102	5367.98
763.438	5295.67
763.775	5281.2
764.112	5261.77
764.449	5263.58
764.785	5180.87
765.122	5229
765.458	5192.17
765.795	5160.98
766.131	5163.24
766.467	5121.21
766.804	5158.04
767.14	5074.2
767.476	5144.94
767.812	5054.99
768.148	5111.49
768.485	5072.17
768.821	5051.15
769.157	4998.05
769.492	5026.29
769.828	5030.81
770.164	4951.49
770.5	4972.51
770.836	4937.26
771.171	4918.73
771.507	4956.24
771.842	4880.31
772.178	4912.4
