Data from carpet_green_FLMS001491_00035.txt Node
Date: Wed Feb 08 10:35:16 GMT 2017
User: dcchb
Spectrometer: FLMS00149
Trigger mode: 0
Integration Time (sec): 2.000000E-2
Scans to average: 10
Electric dark correction enabled: true
Nonlinearity correction enabled: false
Boxcar width: 0
XAxis mode: Wavelengths
Number of Pixels in Spectrum: 2048
>>>>>Begin Spectral Data<<<<<
341.393	-8.98
341.776	-8.98
342.16	-8.98
342.543	-57.57
342.927	-61.18
343.31	-66.61
343.693	-72.94
344.077	-59.15
344.46	-87.4
344.843	-74.07
345.226	-21.19
345.61	-37.91
345.993	-11.02
346.376	6.38
346.759	14.97
347.142	37.12
347.525	48.64
347.908	51.13
348.291	77.12
348.674	92.26
349.057	102.65
349.44	102.65
349.823	126.38
350.206	160.96
350.588	174.52
350.971	180.62
351.354	202.09
351.737	226.72
352.119	207.06
352.502	235.3
352.884	240.95
353.267	235.3
353.65	272.14
354.032	272.37
354.414	283.66
354.797	269.88
355.179	292.03
355.562	317.56
355.944	304.46
356.326	301.52
356.709	326.6
357.091	311.69
357.473	329.09
357.855	298.58
358.238	313.04
358.62	315.08
359.002	311.01
359.384	304.68
359.766	298.35
360.148	311.69
360.53	334.28
360.912	309.88
361.294	321.18
361.676	313.04
362.057	301.74
362.439	302.65
362.821	319.6
363.203	294.74
363.584	296.32
363.966	304.23
364.348	314.85
364.729	287.05
365.111	301.07
365.493	289.31
365.874	295.64
366.256	286.6
366.637	281.18
367.019	294.29
367.4	274.17
367.781	258.81
368.163	309.65
368.544	311.69
368.925	276.43
369.306	283.66
369.688	282.53
370.069	266.72
370.45	294.74
370.831	270.33
371.212	283.66
371.593	299.48
371.974	273.95
372.355	264.46
372.736	279.15
373.117	280.95
373.498	265.36
373.879	283.21
374.26	292.93
374.641	284.79
375.021	278.02
375.402	274.85
375.783	291.8
376.163	271.46
376.544	249.09
376.925	297.45
377.305	287.05
377.686	276.43
378.066	286.83
378.447	270.11
378.827	294.06
379.208	303.78
379.588	290.44
379.968	284.12
380.349	313.27
380.729	305.36
381.109	285.25
381.489	289.99
381.87	280.73
382.25	303.33
382.63	298.13
383.01	271.24
383.39	304
383.77	263.55
384.15	298.58
384.53	288.18
384.91	294.29
385.29	305.81
385.67	298.13
386.049	295.87
386.429	305.81
386.809	300.39
387.189	291.12
387.568	299.48
387.948	303.78
388.328	285.7
388.707	287.05
389.087	282.99
389.466	294.96
389.846	318.92
390.225	332.03
390.605	282.99
390.984	326.38
391.363	291.12
391.743	310.78
392.122	304.91
392.501	304
392.881	303.78
393.26	301.07
393.639	301.97
394.018	313.72
394.397	298.13
394.776	314.62
395.155	309.2
395.534	289.09
395.913	308.75
396.292	318.92
396.671	305.59
397.05	321.63
397.429	334.06
397.808	308.97
398.186	310.33
398.565	298.58
398.944	293.61
399.323	308.97
399.701	293.16
400.08	313.49
400.458	308.07
400.837	308.07
401.215	321.63
401.594	324.79
401.972	306.72
402.351	329.99
402.729	310.33
403.107	313.27
403.486	310.56
403.864	323.66
404.242	311.91
404.62	323.44
404.999	307.17
405.377	307.17
405.755	343.32
406.133	325.25
406.511	319.14
406.889	337.45
407.267	314.17
407.645	320.95
408.023	325.02
408.401	330.44
408.779	317.79
409.156	327.28
409.534	326.83
409.912	351.69
410.29	329.99
410.667	315.75
411.045	332.7
411.422	336.09
411.8	344.45
412.178	355.08
412.555	312.36
412.933	312.59
413.31	332.03
413.687	332.93
414.065	349.88
414.442	332.25
414.819	318.01
415.197	316.88
415.574	337
415.951	349.88
416.328	355.08
416.705	334.06
417.082	338.58
417.46	325.47
417.837	338.13
418.214	333.16
418.591	340.84
418.967	344.68
419.344	360.27
419.721	323.89
420.098	339.71
420.475	347.39
420.852	330.22
421.228	345.13
421.605	339.48
421.982	349.65
422.358	332.03
422.735	334.28
423.111	350.78
423.488	351.69
423.864	332.03
424.241	357.79
424.617	332.93
424.994	347.39
425.37	319.6
425.746	364.11
426.123	349.88
426.499	348.07
426.875	374.28
427.251	346.04
427.627	359.37
428.003	351.91
428.379	343.55
428.756	354.17
429.132	362.53
429.507	351.23
429.883	360.05
430.259	356.66
430.635	353.04
431.011	363.21
431.387	374.51
431.763	367.73
432.138	365.24
432.514	372.7
432.89	359.6
433.265	354.85
433.641	360.95
434.016	352.14
434.392	374.51
434.767	376.09
435.143	380.39
435.518	363.21
435.894	380.61
436.269	380.84
436.644	373.61
437.02	371.8
437.395	373.61
437.77	403.66
438.145	371.12
438.52	378.8
438.895	384.68
439.271	388.75
439.646	374.96
440.021	384.91
440.395	364.57
440.77	387.39
441.145	402.76
441.52	386.94
441.895	378.8
442.27	390.78
442.645	389.42
443.019	397.11
443.394	394.85
443.769	377.45
444.143	394.62
444.518	398.24
444.892	394.17
445.267	408.41
445.641	388.29
446.016	381.29
446.39	415.19
446.764	405.7
447.139	415.86
447.513	390.55
447.887	400.72
448.262	409.76
448.636	412.48
449.01	411.12
449.384	421.06
449.758	426.49
450.132	424.45
450.506	416.09
450.88	396.2
451.254	435.98
451.628	413.6
452.002	405.24
452.376	407.5
452.75	401.63
453.123	419.48
453.497	423.77
453.871	423.55
454.244	415.19
454.618	441.17
454.992	426.94
455.365	453.6
455.739	453.15
456.112	445.69
456.486	446.82
456.859	419.71
457.232	461.51
457.606	445.24
457.979	456.09
458.352	457.67
458.725	444.34
459.099	462.87
459.472	482.98
459.845	454.96
460.218	452.02
460.591	463.32
460.964	456.32
461.337	467.61
461.71	466.03
462.083	481.63
462.456	476.65
462.829	465.35
463.201	477.56
463.574	471.46
463.947	471.23
464.32	470.78
464.692	504.9
465.065	504
465.438	476.43
465.81	496.09
466.183	479.82
466.555	510.1
466.928	507.16
467.3	508.52
467.672	499.48
468.045	510.55
468.417	520.72
468.789	512.36
469.161	508.07
469.534	513.72
469.906	528.4
470.278	538.8
470.65	530.21
471.022	567.05
471.394	544.22
471.766	551.23
472.138	556.43
472.51	554.17
472.882	541.06
473.253	555.75
473.625	586.48
473.997	573.37
474.369	585.58
474.74	573.83
475.112	594.62
475.484	580.61
475.855	586.93
476.227	620.38
476.598	603.88
476.97	614.05
477.341	616.31
477.713	628.51
478.084	624.9
478.455	631.9
478.827	642.98
479.198	664.67
479.569	650.43
479.94	657.89
480.311	668.74
480.682	684.78
481.053	665.58
481.424	693.6
481.795	688.63
482.166	712.13
482.537	706.93
482.908	718.23
483.279	706.93
483.65	750.77
484.021	738.57
484.391	749.87
484.762	741.05
485.133	741.28
485.503	756.19
485.874	749.19
486.244	774.27
486.615	801.17
486.985	779.7
487.356	797.32
487.726	799.58
488.097	811.79
488.467	821.73
488.837	834.38
489.207	874.16
489.578	889.52
489.948	868.96
490.318	884.55
490.688	877.1
491.058	896.98
491.428	891.56
491.798	896.3
492.168	894.04
492.538	903.08
492.908	919.58
493.278	914.83
493.648	932.01
494.017	941.05
494.387	946.47
494.757	921.84
495.126	943.53
495.496	961.39
495.866	966.58
496.235	952.35
496.605	987.6
496.974	971.33
497.344	983.99
497.713	986.25
498.082	987.83
498.452	983.99
498.821	1000.48
499.19	1004.78
499.559	1026.7
499.928	1018.11
500.298	1010.43
500.667	1013.59
501.036	1028.5
501.405	1040.48
501.774	1043.64
502.143	1061.5
502.512	1047.71
502.88	1052.46
503.249	1064.21
503.618	1067.15
503.987	1059.01
504.356	1080.03
504.724	1067.15
505.093	1089.07
505.462	1077.54
505.83	1084.77
506.199	1081.38
506.567	1082.97
506.936	1105.34
507.304	1101.72
507.672	1097.2
508.041	1113.25
508.409	1123.87
508.777	1107.82
509.145	1130.87
509.514	1108.5
509.882	1141.04
510.25	1126.35
510.618	1125.9
510.986	1161.38
511.354	1166.13
511.722	1155.28
512.09	1169.07
512.458	1151.66
512.826	1175.17
513.193	1178.56
513.561	1160.93
513.929	1174.26
514.297	1194.6
514.664	1177.43
515.032	1179.46
515.4	1204.09
515.767	1202.06
516.135	1209.29
516.502	1187.37
516.869	1219.23
517.237	1189.18
517.604	1204.54
517.972	1210.19
518.339	1230.76
518.706	1220.14
519.073	1225.79
519.44	1249.29
519.808	1242.06
520.175	1217.65
520.542	1253.36
520.909	1282.73
521.276	1237.54
521.643	1263.98
522.009	1268.72
522.376	1256.75
522.743	1264.88
523.11	1282.51
523.477	1299.46
523.843	1268.5
524.21	1309.85
524.577	1334.71
524.943	1291.77
525.31	1277.09
525.676	1306.69
526.043	1327.48
526.409	1311.66
526.776	1321.38
527.142	1330.87
527.508	1337.42
527.874	1364.77
528.241	1346.91
528.607	1331.09
528.973	1351.89
529.339	1334.71
529.705	1379.68
530.071	1369.06
530.437	1344.43
530.803	1384.43
531.169	1365.67
531.535	1356.18
531.901	1360.47
532.267	1363.41
532.632	1379
532.998	1377.87
533.364	1385.56
533.73	1379.46
534.095	1370.87
534.461	1415.39
534.826	1372.45
535.192	1392.79
535.557	1401.6
535.923	1407.93
536.288	1406.8
536.653	1371.77
537.019	1391.88
537.384	1369.51
537.749	1379.23
538.114	1418.32
538.479	1392.34
538.845	1412.67
539.21	1391.88
539.575	1412.9
539.94	1402.05
540.305	1421.04
540.67	1418.55
541.034	1395.05
541.399	1402.51
541.764	1432.79
542.129	1414.03
542.494	1415.61
542.858	1419.45
543.223	1404.09
543.587	1391.88
543.952	1386.46
544.316	1425.56
544.681	1437.31
545.045	1407.25
545.41	1395.5
545.774	1433.01
546.138	1400.02
546.503	1438.44
546.867	1412.9
547.231	1440.24
547.595	1436.63
547.959	1437.98
548.324	1442.5
548.688	1427.14
549.052	1422.17
549.416	1414.26
549.779	1390.98
550.143	1437.31
550.507	1433.69
550.871	1419.45
551.235	1428.72
551.599	1422.62
551.962	1415.16
552.326	1437.53
552.689	1470.07
553.053	1448.61
553.417	1460.58
553.78	1484.09
554.143	1469.85
554.507	1434.6
554.87	1435.72
555.234	1469.85
555.597	1465.78
555.96	1452
556.323	1478.44
556.686	1454.48
557.05	1495.16
557.413	1456.97
557.776	1502.39
558.139	1488.6
558.502	1479.79
558.865	1453.13
559.228	1464.88
559.59	1492.22
559.953	1490.86
560.316	1500.36
560.679	1495.16
561.041	1501.03
561.404	1485.67
561.767	1506.91
562.129	1499.68
562.492	1498.55
562.854	1515.95
563.217	1496.51
563.579	1495.61
563.941	1519.11
564.304	1518.66
564.666	1489.73
565.028	1528.38
565.39	1567.7
565.753	1537.19
566.115	1523.86
566.477	1523.86
566.839	1534.03
567.201	1539.68
567.563	1551.43
567.925	1532.45
568.287	1549.17
568.648	1570.41
569.01	1538.77
569.372	1540.58
569.734	1554.37
570.095	1552.11
570.457	1536.97
570.819	1544.87
571.18	1548.04
571.542	1551.43
571.903	1541.71
572.265	1564.76
572.626	1558.43
572.987	1560.47
573.349	1584.42
573.71	1562.95
574.071	1553.46
574.432	1583.74
574.794	1575.61
575.155	1575.61
575.516	1546.68
575.877	1550.07
576.238	1548.94
576.599	1557.08
576.96	1562.95
577.32	1567.47
577.681	1549.17
578.042	1549.17
578.403	1548.94
578.763	1545.33
579.124	1557.53
579.485	1571.09
579.845	1555.72
580.206	1541.26
580.566	1545.55
580.927	1574.03
581.287	1540.13
581.648	1558.89
582.008	1575.38
582.368	1527.47
582.728	1567.47
583.089	1567.92
583.449	1534.48
583.809	1537.42
584.169	1542.16
584.529	1553.01
584.889	1543.74
585.249	1513.24
585.609	1537.42
585.969	1534.71
586.329	1515.95
586.688	1511.66
587.048	1511.66
587.408	1524.99
587.768	1508.27
588.127	1515.5
588.487	1531.09
588.846	1493.58
589.206	1512.56
589.565	1507.14
589.925	1495.61
590.284	1517.76
590.643	1527.7
591.003	1510.75
591.362	1491.32
591.721	1517.98
592.08	1505.55
592.44	1501.94
592.799	1522.28
593.158	1503.75
593.517	1491.77
593.876	1478.89
594.235	1494.71
594.593	1500.58
594.952	1473.01
595.311	1489.28
595.67	1472.79
596.029	1521.6
596.387	1503.97
596.746	1475.95
597.104	1506.68
597.463	1473.92
597.822	1503.52
598.18	1494.03
598.538	1474.14
598.897	1517.53
599.255	1492.22
599.613	1501.26
599.972	1512.56
600.33	1501.71
600.688	1503.07
601.046	1486.12
601.404	1490.41
601.762	1490.19
602.12	1511.43
602.478	1520.69
602.836	1543.97
603.194	1503.29
603.552	1513.91
603.91	1487.7
604.268	1500.36
604.625	1536.29
604.983	1510.07
605.341	1501.71
605.698	1504.65
606.056	1532.22
606.413	1520.24
606.771	1499.68
607.128	1495.61
607.485	1498.32
607.843	1540.35
608.2	1531.77
608.557	1512.33
608.914	1502.16
609.272	1507.81
609.629	1549.62
609.986	1533.12
610.343	1537.19
610.7	1542.16
611.057	1529.51
611.414	1529.51
611.771	1544.65
612.127	1543.29
612.484	1533.8
612.841	1522.95
613.198	1556.63
613.554	1525.89
613.911	1538.55
614.267	1567.47
614.624	1552.11
614.98	1544.42
615.337	1532.45
615.693	1543.07
616.05	1560.24
616.406	1533.58
616.762	1547.81
617.118	1555.72
617.475	1513.46
617.831	1566.79
618.187	1558.43
618.543	1558.66
618.899	1568.83
619.255	1556.63
619.611	1535.61
619.967	1573.12
620.323	1557.76
620.678	1541.71
621.034	1546
621.39	1570.86
621.746	1530.64
622.101	1559.79
622.457	1542.61
622.812	1555.72
623.168	1537.87
623.523	1536.29
623.879	1555.27
624.234	1541.03
624.589	1567.7
624.945	1539.45
625.3	1542.39
625.655	1577.87
626.01	1561.6
626.365	1546.23
626.72	1544.2
627.075	1550.3
627.43	1532.22
627.785	1564.08
628.14	1568.15
628.495	1573.57
628.85	1558.43
629.205	1550.3
629.559	1555.95
629.914	1547.81
630.269	1563.63
630.623	1555.04
630.978	1557.76
631.332	1535.84
631.687	1534.93
632.041	1525.44
632.396	1535.61
632.75	1542.61
633.104	1564.76
633.459	1525.21
633.813	1539.45
634.167	1540.13
634.521	1543.74
634.875	1554.37
635.229	1538.55
635.583	1529.51
635.937	1533.35
636.291	1537.87
636.645	1535.61
636.999	1535.16
637.352	1535.38
637.706	1517.98
638.06	1517.08
638.413	1548.49
638.767	1531.77
639.121	1522.5
639.474	1523.86
639.828	1507.14
640.181	1545.55
640.534	1529.06
640.888	1548.49
641.241	1527.25
641.594	1543.52
641.947	1544.2
642.301	1541.71
642.654	1510.53
643.007	1546.46
643.36	1528.38
643.713	1540.13
644.066	1530.19
644.419	1497.19
644.771	1515.04
645.124	1545.55
645.477	1497.42
645.83	1506.91
646.182	1520.92
646.535	1512.56
646.888	1505.55
647.24	1527.02
647.593	1523.41
647.945	1510.53
648.298	1529.28
648.65	1518.89
649.002	1519.79
649.355	1522.28
649.707	1510.3
650.059	1561.15
650.411	1548.04
650.763	1572.9
651.115	1590.3
651.467	1588.49
651.819	1563.41
652.171	1614.48
652.523	1574.48
652.875	1594.59
653.227	1586.23
653.578	1592.78
653.93	1604.76
654.282	1631.43
654.633	1598.66
654.985	1626
655.337	1630.75
655.688	1638.88
656.039	1634.36
656.391	1650.18
656.742	1624.19
657.094	1647.24
657.445	1653.35
657.796	1649.05
658.147	1678.2
658.498	1668.94
658.849	1703.74
659.2	1683.85
659.551	1680.92
659.902	1692.44
660.253	1670.07
660.604	1724.76
660.955	1738.54
661.306	1713.23
661.656	1718.66
662.007	1736.51
662.358	1733.8
662.708	1773.12
663.059	1755.26
663.409	1760.46
663.76	1765.21
664.11	1778.99
664.461	1809.95
664.811	1802.27
665.161	1816.96
665.511	1844.98
665.862	1859.22
666.212	1862.38
666.562	1867.58
666.912	1857.41
667.262	1868.71
667.612	1878.88
667.962	1902.61
668.312	1917.75
668.662	1951.19
669.011	1921.14
669.361	1943.73
669.711	1955.49
670.06	1964.98
670.41	1993.9
670.76	1978.99
671.109	2022.6
671.459	2036.84
671.808	2033.22
672.157	2041.81
672.507	2023.96
672.856	2071.87
673.205	2091.53
673.554	2113.9
673.904	2102.83
674.253	2152.32
674.602	2162.26
674.951	2139.21
675.3	2152.32
675.649	2180.79
675.998	2203.16
676.346	2190.28
676.695	2239.09
677.044	2231.18
677.393	2285.87
677.741	2260.79
678.09	2302.82
678.438	2322.26
678.787	2327.45
679.135	2341.69
679.484	2370.62
679.832	2405.19
680.181	2377.62
680.529	2388.92
680.877	2441.57
681.225	2416.26
681.573	2497.84
681.922	2463.95
682.27	2486.32
682.618	2500.56
682.966	2527.9
683.314	2540.55
683.661	2541.23
684.009	2553.21
684.357	2562.25
684.705	2611.51
685.053	2608.58
685.4	2644.05
685.748	2638.86
686.095	2670.95
686.443	2708.91
686.79	2729.48
687.138	2741.68
687.485	2730.38
687.832	2768.12
688.18	2818.29
688.527	2818.74
688.874	2821.45
689.221	2821.23
689.568	2812.86
689.915	2821.23
690.262	2892.64
690.609	2900.55
690.956	2940.54
691.303	2931.05
691.65	2971.73
691.997	2969.47
692.344	2996.81
692.69	3024.84
693.037	3037.26
693.383	2999.98
693.73	3049.47
694.077	3032.97
694.423	3048.34
694.769	3131.95
695.116	3134.21
695.462	3137.83
695.808	3154.1
696.155	3220.99
696.501	3145.74
696.847	3189.8
697.193	3212.18
697.539	3241.33
697.885	3232.51
698.231	3267.77
698.577	3234.77
698.923	3311.16
699.269	3264.38
699.614	3353.64
699.96	3364.26
700.306	3333.98
700.651	3360.42
700.997	3363.58
701.342	3396.8
701.688	3432.06
702.033	3441.32
702.379	3422.57
702.724	3476.58
703.069	3520.42
703.415	3490.13
703.76	3526.29
704.105	3515.22
704.45	3547.53
704.795	3613.75
705.14	3513.41
705.485	3588.44
705.83	3571.94
706.175	3578.04
706.52	3622.56
706.865	3644.03
707.209	3667.76
707.554	3673.41
707.899	3670.02
708.243	3673.63
708.588	3681.09
708.932	3678.15
709.277	3675.67
709.621	3761.77
709.966	3746.4
710.31	3754.76
710.654	3755.44
710.998	3769.67
711.342	3801.54
711.687	3790.01
712.031	3825.04
712.375	3775.55
712.719	3831.82
713.063	3840.18
713.407	3884.02
713.75	3873.85
714.094	3870.01
714.438	3861.42
714.782	3905.26
715.125	3921.99
715.469	3915.66
715.812	3968.77
716.156	3969.22
716.499	3927.64
716.843	3930.57
717.186	3951.37
717.53	4003.57
717.873	3972.38
718.216	4046.5
718.559	3962.66
718.902	4005.6
719.246	4020.52
719.589	4006.5
719.932	4008.31
720.275	4030.01
720.617	4031.36
720.96	4027.97
721.303	4072.72
721.646	4063.23
721.989	4065.94
722.331	4050.8
722.674	4066.39
723.016	4109.33
723.359	4123.56
723.701	4111.81
724.044	4100.06
724.386	4080.18
724.729	4118.14
725.071	4088.99
725.413	4175.99
725.755	4129.89
726.097	4077.01
726.439	4124.47
726.782	4154.75
727.124	4177.57
727.465	4169.44
727.807	4180.29
728.149	4181.64
728.491	4176.44
728.833	4184.58
729.175	4133.06
729.516	4164.47
729.858	4163.79
730.199	4193.84
730.541	4142.32
730.882	4196.56
731.224	4196.33
731.565	4189.55
731.906	4226.84
732.248	4186.61
732.589	4181.87
732.93	4218.25
733.271	4197.01
733.612	4213.51
733.953	4193.84
734.294	4220.51
734.635	4245.14
734.976	4212.15
735.317	4209.44
735.658	4211.02
735.999	4178.7
736.339	4219.38
736.68	4243.33
737.021	4216.22
737.361	4208.76
737.702	4215.76
738.042	4163.56
738.383	4173.28
738.723	4212.15
739.063	4182.77
739.404	4182.55
739.744	4206.27
740.084	4167.18
740.424	4208.76
740.764	4197.46
741.104	4229.55
741.444	4209.21
741.784	4222.32
742.124	4157.24
742.464	4204.47
742.804	4188.19
743.143	4228.87
743.483	4169.89
743.823	4118.82
744.162	4203.56
744.502	4178.93
744.841	4167.86
745.181	4222.77
745.52	4134.41
745.86	4173.73
746.199	4160.4
746.538	4160.63
746.877	4190.45
747.216	4131.02
747.556	4158.37
747.895	4182.09
748.234	4150.68
748.573	4121.53
748.911	4113.85
749.25	4107.97
749.589	4064.58
749.928	4137.57
750.267	4092.38
750.605	4117.69
750.944	4130.34
751.283	4073.4
751.621	4094.41
751.96	4106.62
752.298	4059.38
752.636	4113.17
752.975	4081.08
753.313	4044.24
753.651	4047.86
753.989	4065.49
754.327	4083.11
754.666	4018.93
755.004	3998.6
755.342	4025.49
755.679	4002.44
756.017	3993.4
756.355	4001.31
756.693	4020.97
757.031	4003.57
757.368	4010.57
757.706	4002.44
758.044	3979.84
758.381	4015.32
758.719	3956.11
759.056	3958.14
759.394	3931.93
759.731	3933.51
760.068	3915.66
760.405	3902.1
760.743	3887.19
761.08	3897.58
761.417	3866.4
761.754	3875.66
762.091	3891.03
762.428	3867.07
762.765	3857.81
763.102	3814.42
763.438	3842.89
763.775	3836.11
764.112	3816.91
764.449	3842.89
764.785	3764.25
765.122	3780.3
765.458	3719.51
765.795	3779.17
766.131	3759.73
766.467	3759.96
766.804	3752.05
767.14	3687.19
767.476	3709.34
767.812	3705.72
768.148	3711.37
768.485	3662.33
768.821	3673.63
769.157	3630.47
769.492	3633.18
769.828	3633.18
770.164	3611.94
770.5	3577.14
770.836	3623.69
771.171	3546.63
771.507	3563.58
771.842	3576.46
772.178	3564.26
772.513	3573.75
