Data from carpet_green_FLMS001491_00095.txt Node
Date: Wed Feb 08 10:36:07 GMT 2017
User: dcchb
Spectrometer: FLMS00149
Trigger mode: 0
Integration Time (sec): 2.000000E-2
Scans to average: 10
Electric dark correction enabled: true
Nonlinearity correction enabled: false
Boxcar width: 0
XAxis mode: Wavelengths
Number of Pixels in Spectrum: 2048
>>>>>Begin Spectral Data<<<<<
341.393	-14.73
341.776	-14.73
342.16	-14.73
342.543	-79.81
342.927	-71.9
343.31	-64.45
343.693	-64.22
344.077	-77.1
344.46	-66.93
344.843	-36.2
345.226	-65.8
345.61	-35.52
345.993	-18.35
346.376	-4.11
346.759	1.99
347.142	33.18
347.525	54.19
347.908	55.55
348.291	66.85
348.674	104.81
349.057	116.11
349.44	108.2
349.823	122.21
350.206	150.01
350.588	185.49
350.971	207.86
351.354	196.56
351.737	195.88
352.119	208.09
352.502	234.75
352.884	251.48
353.267	236.79
353.65	262.1
354.032	288.99
354.414	272.72
354.797	295.77
355.179	288.31
355.562	288.76
355.944	303.23
356.326	315.66
356.709	319.72
357.091	315.88
357.473	313.62
357.855	320.18
358.238	304.81
358.62	317.69
359.002	299.16
359.384	306.16
359.766	294.64
360.148	311.81
360.53	308.42
360.912	308.88
361.294	309.55
361.676	306.16
362.057	306.62
362.439	309.1
362.821	293.06
363.203	301.64
363.584	294.41
363.966	285.83
364.348	290.8
364.729	284.92
365.111	281.76
365.493	290.12
365.874	280.85
366.256	285.15
366.637	291.7
367.019	275.66
367.4	285.83
367.781	290.12
368.163	290.57
368.544	286.5
368.925	284.24
369.306	288.09
369.688	283.34
370.069	277.46
370.45	290.12
370.831	288.76
371.212	282.44
371.593	285.6
371.974	262.32
372.355	266.17
372.736	285.15
373.117	274.75
373.498	280.18
373.879	297.12
374.26	277.92
374.641	287.63
375.021	278.14
375.402	270.46
375.783	299.38
376.163	260.52
376.544	284.7
376.925	307.07
377.305	262.1
377.686	298.03
378.066	296.9
378.447	273.4
378.827	291.7
379.208	294.64
379.588	305.49
379.968	299.61
380.349	306.16
380.729	314.98
381.109	289.22
381.489	293.51
381.87	286.96
382.25	298.03
382.63	296
383.01	298.03
383.39	328.99
383.77	293.06
384.15	307.75
384.53	289.22
384.91	306.16
385.29	303.68
385.67	310.68
386.049	293.06
386.429	303
386.809	296
387.189	315.88
387.568	306.39
387.948	295.54
388.328	293.06
388.707	300.29
389.087	300.06
389.466	310.01
389.846	296
390.225	298.25
390.605	331.02
390.984	300.74
391.363	286.73
391.743	302.1
392.122	305.26
392.501	306.16
392.881	305.03
393.26	316.33
393.639	300.06
394.018	294.41
394.397	312.27
394.776	322.89
395.155	309.78
395.534	316.11
395.913	309.33
396.292	316.79
396.671	321.98
397.05	289.44
397.429	321.31
397.808	316.11
398.186	311.14
398.565	305.94
398.944	299.38
399.323	308.88
399.701	323.79
400.08	317.24
400.458	326.73
400.837	315.43
401.215	312.94
401.594	309.78
401.972	315.2
402.351	307.97
402.729	318.59
403.107	322.44
403.486	313.17
403.864	313.85
404.242	324.02
404.62	326.05
404.999	331.25
405.377	322.66
405.755	315.88
406.133	322.66
406.511	322.66
406.889	330.34
407.267	338.48
407.645	312.27
408.023	329.67
408.401	337.35
408.779	308.88
409.156	328.76
409.534	328.76
409.912	324.69
410.29	330.12
410.667	342.1
411.045	355.43
411.422	340.29
411.8	323.34
412.178	338.25
412.555	340.97
412.933	350.46
413.31	334.19
413.687	364.24
414.065	341.87
414.442	341.19
414.819	339.38
415.197	326.28
415.574	349.33
415.951	357.91
416.328	349.1
416.705	344.58
417.082	365.37
417.46	351.59
417.837	344.81
418.214	334.41
418.591	365.15
418.967	346.84
419.344	359.27
419.721	350
420.098	345.49
420.475	333.06
420.852	360.85
421.228	359.27
421.605	361.08
421.982	358.59
422.358	366.95
422.735	371.25
423.111	360.17
423.488	330.57
423.864	349.78
424.241	372.38
424.617	374.86
424.994	366.28
425.37	341.42
425.746	354.98
426.123	360.85
426.499	365.37
426.875	388.65
427.251	369.44
427.627	366.05
428.003	379.38
428.379	381.87
428.756	389.55
429.132	375.99
429.507	392.94
429.883	373.28
430.259	390.46
430.635	369.67
431.011	398.82
431.387	379.83
431.763	377.12
432.138	368.54
432.514	380.51
432.89	390.91
433.265	394.75
433.641	389.78
434.016	394.07
434.392	403.11
434.767	414.86
435.143	402.43
435.518	405.82
435.894	410.12
436.269	392.94
436.644	412.38
437.02	400.85
437.395	401.53
437.77	418.25
438.145	432.04
438.52	415.77
438.895	405.14
439.271	439.49
439.646	426.39
440.021	414.64
440.395	421.64
440.77	422.77
441.145	425.94
441.52	429.78
441.895	442.21
442.27	438.82
442.645	467.52
443.019	450.79
443.394	478.36
443.769	449.21
444.143	439.04
444.518	439.72
444.892	446.73
445.267	453.51
445.641	438.36
446.016	458.25
446.39	459.15
446.764	436.33
447.139	475.43
447.513	466.61
447.887	452.6
448.262	474.52
448.636	468.42
449.01	447.4
449.384	470.45
449.758	466.39
450.132	472.26
450.506	479.72
450.88	483.79
451.254	463.67
451.628	486.05
452.002	484.24
452.376	479.04
452.75	481.98
453.123	487.4
453.497	486.72
453.871	481.75
454.244	504.13
454.618	495.09
454.992	519.04
455.365	512.03
455.739	511.36
456.112	515.2
456.486	533.73
456.859	515.2
457.232	532.6
457.606	503.9
457.979	530.79
458.352	503.9
458.725	542.09
459.099	532.15
459.472	550.9
459.845	531.47
460.218	550.9
460.591	571.24
460.964	533.73
461.337	557.68
461.71	571.24
462.083	571.02
462.456	572.15
462.829	588.19
463.201	613.5
463.574	595.42
463.947	572.15
464.32	592.71
464.692	609.66
465.065	596.78
465.438	605.82
465.81	615.99
466.183	616.66
466.555	613.05
466.928	633.39
467.3	619.6
467.672	628.19
468.045	646.95
468.417	632.03
468.789	640.84
469.161	653.95
469.534	642.65
469.906	675.65
470.278	666.38
470.65	675.19
471.022	703.44
471.394	676.1
471.766	712.48
472.138	693.05
472.51	715.42
472.882	683.1
473.253	717.9
473.625	742.09
473.997	739.37
474.369	742.09
474.74	747.51
475.112	749.09
475.484	767.62
475.855	778.02
476.227	796.77
476.598	786.6
476.97	808.52
477.341	820.05
477.713	810.11
478.084	842.42
478.455	831.35
478.827	846.49
479.198	867.96
479.569	884.68
479.94	897.34
480.311	885.36
480.682	919.26
481.053	912.48
481.424	935.07
481.795	949.09
482.166	936.2
482.537	964.23
482.908	971.68
483.279	1002.64
483.65	999.03
484.021	1002.64
484.391	1018.91
484.762	1025.02
485.133	1043.77
485.503	1054.17
485.874	1062.98
486.244	1070.21
486.615	1061.62
486.985	1094.84
487.356	1135.07
487.726	1135.75
488.097	1157.22
488.467	1146.82
488.837	1161.28
489.207	1173.03
489.578	1186.37
489.948	1178.23
490.318	1217.33
490.688	1240.38
491.058	1230.21
491.428	1260.49
491.798	1249.19
492.168	1278.34
492.538	1301.17
492.908	1306.36
493.278	1307.49
493.648	1312.47
494.017	1331.45
494.387	1335.74
494.757	1314.95
495.126	1367.83
495.496	1372.8
495.866	1378.9
496.235	1387.04
496.605	1378.9
496.974	1405.34
497.344	1405.12
497.713	1422.97
498.082	1428.39
498.452	1475.17
498.821	1448.73
499.19	1444.89
499.559	1448.28
499.928	1447.83
500.298	1487.15
500.667	1493.7
501.036	1506.13
501.405	1510.2
501.774	1523.08
502.143	1518.79
502.512	1545
502.88	1521.95
503.249	1536.41
503.618	1556.98
503.987	1543.65
504.356	1565.34
504.724	1591.1
505.093	1584.32
505.462	1565.57
505.83	1606.02
506.199	1611.67
506.567	1625.23
506.936	1589.52
507.304	1630.88
507.672	1642.17
508.041	1648.28
508.409	1655.73
508.777	1657.54
509.145	1640.59
509.514	1653.25
509.882	1665
510.25	1683.53
510.618	1697.54
510.986	1695.96
511.354	1711.1
511.722	1736.64
512.09	1732.79
512.458	1740.02
512.826	1730.31
513.193	1759.46
513.561	1732.57
513.929	1752.23
514.297	1790.42
514.664	1769.4
515.032	1801.27
515.4	1777.31
515.767	1805.33
516.135	1829.97
516.502	1779.35
516.869	1802.85
517.237	1833.58
517.604	1821.6
517.972	1841.49
518.339	1841.27
518.706	1878.78
519.073	1878.55
519.44	1889.17
519.808	1880.81
520.175	1910.19
520.542	1914.94
520.909	1895.95
521.276	1935.27
521.643	1939.12
522.009	1928.27
522.376	1981.6
522.743	1954.93
523.11	1982.96
523.477	1950.64
523.843	1985.22
524.21	2000.58
524.577	1997.87
524.943	2006.46
525.31	2034.71
525.676	2054.37
526.043	2030.41
526.409	2045.1
526.776	2075.61
527.142	2061.37
527.508	2077.19
527.874	2079.68
528.241	2075.84
528.607	2100.24
528.973	2126.68
529.339	2116.74
529.705	2097.3
530.071	2118.09
530.437	2124.87
530.803	2128.72
531.169	2165.32
531.535	2117.64
531.901	2142.73
532.267	2135.04
532.632	2148.38
532.998	2144.53
533.364	2170.52
533.73	2182.95
534.095	2208.26
534.461	2171.2
534.826	2177.53
535.192	2193.12
535.557	2226.79
535.923	2182.05
536.288	2190.63
536.653	2227.7
537.019	2196.06
537.384	2177.75
537.749	2207.58
538.114	2208.26
538.479	2229.05
538.845	2224.76
539.21	2200.35
539.575	2243.06
539.94	2273.8
540.305	2234.93
540.67	2221.37
541.034	2246.68
541.399	2242.84
541.764	2236.06
542.129	2259.33
542.494	2215.72
542.858	2251.2
543.223	2239.67
543.587	2238.99
543.952	2249.84
544.316	2276.73
544.681	2234.02
545.045	2248.03
545.41	2259.11
545.774	2290.29
546.138	2267.02
546.503	2243.74
546.867	2242.61
547.231	2258.66
547.595	2294.13
547.959	2275.83
548.324	2278.09
548.688	2271.08
549.052	2309.05
549.416	2278.09
549.779	2281.25
550.143	2317.18
550.507	2326.68
550.871	2323.29
551.235	2299.33
551.599	2312.44
551.962	2331.65
552.326	2328.48
552.689	2333
553.053	2319.44
553.417	2325.77
553.78	2364.87
554.143	2336.17
554.507	2330.29
554.87	2368.48
555.234	2350.86
555.597	2333.23
555.96	2332.78
556.323	2349.73
556.686	2356.96
557.05	2367.58
557.413	2370.06
557.776	2393.34
558.139	2384.08
558.502	2396.96
558.865	2370.52
559.228	2377.97
559.59	2383.85
559.953	2413.23
560.316	2393.34
560.679	2397.86
561.041	2419.33
561.404	2410.29
561.767	2441.25
562.129	2444.19
562.492	2445.09
562.854	2440.57
563.217	2423.62
563.579	2451.64
563.941	2481.25
564.304	2484.19
564.666	2466.56
565.028	2469.95
565.39	2478.54
565.753	2488.25
566.115	2497.29
566.477	2437.63
566.839	2514.47
567.201	2461.14
567.563	2499.33
567.925	2553.79
568.287	2532.32
568.648	2516.5
569.01	2572.77
569.372	2542.94
569.734	2529.61
570.095	2560.34
570.457	2566.22
570.819	2555.14
571.18	2593.56
571.542	2572.77
571.903	2526.9
572.265	2561.7
572.626	2545.43
572.987	2565.77
573.349	2538.87
573.71	2590.62
574.071	2577.74
574.432	2556.95
574.794	2569.83
575.155	2557.63
575.516	2536.16
575.877	2567.57
576.238	2557.86
576.599	2569.83
576.96	2561.7
577.32	2535.26
577.681	2571.64
578.042	2581.36
578.403	2580.91
578.763	2562.83
579.124	2575.03
579.485	2560.12
579.845	2543.39
580.206	2499.1
580.566	2550.63
580.927	2543.62
581.287	2561.92
581.648	2536.39
582.008	2559.21
582.368	2538.65
582.728	2527.8
583.089	2545.65
583.449	2553.56
583.809	2544.98
584.169	2535.26
584.529	2481.47
584.889	2535.94
585.249	2516.95
585.609	2503.85
585.969	2515.37
586.329	2506.56
586.688	2496.84
587.048	2483.51
587.408	2518.31
587.768	2530.06
588.127	2495.26
588.487	2503.85
588.846	2505.43
589.206	2487.12
589.565	2473.79
589.925	2484.64
590.284	2493.68
590.643	2517.41
591.003	2512.43
591.362	2507.46
591.721	2486.22
592.08	2505.65
592.44	2488.25
592.799	2513.79
593.158	2477.41
593.517	2481.93
593.876	2481.93
594.235	2488.48
594.593	2499.1
594.952	2485.09
595.311	2493
595.67	2502.72
596.029	2502.49
596.387	2508.37
596.746	2464.3
597.104	2490.74
597.463	2473.34
597.822	2490.29
598.18	2478.31
598.538	2462.94
598.897	2522.6
599.255	2473.34
599.613	2530.06
599.972	2469.5
600.33	2510.85
600.688	2507.01
601.046	2516.28
601.404	2522.38
601.762	2510.4
602.12	2538.87
602.478	2505.2
602.836	2503.85
603.194	2509.27
603.552	2502.49
603.91	2495.94
604.268	2525.09
604.625	2491.19
604.983	2508.82
605.341	2556.05
605.698	2542.94
606.056	2525.77
606.413	2529.61
606.771	2533.9
607.128	2532.77
607.485	2560.12
607.843	2544.3
608.2	2544.07
608.557	2607.8
608.914	2533.9
609.272	2590.4
609.629	2559.66
609.986	2587.01
610.343	2607.35
610.7	2570.96
611.057	2561.02
611.414	2590.62
611.771	2549.72
612.127	2614.58
612.484	2582.94
612.841	2594.92
613.198	2627.91
613.554	2596.73
613.911	2606.67
614.267	2561.47
614.624	2591.98
614.98	2600.34
615.337	2623.39
615.693	2587.91
616.05	2606.44
616.406	2621.58
616.762	2619.55
617.118	2644.18
617.475	2636.95
617.831	2661.81
618.187	2659.55
618.543	2673.33
618.899	2653.67
619.255	2637.63
619.611	2663.84
619.967	2613.45
620.323	2631.75
620.678	2628.59
621.034	2649.61
621.39	2626.1
621.746	2627.23
622.101	2626.78
622.457	2609.83
622.812	2605.09
623.168	2639.89
623.523	2667.46
623.879	2659.55
624.234	2607.8
624.589	2660.23
624.945	2601.25
625.3	2654.8
625.655	2618.42
626.01	2648.93
626.365	2617.97
626.72	2586.56
627.075	2619.32
627.43	2596.95
627.785	2601.92
628.14	2618.19
628.495	2616.84
628.85	2567.57
629.205	2599.44
629.559	2615.93
629.914	2585.88
630.269	2600.57
630.623	2606.44
630.978	2594.24
631.332	2569.16
631.687	2634.69
632.041	2613.22
632.396	2613.22
632.75	2608.25
633.104	2577.07
633.459	2606.67
633.813	2597.63
634.167	2596.73
634.521	2575.48
634.875	2601.25
635.229	2553.34
635.583	2555.37
635.937	2547.01
636.291	2579.78
636.645	2546.33
636.999	2559.21
637.352	2582.04
637.706	2566.9
638.06	2605.31
638.413	2545.88
638.767	2582.26
639.121	2606.22
639.474	2578.19
639.828	2569.38
640.181	2579.1
640.534	2575.94
640.888	2572.09
641.241	2576.84
641.594	2570.96
641.947	2604.41
642.301	2556.27
642.654	2606.44
643.007	2584.75
643.36	2582.71
643.713	2545.88
644.066	2575.03
644.419	2595.14
644.771	2579.78
645.124	2547.24
645.477	2601.25
645.83	2556.27
646.182	2559.44
646.535	2564.41
646.888	2541.81
647.24	2504.52
647.593	2520.34
647.945	2545.43
648.298	2537.29
648.65	2515.15
649.002	2563.51
649.355	2592.88
649.707	2578.19
650.059	2574.58
650.411	2603.5
650.763	2634.69
651.115	2649.61
651.467	2647.57
651.819	2678.53
652.171	2703.84
652.523	2695.93
652.875	2727.34
653.227	2653.67
653.578	2725.31
653.93	2694.58
654.282	2734.57
654.633	2728.47
654.985	2711.52
655.337	2716.04
655.688	2751.07
656.039	2779.77
656.391	2770.73
656.742	2770.05
657.094	2747.46
657.445	2797.85
657.796	2805.99
658.147	2819.09
658.498	2855.02
658.849	2834.69
659.2	2862.48
659.551	2854.12
659.902	2870.39
660.253	2863.16
660.604	2869.03
660.955	2841.92
661.306	2905.64
661.656	2904.51
662.007	2932.31
662.358	2964.85
662.708	2928.92
663.059	2964.4
663.409	2936.38
663.76	2982.93
664.11	3040.78
664.461	3027.22
664.811	3023.83
665.161	3029.03
665.511	3050.05
665.862	3064.96
666.212	3109.71
666.562	3143.6
666.912	3139.31
667.262	3181.79
667.612	3178.18
667.962	3200.1
668.312	3195.35
668.662	3194.45
669.011	3274.9
669.361	3285.97
669.711	3255.01
670.06	3267.22
670.41	3315.12
670.76	3326.42
671.109	3344.5
671.459	3358.29
671.808	3378.4
672.157	3370.72
672.507	3389.92
672.856	3424.95
673.205	3460.88
673.554	3472.86
673.904	3479.41
674.253	3570.49
674.602	3519.64
674.951	3481.67
675.3	3514.22
675.649	3579.75
675.998	3590.37
676.346	3631.5
676.695	3665.17
677.044	3666.08
677.393	3688
677.741	3739.07
678.09	3709.01
678.438	3783.36
678.787	3789.24
679.135	3858.61
679.484	3801.44
679.832	3868.78
680.181	3804.6
680.529	3906.3
680.877	3862.68
681.225	3892.06
681.573	3999.17
681.922	4005.95
682.27	3977.48
682.618	4017.93
682.966	4053.86
683.314	4109.23
683.661	4104.03
684.009	4149.68
684.357	4125.5
684.705	4127.08
685.053	4113.75
685.4	4182.22
685.748	4216.34
686.095	4247.53
686.443	4235.78
686.79	4259.28
687.138	4284.14
687.485	4318.94
687.832	4324.59
688.18	4350.13
688.527	4355.32
688.874	4389.22
689.221	4391.03
689.568	4424.7
689.915	4498.37
690.262	4466.96
690.609	4502.89
690.956	4525.26
691.303	4570.01
691.65	4559.39
691.997	4551.25
692.344	4580.63
692.69	4541.99
693.037	4645.94
693.383	4603
693.73	4670.12
694.077	4683.9
694.423	4716.67
694.769	4689.1
695.116	4723
695.462	4775.65
695.808	4753.73
696.155	4828.98
696.501	4840.06
696.847	4822.2
697.193	4847.97
697.539	4900.85
697.885	4852.71
698.231	4828.31
698.577	4865.59
698.923	4916.44
699.269	4892.48
699.614	4901.3
699.96	4960.96
700.306	5021.52
700.651	4992.14
700.997	4966.38
701.342	5005.7
701.688	5053.38
702.033	5046.38
702.379	5078.69
702.724	5063.1
703.069	5087.06
703.415	5046.6
703.76	5082.54
704.105	5117.79
704.45	5153.49
704.795	5085.93
705.14	5175.64
705.485	5192.82
705.83	5191.01
706.175	5189.88
706.52	5203.89
706.865	5203.44
707.209	5194.85
707.554	5259.71
707.899	5298.58
708.243	5264.45
708.588	5310.1
708.932	5282.08
709.277	5269.2
709.621	5319.14
709.966	5310.33
710.31	5347.84
710.654	5254.96
710.998	5331.34
711.342	5325.92
711.687	5413.6
712.031	5296.77
712.375	5285.92
712.719	5368.4
713.063	5396.88
713.407	5410.66
713.75	5392.13
714.094	5428.74
714.438	5404.79
714.782	5411.34
715.125	5423.77
715.469	5451.34
715.812	5412.7
716.156	5405.24
716.499	5442.3
716.843	5445.01
717.186	5463.32
717.53	5492.02
717.873	5504.45
718.216	5481.4
718.559	5506.03
718.902	5421.96
719.246	5573.6
719.589	5525.01
719.932	5509.19
720.275	5526.59
720.617	5548.96
720.96	5511.23
721.303	5558.91
721.646	5528.17
721.989	5494.05
722.331	5555.74
722.674	5525.24
723.016	5577.66
723.359	5567.27
723.701	5606.14
724.044	5540.6
724.386	5541.73
724.729	5632.58
725.071	5579.47
725.413	5550.32
725.755	5548.29
726.097	5594.84
726.439	5564.78
726.782	5483.2
727.124	5546.48
727.465	5540.6
727.807	5556.87
728.149	5546.03
728.491	5558.46
728.833	5594.61
729.175	5591.68
729.516	5541.96
729.858	5559.13
730.199	5544.44
730.541	5587.61
730.882	5584.67
731.224	5601.62
731.565	5548.29
731.906	5609.08
732.248	5618.11
732.589	5574.05
732.93	5552.35
733.271	5545.8
733.612	5533.82
733.953	5588.96
734.294	5539.25
734.635	5529.3
734.976	5610.43
735.317	5506.71
735.658	5532.92
735.999	5544.44
736.339	5509.64
736.68	5587.16
737.021	5513.26
737.361	5555.74
737.702	5548.51
738.042	5534.28
738.383	5479.81
738.723	5549.87
739.063	5513.94
739.404	5532.47
739.744	5531.34
740.084	5510.77
740.424	5518.23
740.764	5492.24
741.104	5496.76
741.444	5507.16
741.784	5467.16
742.124	5479.14
742.464	5426.93
742.804	5487.72
743.143	5471.9
743.483	5436.65
743.823	5440.94
744.162	5435.75
744.502	5452.02
744.841	5410.44
745.181	5431
745.52	5490.66
745.86	5475.52
746.199	5419.93
746.538	5383.77
746.877	5420.61
747.216	5403.66
747.556	5434.39
747.895	5377.22
748.234	5365.47
748.573	5353.94
748.911	5365.92
749.25	5364.11
749.589	5368.86
749.928	5378.57
750.267	5408.4
750.605	5314.17
750.944	5339.25
751.283	5302.64
751.621	5320.04
751.96	5282.08
752.298	5291.8
752.636	5322.98
752.975	5275.53
753.313	5247.28
753.651	5225.36
753.989	5244.79
754.327	5223.1
754.666	5201.63
755.004	5204.34
755.342	5204.34
755.679	5195.08
756.017	5186.71
756.355	5220.16
756.693	5139.26
757.031	5187.62
757.368	5130.22
757.706	5138.81
758.044	5144.68
758.381	5152.82
758.719	5114.85
759.056	5099.94
759.394	5092.48
759.731	5017.23
760.068	5049.54
760.405	5057.23
760.743	5004.8
761.08	5049.32
761.417	5024.46
761.754	4997.57
762.091	5021.07
762.428	4960.05
762.765	4967.74
763.102	4963.22
763.438	4923.22
763.775	4922.31
764.112	4953.73
764.449	4890.68
764.785	4906.95
765.122	4856.33
765.458	4882.09
765.795	4888.42
766.131	4814.29
766.467	4857.68
766.804	4754.86
767.14	4788.08
767.476	4795.99
767.812	4793.5
768.148	4756.67
768.485	4767.97
768.821	4710.57
769.157	4671.02
769.492	4678.93
769.828	4704.24
770.164	4642.1
770.5	4647.07
770.836	4648.2
771.171	4705.14
771.507	4641.19
771.842	4610.91
772.178	4605.03
772.513	4629.21
