Data from carpet_green_FLMS001491_00061.txt Node
Date: Wed Feb 08 10:35:41 GMT 2017
User: dcchb
Spectrometer: FLMS00149
Trigger mode: 0
Integration Time (sec): 2.000000E-2
Scans to average: 10
Electric dark correction enabled: true
Nonlinearity correction enabled: false
Boxcar width: 0
XAxis mode: Wavelengths
Number of Pixels in Spectrum: 2048
>>>>>Begin Spectral Data<<<<<
341.393	-27.54
341.776	-27.54
342.16	-27.54
342.543	-60.76
342.927	-57.6
343.31	-75.22
343.693	-70.03
344.077	-72.06
344.46	-55.79
344.843	-55.56
345.226	-37.48
345.61	-41.55
345.993	-22.8
346.376	3.64
346.759	20.14
347.142	14.04
347.525	45.45
347.908	58.33
348.291	83.87
348.674	101.95
349.057	103.08
349.44	135.62
349.823	138.78
350.206	160.02
350.588	166.35
350.971	173.81
351.354	180.81
351.737	194.83
352.119	211.32
352.502	230.53
352.884	242.73
353.267	259
353.65	245.22
354.032	291.32
354.414	286.8
354.797	291.55
355.179	271.43
355.562	286.8
355.944	299.46
356.326	299
356.709	298.1
357.091	301.49
357.473	301.94
357.855	301.72
358.238	299
358.62	310.53
359.002	311.43
359.384	311.21
359.766	321.38
360.148	292.9
360.53	321.38
360.912	295.61
361.294	297.87
361.676	302.62
362.057	302.62
362.439	284.54
362.821	289.06
363.203	284.99
363.584	278.44
363.966	280.25
364.348	304.88
364.729	284.31
365.111	303.75
365.493	303.52
365.874	284.09
366.256	267.14
366.637	285.44
367.019	292.9
367.4	284.09
367.781	280.7
368.163	279.79
368.544	280.7
368.925	296.74
369.306	282.96
369.688	301.04
370.069	267.82
370.45	276.41
370.831	268.27
371.212	277.08
371.593	272.56
371.974	287.25
372.355	276.86
372.736	279.79
373.117	291.55
373.498	300.13
373.879	287.48
374.26	286.35
374.641	285.67
375.021	274.82
375.402	277.31
375.783	288.61
376.163	287.7
376.544	309.62
376.925	285.44
377.305	289.96
377.686	302.85
378.066	282.05
378.447	295.61
378.827	286.35
379.208	280.92
379.588	314.82
379.968	295.39
380.349	296.97
380.729	304.43
381.109	288.38
381.489	303.98
381.87	280.47
382.25	276.18
382.63	301.72
383.01	297.87
383.39	290.64
383.77	287.93
384.15	290.87
384.53	286.35
384.91	284.99
385.29	280.7
385.67	280.7
386.049	306.46
386.429	290.42
386.809	295.84
387.189	321.15
387.568	310.3
387.948	313.47
388.328	312.34
388.707	300.81
389.087	294.71
389.466	301.72
389.846	298.55
390.225	289.74
390.605	323.64
390.984	301.94
391.363	295.39
391.743	292.45
392.122	308.04
392.501	311.66
392.881	304.88
393.26	317.08
393.639	301.72
394.018	275.05
394.397	293.13
394.776	320.25
395.155	315.73
395.534	307.59
395.913	301.49
396.292	309.17
396.671	309.85
397.05	303.3
397.429	302.17
397.808	308.04
398.186	303.3
398.565	325.44
398.944	305.78
399.323	327.03
399.701	310.3
400.08	314.14
400.458	313.92
400.837	307.36
401.215	315.73
401.594	317.76
401.972	330.42
402.351	315.05
402.729	299.68
403.107	316.4
403.486	328.61
403.864	320.02
404.242	341.49
404.62	316.63
404.999	316.4
405.377	339.45
405.755	330.64
406.133	337.19
406.511	336.74
406.889	331.09
407.267	320.92
407.645	326.57
408.023	345.1
408.401	328.38
408.779	315.5
409.156	335.16
409.534	343.75
409.912	342.39
410.29	349.85
410.667	336.06
411.045	351.21
411.422	329.06
411.8	342.62
412.178	333.13
412.555	327.03
412.933	342.84
413.31	340.36
413.687	332.9
414.065	341.26
414.442	321.83
414.819	325.44
415.197	346.69
415.574	324.54
415.951	343.3
416.328	362.96
416.705	341.04
417.082	336.06
417.46	339.91
417.837	346.23
418.214	323.86
418.591	335.16
418.967	332.22
419.344	340.58
419.721	350.3
420.098	339.23
420.475	349.4
420.852	349.17
421.228	351.88
421.605	362.5
421.982	349.85
422.358	338.32
422.735	345.33
423.111	361.83
423.488	344.88
423.864	351.21
424.241	358.66
424.617	359.34
424.994	353.24
425.37	357.98
425.746	362.5
426.123	360.47
426.499	380.13
426.875	367.7
427.251	380.13
427.627	363.41
428.003	368.15
428.379	365.89
428.756	373.58
429.132	354.6
429.507	362.05
429.883	362.5
430.259	369.51
430.635	376.52
431.011	378.78
431.387	370.41
431.763	391.2
432.138	377.87
432.514	382.84
432.89	374.26
433.265	392.11
433.641	371.77
434.016	388.27
434.392	402.28
434.767	399.57
435.143	372.22
435.518	383.52
435.894	373.35
436.269	388.27
436.644	383.07
437.02	370.87
437.395	385.55
437.77	384.42
438.145	413.8
438.52	397.31
438.895	392.33
439.271	395.05
439.646	366.57
440.021	434.59
440.395	396.85
440.77	402.05
441.145	419.68
441.52	402.96
441.895	394.82
442.27	393.69
442.645	416.06
443.019	412.45
443.394	437.76
443.769	402.5
444.143	434.82
444.518	411.09
444.892	421.26
445.267	414.25
445.641	423.52
446.016	409.96
446.39	438.89
446.764	404.09
447.139	419.23
447.513	432.79
447.887	426.68
448.262	421.94
448.636	432.11
449.01	444.08
449.384	430.75
449.758	411.54
450.132	430.75
450.506	420.13
450.88	436.17
451.254	430.3
451.628	433.69
452.002	450.19
452.376	456.29
452.75	440.69
453.123	443.18
453.497	442.28
453.871	449.06
454.244	442.5
454.618	450.41
454.992	473.69
455.365	468.94
455.739	443.18
456.112	480.92
456.486	472.33
456.859	475.72
457.232	474.82
457.606	474.82
457.979	474.82
458.352	481.15
458.725	483.41
459.099	470.3
459.472	503.07
459.845	483.18
460.218	508.49
460.591	482.5
460.964	502.84
461.337	521.37
461.71	498.55
462.083	524.08
462.456	494.25
462.829	509.85
463.201	512.78
463.574	496.06
463.947	520.24
464.32	501.71
464.692	529.51
465.065	509.39
465.438	537.19
465.81	507.36
466.183	521.6
466.555	544.19
466.928	548.26
467.3	548.71
467.672	539.45
468.045	552.1
468.417	559.79
468.789	549.84
469.161	552.1
469.534	567.47
469.906	576.96
470.278	580.35
470.65	593.91
471.022	574.93
471.394	597.98
471.766	602.95
472.138	593.46
472.51	603.63
472.882	618.32
473.253	620.12
473.625	633.46
473.997	630.52
474.369	630.52
474.74	633.01
475.112	623.97
475.484	655.83
475.855	637.53
476.227	669.16
476.598	661.93
476.97	685.21
477.341	688.37
477.713	691.54
478.084	668.94
478.455	698.54
478.827	721.14
479.198	733.34
479.569	712.78
479.94	736.73
480.311	754.81
480.682	757.75
481.053	757.52
481.424	777.41
481.795	796.84
482.166	814.47
482.537	809.05
482.908	795.94
483.279	807.01
483.65	819.44
484.021	848.82
484.391	824.41
484.762	848.59
485.133	865.32
485.503	849.5
485.874	870.29
486.244	868.25
486.615	887.01
486.985	900.12
487.356	923.17
487.726	924.52
488.097	940.34
488.467	962.04
488.837	933.56
489.207	950.51
489.578	969.04
489.948	974.69
490.318	963.17
490.688	990.28
491.058	1023.73
491.428	1029.38
491.798	1019.66
492.168	1020.11
492.538	1037.52
492.908	1029.38
493.278	1047.01
493.648	1050.62
494.017	1071.19
494.387	1075.93
494.757	1058.08
495.126	1079.77
495.496	1086.78
495.866	1069.83
496.235	1096.95
496.605	1101.92
496.974	1119.09
497.344	1130.62
497.713	1120.22
498.082	1137.17
498.452	1144.4
498.821	1149.83
499.19	1169.04
499.559	1145.53
499.928	1171.97
500.298	1169.72
500.667	1187.34
501.036	1176.72
501.405	1164.52
501.774	1196.38
502.143	1196.61
502.512	1191.41
502.88	1205.19
503.249	1185.08
503.618	1204.06
503.987	1213.1
504.356	1230.73
504.724	1212.88
505.093	1223.05
505.462	1242.71
505.83	1242.26
506.199	1236.61
506.567	1235.93
506.936	1231.86
507.304	1283.38
507.672	1281.58
508.041	1250.62
508.409	1256.27
508.777	1280.67
509.145	1286.1
509.514	1290.16
509.882	1281.35
510.25	1295.81
510.618	1287.9
510.986	1308.69
511.354	1281.12
511.722	1303.5
512.09	1332.65
512.458	1333.33
512.826	1351.18
513.193	1311.63
513.561	1342.14
513.929	1378.52
514.297	1358.64
514.664	1355.47
515.032	1378.07
515.4	1367
515.767	1364.96
516.135	1371.97
516.502	1355.92
516.869	1380.33
517.237	1398.64
517.604	1373.55
517.972	1397.73
518.339	1412.19
518.706	1384.4
519.073	1396.83
519.44	1413.1
519.808	1409.03
520.175	1406.09
520.542	1436.6
520.909	1428.92
521.276	1432.53
521.643	1457.84
522.009	1457.39
522.376	1474.79
522.743	1452.87
523.11	1441.35
523.477	1485.41
523.843	1497.84
524.21	1492.19
524.577	1489.48
524.943	1527.22
525.31	1476.6
525.676	1492.42
526.043	1529.71
526.409	1503.27
526.776	1534.9
527.142	1506.88
527.508	1545.3
527.874	1520.21
528.241	1573.09
528.607	1575.13
528.973	1581
529.339	1552.76
529.705	1576.03
530.071	1559.76
530.437	1550.95
530.803	1585.98
531.169	1599.76
531.535	1577.61
531.901	1578.07
532.267	1579.42
532.632	1592.3
532.998	1594.11
533.364	1591.17
533.73	1598.4
534.095	1613.77
534.461	1613.55
534.826	1601.34
535.192	1623.71
535.557	1636.6
535.923	1590.27
536.288	1621.91
536.653	1620.32
537.019	1630.49
537.384	1627.1
537.749	1633.43
538.114	1620.32
538.479	1634.34
538.845	1628.01
539.21	1602.47
539.575	1620.32
539.94	1628.69
540.305	1637.95
540.67	1622.81
541.034	1613.32
541.399	1614.45
541.764	1626.43
542.129	1633.66
542.494	1594.79
542.858	1622.36
543.223	1652.87
543.587	1642.02
543.952	1637.27
544.316	1615.35
544.681	1630.27
545.045	1643.37
545.41	1622.81
545.774	1654.67
546.138	1643.6
546.503	1634.79
546.867	1639.76
547.231	1666.65
547.595	1652.41
547.959	1661.68
548.324	1650.38
548.688	1679.31
549.052	1631.17
549.416	1666.88
549.779	1657.39
550.143	1648.35
550.507	1681.11
550.871	1674.11
551.235	1663.04
551.599	1687.44
551.962	1656.03
552.326	1679.53
552.689	1694.45
553.053	1679.76
553.417	1682.47
553.78	1677.72
554.143	1690.15
554.507	1719.98
554.87	1689.93
555.234	1672.3
555.597	1704.39
555.96	1700.55
556.323	1683.15
556.686	1722.69
557.05	1704.16
557.413	1705.07
557.776	1720.89
558.139	1706.2
558.502	1733.99
558.865	1755.46
559.228	1712.75
559.59	1724.28
559.953	1713.43
560.316	1750.26
560.679	1750.26
561.041	1740.32
561.404	1776.93
561.767	1744.62
562.129	1733.32
562.492	1756.82
562.854	1755.46
563.217	1745.75
563.579	1762.47
563.941	1767.89
564.304	1759.08
564.666	1799.98
565.028	1783.94
565.39	1780.09
565.753	1802.01
566.115	1777.38
566.477	1760.43
566.839	1761.56
567.201	1804.05
567.563	1791.39
567.925	1779.42
568.287	1806.08
568.648	1842.47
569.01	1805.4
569.372	1830.94
569.734	1826.19
570.095	1817.16
570.457	1817.61
570.819	1826.42
571.18	1804.95
571.542	1818.06
571.903	1827.1
572.265	1841.11
572.626	1851.28
572.987	1825.74
573.349	1821.68
573.71	1827.1
574.071	1849.7
574.432	1839.3
574.794	1828.91
575.155	1856.25
575.516	1825.29
575.877	1829.81
576.238	1838.85
576.599	1845.4
576.96	1842.47
577.32	1852.18
577.681	1822.35
578.042	1828.23
578.403	1812.18
578.763	1832.07
579.124	1819.19
579.485	1815.12
579.845	1810.38
580.206	1832.75
580.566	1846.99
580.927	1825.97
581.287	1811.05
581.648	1817.16
582.008	1821.45
582.368	1793.43
582.728	1820.55
583.089	1779.19
583.449	1773.99
583.809	1776.25
584.169	1772.41
584.529	1777.38
584.889	1827.32
585.249	1769.25
585.609	1762.24
585.969	1788.23
586.329	1751.62
586.688	1755.69
587.048	1775.35
587.408	1787.78
587.768	1745.97
588.127	1752.75
588.487	1763.82
588.846	1755.24
589.206	1766.76
589.565	1738.29
589.925	1722.02
590.284	1748.23
590.643	1764.28
591.003	1734.45
591.362	1771.28
591.721	1753.2
592.08	1745.52
592.44	1715.01
592.799	1756.37
593.158	1759.53
593.517	1747.55
593.876	1760.21
594.235	1750.94
594.593	1719.98
594.952	1760.21
595.311	1733.77
595.67	1740.32
596.029	1739.64
596.387	1738.74
596.746	1733.99
597.104	1753.65
597.463	1748.46
597.822	1751.62
598.18	1694.9
598.538	1688.8
598.897	1751.62
599.255	1694.45
599.613	1752.07
599.972	1750.72
600.33	1745.75
600.688	1737.84
601.046	1764.5
601.404	1738.29
601.762	1761.11
602.12	1719.31
602.478	1742.36
602.836	1745.52
603.194	1728.34
603.552	1761.34
603.91	1774.22
604.268	1737.84
604.625	1772.19
604.983	1775.35
605.341	1743.94
605.698	1749.59
606.056	1764.05
606.413	1758.63
606.771	1737.84
607.128	1741
607.485	1759.98
607.843	1753.65
608.2	1755.24
608.557	1779.19
608.914	1754.78
609.272	1769.25
609.629	1779.19
609.986	1780.32
610.343	1764.05
610.7	1794.11
611.057	1783.03
611.414	1800.21
611.771	1778.74
612.127	1810.15
612.484	1813.77
612.841	1787.33
613.198	1779.64
613.554	1765.41
613.911	1806.08
614.267	1806.31
614.624	1822.35
614.98	1821
615.337	1784.39
615.693	1788.91
616.05	1822.58
616.406	1813.54
616.762	1789.59
617.118	1767.21
617.475	1791.62
617.831	1825.74
618.187	1832.97
618.543	1810.15
618.899	1784.84
619.255	1798.4
619.611	1787.1
619.967	1800.66
620.323	1799.3
620.678	1815.12
621.034	1825.74
621.39	1828.68
621.746	1788.68
622.101	1852.63
622.457	1796.14
622.812	1762.69
623.168	1818.96
623.523	1804.73
623.879	1845.18
624.234	1797.27
624.589	1832.97
624.945	1818.06
625.3	1792.3
625.655	1809.25
626.01	1790.94
626.365	1800.66
626.72	1804.5
627.075	1779.19
627.43	1822.81
627.785	1807.44
628.14	1803.37
628.495	1816.48
628.85	1801.34
629.205	1767.21
629.559	1765.63
629.914	1812.18
630.269	1793.88
630.623	1776.03
630.978	1791.39
631.332	1790.72
631.687	1791.85
632.041	1804.73
632.396	1791.39
632.75	1760.43
633.104	1797.5
633.459	1782.35
633.813	1798.4
634.167	1790.49
634.521	1785.52
634.875	1768.12
635.229	1785.74
635.583	1762.92
635.937	1781.45
636.291	1788
636.645	1754.78
636.999	1736.48
637.352	1771.51
637.706	1757.27
638.06	1740.55
638.413	1751.39
638.767	1748.68
639.121	1786.2
639.474	1771.73
639.828	1793.2
640.181	1755.24
640.534	1767.89
640.888	1778.06
641.241	1738.74
641.594	1729.25
641.947	1776.48
642.301	1752.3
642.654	1773.54
643.007	1771.06
643.36	1758.17
643.713	1780.55
644.066	1755.01
644.419	1766.31
644.771	1731.28
645.124	1758.85
645.477	1719.53
645.83	1720.66
646.182	1723.15
646.535	1723.37
646.888	1713.43
647.24	1769.47
647.593	1761.56
647.945	1741.68
648.298	1750.72
648.65	1738.97
649.002	1769.7
649.355	1750.26
649.707	1750.72
650.059	1763.15
650.411	1756.82
650.763	1783.94
651.115	1826.87
651.467	1804.5
651.819	1808.12
652.171	1838.62
652.523	1817.38
652.875	1818.96
653.227	1806.31
653.578	1832.52
653.93	1833.2
654.282	1823.94
654.633	1879.3
654.985	1851.05
655.337	1829.81
655.688	1873.65
656.039	1864.16
656.391	1862.13
656.742	1870.26
657.094	1881.11
657.445	1914.55
657.796	1865.97
658.147	1911.16
658.498	1906.19
658.849	1895.57
659.2	1894.44
659.551	1912.97
659.902	1922.24
660.253	1933.76
660.604	1940.32
660.955	1939.64
661.306	1986.64
661.656	1959.07
662.007	1961.56
662.358	2004.72
662.708	2005.17
663.059	2009.92
663.409	2013.31
663.76	2026.19
664.11	2061.22
664.461	2053.53
664.811	2052.18
665.161	2053.76
665.511	2047.21
665.862	2113.64
666.212	2107.77
666.562	2132.63
666.912	2114.77
667.262	2106.19
667.612	2103.02
667.962	2166.75
668.312	2185.51
668.662	2206.3
669.011	2214.66
669.361	2185.96
669.711	2194.09
670.06	2199.29
670.41	2253.08
670.76	2266.18
671.109	2292.4
671.459	2261.89
671.808	2262.34
672.157	2323.13
672.507	2344.6
672.856	2328.33
673.205	2347.09
673.554	2350.25
673.904	2372.17
674.253	2414.88
674.602	2420.08
674.951	2413.3
675.3	2412.85
675.649	2476.8
675.998	2449.91
676.346	2465.27
676.695	2533.75
677.044	2492.17
677.393	2559.51
677.741	2540.07
678.09	2558.38
678.438	2594.54
678.787	2600.64
679.135	2653.74
679.484	2643.8
679.832	2693.29
680.181	2653.97
680.529	2685.16
680.877	2724.02
681.225	2720.63
681.573	2768.32
681.922	2737.58
682.27	2776.23
682.618	2811.71
682.966	2823.23
683.314	2844.47
683.661	2858.26
684.009	2868.2
684.357	2922.89
684.705	2913.17
685.053	2959.72
685.4	2976.22
685.748	2984.13
686.095	2992.72
686.443	2990.23
686.79	3017.8
687.138	3069.78
687.485	3084.24
687.832	3072.72
688.18	3070.91
688.527	3101.42
688.874	3101.64
689.221	3180.06
689.568	3181.87
689.915	3184.13
690.262	3207.63
690.609	3193.39
690.956	3252.37
691.303	3250.11
691.65	3299.6
691.997	3326.27
692.344	3288.76
692.69	3347.51
693.037	3373.5
693.383	3334.63
693.73	3429.54
694.077	3410.56
694.423	3432.03
694.769	3462.76
695.116	3463.44
695.462	3526.94
695.808	3546.38
696.155	3572.82
696.501	3587.73
696.847	3586.6
697.193	3633.38
697.539	3636.77
697.885	3638.8
698.231	3676.99
698.577	3675.41
698.923	3745.92
699.269	3702.08
699.614	3724
699.96	3761.96
700.306	3779.82
700.651	3800.83
700.997	3805.35
701.342	3845.12
701.688	3861.62
702.033	3901.17
702.379	3870.43
702.724	3925.8
703.069	3967.38
703.415	3935.29
703.76	3976.42
704.105	3994.27
704.45	4050.09
704.795	4032.01
705.14	4074.72
705.485	4036.76
705.83	4070.2
706.175	4135.29
706.52	4150.88
706.865	4113.14
707.209	4200.82
707.554	4190.43
707.899	4210.09
708.243	4184.33
708.588	4257.54
708.932	4226.13
709.277	4253.25
709.621	4253.48
709.966	4290.08
710.31	4319.91
710.654	4299.35
710.998	4347.71
711.342	4355.62
711.687	4384.77
712.031	4363.3
712.375	4391.78
712.719	4431.55
713.063	4429.06
713.407	4472.9
713.75	4485.33
714.094	4512.68
714.438	4554.94
714.782	4538.67
715.125	4544.77
715.469	4554.26
715.812	4570.53
716.156	4555.16
716.499	4616.63
716.843	4603.97
717.186	4626.35
717.53	4655.5
717.873	4676.74
718.216	4703.41
718.559	4628.83
718.902	4680.13
719.246	4686.01
719.589	4720.13
719.932	4693.69
720.275	4726.46
720.617	4727.36
720.96	4755.38
721.303	4781.37
721.646	4739.34
721.989	4759.45
722.331	4810.75
722.674	4804.87
723.016	4820.47
723.359	4791.09
723.701	4839.68
724.044	4816.17
724.386	4828.38
724.729	4839.9
725.071	4813.01
725.413	4905.21
725.755	4864.31
726.097	4911.09
726.439	4848.94
726.782	4854.82
727.124	4931.42
727.465	4871.31
727.807	4891.88
728.149	4900.24
728.491	4894.59
728.833	4903.18
729.175	4949.28
729.516	4887.58
729.858	4937.75
730.199	4953.57
730.541	4908.83
730.882	4933.01
731.224	4974.81
731.565	4953.34
731.906	4951.08
732.248	4970.52
732.589	4964.42
732.93	4916.96
733.271	4946.79
733.612	4962.16
733.953	4997.64
734.294	4990.18
734.635	4921.03
734.976	5043.29
735.317	4972.55
735.658	4950.86
735.999	4948.82
736.339	5003.29
736.68	5028.37
737.021	4935.72
737.361	4987.24
737.702	5006.68
738.042	4955.38
738.383	4978.2
738.723	4992.44
739.063	4994.47
739.404	5024.53
739.744	4938.43
740.084	4964.19
740.424	5026.11
740.764	4980.91
741.104	5022.27
741.444	4947.02
741.784	4937.3
742.124	5010.97
742.464	4947.24
742.804	4910.18
743.143	4944.08
743.483	5006.45
743.823	4931.88
744.162	4988.15
744.502	4949.5
744.841	4953.8
745.181	4956.28
745.52	4951.99
745.86	4923.29
746.199	4967.81
746.538	4940.24
746.877	4957.41
747.216	4928.94
747.556	4907.92
747.895	4927.13
748.234	4922.84
748.573	4922.61
748.911	4921.03
749.25	4935.72
749.589	4865.89
749.928	4890.52
750.267	4901.59
750.605	4909.28
750.944	4868.6
751.283	4874.93
751.621	4859.34
751.96	4900.24
752.298	4918.99
752.636	4827.7
752.975	4833.12
753.313	4825.44
753.651	4806.91
753.989	4822.95
754.327	4806.91
754.666	4816.17
755.004	4821.82
755.342	4838.77
755.679	4777.98
756.017	4735.95
756.355	4740.02
756.693	4732.79
757.031	4729.62
757.368	4735.04
757.706	4731.88
758.044	4690.07
758.381	4705.67
758.719	4661.15
759.056	4722.84
759.394	4719.45
759.731	4696.18
760.068	4664.31
760.405	4646.91
760.743	4648.04
761.08	4628.61
761.417	4618.89
761.754	4611.43
762.091	4601.26
762.428	4575.05
762.765	4526.69
763.102	4543.41
763.438	4568.5
763.775	4539.34
764.112	4546.35
764.449	4546.8
764.785	4523.3
765.122	4506.58
765.458	4466.58
765.795	4465.45
766.131	4425
766.467	4444.88
766.804	4429.97
767.14	4404.21
767.476	4406.01
767.812	4367.6
768.148	4424.09
768.485	4373.7
768.821	4353.81
769.157	4380.03
769.492	4340.48
769.828	4309.07
770.164	4290.76
770.5	4272.46
770.836	4281.27
771.171	4203.76
771.507	4278.11
771.842	4200.6
772.178	4225.68
772.513	4227.26
772.849	4214.38
