Data from carpet_green_FLMS001491_00001.txt Node
Date: Wed Feb 08 10:34:47 GMT 2017
User: dcchb
Spectrometer: FLMS00149
Trigger mode: 0
Integration Time (sec): 2.000000E-2
Scans to average: 10
Electric dark correction enabled: true
Nonlinearity correction enabled: false
Boxcar width: 0
XAxis mode: Wavelengths
Number of Pixels in Spectrum: 2048
>>>>>Begin Spectral Data<<<<<
341.393	0.27
341.776	0.27
342.16	0.27
342.543	-57.36
342.927	-61.88
343.31	-67.53
343.693	-66.4
344.077	-45.61
344.46	-63.68
344.843	-54.42
345.226	-42.67
345.61	-25.04
345.993	-32.73
346.376	-5.38
346.759	26.03
347.142	10.21
347.525	24
347.908	54.28
348.291	74.39
348.674	115.75
349.057	98.8
349.44	115.75
349.823	139.7
350.206	146.71
350.588	165.46
350.971	174.05
351.354	190.32
351.737	218.79
352.119	225.35
352.502	216.76
352.884	262.63
353.267	260.83
353.65	253.14
354.032	282.52
354.414	271.45
354.797	288.85
355.179	287.72
355.562	309.41
355.944	284.55
356.326	302.86
356.709	299.47
357.091	316.64
357.473	304.67
357.855	321.39
358.238	310.32
358.62	312.58
359.002	307.15
359.384	308.96
359.766	330.88
360.148	303.54
360.53	297.89
360.912	307.38
361.294	301.28
361.676	300.15
362.057	326.81
362.439	304.44
362.821	311.9
363.203	281.84
363.584	276.65
363.966	278.23
364.348	280.26
364.729	287.49
365.111	279.58
365.493	285.46
365.874	273.26
366.256	283.88
366.637	293.59
367.019	279.36
367.4	281.16
367.781	284.1
368.163	265.8
368.544	266.93
368.925	263.54
369.306	273.26
369.688	282.29
370.069	272.35
370.45	285.01
370.831	270.54
371.212	265.57
371.593	278
371.974	274.39
372.355	306.47
372.736	281.62
373.117	269.64
373.498	272.8
373.879	288.85
374.26	286.59
374.641	307.38
375.021	287.27
375.402	269.87
375.783	276.87
376.163	286.81
376.544	282.29
376.925	267.15
377.305	276.65
377.686	286.14
378.066	303.09
378.447	290.66
378.827	272.8
379.208	278.68
379.588	281.39
379.968	295.18
380.349	296.53
380.729	285.68
381.109	295.85
381.489	292.92
381.87	289.3
382.25	284.1
382.63	303.76
383.01	291.56
383.39	298.79
383.77	277.78
384.15	293.37
384.53	285.46
384.91	284.78
385.29	281.62
385.67	300.6
386.049	284.78
386.429	298.79
386.809	289.98
387.189	276.65
387.568	304.89
387.948	301.96
388.328	300.6
388.707	318.68
389.087	301.5
389.466	291.11
389.846	287.72
390.225	303.09
390.605	304.44
390.984	306.7
391.363	307.15
391.743	290.66
392.122	315.97
392.501	307.15
392.881	282.07
393.26	312.8
393.639	306.7
394.018	310.54
394.397	300.37
394.776	305.8
395.155	302.86
395.534	297.66
395.913	306.93
396.292	293.37
396.671	285.46
397.05	297.89
397.429	312.12
397.808	303.09
398.186	315.97
398.565	308.73
398.944	307.38
399.323	303.09
399.701	293.14
400.08	291.56
400.458	299.7
400.837	302.63
401.215	303.54
401.594	305.8
401.972	291.33
402.351	292.24
402.729	297.44
403.107	325.23
403.486	300.83
403.864	310.32
404.242	302.86
404.62	313.93
404.999	287.72
405.377	311.67
405.755	304.67
406.133	315.29
406.511	307.6
406.889	297.89
407.267	308.28
407.645	325.01
408.023	325.46
408.401	310.77
408.779	325.46
409.156	315.74
409.534	307.38
409.912	313.25
410.29	311.67
410.667	321.62
411.045	299.7
411.422	312.12
411.8	331.11
412.178	301.96
412.555	318.23
412.933	319.36
413.31	327.49
413.687	335.4
414.065	314.16
414.442	329.75
414.819	327.49
415.197	318.9
415.574	321.39
415.951	327.72
416.328	339.24
416.705	314.16
417.082	308.96
417.46	328.62
417.837	337.21
418.214	326.14
418.591	308.96
418.967	320.03
419.344	340.15
419.721	330.2
420.098	326.59
420.475	330.66
420.852	344.89
421.228	343.31
421.605	315.06
421.982	352.8
422.358	342.63
422.735	342.41
423.111	334.95
423.488	336.3
423.864	349.41
424.241	324.55
424.617	358.68
424.994	332.91
425.37	358
425.746	344.89
426.123	352.35
426.499	326.59
426.875	318.68
427.251	337.43
427.627	346.93
428.003	365
428.379	370.2
428.756	348.28
429.132	341.73
429.507	360.03
429.883	361.61
430.259	359.81
430.635	357.55
431.011	363.87
431.387	339.92
431.763	338.79
432.138	345.34
432.514	356.87
432.89	357.55
433.265	363.87
433.641	354.61
434.016	372.91
434.392	352.35
434.767	375.63
435.143	372.69
435.518	367.26
435.894	375.85
436.269	382.86
436.644	383.76
437.02	362.29
437.395	380.6
437.77	371.56
438.145	372.46
438.52	355.51
438.895	376.53
439.271	371.33
439.646	383.99
440.021	367.49
440.395	396.19
440.77	383.76
441.145	367.49
441.52	361.39
441.895	392.12
442.27	389.86
442.645	388.73
443.019	382.86
443.394	399.13
443.769	381.73
444.143	372.46
444.518	381.95
444.892	378.34
445.267	380.82
445.641	381.28
446.016	393.48
446.39	372.46
446.764	385.57
447.139	412.91
447.513	395.96
447.887	401.16
448.262	404.33
448.636	389.41
449.01	400.94
449.384	410.2
449.758	421.5
450.132	396.87
450.506	419.47
450.88	396.87
451.254	390.99
451.628	398.68
452.002	397.32
452.376	398.45
452.75	413.82
453.123	404.1
453.497	413.14
453.871	404.1
454.244	390.09
454.618	405.46
454.992	418.11
455.365	415.62
455.739	400.71
456.112	450.2
456.486	430.09
456.859	409.07
457.232	418.56
457.606	416.98
457.979	425.12
458.352	446.81
458.725	421.27
459.099	440.71
459.472	444.55
459.845	446.36
460.218	443.65
460.591	437.54
460.964	455.62
461.337	463.08
461.71	461.5
462.083	452.01
462.456	469.86
462.829	423.76
463.201	454.04
463.574	445.23
463.947	479.58
464.32	462.63
464.692	475.28
465.065	484.55
465.438	475.28
465.81	469.86
466.183	466.47
466.555	494.94
466.928	464.66
467.3	479.58
467.672	500.14
468.045	485.91
468.417	483.65
468.789	494.94
469.161	496.3
469.534	494.72
469.906	510.99
470.278	496.98
470.65	508.28
471.022	512.12
471.394	522.06
471.766	520.71
472.138	533.36
472.51	521.38
472.882	543.76
473.253	543.08
473.625	536.75
473.997	534.49
474.369	560.25
474.74	564.55
475.112	545.11
475.484	556.64
475.855	557.32
476.227	554.38
476.598	575.17
476.97	579.46
477.341	583.76
477.713	569.52
478.084	573.13
478.455	610.65
478.827	614.04
479.198	597.99
479.569	602.96
479.94	619.24
480.311	624.88
480.682	649.06
481.053	633.47
481.424	663.53
481.795	632.57
482.166	639.12
482.537	667.37
482.908	682.51
483.279	668.5
483.65	670.53
484.021	692.68
484.391	698.33
484.762	710.76
485.133	722.06
485.503	701.27
485.874	718.67
486.244	712.57
486.615	732.23
486.985	723.19
487.356	737.42
487.726	736.07
488.097	732.68
488.467	773.36
488.837	776.29
489.207	780.59
489.578	781.94
489.948	796.86
490.318	795.05
490.688	788.72
491.058	808.61
491.428	810.19
491.798	827.37
492.168	819.46
492.538	832.34
492.908	860.81
493.278	816.07
493.648	866.46
494.017	854.71
494.387	871.21
494.757	871.88
495.126	850.42
495.496	840.92
495.866	855.16
496.235	879.79
496.605	880.47
496.974	876.63
497.344	910.53
497.713	889.74
498.082	890.41
498.452	912.33
498.821	881.6
499.19	927.7
499.559	927.93
499.928	913.92
500.298	928.61
500.667	943.07
501.036	906.46
501.405	941.03
501.774	939.68
502.143	938.77
502.512	947.59
502.88	923.18
503.249	955.95
503.618	960.7
503.987	939.9
504.356	962.5
504.724	965.89
505.093	967.7
505.462	969.73
505.83	971.32
506.199	975.38
506.567	984.65
506.936	961.15
507.304	980.36
507.672	991.2
508.041	985.78
508.409	971.09
508.777	974.03
509.145	1010.19
509.514	1006.57
509.882	1008.83
510.25	992.56
510.618	1029.17
510.986	988.04
511.354	1037.08
511.722	1027.13
512.09	1046.57
512.458	1035.04
512.826	1048.6
513.193	1040.92
513.561	1045.21
513.929	1059.68
514.297	1070.97
514.664	1051.99
515.032	1056.74
515.4	1058.77
515.767	1051.77
516.135	1064.87
516.502	1060.81
516.869	1079.11
517.237	1079.11
517.604	1076.62
517.972	1086.79
518.339	1085.44
518.706	1093.12
519.073	1108.04
519.44	1084.76
519.808	1129.5
520.175	1102.39
520.542	1091.09
520.909	1099.22
521.276	1098.32
521.643	1112.33
522.009	1132.67
522.376	1124.98
522.743	1134.25
523.11	1155.27
523.477	1117.53
523.843	1158.43
524.21	1164.98
524.577	1148.49
524.943	1139
525.31	1166.11
525.676	1175.83
526.043	1166.79
526.409	1186.68
526.776	1176.96
527.142	1204.3
527.508	1195.94
527.874	1181.48
528.241	1203.17
528.607	1172.67
528.973	1198.88
529.339	1184.87
529.705	1239.56
530.071	1183.06
530.437	1181.25
530.803	1219.9
531.169	1207.92
531.535	1185.55
531.901	1215.83
532.267	1206.34
532.632	1222.61
532.998	1194.36
533.364	1223.51
533.73	1211.76
534.095	1197.3
534.461	1211.31
534.826	1199.56
535.192	1230.07
535.557	1226.22
535.923	1183.97
536.288	1207.69
536.653	1237.98
537.019	1234.81
537.384	1210.86
537.749	1244.98
538.114	1255.83
538.479	1236.85
538.845	1199.56
539.21	1229.61
539.575	1254.7
539.94	1238.65
540.305	1223.96
540.67	1244.08
541.034	1233
541.399	1243.63
541.764	1209.28
542.129	1233.91
542.494	1243.17
542.858	1237.75
543.223	1240.24
543.587	1215.15
543.952	1237.07
544.316	1243.4
544.681	1239.56
545.045	1212.21
545.41	1245.89
545.774	1262.83
546.138	1218.99
546.503	1227.58
546.867	1231.2
547.231	1226.9
547.595	1228.03
547.959	1242.04
548.324	1256.96
548.688	1234.36
549.052	1270.97
549.416	1256.05
549.779	1259.9
550.143	1267.13
550.507	1261.25
550.871	1276.17
551.235	1229.61
551.599	1245.43
551.962	1261.48
552.326	1256.73
552.689	1275.26
553.053	1262.16
553.417	1258.77
553.78	1262.83
554.143	1257.18
554.507	1250.63
554.87	1254.47
555.234	1283.17
555.597	1268.03
555.96	1302.83
556.323	1279.56
556.686	1273.91
557.05	1285.66
557.413	1285.21
557.776	1279.56
558.139	1297.64
558.502	1297.64
558.865	1295.15
559.228	1301.93
559.59	1295.6
559.953	1308.03
560.316	1284.75
560.679	1285.21
561.041	1326.56
561.404	1318.43
561.767	1328.37
562.129	1315.04
562.492	1337.18
562.854	1313
563.217	1297.64
563.579	1316.17
563.941	1320.46
564.304	1321.82
564.666	1312.32
565.028	1317.3
565.39	1342.38
565.753	1342.83
566.115	1338.76
566.477	1356.84
566.839	1360.46
567.201	1374.92
567.563	1349.16
567.925	1323.85
568.287	1365.66
568.648	1319.56
569.01	1366.56
569.372	1357.29
569.734	1382.6
570.095	1338.76
570.457	1359.1
570.819	1376.5
571.18	1399.33
571.542	1357.75
571.903	1353.68
572.265	1372.66
572.626	1367.24
572.987	1351.65
573.349	1366.79
573.71	1361.36
574.071	1369.05
574.432	1376.96
574.794	1362.04
575.155	1372.89
575.516	1362.49
575.877	1353.45
576.238	1372.21
576.599	1366.79
576.96	1374.47
577.32	1359.55
577.681	1388.93
578.042	1369.05
578.403	1357.97
578.763	1348.71
579.124	1371.53
579.485	1355.71
579.845	1366.79
580.206	1371.53
580.566	1375.6
580.927	1358.65
581.287	1394.13
581.648	1350.29
582.008	1366.79
582.368	1364.07
582.728	1361.36
583.089	1328.37
583.449	1356.62
583.809	1374.24
584.169	1326.11
584.529	1322.04
584.889	1350.52
585.249	1344.41
585.609	1328.14
585.969	1352.1
586.329	1336.96
586.688	1373.34
587.048	1346.9
587.408	1335.83
587.768	1325.43
588.127	1326.79
588.487	1323.17
588.846	1362.94
589.206	1341.7
589.565	1333.11
589.925	1355.26
590.284	1334.24
590.643	1342.83
591.003	1334.92
591.362	1339.22
591.721	1327.92
592.08	1313.68
592.44	1336.05
592.799	1327.47
593.158	1322.04
593.517	1326.11
593.876	1319.78
594.235	1351.42
594.593	1336.73
594.952	1345.09
595.311	1329.72
595.67	1300.12
596.029	1324.75
596.387	1339.44
596.746	1324.98
597.104	1312.32
597.463	1329.95
597.822	1336.73
598.18	1339.67
598.538	1321.14
598.897	1318.65
599.255	1307.8
599.613	1312.32
599.972	1328.14
600.33	1319.56
600.688	1314.13
601.046	1283.62
601.404	1338.54
601.762	1309.16
602.12	1337.18
602.478	1312.1
602.836	1325.88
603.194	1341.25
603.552	1343.51
603.91	1310.97
604.268	1341.93
604.625	1310.52
604.983	1347.8
605.341	1304.19
605.698	1332.66
606.056	1318.88
606.413	1353.23
606.771	1348.48
607.128	1347.35
607.485	1342.83
607.843	1359.33
608.2	1344.41
608.557	1345.32
608.914	1359.55
609.272	1354.36
609.629	1353
609.986	1359.1
610.343	1359.55
610.7	1355.71
611.057	1356.62
611.414	1363.17
611.771	1356.16
612.127	1353.68
612.484	1392.77
612.841	1378.09
613.198	1346.45
613.554	1365.66
613.911	1368.37
614.267	1392.1
614.624	1350.29
614.98	1378.76
615.337	1360.23
615.693	1382.83
616.05	1381.7
616.406	1385.32
616.762	1364.53
617.118	1375.15
617.475	1378.76
617.831	1385.54
618.187	1365.88
618.543	1378.76
618.899	1391.64
619.255	1374.7
619.611	1372.44
619.967	1366.33
620.323	1396.62
620.678	1368.59
621.034	1401.36
621.39	1389.16
621.746	1354.13
622.101	1389.61
622.457	1373.79
622.812	1382.83
623.168	1364.98
623.523	1361.59
623.879	1351.87
624.234	1349.61
624.589	1374.02
624.945	1368.59
625.3	1393.9
625.655	1382.6
626.01	1386.22
626.365	1364.3
626.72	1369.95
627.075	1380.35
627.43	1413.11
627.785	1373.79
628.14	1374.47
628.495	1393.45
628.85	1379.44
629.205	1376.28
629.559	1393.23
629.914	1395.49
630.269	1357.07
630.623	1374.47
630.978	1350.06
631.332	1379.22
631.687	1387.12
632.041	1370.63
632.396	1357.75
632.75	1357.97
633.104	1352.55
633.459	1359.33
633.813	1365.2
634.167	1363.62
634.521	1342.61
634.875	1349.84
635.229	1353
635.583	1333.34
635.937	1344.41
636.291	1355.94
636.645	1355.94
636.999	1342.61
637.352	1344.19
637.706	1346.45
638.06	1346.9
638.413	1371.76
638.767	1344.64
639.121	1344.41
639.474	1329.5
639.828	1345.54
640.181	1335.15
640.534	1374.47
640.888	1369.72
641.241	1361.81
641.594	1341.25
641.947	1359.1
642.301	1351.65
642.654	1344.87
643.007	1361.36
643.36	1331.53
643.713	1344.41
644.066	1361.36
644.419	1336.73
644.771	1324.08
645.124	1358.42
645.477	1343.96
645.83	1338.76
646.182	1321.82
646.535	1351.65
646.888	1343.74
647.24	1348.26
647.593	1356.62
647.945	1341.93
648.298	1345.09
648.65	1350.97
649.002	1331.76
649.355	1333.34
649.707	1380.35
650.059	1378.54
650.411	1353.45
650.763	1397.75
651.115	1378.54
651.467	1401.36
651.819	1412.66
652.171	1417.41
652.523	1414.92
652.875	1393.45
653.227	1402.27
653.578	1412.43
653.93	1437.52
654.282	1422.15
654.633	1428.93
654.985	1421.47
655.337	1429.84
655.688	1427.58
656.039	1456.05
656.391	1436.39
656.742	1471.19
657.094	1453.79
657.445	1456.95
657.796	1443.17
658.147	1473.45
658.498	1482.04
658.849	1475.48
659.2	1488.14
659.551	1498.99
659.902	1508.03
660.253	1528.82
660.604	1513.22
660.955	1518.19
661.306	1544.41
661.656	1542.15
662.007	1523.39
662.358	1505.09
662.708	1528.59
663.059	1560
663.409	1571.3
663.76	1576.05
664.11	1571.53
664.461	1602.71
664.811	1607.46
665.161	1593.67
665.511	1614.24
665.862	1633.45
666.212	1651.07
666.562	1675.03
666.912	1656.04
667.262	1702.6
667.612	1694.69
667.962	1692.88
668.312	1700.34
668.662	1738.3
669.011	1731.97
669.361	1750.73
669.711	1773.56
670.06	1752.09
670.41	1752.09
670.76	1787.34
671.109	1806.55
671.459	1802.25
671.808	1843.61
672.157	1829.15
672.507	1811.07
672.856	1837.51
673.205	1840.45
673.554	1893.78
673.904	1906.66
674.253	1910.05
674.602	1925.64
674.951	1912.53
675.3	1904.17
675.649	1958.86
675.998	1970.39
676.346	1981.46
676.695	2003.15
677.044	2011.29
677.393	2034.57
677.741	2043.83
678.09	2045.41
678.438	2067.33
678.787	2110.27
679.135	2087.45
679.484	2131.96
679.832	2113.66
680.181	2181.68
680.529	2196.14
680.877	2205.41
681.225	2221.23
681.573	2228.46
681.922	2219.42
682.27	2244.05
682.618	2286.31
682.966	2297.16
683.314	2299.64
683.661	2310.26
684.009	2319.76
684.357	2350.49
684.705	2333.99
685.053	2401.34
685.4	2371.28
685.748	2406.76
686.095	2427.1
686.443	2489.24
686.79	2476.59
687.138	2458.51
687.485	2527.89
687.832	2534.66
688.18	2571.5
688.527	2557.49
688.874	2555.46
689.221	2631.39
689.568	2618.05
689.915	2630.48
690.262	2646.07
690.609	2693.53
690.956	2700.31
691.303	2689.92
691.65	2732.4
691.997	2713.19
692.344	2784.6
692.69	2807.2
693.037	2816.47
693.383	2842.68
693.73	2837.26
694.077	2858.95
694.423	2832.51
694.769	2893.07
695.116	2890.81
695.462	2937.82
695.808	2944.37
696.155	2963.58
696.501	2997.7
696.847	3032.28
697.193	3027.99
697.539	3060.07
697.885	3019.17
698.231	3081.32
698.577	3133.07
698.923	3108.89
699.269	3133.29
699.614	3183.69
699.96	3176.46
700.306	3168.32
700.651	3207.19
700.997	3216.68
701.342	3243.8
701.688	3254.87
702.033	3281.76
702.379	3333.29
702.724	3264.59
703.069	3377.81
703.415	3347.3
703.76	3354.3
704.105	3350.01
704.45	3384.36
704.795	3396.56
705.14	3420.29
705.485	3456
705.83	3454.19
706.175	3497.35
706.52	3531.25
706.865	3516.56
707.209	3574.41
707.554	3564.69
707.899	3602.21
708.243	3645.37
708.588	3623.22
708.932	3609.66
709.277	3687.63
709.621	3694.18
709.966	3699.15
710.31	3696.67
710.654	3712.04
710.998	3748.87
711.342	3725.59
711.687	3753.16
712.031	3769.21
712.375	3767.63
712.719	3809.21
713.063	3818.25
713.407	3855.31
713.75	3875.65
714.094	3878.36
714.438	3871.35
714.782	3941.63
715.125	3888.98
715.469	3910
715.812	3914.74
716.156	3906.38
716.499	3968.3
716.843	3989.99
717.186	3967.62
717.53	4013.72
717.873	4043.1
718.216	4039.26
718.559	4020.05
718.902	3998.81
719.246	4035.42
719.589	4046.72
719.932	4020.05
720.275	4102.31
720.617	4105.7
720.96	4069.31
721.303	4148.41
721.646	4142.98
721.989	4141.85
722.331	4211.23
722.674	4147.28
723.016	4178.46
723.359	4181.63
723.701	4229.99
724.044	4138.46
724.386	4127.84
724.729	4204.23
725.071	4190.67
725.413	4224.56
725.755	4232.25
726.097	4228.86
726.439	4227.95
726.782	4227.28
727.124	4267.27
727.465	4285.35
727.807	4251.46
728.149	4257.56
728.491	4236.54
728.833	4312.47
729.175	4291
729.516	4272.47
729.858	4277.67
730.199	4300.49
730.541	4297.56
730.882	4318.12
731.224	4309.76
731.565	4328.97
731.906	4300.27
732.248	4333.26
732.589	4309.53
732.93	4328.29
733.271	4301.62
733.612	4324.45
733.953	4368.29
734.294	4406.03
734.635	4366.26
734.976	4328.74
735.317	4342.98
735.658	4355.63
735.999	4348.63
736.339	4378.91
736.68	4322.87
737.021	4397.67
737.361	4368.06
737.702	4366.71
738.042	4393.6
738.383	4397.21
738.723	4383.2
739.063	4361.96
739.404	4390.89
739.744	4387.5
740.084	4352.24
740.424	4345.92
740.764	4353.6
741.104	4346.37
741.444	4364.22
741.784	4356.31
742.124	4355.63
742.464	4354.28
742.804	4331.68
743.143	4324.45
743.483	4382.53
743.823	4301.85
744.162	4311.34
744.502	4366.03
744.841	4342.75
745.181	4341.4
745.52	4322.87
745.86	4336.65
746.199	4341.62
746.538	4349.98
746.877	4368.52
747.216	4377.33
747.556	4346.14
747.895	4319.93
748.234	4286.26
748.573	4300.27
748.911	4307.27
749.25	4319.25
749.589	4342.53
749.928	4336.43
750.267	4348.85
750.605	4263.66
750.944	4268.86
751.283	4272.7
751.621	4280.38
751.96	4295.52
752.298	4285.58
752.636	4234.51
752.975	4225.92
753.313	4251.23
753.651	4227.73
753.989	4226.6
754.327	4228.18
754.666	4203.55
755.004	4206.03
755.342	4224.56
755.679	4217.33
756.017	4186.6
756.355	4161.97
756.693	4198.58
757.031	4160.38
757.368	4173.94
757.706	4189.76
758.044	4159.48
758.381	4139.14
758.719	4080.39
759.056	4150.22
759.394	4107.28
759.731	4088.52
760.068	4140.5
760.405	4046.26
760.743	4062.53
761.08	4073.38
761.417	4050.56
761.754	4062.53
762.091	4062.76
762.428	3996.77
762.765	4013.27
763.102	4033.38
763.438	4007.85
763.775	3995.87
764.112	3978.24
764.449	3968.07
764.785	3969.66
765.122	3948.41
765.458	3950.9
765.795	3909.32
766.131	3936.89
766.467	3926.27
766.804	3853.5
767.14	3886.72
767.476	3861.64
767.812	3885.36
768.148	3862.54
768.485	3835.42
768.821	3842.65
769.157	3844.69
769.492	3825.48
769.828	3834.74
770.164	3769.66
770.5	3769.66
770.836	3796.1
771.171	3784.35
771.507	3745.71
771.842	3741.19
772.178	3715.88
772.513	3690.57
772.849	3669.32
773.184	3697.57
773.519	3712.04
773.855	3657.8
