Data from carpet_green_FLMS001491_00046.txt Node
Date: Wed Feb 08 10:35:25 GMT 2017
User: dcchb
Spectrometer: FLMS00149
Trigger mode: 0
Integration Time (sec): 2.000000E-2
Scans to average: 10
Electric dark correction enabled: true
Nonlinearity correction enabled: false
Boxcar width: 0
XAxis mode: Wavelengths
Number of Pixels in Spectrum: 2048
>>>>>Begin Spectral Data<<<<<
341.393	-52.48
341.776	-52.48
342.16	-52.48
342.543	-60.39
342.927	-67.17
343.31	-64.01
343.693	-67.63
344.077	-64.01
344.46	-61.98
344.843	-65.14
345.226	-50.22
345.61	-24.46
345.993	-23.33
346.376	9.89
346.759	1.75
347.142	34.74
347.525	37
347.908	70.22
348.291	78.36
348.674	90.79
349.057	98.02
349.44	124.46
349.823	126.49
350.206	150.9
350.588	171.46
350.971	182.09
351.354	215.31
351.737	199.94
352.119	218.02
352.502	239.71
352.884	234.06
353.267	248.07
353.65	270.67
354.032	274.06
354.414	292.82
354.797	282.2
355.179	296.66
355.562	287.85
355.944	302.08
356.326	277
356.709	298.69
357.091	286.26
357.473	301.86
357.855	300.73
358.238	316.09
358.62	302.99
359.002	298.01
359.384	288.52
359.766	301.86
360.148	300.27
360.53	311.8
360.912	313.38
361.294	317.68
361.676	286.49
362.057	318.58
362.439	316.77
362.821	275.87
363.203	296.43
363.584	300.27
363.966	303.89
364.348	302.08
364.729	274.74
365.111	266.83
365.493	292.14
365.874	275.87
366.256	286.49
366.637	285.81
367.019	271.12
367.4	273.16
367.781	290.33
368.163	271.57
368.544	276.77
368.925	281.07
369.306	271.12
369.688	289.2
370.069	281.29
370.45	258.02
370.831	287.17
371.212	267.51
371.593	272.25
371.974	270.67
372.355	275.87
372.736	279.71
373.117	268.41
373.498	304.79
373.879	264.57
374.26	271.57
374.641	298.24
375.021	288.07
375.402	291.46
375.783	263.89
376.163	275.87
376.544	274.96
376.925	291.69
377.305	270.67
377.686	277.22
378.066	269.77
378.447	294.63
378.827	292.14
379.208	289.2
379.588	286.04
379.968	305.92
380.349	272.48
380.729	281.97
381.109	257.56
381.489	285.81
381.87	293.5
382.25	300.95
382.63	277.22
383.01	297.79
383.39	288.52
383.77	298.01
384.15	275.42
384.53	286.72
384.91	295.08
385.29	286.49
385.67	305.02
386.049	309.31
386.429	303.66
386.809	305.25
387.189	319.26
387.568	291.69
387.948	284
388.328	283.78
388.707	296.66
389.087	302.99
389.466	293.5
389.846	278.81
390.225	280.16
390.605	321.52
390.984	284.91
391.363	292.37
391.743	297.79
392.122	296.66
392.501	293.27
392.881	304.34
393.26	310.44
393.639	299.14
394.018	306.38
394.397	321.29
394.776	300.73
395.155	290.56
395.534	284
395.913	300.5
396.292	311.12
396.671	277.45
397.05	304.79
397.429	310.67
397.808	308.18
398.186	323.55
398.565	308.64
398.944	279.48
399.323	296.43
399.701	307.51
400.08	316.77
400.458	311.57
400.837	298.01
401.215	289.2
401.594	300.95
401.972	304.79
402.351	302.31
402.729	326.94
403.107	299.6
403.486	309.31
403.864	334.4
404.242	313.61
404.62	305.92
404.999	305.92
405.377	319.48
405.755	320.16
406.133	321.07
406.511	322.19
406.889	296.88
407.267	278.35
407.645	321.07
408.023	310.9
408.401	309.54
408.779	313.16
409.156	299.82
409.534	316.55
409.912	324.45
410.29	310.22
410.667	319.71
411.045	324.91
411.422	309.09
411.8	316.32
412.178	316.32
412.555	310.67
412.933	319.48
413.31	317.9
413.687	326.04
414.065	309.09
414.442	324.91
414.819	317.45
415.197	310.44
415.574	330.33
415.951	319.94
416.328	313.38
416.705	330.56
417.082	350.67
417.46	323.1
417.837	313.61
418.214	334.62
418.591	338.24
418.967	340.05
419.344	331.01
419.721	335.75
420.098	339.82
420.475	316.09
420.852	338.01
421.228	330.1
421.605	347.96
421.982	355.41
422.358	337.79
422.735	333.49
423.111	345.02
423.488	323.78
423.864	311.12
424.241	339.37
424.617	335.75
424.994	334.85
425.37	349.99
425.746	307.28
426.123	364.68
426.499	353.83
426.875	338.92
427.251	344.79
427.627	326.94
428.003	339.37
428.379	340.27
428.756	362.65
429.132	362.19
429.507	351.57
429.883	335.75
430.259	341.63
430.635	338.69
431.011	357.22
431.387	335.53
431.763	368.52
432.138	346.15
432.514	355.64
432.89	350.22
433.265	355.19
433.641	363.32
434.016	340.5
434.392	346.83
434.767	368.75
435.143	374.85
435.518	335.98
435.894	376.88
436.269	376.2
436.644	368.97
437.02	375.3
437.395	378.69
437.77	353.15
438.145	367.39
438.52	370.56
438.895	364.23
439.271	378.69
439.646	367.39
440.021	346.83
440.395	366.49
440.77	369.2
441.145	373.72
441.52	360.39
441.895	360.84
442.27	387.28
442.645	393.15
443.019	375.75
443.394	364
443.769	410.1
444.143	365.36
444.518	387.05
444.892	406.03
445.267	391.35
445.641	379.59
446.016	394.74
446.39	380.05
446.764	421.85
447.139	375.53
447.513	388.41
447.887	363.55
448.262	413.49
448.636	400.16
449.01	389.76
449.384	393.15
449.758	400.38
450.132	385.92
450.506	375.75
450.88	402.19
451.254	422.76
451.628	391.35
452.002	384.57
452.376	400.16
452.75	416.88
453.123	388.86
453.497	396.32
453.871	424.34
454.244	415.98
454.618	418.24
454.992	426.15
455.365	413.49
455.739	397.67
456.112	416.88
456.486	411.91
456.859	411.46
457.232	425.47
457.606	442.64
457.979	420.72
458.352	437.9
458.725	446.94
459.099	415.53
459.472	441.51
459.845	439.71
460.218	431.34
460.591	448.97
460.964	435.64
461.337	433.38
461.71	456.88
462.083	451.46
462.456	445.81
462.829	435.19
463.201	456.2
463.574	462.3
463.947	441.97
464.32	462.76
464.692	458.69
465.065	472.25
465.438	461.17
465.81	465.24
466.183	455.98
466.555	463.21
466.928	479.03
467.3	495.3
467.672	492.36
468.045	501.4
468.417	481.96
468.789	498.01
469.161	502.76
469.534	471.34
469.906	498.46
470.278	515.86
470.65	516.99
471.022	519.93
471.394	531
471.766	529.65
472.138	533.04
472.51	512.02
472.882	520.38
473.253	535.3
473.625	527.84
473.997	540.04
474.369	528.07
474.74	543.21
475.112	552.25
475.484	542.53
475.855	557.22
476.227	575.3
476.598	577.1
476.97	574.84
477.341	578.69
477.713	568.06
478.084	582.3
478.455	573.71
478.827	581.85
479.198	608.29
479.569	605.58
479.94	621.17
480.311	632.02
480.682	649.19
481.053	643.54
481.424	636.08
481.795	628.85
482.166	686.93
482.537	653.71
482.908	634.73
483.279	652.81
483.65	668.63
484.021	693.48
484.391	679.02
484.762	690.55
485.133	713.82
485.503	674.73
485.874	702.52
486.244	718.57
486.615	719.25
486.985	719.47
487.356	734.84
487.726	742.52
488.097	759.47
488.467	763.31
488.837	760.6
489.207	757.89
489.578	782.52
489.948	789.3
490.318	785.23
490.688	794.27
491.058	789.75
491.428	774.16
491.798	797.44
492.168	810.09
492.538	844.44
492.908	833.82
493.278	853.48
493.648	836.08
494.017	837.44
494.387	860.03
494.757	860.03
495.126	859.58
495.496	894.61
495.866	856.87
496.235	877.21
496.605	882.86
496.974	885.57
497.344	881.73
497.713	875.85
498.082	884.89
498.452	906.13
498.821	890.54
499.19	892.8
499.559	933.7
499.928	905.46
500.298	923.54
500.667	916.08
501.036	926.02
501.405	939.81
501.774	933.25
502.143	936.19
502.512	913.37
502.88	923.54
503.249	923.08
503.618	940.03
503.987	966.92
504.356	979.13
504.724	949.75
505.093	942.74
505.462	957.88
505.83	943.2
506.199	971.67
506.567	965.12
506.936	988.84
507.304	988.84
507.672	986.81
508.041	1006.24
508.409	988.17
508.777	976.42
509.145	1006.92
509.514	1016.64
509.882	998.11
510.25	1025.45
510.618	991.1
510.986	1013.7
511.354	1019.8
511.722	1034.72
512.09	1022.06
512.458	1042.4
512.826	1035.4
513.193	1036.75
513.561	1029.75
513.929	1036.3
514.297	1046.02
514.664	1080.82
515.032	1073.59
515.4	1050.99
515.767	1028.84
516.135	1059.35
516.502	1064.32
516.869	1097.54
517.237	1072.91
517.604	1081.72
517.972	1067.26
518.339	1072.23
518.706	1087.37
519.073	1099.58
519.44	1079.69
519.808	1086.02
520.175	1087.82
520.542	1108.39
520.909	1107.26
521.276	1100.03
521.643	1117.88
522.009	1104.77
522.376	1084.21
522.743	1124.21
523.11	1128.95
523.477	1127.82
523.843	1101.16
524.21	1143.87
524.577	1153.36
524.943	1141.83
525.31	1146.81
525.676	1157.43
526.043	1173.02
526.409	1162.85
526.776	1181.83
527.142	1154.72
527.508	1164.66
527.874	1177.99
528.241	1175.73
528.607	1200.82
528.973	1209.18
529.339	1218.67
529.705	1189.29
530.071	1184.09
530.437	1209.63
530.803	1202.4
531.169	1220.7
531.535	1188.16
531.901	1203.75
532.267	1220.93
532.632	1192.68
532.998	1215.96
533.364	1239.68
533.73	1190.65
534.095	1209.63
534.461	1195.84
534.826	1212.79
535.192	1216.18
535.557	1232.68
535.923	1225.22
536.288	1221.61
536.653	1243.53
537.019	1214.15
537.384	1222.28
537.749	1214.83
538.114	1233.36
538.479	1222.28
538.845	1211.44
539.21	1203.75
539.575	1243.3
539.94	1216.86
540.305	1220.7
540.67	1217.31
541.034	1213.7
541.399	1209.4
541.764	1227.93
542.129	1197.43
542.494	1235.39
542.858	1231.32
543.223	1216.18
543.587	1240.14
543.952	1244.66
544.316	1258.44
544.681	1225.45
545.045	1235.62
545.41	1231.55
545.774	1233.36
546.138	1227.03
546.503	1253.92
546.867	1239.23
547.231	1213.92
547.595	1238.33
547.959	1239.91
548.324	1238.33
548.688	1238.33
549.052	1234.04
549.416	1228.16
549.779	1272.68
550.143	1235.39
550.507	1243.75
550.871	1260.02
551.235	1250.98
551.599	1246.92
551.962	1264.09
552.326	1250.53
552.689	1266.8
553.053	1267.03
553.417	1249.63
553.78	1277.65
554.143	1218.22
554.507	1270.87
554.87	1282.85
555.234	1258.89
555.597	1254.6
555.96	1261.38
556.323	1272
556.686	1257.54
557.05	1283.3
557.413	1266.35
557.776	1288.27
558.139	1285.56
558.502	1308.38
558.865	1266.12
559.228	1297.08
559.59	1305.45
559.953	1309.51
560.316	1301.38
560.679	1303.64
561.041	1303.86
561.404	1284.66
561.767	1298.21
562.129	1303.19
562.492	1295.05
562.854	1307.93
563.217	1331.21
563.579	1298.67
563.941	1312.9
564.304	1329.4
564.666	1340.93
565.028	1314.71
565.39	1318.33
565.753	1317.2
566.115	1321.26
566.477	1315.84
566.839	1354.26
567.201	1340.93
567.563	1341.38
567.925	1362.39
568.287	1335.5
568.648	1311.77
569.01	1349.96
569.372	1342.96
569.734	1359.68
570.095	1348.16
570.457	1342.06
570.819	1347.25
571.18	1363.75
571.542	1344.77
571.903	1352.45
572.265	1340.25
572.626	1344.54
572.987	1347.03
573.349	1363.98
573.71	1359.46
574.071	1316.97
574.432	1346.35
574.794	1354.26
575.155	1335.95
575.516	1332.34
575.877	1315.39
576.238	1353.81
576.599	1367.59
576.96	1357.2
577.32	1341.83
577.681	1347.03
578.042	1364.65
578.403	1320.36
578.763	1352.22
579.124	1369.4
579.485	1366.46
579.845	1345.44
580.206	1354.26
580.566	1337.76
580.927	1320.36
581.287	1344.99
581.648	1337.54
582.008	1323.75
582.368	1362.39
582.728	1345.44
583.089	1320.36
583.449	1307.71
583.809	1307.25
584.169	1347.7
584.529	1339.34
584.889	1330.53
585.249	1325.11
585.609	1337.31
585.969	1329.17
586.329	1333.24
586.688	1323.75
587.048	1313.81
587.408	1287.37
587.768	1318.55
588.127	1315.62
588.487	1307.93
588.846	1315.62
589.206	1294.37
589.565	1287.59
589.925	1302.06
590.284	1306.12
590.643	1291.66
591.003	1321.94
591.362	1298.67
591.721	1304.32
592.08	1323.3
592.44	1307.25
592.799	1299.34
593.158	1318.55
593.517	1312.9
593.876	1299.57
594.235	1285.56
594.593	1273.36
594.952	1292.34
595.311	1278.1
595.67	1291.66
596.029	1287.37
596.387	1312.9
596.746	1326.91
597.104	1297.31
597.463	1281.49
597.822	1314.94
598.18	1306.8
598.538	1307.71
598.897	1288.72
599.255	1302.96
599.613	1289.63
599.972	1308.16
600.33	1331.21
600.688	1289.63
601.046	1302.51
601.404	1288.95
601.762	1285.79
602.12	1306.35
602.478	1339.12
602.836	1323.07
603.194	1299.8
603.552	1317.87
603.91	1328.95
604.268	1300.02
604.625	1312.68
604.983	1313.13
605.341	1321.49
605.698	1340.47
606.056	1313.58
606.413	1302.28
606.771	1308.16
607.128	1319.23
607.485	1322.17
607.843	1331.21
608.2	1302.06
608.557	1309.97
608.914	1322.39
609.272	1324.65
609.629	1314.71
609.986	1312.45
610.343	1355.61
610.7	1326.46
611.057	1303.86
611.414	1333.02
611.771	1335.73
612.127	1311.55
612.484	1333.24
612.841	1348.38
613.198	1316.52
613.554	1320.59
613.911	1323.07
614.267	1363.07
614.624	1345.9
614.98	1333.69
615.337	1380.92
615.693	1346.57
616.05	1366.46
616.406	1337.54
616.762	1360.36
617.118	1342.51
617.475	1352.68
617.831	1356.07
618.187	1364.88
618.543	1324.88
618.899	1369.17
619.255	1356.97
619.611	1320.59
619.967	1363.3
620.323	1346.35
620.678	1378.66
621.034	1340.25
621.39	1337.08
621.746	1347.03
622.101	1338.44
622.457	1341.6
622.812	1373.92
623.168	1330.08
623.523	1398.32
623.879	1374.82
624.234	1358.78
624.589	1369.4
624.945	1361.49
625.3	1369.85
625.655	1346.35
626.01	1333.24
626.365	1352.22
626.72	1347.93
627.075	1326.91
627.43	1344.09
627.785	1352.9
628.14	1289.4
628.495	1354.03
628.85	1362.85
629.205	1343.64
629.559	1336.63
629.914	1319.46
630.269	1348.38
630.623	1323.75
630.978	1332.79
631.332	1359.91
631.687	1349.74
632.041	1348.16
632.396	1363.3
632.75	1314.26
633.104	1322.39
633.459	1317.65
633.813	1317.87
634.167	1333.02
634.521	1336.86
634.875	1341.15
635.229	1322.62
635.583	1317.65
635.937	1323.52
636.291	1317.2
636.645	1347.03
636.999	1340.7
637.352	1320.59
637.706	1333.92
638.06	1318.78
638.413	1303.86
638.767	1294.37
639.121	1307.93
639.474	1301.6
639.828	1335.28
640.181	1322.39
640.534	1304.32
640.888	1306.35
641.241	1326.24
641.594	1329.85
641.947	1333.69
642.301	1335.05
642.654	1320.59
643.007	1311.77
643.36	1339.12
643.713	1331.66
644.066	1342.51
644.419	1358.33
644.771	1333.92
645.124	1312.9
645.477	1318.1
645.83	1312
646.182	1324.43
646.535	1313.81
646.888	1323.98
647.24	1311.77
647.593	1302.51
647.945	1335.73
648.298	1304.09
648.65	1319.91
649.002	1344.99
649.355	1329.63
649.707	1354.03
650.059	1324.65
650.411	1349.06
650.763	1342.73
651.115	1363.3
651.467	1369.85
651.819	1365.56
652.171	1398.78
652.523	1352.45
652.875	1383.86
653.227	1385.9
653.578	1386.12
653.93	1402.84
654.282	1408.27
654.633	1402.39
654.985	1382.28
655.337	1422.5
655.688	1417.08
656.039	1439.23
656.391	1425.89
656.742	1400.58
657.094	1399.68
657.445	1448.04
657.796	1442.39
658.147	1475.38
658.498	1445.56
658.849	1450.75
659.2	1446.01
659.551	1467.48
659.902	1494.14
660.253	1486.01
660.604	1473.35
660.955	1453.46
661.306	1497.31
661.656	1525.1
662.007	1511.77
662.358	1515.16
662.708	1506.34
663.059	1550.19
663.409	1512.22
663.76	1512.45
664.11	1558.77
664.461	1558.77
664.811	1558.32
665.161	1549.51
665.511	1566.91
665.862	1603.97
666.212	1620.24
666.562	1606.68
666.912	1606
667.262	1610.75
667.612	1640.8
667.962	1664.98
668.312	1629.96
668.662	1657.98
669.011	1675.15
669.361	1682.16
669.711	1715.38
670.06	1732.78
670.41	1728.26
670.76	1698.2
671.109	1729.62
671.459	1759.9
671.808	1733.91
672.157	1763.29
672.507	1788.82
672.856	1784.76
673.205	1794.92
673.554	1825.66
673.904	1816.39
674.253	1834.7
674.602	1844.41
674.951	1850.97
675.3	1818.2
675.649	1877.86
675.998	1900.46
676.346	1886.67
676.695	1893.68
677.044	1922.15
677.393	1919.67
677.741	1976.39
678.09	1956.28
678.438	1984.3
678.787	1988.82
679.135	1987.01
679.484	2022.72
679.832	2007.57
680.181	2034.01
680.529	2037.86
680.877	2079.66
681.225	2100.23
681.573	2079.66
681.922	2109.49
682.27	2106.55
682.618	2140.45
682.966	2164.41
683.314	2160.11
683.661	2168.93
684.009	2157.17
684.357	2174.12
684.705	2216.61
685.053	2234.69
685.4	2241.01
685.748	2246.21
686.095	2222.03
686.443	2272.88
686.79	2290.28
687.138	2300.22
687.485	2287.34
687.832	2333.67
688.18	2343.84
688.527	2329.37
688.874	2371.41
689.221	2336.15
689.568	2375.25
689.915	2393.33
690.262	2415.25
690.609	2454.57
690.956	2468.13
691.303	2399.2
691.65	2468.35
691.997	2487.34
692.344	2484.85
692.69	2502.93
693.037	2491.86
693.383	2508.8
693.73	2543.83
694.077	2577.5
694.423	2542.25
694.769	2615.69
695.116	2613.89
695.462	2616.15
695.808	2624.96
696.155	2660.89
696.501	2643.49
696.847	2625.19
697.193	2702.7
697.539	2669.25
697.885	2688.91
698.231	2737.5
698.577	2727.1
698.923	2743.37
699.269	2768.68
699.614	2721.68
699.96	2766.42
700.306	2767.33
700.651	2768.91
700.997	2791.51
701.342	2819.76
701.688	2863.6
702.033	2858.4
702.379	2881.9
702.724	2870.38
703.069	2884.84
703.415	2848.68
703.76	2913.09
704.105	2877.61
704.45	2901.11
704.795	2931.84
705.14	2918.06
705.485	2956.93
705.83	2972.75
706.175	2943.37
706.52	2982.92
706.865	3001.67
707.209	3002.58
707.554	3023.37
707.899	3038.28
708.243	3033.08
708.588	3040.32
708.932	3063.14
709.277	3034.44
709.621	3046.42
709.966	3067.89
710.31	3105.62
710.654	3081.44
710.998	3085.06
711.342	3119.86
711.687	3109.69
712.031	3097.04
712.375	3121.22
712.719	3161.44
713.063	3171.39
713.407	3165.51
713.75	3157.6
714.094	3196.7
714.438	3199.63
714.782	3209.58
715.125	3212.97
715.469	3181.1
715.812	3207.99
716.156	3280.31
716.499	3259.74
716.843	3243.02
717.186	3207.09
717.53	3245.96
717.873	3271.72
718.216	3294.32
718.559	3289.12
718.902	3263.13
719.246	3286.64
719.589	3328.22
719.932	3310.82
720.275	3315.11
720.617	3299.29
720.96	3326.18
721.303	3321.89
721.646	3343.81
721.989	3324.6
722.331	3347.43
722.674	3323.47
723.016	3415.22
723.359	3414.09
723.701	3358.27
724.044	3347.43
724.386	3330.48
724.729	3383.13
725.071	3381.55
725.413	3366.18
725.755	3384.04
726.097	3430.36
726.439	3346.07
726.782	3389.01
727.124	3415.45
727.465	3369.8
727.807	3353.3
728.149	3450.47
728.491	3414.32
728.833	3441.43
729.175	3447.54
729.516	3402.34
729.858	3440.76
730.199	3437.37
730.541	3404.6
730.882	3387.43
731.224	3425.62
731.565	3418.38
731.906	3430.59
732.248	3445.05
732.589	3405.96
732.93	3392.17
733.271	3425.62
733.612	3426.52
733.953	3405.96
734.294	3418.84
734.635	3389.46
734.976	3433.07
735.317	3417.48
735.658	3427.65
735.999	3422.23
736.339	3465.84
736.68	3436.24
737.021	3407.76
737.361	3440.31
737.702	3453.41
738.042	3449.57
738.383	3433.3
738.723	3431.49
739.063	3425.84
739.404	3419.51
739.744	3429.68
740.084	3451.6
740.424	3415.22
740.764	3424.26
741.104	3467.42
741.444	3442.11
741.784	3450.93
742.124	3445.5
742.464	3395.79
742.804	3392.17
743.143	3407.76
743.483	3436.01
743.823	3384.94
744.162	3359.63
744.502	3395.79
744.841	3437.59
745.181	3386.3
745.52	3388.33
745.86	3419.97
746.199	3381.1
746.538	3399.63
746.877	3381.55
747.216	3410.7
747.556	3368.67
747.895	3376.58
748.234	3397.14
748.573	3364.15
748.911	3409.12
749.25	3382.23
749.589	3344.49
749.928	3353.08
750.267	3343.81
750.605	3321.44
750.944	3352.4
751.283	3320.31
751.621	3367.09
751.96	3293.64
752.298	3311.95
752.636	3365.5
752.975	3316.47
753.313	3320.76
753.651	3325.51
753.989	3260.65
754.327	3272.4
754.666	3306.07
755.004	3282.12
755.342	3284.15
755.679	3286.86
756.017	3276.92
756.355	3276.92
756.693	3264.26
757.031	3260.42
757.368	3273.3
757.706	3279.63
758.044	3248.45
758.381	3254.55
758.719	3223.59
759.056	3233.53
759.394	3178.84
759.731	3199.86
760.068	3160.09
760.405	3164.15
760.743	3249.12
761.08	3195.79
761.417	3188.56
761.754	3165.74
762.091	3166.19
762.428	3122.57
762.765	3116.92
763.102	3155.11
763.438	3145.62
763.775	3110.6
764.112	3126.87
764.449	3115.34
764.785	3096.13
765.122	3094.78
765.458	3072.41
765.795	3021.33
766.131	3050.48
766.467	3088.9
766.804	3029.02
767.14	3018.62
767.476	3018.62
767.812	3029.02
768.148	3020.2
768.485	2989.02
768.821	2960.09
769.157	2991.96
769.492	2947.21
769.828	2963.26
770.164	2950.6
770.5	2902.92
770.836	2948.34
771.171	2928.45
771.507	2914.22
771.842	2901.79
772.178	2886.42
772.513	2928
772.849	2899.08
773.184	2867.66
773.519	2890.49
773.855	2850.49
