Data from carpet_green_FLMS001491_00086.txt Node
Date: Wed Feb 08 10:35:58 GMT 2017
User: dcchb
Spectrometer: FLMS00149
Trigger mode: 0
Integration Time (sec): 2.000000E-2
Scans to average: 10
Electric dark correction enabled: true
Nonlinearity correction enabled: false
Boxcar width: 0
XAxis mode: Wavelengths
Number of Pixels in Spectrum: 2048
>>>>>Begin Spectral Data<<<<<
341.393	-24.49
341.776	-24.49
342.16	-24.49
342.543	-70.14
342.927	-88.22
343.31	-70.82
343.693	-62.46
344.077	-69.69
344.46	-62.68
344.843	-51.61
345.226	-26.98
345.61	-42.12
345.993	-22.91
346.376	3.08
346.759	-6.86
347.142	25.68
347.525	42.63
347.908	57.09
348.291	74.04
348.674	101.16
349.057	112.45
349.44	115.84
349.823	163.07
350.206	171.21
350.588	158.56
350.971	178.89
351.354	208.72
351.737	232.23
352.119	227.25
352.502	231.32
352.884	263.86
353.267	267.48
353.65	264.54
354.032	276.29
354.414	287.59
354.797	280.81
355.179	308.16
355.562	297.08
355.944	303.86
356.326	308.38
356.709	293.69
357.091	318.32
357.473	308.38
357.855	317.42
358.238	319.91
358.62	321.26
359.002	321.94
359.384	315.84
359.766	307.7
360.148	296.86
360.53	326.23
360.912	312.68
361.294	303.18
361.676	320.36
362.057	280.36
362.439	309.74
362.821	311.09
363.203	311.77
363.584	275.84
363.966	285.56
364.348	288.27
364.729	295.73
365.111	296.18
365.493	290.98
365.874	312.68
366.256	282.17
366.637	296.18
367.019	264.99
367.4	296.4
367.781	281.94
368.163	288.72
368.544	303.41
368.925	273.35
369.306	300.47
369.688	292.34
370.069	285.11
370.45	307.03
370.831	272.68
371.212	279.91
371.593	293.92
371.974	293.69
372.355	281.72
372.736	284.65
373.117	270.64
373.498	299.34
373.879	290.98
374.26	271.77
374.641	274.71
375.021	299.34
375.402	293.92
375.783	281.26
376.163	300.25
376.544	286.24
376.925	271.77
377.305	287.82
377.686	276.97
378.066	287.59
378.447	297.76
378.827	290.76
379.208	307.48
379.588	296.18
379.968	303.64
380.349	314.71
380.729	267.93
381.109	293.92
381.489	295.5
381.87	275.16
382.25	295.05
382.63	298.44
383.01	300.25
383.39	303.41
383.77	280.13
384.15	286.24
384.53	286.46
384.91	294.6
385.29	309.51
385.67	299.34
386.049	306.12
386.429	290.08
386.809	296.4
387.189	308.83
387.568	296.86
387.948	297.08
388.328	303.41
388.707	305.44
389.087	296.18
389.466	309.74
389.846	299.34
390.225	313.13
390.605	304.31
390.984	320.58
391.363	302.51
391.743	297.99
392.122	307.93
392.501	310.42
392.881	330.08
393.26	326.69
393.639	298.89
394.018	318.32
394.397	306.12
394.776	316.74
395.155	312
395.534	322.17
395.913	314.03
396.292	297.99
396.671	324.88
397.05	330.75
397.429	307.25
397.808	318.55
398.186	301.15
398.565	319.68
398.944	324.43
399.323	314.94
399.701	324.65
400.08	297.76
400.458	315.39
400.837	314.26
401.215	304.99
401.594	338.21
401.972	320.13
402.351	308.61
402.729	309.74
403.107	335.05
403.486	316.29
403.864	318.78
404.242	314.94
404.62	334.82
404.999	323.97
405.377	309.96
405.755	313.35
406.133	319.91
406.511	314.26
406.889	313.35
407.267	344.76
407.645	307.48
408.023	328.04
408.401	320.81
408.779	316.29
409.156	330.3
409.534	314.94
409.912	327.36
410.29	326.23
410.667	328.49
411.045	336.18
411.422	306.35
411.8	340.25
412.178	295.95
412.555	345.89
412.933	333.92
413.31	348.15
413.687	342.51
414.065	342.28
414.442	348.83
414.819	330.98
415.197	327.59
415.574	328.95
415.951	334.82
416.328	325.1
416.705	340.7
417.082	330.08
417.46	325.78
417.837	338.44
418.214	344.54
418.591	335.27
418.967	352.9
419.344	360.36
419.721	338.89
420.098	342.05
420.475	346.12
420.852	361.26
421.228	367.82
421.605	353.58
421.982	361.26
422.358	349.06
422.735	343.18
423.111	365.33
423.488	314.26
423.864	352.9
424.241	343.18
424.617	370.75
424.994	333.47
425.37	347.7
425.746	346.35
426.123	364.65
426.499	333.92
426.875	366.91
427.251	353.8
427.627	371.43
428.003	345.22
428.379	359.23
428.756	368.95
429.132	347.7
429.507	354.71
429.883	341.83
430.259	357.42
430.635	365.78
431.011	368.27
431.387	356.06
431.763	378.66
432.138	350.87
432.514	352.9
432.89	379.11
433.265	356.97
433.641	359.23
434.016	347.02
434.392	376.4
434.767	362.62
435.143	390.19
435.518	345.67
435.894	374.59
436.269	375.05
436.644	386.35
437.02	372.56
437.395	374.82
437.77	391.77
438.145	365.1
438.52	362.62
438.895	374.82
439.271	390.64
439.646	388.15
440.021	376.63
440.395	384.76
440.77	382.73
441.145	387.25
441.52	381.6
441.895	388.15
442.27	401.71
442.645	378.66
443.019	382.5
443.394	409.17
443.769	396.29
444.143	403.29
444.518	399.23
444.892	393.58
445.267	408.27
445.641	401.49
446.016	393.13
446.39	397.87
446.764	438.32
447.139	400.13
447.513	393.8
447.887	408.27
448.262	417.53
448.636	392.67
449.01	408.49
449.384	432.67
449.758	405.78
450.132	411.2
450.506	416.18
450.88	412.79
451.254	397.42
451.628	402.39
452.002	422.05
452.376	423.41
452.75	417.08
453.123	418.44
453.497	406.23
453.871	431.09
454.244	442.84
454.618	423.41
454.992	440.81
455.365	435.84
455.739	418.89
456.112	418.21
456.486	434.93
456.859	425.44
457.232	429.96
457.606	452.56
457.979	442.84
458.352	446.91
458.725	444.42
459.099	418.66
459.472	465.67
459.845	421.37
460.218	430.86
460.591	463.86
460.964	441.71
461.337	460.92
461.71	465.44
462.083	477.19
462.456	479
462.829	489.39
463.201	478.77
463.574	476.51
463.947	498.89
464.32	472.22
464.692	481.71
465.065	490.07
465.438	473.58
465.81	494.82
466.183	495.04
466.555	495.95
466.928	509.73
467.3	504.08
467.672	510.86
468.045	493.46
468.417	517.42
468.789	507.02
469.161	502.05
469.534	506.34
469.906	509.05
470.278	518.55
470.65	512.9
471.022	522.84
471.394	534.36
471.766	536.17
472.138	558.09
472.51	554.7
472.882	528.49
473.253	554.7
473.625	572.56
473.997	565.78
474.369	564.87
474.74	549.73
475.112	578.88
475.484	579.79
475.855	588.37
476.227	589.73
476.598	602.16
476.97	602.61
477.341	618.66
477.713	594.02
478.084	607.13
478.455	613.01
478.827	624.31
479.198	633.34
479.569	616.4
479.94	635.15
480.311	657.53
480.682	650.29
481.053	646.23
481.424	656.4
481.795	659.56
482.166	688.48
482.537	677.64
482.908	706.11
483.279	723.51
483.65	695.94
484.021	735.49
484.391	731.2
484.762	716.51
485.133	700.69
485.503	743.85
485.874	742.95
486.244	744.75
486.615	738.2
486.985	748.37
487.356	788.6
487.726	749.95
488.097	787.69
488.467	790.63
488.837	816.16
489.207	804.19
489.578	820.01
489.948	828.59
490.318	821.81
490.688	843.73
491.058	848.25
491.428	852.55
491.798	847.12
492.168	866.33
492.538	884.86
492.908	883.28
493.278	906.11
493.648	856.84
494.017	884.64
494.387	902.26
494.757	898.65
495.126	883.06
495.496	889.38
495.866	933.68
496.235	928.25
496.605	927.57
496.974	951.08
497.344	942.49
497.713	921.02
498.082	928.93
498.452	962.6
498.821	956.05
499.19	942.49
499.559	947.69
499.928	979.55
500.298	1003.73
500.667	970.06
501.036	998.31
501.405	982.94
501.774	1006.89
502.143	986.56
502.512	1010.28
502.88	992.21
503.249	994.92
503.618	981.81
503.987	995.37
504.356	1022.71
504.724	1009.38
505.093	994.01
505.462	1035.59
505.83	1027.91
506.199	1022.71
506.567	1044.18
506.936	1042.83
507.304	1052.09
507.672	1056.16
508.041	1054.8
508.409	1053.67
508.777	1063.62
509.145	1049.15
509.514	1067.91
509.882	1083.05
510.25	1068.36
510.618	1092.09
510.986	1072.66
511.354	1100.68
511.722	1094.12
512.09	1091.86
512.458	1115.14
512.826	1110.39
513.193	1098.64
513.561	1125.54
513.929	1120.34
514.297	1123.73
514.664	1155.14
515.032	1112.65
515.4	1142.03
515.767	1111.52
516.135	1154.91
516.502	1133.67
516.869	1149.49
517.237	1144.52
517.604	1152.65
517.972	1152.43
518.339	1162.14
518.706	1169.38
519.073	1163.27
519.44	1182.93
519.808	1160.34
520.175	1194.69
520.542	1186.78
520.909	1203.05
521.276	1191.75
521.643	1210.28
522.009	1188.58
522.376	1218.19
522.743	1204.18
523.11	1216.61
523.477	1237.17
523.843	1222.26
524.21	1220
524.577	1247.57
524.943	1264.06
525.31	1232.88
525.676	1254.57
526.043	1245.76
526.409	1250.05
526.776	1266.32
527.142	1266.77
527.508	1277.17
527.874	1277.62
528.241	1291.41
528.607	1290.05
528.973	1292.31
529.339	1292.76
529.705	1288.47
530.071	1261.8
530.437	1276.94
530.803	1297.28
531.169	1299.32
531.535	1296.15
531.901	1314.68
532.267	1303.61
532.632	1341.8
532.998	1347.45
533.364	1323.95
533.73	1295.93
534.095	1315.81
534.461	1344.96
534.826	1323.27
535.192	1302.25
535.557	1324.17
535.923	1299.32
536.288	1323.95
536.653	1365.08
537.019	1341.12
537.384	1352.65
537.749	1351.97
538.114	1323.04
538.479	1349.03
538.845	1332.99
539.21	1335.02
539.575	1348.81
539.94	1337.96
540.305	1353.78
540.67	1344.96
541.034	1357.39
541.399	1336.38
541.764	1374.12
542.129	1357.62
542.494	1338.86
542.858	1347.45
543.223	1325.98
543.587	1337.73
543.952	1335.93
544.316	1333.21
544.681	1343.83
545.045	1347.9
545.41	1345.64
545.774	1377.96
546.138	1331.41
546.503	1361.69
546.867	1357.62
547.231	1363.72
547.595	1338.86
547.959	1379.31
548.324	1371.86
548.688	1347.45
549.052	1335.93
549.416	1358.75
549.779	1356.94
550.143	1370.5
550.507	1371.86
550.871	1383.38
551.235	1395.13
551.599	1405.3
551.962	1408.01
552.326	1352.2
552.689	1349.71
553.053	1372.31
553.417	1377.73
553.78	1365.53
554.143	1354.23
554.507	1376.38
554.87	1389.71
555.234	1404.85
555.597	1379.54
555.96	1389.26
556.323	1401.91
556.686	1398.3
557.05	1377.05
557.413	1382.48
557.776	1410.95
558.139	1399.88
558.502	1407.79
558.865	1399.88
559.228	1389.94
559.59	1452.53
559.953	1433.78
560.316	1430.39
560.679	1425.87
561.041	1424.06
561.404	1460.89
561.767	1429.03
562.129	1402.82
562.492	1468.35
562.854	1433.78
563.217	1438.97
563.579	1435.81
563.941	1449.82
564.304	1434.68
564.666	1473.55
565.028	1458.86
565.39	1450.27
565.753	1492.31
566.115	1462.7
566.477	1498.18
566.839	1476.26
567.201	1488.69
567.563	1522.59
567.925	1476.94
568.287	1486.2
568.648	1505.41
569.01	1508.8
569.372	1475.36
569.734	1495.02
570.095	1498.18
570.457	1479.88
570.819	1520.55
571.18	1496.83
571.542	1490.95
571.903	1507.45
572.265	1488.92
572.626	1472.19
572.987	1501.8
573.349	1504.28
573.71	1485.75
574.071	1519.2
574.432	1510.84
574.794	1522.36
575.155	1498.41
575.516	1523.94
575.877	1489.37
576.238	1501.57
576.599	1505.41
576.96	1507.45
577.32	1510.84
577.681	1505.41
578.042	1495.24
578.403	1519.42
578.763	1496.15
579.124	1482.81
579.485	1541.34
579.845	1529.37
580.206	1500.21
580.566	1502.93
580.927	1497.95
581.287	1515.36
581.648	1494.57
582.008	1492.98
582.368	1462.25
582.728	1488.69
583.089	1489.59
583.449	1475.58
583.809	1454.79
584.169	1486.88
584.529	1475.58
584.889	1473.77
585.249	1458.63
585.609	1469.26
585.969	1481.91
586.329	1471.51
586.688	1463.61
587.048	1446.88
587.408	1461.8
587.768	1491.18
588.127	1474
588.487	1477.84
588.846	1445.98
589.206	1432.42
589.565	1457.73
589.925	1481.46
590.284	1418.86
590.643	1457.5
591.003	1483.49
591.362	1451.85
591.721	1448.92
592.08	1432.19
592.44	1455.7
592.799	1444.4
593.158	1450.05
593.517	1436.71
593.876	1436.26
594.235	1434.68
594.593	1425.64
594.952	1440.1
595.311	1423.83
595.67	1455.24
596.029	1444.4
596.387	1451.85
596.746	1464.28
597.104	1433.1
597.463	1434.23
597.822	1395.81
598.18	1459.31
598.538	1441.46
598.897	1435.13
599.255	1432.19
599.613	1433.55
599.972	1419.76
600.33	1438.3
600.688	1444.85
601.046	1453.66
601.404	1439.88
601.762	1425.87
602.12	1447.11
602.478	1431.52
602.836	1435.13
603.194	1446.2
603.552	1455.02
603.91	1441.01
604.268	1463.38
604.625	1457.05
604.983	1448.01
605.341	1443.04
605.698	1451.85
606.056	1465.19
606.413	1463.38
606.771	1464.74
607.128	1457.96
607.485	1476.71
607.843	1442.59
608.2	1468.13
608.557	1455.24
608.914	1467.9
609.272	1446.43
609.629	1478.29
609.986	1485.3
610.343	1470.84
610.7	1439.65
611.057	1492.76
611.414	1521.23
611.771	1489.59
612.127	1466.09
612.484	1461.8
612.841	1497.5
613.198	1495.02
613.554	1476.26
613.911	1521.23
614.267	1464.74
614.624	1460.44
614.98	1508.58
615.337	1466.32
615.693	1500.44
616.05	1484.85
616.406	1510.16
616.762	1485.07
617.118	1492.76
617.475	1496.37
617.831	1506.99
618.187	1511.29
618.543	1504.28
618.899	1516.49
619.255	1486.66
619.611	1494.79
619.967	1500.44
620.323	1506.99
620.678	1489.82
621.034	1528.46
621.39	1517.16
621.746	1492.53
622.101	1478.75
622.457	1500.89
622.812	1500.44
623.168	1491.63
623.523	1534.11
623.879	1511.51
624.234	1517.16
624.589	1495.92
624.945	1502.47
625.3	1502.93
625.655	1525.07
626.01	1510.84
626.365	1498.86
626.72	1471.97
627.075	1477.16
627.43	1492.76
627.785	1514.23
628.14	1499.54
628.495	1511.74
628.85	1498.63
629.205	1497.05
629.559	1499.54
629.914	1510.38
630.269	1480.55
630.623	1478.52
630.978	1492.53
631.332	1485.3
631.687	1497.05
632.041	1485.3
632.396	1500.21
632.75	1522.14
633.104	1494.34
633.459	1505.64
633.813	1488.46
634.167	1474.68
634.521	1482.59
634.875	1488.01
635.229	1476.26
635.583	1482.14
635.937	1511.06
636.291	1475.13
636.645	1464.51
636.999	1470.39
637.352	1491.85
637.706	1480.55
638.06	1493.89
638.413	1471.74
638.767	1477.62
639.121	1479.88
639.474	1448.92
639.828	1485.98
640.181	1502.25
640.534	1477.16
640.888	1477.84
641.241	1486.88
641.594	1477.16
641.947	1472.64
642.301	1462.93
642.654	1471.06
643.007	1457.73
643.36	1497.73
643.713	1488.69
644.066	1517.84
644.419	1491.85
644.771	1491.85
645.124	1454.34
645.477	1452.76
645.83	1466.54
646.182	1471.74
646.535	1434.23
646.888	1449.82
647.24	1470.39
647.593	1469.03
647.945	1464.06
648.298	1448.24
648.65	1476.03
649.002	1449.82
649.355	1474.68
649.707	1456.37
650.059	1487.79
650.411	1514.23
650.763	1522.14
651.115	1539.76
651.467	1514
651.819	1514.45
652.171	1567.78
652.523	1515.36
652.875	1538.18
653.227	1550.83
653.578	1547.45
653.93	1543.6
654.282	1546.09
654.633	1533.89
654.985	1558.74
655.337	1551.51
655.688	1544.06
656.039	1586.31
656.391	1575.24
656.742	1564.39
657.094	1573.43
657.445	1605.07
657.796	1588.57
658.147	1595.58
658.498	1631.74
658.849	1615.69
659.2	1622.7
659.551	1603.94
659.902	1640.55
660.253	1636.48
660.604	1639.42
660.955	1644.39
661.306	1645.07
661.656	1666.31
662.007	1659.31
662.358	1653.66
662.708	1657.95
663.059	1697.5
663.409	1695.46
663.76	1715.12
664.11	1740.66
664.461	1739.98
664.811	1767.33
665.161	1762.13
665.511	1774.56
665.862	1763.03
666.212	1782.02
666.562	1811.39
666.912	1773.88
667.262	1824.27
667.612	1826.76
667.962	1832.41
668.312	1816.59
668.662	1868.57
669.011	1877.83
669.361	1880.32
669.711	1892.29
670.06	1844.84
670.41	1904.27
670.76	1908.79
671.109	1944.95
671.459	1936.36
671.808	1941.79
672.157	1964.38
672.507	1987.43
672.856	1978.85
673.205	1986.98
673.554	2002.35
673.904	2024.27
674.253	2029.47
674.602	2045.96
674.951	2040.31
675.3	2031.5
675.649	2090.03
675.998	2111.05
676.346	2091.84
676.695	2117.15
677.044	2117.83
677.393	2135.23
677.741	2160.76
678.09	2177.49
678.438	2186.75
678.787	2222.91
679.135	2229.01
679.484	2238.5
679.832	2257.93
680.181	2265.62
680.529	2298.16
680.877	2275.11
681.225	2301.32
681.573	2340.87
681.922	2351.94
682.27	2361.21
682.618	2396.01
682.966	2387.88
683.314	2410.93
683.661	2431.26
684.009	2477.36
684.357	2470.81
684.705	2457.25
685.053	2503.35
685.4	2494.54
685.748	2491.6
686.095	2495.67
686.443	2538.38
686.79	2546.74
687.138	2563.24
687.485	2579.96
687.832	2606.4
688.18	2630.35
688.527	2598.27
688.874	2629
689.221	2621.09
689.568	2681.43
689.915	2688.88
690.262	2723.91
690.609	2735.44
690.956	2732.5
691.303	2762.78
691.65	2773.63
691.997	2809.11
692.344	2830.35
692.69	2839.39
693.037	2824.02
693.383	2814.76
693.73	2825.6
694.077	2907.41
694.423	2906.51
694.769	2872.83
695.116	2910.12
695.462	2947.18
695.808	2955.54
696.155	3003.9
696.501	2964.36
696.847	2984.92
697.193	2970.68
697.539	3031.02
697.885	3053.17
698.231	3079.83
698.577	3076.22
698.923	3091.81
699.269	3102.88
699.614	3093.39
699.96	3101.08
700.306	3146.73
700.651	3145.6
700.997	3144.92
701.342	3184.69
701.688	3221.75
702.033	3198.93
702.379	3224.01
702.724	3216.55
703.069	3273.95
703.415	3269.43
703.76	3295.87
704.105	3300.17
704.45	3285.7
704.795	3293.16
705.14	3293.16
705.485	3377.45
705.83	3381.3
706.175	3343.56
706.52	3390.79
706.865	3383.78
707.209	3406.38
707.554	3448.19
707.899	3427.17
708.243	3412.03
708.588	3447.51
708.932	3455.64
709.277	3469.88
709.621	3516.88
709.966	3497.22
710.31	3497
710.654	3500.39
710.998	3527.28
711.342	3592.36
711.687	3567.73
712.031	3564.12
712.375	3568.63
712.719	3572.48
713.063	3593.95
713.407	3616.09
713.75	3584.23
714.094	3631.68
714.438	3656.99
714.782	3635.98
715.125	3677.11
715.469	3625.13
715.812	3675.07
716.156	3648.41
716.499	3676.2
716.843	3672.14
717.186	3678.69
717.53	3689.31
717.873	3777.44
718.216	3735.64
718.559	3734.73
718.902	3715.07
719.246	3745.35
719.589	3723.89
719.932	3754.17
720.275	3784.9
720.617	3797.78
720.96	3780.61
721.303	3819.48
721.646	3774.96
721.989	3751.91
722.331	3836.42
722.674	3820.15
723.016	3840.04
723.359	3850.89
723.701	3808.85
724.044	3829.42
724.386	3800.27
724.729	3871
725.071	3838.01
725.413	3880.04
725.755	3838.91
726.097	3865.35
726.439	3887.72
726.782	3870.32
727.124	3919.36
727.465	3880.27
727.807	3904.22
728.149	3860.83
728.491	3868.51
728.833	3892.47
729.175	3864.45
729.516	3928.63
729.858	3885.69
730.199	3886.37
730.541	3908.51
730.882	3875.97
731.224	3890.89
731.565	3902.86
731.906	3919.36
732.248	3931.34
732.589	3908.51
732.93	3888.4
733.271	3885.46
733.612	3914.16
733.953	3937.89
734.294	3936.76
734.635	3930.43
734.976	3929.98
735.317	3914.84
735.658	3949.87
735.999	3965.01
736.339	3950.09
736.68	3940.6
737.021	3948.29
737.361	3964.56
737.702	3925.91
738.042	3941.73
738.383	3927.72
738.723	3937.44
739.063	3943.09
739.404	3951.9
739.744	3928.17
740.084	3921.85
740.424	3899.7
740.764	3901.51
741.104	3928.17
741.444	3902.41
741.784	3872.58
742.124	3903.54
742.464	3904.67
742.804	3888.4
743.143	3933.82
743.483	3890.66
743.823	3930.66
744.162	3888.4
744.502	3936.99
744.841	3900.83
745.181	3932.69
745.52	3907.38
745.86	3888.85
746.199	3868.51
746.538	3908.51
746.877	3911.45
747.216	3908.74
747.556	3864.67
747.895	3878.91
748.234	3851.57
748.573	3866.48
748.911	3876.88
749.25	3846.59
749.589	3880.27
749.928	3866.03
750.267	3847.05
750.605	3823.54
750.944	3815.86
751.283	3838.68
751.621	3798.01
751.96	3836.88
752.298	3812.7
752.636	3847.95
752.975	3845.01
753.313	3805.69
753.651	3807.72
753.989	3786.26
754.327	3750.33
754.666	3773.83
755.004	3754.39
755.342	3787.39
755.679	3769.99
756.017	3752.58
756.355	3751.46
756.693	3740.38
757.031	3748.29
757.368	3713.26
757.706	3743.09
758.044	3721.63
758.381	3748.52
758.719	3695.41
759.056	3737.9
759.394	3670.55
759.731	3694.96
760.068	3686.37
760.405	3634.62
760.743	3646.15
761.08	3639.14
761.417	3655.41
761.754	3633.04
762.091	3593.49
762.428	3618.13
762.765	3582.65
763.102	3598.24
763.438	3580.39
763.775	3565.25
764.112	3550.78
764.449	3548.97
764.785	3551.69
765.122	3522.99
765.458	3547.84
765.795	3538.35
766.131	3500.16
766.467	3500.84
766.804	3499.71
767.14	3483.67
767.476	3457.9
767.812	3469.88
768.148	3501.74
768.485	3475.3
768.821	3474.17
769.157	3440.73
769.492	3430.33
769.828	3406.15
770.164	3433.27
770.5	3393.5
770.836	3384.91
771.171	3345.59
771.507	3395.08
771.842	3308.98
772.178	3344.91
772.513	3360.05
772.849	3339.71
