Data from carpet_green_FLMS001491_00087.txt Node
Date: Wed Feb 08 10:35:58 GMT 2017
User: dcchb
Spectrometer: FLMS00149
Trigger mode: 0
Integration Time (sec): 2.000000E-2
Scans to average: 10
Electric dark correction enabled: true
Nonlinearity correction enabled: false
Boxcar width: 0
XAxis mode: Wavelengths
Number of Pixels in Spectrum: 2048
>>>>>Begin Spectral Data<<<<<
341.393	-14.67
341.776	-14.67
342.16	-14.67
342.543	-53.54
342.927	-57.84
343.31	-62.13
343.693	-66.2
344.077	-73.43
344.46	-61.68
344.843	-54.45
345.226	-45.18
345.61	-37.05
345.993	-30.49
346.376	-17.39
346.759	31.65
347.142	31.65
347.525	39.11
347.908	63.29
348.291	65.32
348.674	105.32
349.057	111.65
349.44	131.76
349.823	141.25
350.206	154.81
350.588	170.41
350.971	204.3
351.354	197.07
351.737	225.54
352.119	226.9
352.502	235.26
352.884	267.13
353.267	254.47
353.65	259.67
354.032	273.68
354.414	278.42
354.797	300.35
355.179	289.72
355.562	295.37
355.944	316.84
356.326	300.57
356.709	306.67
357.091	309.38
357.473	327.24
357.855	313.23
358.238	333.34
358.62	318.42
359.002	309.38
359.384	314.36
359.766	307.58
360.148	317.29
360.53	323.17
360.912	317.07
361.294	302.38
361.676	315.94
362.057	330.4
362.439	289.95
362.821	312.32
363.203	291.53
363.584	300.35
363.966	290.4
364.348	314.36
364.729	306.45
365.111	294.24
365.493	293.11
365.874	300.12
366.256	293.11
366.637	307.35
367.019	286.33
367.4	294.92
367.781	309.61
368.163	282.94
368.544	286.79
368.925	283.62
369.306	283.4
369.688	280.23
370.069	280.68
370.45	276.39
370.831	268.71
371.212	279.33
371.593	291.53
371.974	283.85
372.355	279.55
372.736	297.18
373.117	278.2
373.498	282.27
373.879	295.15
374.26	301.48
374.641	285.43
375.021	298.99
375.402	284.53
375.783	289.72
376.163	276.17
376.544	266.45
376.925	291.53
377.305	288.59
377.686	292.44
378.066	316.16
378.447	295.37
378.827	276.84
379.208	291.76
379.588	299.22
379.968	294.92
380.349	304.86
380.729	304.41
381.109	292.66
381.489	292.21
381.87	282.49
382.25	289.5
382.63	312.55
383.01	279.78
383.39	297.18
383.77	316.16
384.15	310.29
384.53	322.94
384.91	301.93
385.29	298.31
385.67	305.32
386.049	308.03
386.429	317.07
386.809	324.98
387.189	278.65
387.568	320.01
387.948	288.14
388.328	315.94
388.707	311.87
389.087	311.64
389.466	297.86
389.846	302.83
390.225	284.98
390.605	323.17
390.984	313.68
391.363	310.97
391.743	299.67
392.122	287.01
392.501	308.93
392.881	294.7
393.26	307.58
393.639	313
394.018	313.23
394.397	331.53
394.776	306.22
395.155	306.22
395.534	316.84
395.913	330.63
396.292	302.15
396.671	300.35
397.05	343.06
397.429	316.84
397.808	316.84
398.186	307.35
398.565	298.31
398.944	300.57
399.323	302.83
399.701	336.95
400.08	307.35
400.458	306.9
400.837	324.3
401.215	310.51
401.594	320.68
401.972	312.77
402.351	310.51
402.729	315.03
403.107	330.85
403.486	305.32
403.864	322.94
404.242	320.01
404.62	337.18
404.999	320.68
405.377	324.75
405.755	313.45
406.133	337.86
406.511	328.59
406.889	318.65
407.267	324.53
407.645	323.62
408.023	327.01
408.401	319.1
408.779	318.2
409.156	333.11
409.534	336.28
409.912	319.78
410.29	309.84
410.667	327.24
411.045	313.45
411.422	311.87
411.8	350.51
412.178	335.15
412.555	320.91
412.933	319.78
413.31	337.63
413.687	315.71
414.065	349.61
414.442	321.36
414.819	332.43
415.197	325.2
415.574	339.21
415.951	341.25
416.328	333.34
416.705	334.92
417.082	346.22
417.46	350.06
417.837	345.77
418.214	333.79
418.591	332.89
418.967	332.66
419.344	334.02
419.721	325.66
420.098	351.87
420.475	345.32
420.852	352.1
421.228	341.25
421.605	328.82
421.982	341.47
422.358	353.45
422.735	337.18
423.111	343.51
423.488	356.61
423.864	351.42
424.241	345.99
424.617	332.66
424.994	345.54
425.37	358.87
425.746	349.38
426.123	340.34
426.499	341.02
426.875	339.44
427.251	348.48
427.627	357.29
428.003	358.42
428.379	340.12
428.756	368.82
429.132	350.51
429.507	361.81
429.883	352.77
430.259	358.2
430.635	366.11
431.011	359.1
431.387	369.04
431.763	365.2
432.138	353.68
432.514	374.02
432.89	364.75
433.265	370.17
433.641	374.47
434.016	358.87
434.392	360.46
434.767	357.74
435.143	369.72
435.518	373.79
435.894	376.05
436.269	369.27
436.644	392.55
437.02	381.7
437.395	387.12
437.77	383.73
438.145	388.93
438.52	370.63
438.895	357.29
439.271	386.9
439.646	372.43
440.021	379.21
440.395	406.33
440.77	388.7
441.145	360.68
441.52	397.52
441.895	396.39
442.27	381.92
442.645	386.67
443.019	375.6
443.394	401.36
443.769	381.7
444.143	389.83
444.518	390.96
444.892	388.93
445.267	388.03
445.641	396.61
446.016	400.23
446.39	402.26
446.764	389.38
447.139	394.35
447.513	402.94
447.887	414.92
448.262	411.08
448.636	409.04
449.01	406.33
449.384	410.4
449.758	416.5
450.132	409.95
450.506	402.26
450.88	400.46
451.254	403.62
451.628	413.56
452.002	407.24
452.376	417.86
452.75	415.82
453.123	425.31
453.497	433
453.871	419.66
454.244	434.35
454.618	410.62
454.992	429.83
455.365	424.41
455.739	430.96
456.112	427.8
456.486	437.06
456.859	447.69
457.232	440.23
457.606	431.42
457.979	451.3
458.352	470.96
458.725	443.39
459.099	436.39
459.472	442.49
459.845	449.27
460.218	451.08
460.591	454.01
460.964	459.21
461.337	455.6
461.71	456.27
462.083	464.86
462.456	456.05
462.829	453.56
463.201	468.93
463.574	475.93
463.947	472.77
464.32	480.23
464.692	474.13
465.065	488.14
465.438	493.79
465.81	492.43
466.183	489.49
466.555	486.78
466.928	498.31
467.3	489.04
467.672	491.3
468.045	491.3
468.417	514.58
468.789	509.61
469.161	532.43
469.534	524.29
469.906	520.68
470.278	509.15
470.65	530.17
471.022	530.62
471.394	527.91
471.766	497.63
472.138	545.76
472.51	535.14
472.882	535.14
473.253	573.11
473.625	537.4
473.997	569.26
474.369	550.06
474.74	562.94
475.112	538.76
475.484	569.49
475.855	579.43
476.227	587.34
476.598	590.96
476.97	571.07
477.341	621.01
477.713	625.31
478.084	593.22
478.455	609.04
478.827	619.66
479.198	628.7
479.569	631.18
479.94	615.59
480.311	636.16
480.682	640.45
481.053	668.02
481.424	650.62
481.795	659.43
482.166	666.44
482.537	691.52
482.908	693.56
483.279	698.98
483.65	681.13
484.021	722.93
484.391	725.19
484.762	720.22
485.133	714.35
485.503	723.84
485.874	723.61
486.244	748.02
486.615	749.6
486.985	759.99
487.356	769.49
487.726	774.23
488.097	757.51
488.467	789.37
488.837	780.33
489.207	810.84
489.578	780.11
489.948	829.37
490.318	826.89
490.688	813.78
491.058	825.08
491.428	856.94
491.798	860.56
492.168	831.18
492.538	872.31
492.908	883.38
493.278	878.18
493.648	879.99
494.017	890.61
494.387	898.75
494.757	903.04
495.126	883.83
495.496	906.88
495.866	916.83
496.235	937.62
496.605	941.01
496.974	924.51
497.344	907.11
497.713	918.63
498.082	949.82
498.452	957.96
498.821	931.74
499.19	930.39
499.559	968.8
499.928	955.24
500.298	976.49
500.667	986.65
501.036	962.93
501.405	984.4
501.774	970.84
502.143	962.7
502.512	988.69
502.88	1001.12
503.249	991.63
503.618	1000.67
503.987	1001.34
504.356	1002.47
504.724	1020.33
505.093	1011.06
505.462	1021.68
505.83	1032.08
506.199	1033.66
506.567	1042.47
506.936	1046.77
507.304	1046.77
507.672	1040.44
508.041	1039.99
508.409	1049.48
508.777	1058.74
509.145	1077.5
509.514	1056.94
509.882	1058.52
510.25	1090.38
510.618	1059.2
510.986	1088.8
511.354	1084.73
511.722	1103.94
512.09	1115.69
512.458	1103.26
512.826	1098.06
513.193	1114.34
513.561	1080.89
513.929	1094.22
514.297	1103.26
514.664	1129.93
515.032	1131.96
515.4	1132.19
515.767	1145.07
516.135	1143.94
516.502	1134
516.869	1161.34
517.237	1162.47
517.604	1145.97
517.972	1145.07
518.339	1156.82
518.706	1157.95
519.073	1163.83
519.44	1186.65
519.808	1168.8
520.175	1150.49
520.542	1166.54
520.909	1161.57
521.276	1184.62
521.643	1197.5
522.009	1196.59
522.376	1188.01
522.743	1210.6
523.11	1199.3
523.477	1209.02
523.843	1212.41
524.21	1221
524.577	1228.46
524.943	1240.21
525.31	1231.17
525.676	1255.35
526.043	1258.74
526.409	1250.38
526.776	1241.34
527.142	1239.98
527.508	1254.67
527.874	1288.12
528.241	1268.46
528.607	1291.96
528.973	1254.67
529.339	1252.18
529.705	1269.36
530.071	1279.75
530.437	1275.23
530.803	1307.55
531.169	1285.86
531.535	1301.9
531.901	1302.13
532.267	1308
532.632	1312.52
532.998	1303.71
533.364	1294.67
533.73	1284.73
534.095	1310.26
534.461	1302.8
534.826	1313.88
535.192	1298.74
535.557	1316.82
535.923	1310.49
536.288	1314.33
536.653	1331.28
537.019	1322.92
537.384	1348.68
537.749	1382.12
538.114	1346.65
538.479	1322.92
538.845	1338.96
539.21	1329.47
539.575	1355.91
539.94	1336.48
540.305	1354.1
540.67	1360.2
541.034	1293.77
541.399	1339.41
541.764	1339.41
542.129	1343.93
542.494	1350.04
542.858	1366.08
543.223	1337.61
543.587	1331.5
543.952	1332.18
544.316	1343.03
544.681	1336.02
545.045	1335.8
545.41	1338.28
545.774	1321.79
546.138	1347.55
546.503	1336.48
546.867	1324.95
547.231	1355.46
547.595	1332.41
547.959	1324.05
548.324	1378.28
548.688	1353.42
549.052	1345.74
549.416	1351.62
549.779	1394.78
550.143	1372.63
550.507	1362.01
550.871	1378.51
551.235	1371.28
551.599	1364.95
551.962	1356.36
552.326	1366.31
552.689	1372.18
553.053	1357.72
553.417	1409.92
553.78	1412.18
554.143	1376.25
554.507	1375.8
554.87	1382.12
555.234	1375.12
555.597	1390.26
555.96	1390.26
556.323	1399.53
556.686	1408.11
557.05	1404.72
557.413	1395.23
557.776	1358.4
558.139	1393.2
558.502	1387.1
558.865	1398.85
559.228	1417.83
559.59	1413.99
559.953	1396.59
560.316	1427.32
560.679	1415.12
561.041	1433.65
561.404	1446.53
561.767	1418.51
562.129	1418.28
562.492	1426.19
562.854	1440.2
563.217	1427.1
563.579	1444.04
563.941	1443.59
564.304	1463.93
564.666	1438.85
565.028	1458.05
565.39	1449.24
565.753	1458.51
566.115	1433.42
566.477	1459.86
566.839	1447.89
567.201	1453.76
567.563	1484.04
567.925	1464.38
568.287	1464.38
568.648	1492.18
569.01	1487.88
569.372	1470.94
569.734	1466.87
570.095	1483.36
570.457	1495.12
570.819	1484.72
571.18	1493.53
571.542	1472.74
571.903	1508
572.265	1502.12
572.626	1468.68
572.987	1484.27
573.349	1494.44
573.71	1478.62
574.071	1502.57
574.432	1485.4
574.794	1507.55
575.155	1489.24
575.516	1471.84
575.877	1517.04
576.238	1479.52
576.599	1462.57
576.96	1510.48
577.32	1495.34
577.681	1489.24
578.042	1513.65
578.403	1483.14
578.763	1460.09
579.124	1480.88
579.485	1475.91
579.845	1496.7
580.206	1488.34
580.566	1483.82
580.927	1463.25
581.287	1512.29
581.648	1495.12
582.008	1491.73
582.368	1452.18
582.728	1495.57
583.089	1485.4
583.449	1475.23
583.809	1467.55
584.169	1470.94
584.529	1452.41
584.889	1451.05
585.249	1425.97
585.609	1435.91
585.969	1472.97
586.329	1450.37
586.688	1424.38
587.048	1467.77
587.408	1450.37
587.768	1437.26
588.127	1435.68
588.487	1458.28
588.846	1495.57
589.206	1456.7
589.565	1420.54
589.925	1450.37
590.284	1426.42
590.643	1452.63
591.003	1450.82
591.362	1430.03
591.721	1414.67
592.08	1416.47
592.44	1451.05
592.799	1430.26
593.158	1441.11
593.517	1446.08
593.876	1423.03
594.235	1434.55
594.593	1428
594.952	1424.84
595.311	1434.1
595.67	1446.08
596.029	1425.51
596.387	1429.81
596.746	1448.56
597.104	1439.3
597.463	1408.11
597.822	1415.57
598.18	1408.79
598.538	1408.79
598.897	1448.11
599.255	1400.66
599.613	1458.05
599.972	1416.93
600.33	1404.05
600.688	1440.65
601.046	1436.13
601.404	1396.14
601.762	1431.84
602.12	1412.18
602.478	1428.68
602.836	1443.14
603.194	1413.76
603.552	1425.06
603.91	1423.93
604.268	1422.12
604.625	1441.11
604.983	1423.48
605.341	1460.31
605.698	1455.8
606.056	1453.31
606.413	1446.08
606.771	1463.48
607.128	1435.91
607.485	1443.59
607.843	1442.69
608.2	1450.6
608.557	1474.1
608.914	1458.28
609.272	1463.7
609.629	1466.42
609.986	1470.71
610.343	1456.25
610.7	1493.31
611.057	1487.21
611.414	1465.74
611.771	1429.36
612.127	1473.65
612.484	1478.17
612.841	1481.11
613.198	1479.98
613.554	1486.75
613.911	1488.34
614.267	1476.36
614.624	1465.74
614.98	1485.4
615.337	1492.18
615.693	1504.16
616.05	1464.61
616.406	1493.53
616.762	1499.86
617.118	1474.78
617.475	1496.92
617.831	1447.43
618.187	1487.66
618.543	1501.22
618.899	1473.2
619.255	1505.06
619.611	1499.41
619.967	1511.39
620.323	1507.55
620.678	1501.67
621.034	1466.64
621.39	1497.83
621.746	1502.35
622.101	1506.87
622.457	1496.25
622.812	1498.96
623.168	1480.65
623.523	1506.87
623.879	1488.34
624.234	1484.27
624.589	1475
624.945	1503.03
625.3	1470.48
625.655	1512.74
626.01	1472.74
626.365	1503.48
626.72	1490.14
627.075	1509.8
627.43	1477.49
627.785	1500.31
628.14	1472.74
628.495	1487.88
628.85	1477.04
629.205	1483.14
629.559	1484.49
629.914	1498.28
630.269	1470.03
630.623	1470.94
630.978	1457.15
631.332	1496.7
631.687	1448.34
632.041	1480.65
632.396	1498.51
632.75	1496.7
633.104	1471.84
633.459	1460.99
633.813	1473.42
634.167	1490.14
634.521	1453.54
634.875	1474.78
635.229	1454.67
635.583	1458.28
635.937	1491.05
636.291	1445.4
636.645	1447.43
636.999	1477.04
637.352	1496.25
637.706	1490.6
638.06	1479.3
638.413	1433.65
638.767	1456.25
639.121	1462.12
639.474	1453.54
639.828	1459.86
640.181	1457.15
640.534	1475.23
640.888	1457.38
641.241	1460.77
641.594	1472.74
641.947	1470.03
642.301	1473.65
642.654	1475.23
643.007	1454.67
643.36	1482.69
643.713	1472.97
644.066	1462.8
644.419	1472.52
644.771	1461.67
645.124	1464.61
645.477	1452.86
645.83	1431.84
646.182	1446.08
646.535	1444.04
646.888	1450.37
647.24	1477.94
647.593	1472.07
647.945	1456.25
648.298	1454.89
648.65	1476.36
649.002	1453.08
649.355	1440.2
649.707	1466.64
650.059	1444.27
650.411	1498.05
650.763	1472.52
651.115	1484.27
651.467	1510.03
651.819	1517.71
652.171	1530.14
652.523	1540.76
652.875	1529.92
653.227	1511.16
653.578	1524.49
653.93	1558.84
654.282	1540.09
654.633	1530.37
654.985	1565.4
655.337	1530.37
655.688	1554.32
656.039	1574.21
656.391	1573.98
656.742	1572.4
657.094	1576.24
657.445	1545.96
657.796	1587.54
658.147	1568.33
658.498	1601.33
658.849	1628.67
659.2	1639.07
659.551	1638.84
659.902	1637.71
660.253	1638.39
660.604	1624.38
660.955	1651.95
661.306	1681.33
661.656	1635.68
662.007	1678.16
662.358	1674.09
662.708	1669.35
663.059	1693.75
663.409	1703.02
663.76	1709.57
664.11	1720.87
664.461	1719.29
664.811	1737.14
665.161	1742.34
665.511	1756.58
665.862	1733.08
666.212	1761.55
666.562	1783.92
666.912	1818.95
667.262	1801.1
667.612	1822.79
667.962	1791.83
668.312	1829.57
668.662	1861.43
669.011	1852.17
669.361	1845.84
669.711	1852.62
670.06	1886.07
670.41	1884.94
670.76	1903.01
671.109	1889.68
671.459	1924.94
671.808	1934.88
672.157	1916.8
672.507	1989.11
672.856	1962.22
673.205	1978.04
673.554	1959.28
673.904	1988.89
674.253	2018.72
674.602	2052.39
674.951	2012.84
675.3	2051.03
675.649	2079.96
675.998	2071.82
676.346	2064.82
676.695	2110.92
677.044	2110.69
677.393	2111.82
677.741	2134.65
678.09	2152.95
678.438	2148.88
678.787	2212.39
679.135	2234.31
679.484	2209.45
679.832	2219.62
680.181	2276.56
680.529	2289.45
680.877	2306.62
681.225	2297.35
681.573	2317.69
681.922	2319.5
682.27	2343.46
682.618	2376.45
682.966	2372.61
683.314	2393.17
683.661	2400.18
684.009	2461.64
684.357	2456.67
684.705	2443.34
685.053	2434.3
685.4	2483.79
685.748	2502.77
686.095	2486.73
686.443	2504.81
686.79	2549.55
687.138	2544.13
687.485	2558.14
687.832	2543
688.18	2593.84
688.527	2610.34
688.874	2658.93
689.221	2680.4
689.568	2646.05
689.915	2671.58
690.262	2689.21
690.609	2735.08
690.956	2712.71
691.303	2727.4
691.65	2733.5
691.997	2766.27
692.344	2797
692.69	2759.94
693.037	2834.29
693.383	2819.15
693.73	2860.5
694.077	2833.16
694.423	2857.57
694.769	2862.76
695.116	2890.33
695.462	2905.02
695.808	2938.69
696.155	2961.07
696.501	2966.04
696.847	2996.32
697.193	3000.61
697.539	3020.5
697.885	3040.61
698.231	3017.79
698.577	3054.4
698.923	3085.81
699.269	3060.5
699.614	3084.9
699.96	3114.51
700.306	3108.86
700.651	3146.37
700.997	3099.14
701.342	3162.64
701.688	3191.57
702.033	3153.83
702.379	3219.82
702.724	3203.32
703.069	3276.31
703.415	3216.2
703.76	3244.45
704.105	3232.92
704.45	3299.59
704.795	3300.94
705.14	3305.46
705.485	3333.26
705.83	3281.28
706.175	3381.62
706.52	3383.43
706.865	3351.11
707.209	3411.22
707.554	3403.09
707.899	3442.18
708.243	3439.47
708.588	3437.66
708.932	3429.08
709.277	3466.14
709.621	3465.23
709.966	3439.25
710.31	3481.05
710.654	3453.48
710.998	3501.84
711.342	3528.51
711.687	3514.05
712.031	3524.22
712.375	3528.06
712.719	3564.89
713.063	3581.61
713.407	3572.58
713.75	3588.39
714.094	3602.18
714.438	3634.95
714.782	3633.59
715.125	3635.85
715.469	3629.98
715.812	3624.55
716.156	3648.96
716.499	3670.43
716.843	3665.45
717.186	3664.55
717.53	3718.56
717.873	3729.63
718.216	3719.69
718.559	3705.45
718.902	3663.65
719.246	3717.88
719.589	3736.64
719.932	3726.47
720.275	3765.56
720.617	3777.54
720.96	3752.91
721.303	3801.5
721.646	3769.18
721.989	3793.81
722.331	3793.81
722.674	3825.68
723.016	3804.66
723.359	3836.3
723.701	3835.39
724.044	3815.73
724.386	3760.59
724.729	3839.69
725.071	3871.78
725.413	3866.58
725.755	3857.54
726.097	3864.32
726.439	3843.53
726.782	3834.04
727.124	3857.54
727.465	3837.2
727.807	3857.77
728.149	3848.73
728.491	3892.57
728.833	3859.57
729.175	3876.75
729.516	3890.31
729.858	3871.55
730.199	3927.59
730.541	3886.47
730.882	3886.47
731.224	3855.96
731.565	3877.65
731.906	3928.27
732.248	3905.22
732.589	3927.14
732.93	3880.82
733.271	3886.69
733.612	3875.84
733.953	3956.07
734.294	3952
734.635	3904.09
734.976	3912.68
735.317	3912.91
735.658	3926.01
735.999	3897.99
736.339	3942.06
736.68	3912.68
737.021	3954.26
737.361	3889.4
737.702	3915.17
738.042	3939.12
738.383	3919.46
738.723	3878.56
739.063	3954.94
739.404	3890.76
739.744	3876.97
740.084	3898.89
740.424	3909.52
740.764	3890.08
741.104	3910.19
741.444	3919.23
741.784	3908.39
742.124	3876.3
742.464	3887.37
742.804	3875.84
743.143	3888.05
743.483	3874.49
743.823	3881.27
744.162	3879.01
744.502	3888.05
744.841	3859.12
745.181	3907.03
745.52	3860.93
745.86	3867.26
746.199	3858.44
746.538	3903.64
746.877	3831.1
747.216	3868.61
747.556	3833.59
747.895	3826.13
748.234	3874.71
748.573	3829.07
748.911	3859.12
749.25	3836.52
749.589	3838.11
749.928	3847.37
750.267	3859.35
750.605	3799.24
750.944	3835.62
751.283	3803.3
751.621	3844.88
751.96	3821.83
752.298	3801.04
752.636	3769.41
752.975	3775.73
753.313	3782.51
753.651	3809.41
753.989	3773.25
754.327	3758.56
754.666	3781.84
755.004	3770.31
755.342	3813.25
755.679	3735.74
756.017	3754.04
756.355	3729.18
756.693	3730.76
757.031	3710.65
757.368	3683.53
757.706	3699.13
758.044	3716.98
758.381	3679.47
758.719	3691.67
759.056	3682.63
759.394	3663.87
759.731	3667.26
760.068	3625.23
760.405	3609.86
760.743	3658.22
761.08	3616.42
761.417	3606.47
761.754	3609.41
762.091	3621.61
762.428	3575.29
762.765	3575.97
763.102	3585.91
763.438	3551.56
763.775	3576.42
764.112	3574.16
764.449	3566.02
764.785	3507.27
765.122	3494.16
765.458	3528.96
765.795	3499.13
766.131	3523.76
766.467	3478.79
766.804	3490.32
767.14	3504.1
767.476	3465.23
767.812	3450.54
768.148	3423.2
768.485	3442.41
768.821	3381.85
769.157	3426.36
769.492	3406.25
769.828	3427.27
770.164	3370.32
770.5	3387.5
770.836	3385.91
771.171	3392.02
771.507	3377.55
771.842	3372.58
772.178	3317.89
772.513	3346.82
772.849	3350.43
773.184	3318.34
