Data from carpet_green_FLMS001491_00063.txt Node
Date: Wed Feb 08 10:35:41 GMT 2017
User: dcchb
Spectrometer: FLMS00149
Trigger mode: 0
Integration Time (sec): 2.000000E-2
Scans to average: 10
Electric dark correction enabled: true
Nonlinearity correction enabled: false
Boxcar width: 0
XAxis mode: Wavelengths
Number of Pixels in Spectrum: 2048
>>>>>Begin Spectral Data<<<<<
341.393	-11.26
341.776	-11.26
342.16	-11.26
342.543	-58.49
342.927	-81.31
343.31	-55.32
343.693	-87.86
344.077	-62.33
344.46	-57.81
344.843	-70.24
345.226	-40.86
345.61	-25.49
345.993	-9
346.376	3.43
346.759	24
347.142	7.27
347.525	46.37
347.908	66.26
348.291	65.58
348.674	94.96
349.057	101.06
349.44	144.9
349.823	138.12
350.206	139.47
350.588	191.22
350.971	173.37
351.354	183.99
351.737	218.34
352.119	223.77
352.502	225.12
352.884	242.97
353.267	264.44
353.65	255.18
354.032	244.78
354.414	265.57
354.797	292.46
355.179	280.04
355.562	322.75
355.944	284.33
356.326	300.83
356.709	303.31
357.091	315.29
357.473	310.99
357.855	296.76
358.238	297.66
358.62	309.64
359.002	325.68
359.384	326.36
359.766	303.09
360.148	332.69
360.53	315.29
360.912	317.32
361.294	313.48
361.676	309.64
362.057	294.05
362.439	303.31
362.821	305.35
363.203	291.33
363.584	301.96
363.966	298.57
364.348	292.01
364.729	294.27
365.111	283.42
365.493	296.76
365.874	306.7
366.256	284.55
366.637	268.51
367.019	269.87
367.4	270.77
367.781	278.23
368.163	269.19
368.544	283.65
368.925	283.65
369.306	277.78
369.688	282.29
370.069	272.35
370.45	266.48
370.831	280.94
371.212	280.49
371.593	283.42
371.974	287.94
372.355	266.25
372.736	271.45
373.117	277.1
373.498	292.24
373.879	270.54
374.26	290.88
374.641	263.76
375.021	292.69
375.402	278.68
375.783	274.16
376.163	285.46
376.544	277.78
376.925	291.79
377.305	273.93
377.686	278
378.066	300.15
378.447	283.88
378.827	265.8
379.208	291.11
379.588	299.24
379.968	277.78
380.349	296.76
380.729	287.72
381.109	291.33
381.489	286.59
381.87	300.37
382.25	292.01
382.63	301.73
383.01	300.15
383.39	303.31
383.77	318.68
384.15	297.44
384.53	275.74
384.91	298.79
385.29	281.16
385.67	303.54
386.049	294.05
386.429	289.07
386.809	266.7
387.189	304.22
387.568	296.53
387.948	296.53
388.328	297.66
388.707	289.98
389.087	310.32
389.466	300.15
389.846	316.64
390.225	300.15
390.605	301.73
390.984	300.83
391.363	283.65
391.743	310.99
392.122	297.21
392.501	299.7
392.881	316.42
393.26	308.73
393.639	292.46
394.018	312.58
394.397	305.8
394.776	312.58
395.155	299.47
395.534	305.8
395.913	293.59
396.292	306.02
396.671	302.63
397.05	316.19
397.429	329.75
397.808	312.12
398.186	306.02
398.565	314.38
398.944	335.63
399.323	331.33
399.701	317.1
400.08	313.48
400.458	323.2
400.837	304.89
401.215	319.13
401.594	311.22
401.972	328.62
402.351	303.54
402.729	313.03
403.107	305.35
403.486	315.06
403.864	300.6
404.242	326.36
404.62	322.07
404.999	318.68
405.377	326.81
405.755	321.62
406.133	316.87
406.511	310.32
406.889	325.91
407.267	330.88
407.645	304.67
408.023	320.94
408.401	318.23
408.779	315.06
409.156	326.81
409.534	338.79
409.912	325.68
410.29	329.75
410.667	329.3
411.045	350.32
411.422	309.86
411.8	332.01
412.178	333.82
412.555	322.07
412.933	324.78
413.31	343.08
413.687	342.63
414.065	349.86
414.442	307.83
414.819	323.88
415.197	319.36
415.574	336.76
415.951	323.88
416.328	342.63
416.705	342.63
417.082	352.12
417.46	362.97
417.837	340.6
418.214	334.27
418.591	343.76
418.967	359.35
419.344	328.4
419.721	348.96
420.098	338.11
420.475	349.64
420.852	359.81
421.228	321.39
421.605	349.19
421.982	355.51
422.358	350.99
422.735	348.06
423.111	339.24
423.488	356.87
423.864	358.9
424.241	348.96
424.617	359.13
424.994	357.1
425.37	352.8
425.746	336.76
426.123	351.9
426.499	359.58
426.875	338.79
427.251	375.4
427.627	351.67
428.003	349.19
428.379	346.25
428.756	346.7
429.132	378.79
429.507	374.72
429.883	377.43
430.259	375.85
430.635	367.72
431.011	369.98
431.387	380.6
431.763	358
432.138	391.44
432.514	363.2
432.89	376.98
433.265	372.01
433.641	367.72
434.016	383.54
434.392	385.79
434.767	393.7
435.143	380.37
435.518	397.32
435.894	395.29
436.269	359.35
436.644	379.02
437.02	388.73
437.395	411.11
437.77	390.54
438.145	391.9
438.52	398.45
438.895	411.56
439.271	405.68
439.646	394.38
440.021	394.83
440.395	395.29
440.77	393.48
441.145	408.62
441.52	389.64
441.895	416.3
442.27	421.5
442.645	407.49
443.019	401.16
443.394	381.95
443.769	416.08
444.143	418.34
444.518	406.59
444.892	429.64
445.267	426.47
445.641	414.72
446.016	435.06
446.39	425.79
446.764	414.04
447.139	430.09
447.513	431.9
447.887	409.98
448.262	413.14
448.636	429.41
449.01	437.54
449.384	415.62
449.758	436.87
450.132	426.02
450.506	433.7
450.88	422.86
451.254	419.24
451.628	422.86
452.002	447.04
452.376	435.74
452.75	429.64
453.123	455.62
453.497	445.23
453.871	445.68
454.244	467.83
454.618	469.41
454.992	460.37
455.365	468.73
455.739	475.28
456.112	452.91
456.486	472.12
456.859	449.07
457.232	462.86
457.606	481.61
457.979	479.35
458.352	490.65
458.725	475.51
459.099	473.7
459.472	485
459.845	464.66
460.218	488.39
460.591	486.58
460.964	510.31
461.337	524.77
461.71	522.06
462.083	504.21
462.456	498.11
462.829	513.7
463.201	496.07
463.574	511.22
463.947	506.7
464.32	531.33
464.692	521.38
465.065	528.84
465.438	505.79
465.81	535.62
466.183	536.98
466.555	543.53
466.928	560.25
467.3	542.63
467.672	544.89
468.045	550.54
468.417	540.37
468.789	560.25
469.161	543.76
469.534	567.49
469.906	566.58
470.278	564.32
470.65	583.08
471.022	578.78
471.394	609.74
471.766	608.39
472.138	603.64
472.51	602.06
472.882	611.33
473.253	623.75
473.625	609.97
473.997	608.16
474.369	605.68
474.74	626.69
475.112	641.16
475.484	666.47
475.855	631.89
476.227	665.56
476.598	677.09
476.97	673.92
477.341	659.46
477.713	670.76
478.084	659.91
478.455	687.26
478.827	684.09
479.198	720.93
479.569	724.77
479.94	729.51
480.311	736.29
480.682	743.98
481.053	736.07
481.424	751.89
481.795	772.68
482.166	769.74
482.537	776.97
482.908	805.44
483.279	828.95
483.65	793.92
484.021	822.39
484.391	809.51
484.762	832.34
485.133	861.94
485.503	849.51
485.874	879.57
486.244	880.92
486.615	875.73
486.985	880.25
487.356	905.78
487.726	897.65
488.097	915.95
488.467	927.48
488.837	912.33
489.207	946.68
489.578	948.49
489.948	950.75
490.318	964.76
490.688	967.02
491.058	976.06
491.428	1026
491.798	1025.78
492.168	1016.74
492.538	1037.3
492.908	1024.2
493.278	1042.95
493.648	1056.06
494.017	1059.22
494.387	1073.01
494.757	1077.98
495.126	1082.27
495.496	1059
495.866	1072.33
496.235	1085.21
496.605	1073.91
496.974	1085.44
497.344	1113.69
497.713	1084.53
498.082	1098.77
498.452	1128.15
498.821	1122.27
499.19	1124.08
499.559	1122.5
499.928	1139.9
500.298	1146.23
500.667	1153.46
501.036	1152.78
501.405	1150.29
501.774	1146.45
502.143	1165.89
502.512	1187.58
502.88	1195.27
503.249	1186
503.618	1176.96
503.987	1202.5
504.356	1194.36
504.724	1214.47
505.093	1218.99
505.462	1213.57
505.83	1208.37
506.199	1220.12
506.567	1263.29
506.936	1240.46
507.304	1247.02
507.672	1255.38
508.041	1270.07
508.409	1264.64
508.777	1269.84
509.145	1277.07
509.514	1267.81
509.882	1304.19
510.25	1275.94
510.618	1298.31
510.986	1283.17
511.354	1288.82
511.722	1317.3
512.09	1284.53
512.458	1325.88
512.826	1326.56
513.193	1307.8
513.561	1314.58
513.929	1338.54
514.297	1350.74
514.664	1326.56
515.032	1351.42
515.4	1365.66
515.767	1344.41
516.135	1381.02
516.502	1348.71
516.869	1350.06
517.237	1367.46
517.604	1386.67
517.972	1373.11
518.339	1394.13
518.706	1385.99
519.073	1361.59
519.44	1401.81
519.808	1413.79
520.175	1407.01
520.542	1426.45
520.909	1401.81
521.276	1413.56
521.643	1431.42
522.009	1439.78
522.376	1426.45
522.743	1450.17
523.11	1464.64
523.477	1444.98
523.843	1447.46
524.21	1479.1
524.577	1477.29
524.943	1478.65
525.31	1479.78
525.676	1501.92
526.043	1487.46
526.409	1499.21
526.776	1505.31
527.142	1497.18
527.508	1514.58
527.874	1524.3
528.241	1563.17
528.607	1522.04
528.973	1540.11
529.339	1523.39
529.705	1537.18
530.071	1504.64
530.437	1540.57
530.803	1553.22
531.169	1572.43
531.535	1528.59
531.901	1553
532.267	1564.3
532.632	1561.81
532.998	1590.96
533.364	1575.82
533.73	1595.71
534.095	1580.34
534.461	1576.95
534.826	1592.09
535.192	1574.92
535.557	1592.77
535.923	1612.66
536.288	1575.59
536.653	1586.22
537.019	1597.29
537.384	1581.92
537.749	1614.24
538.114	1591.64
538.479	1608.59
538.845	1606.1
539.21	1605.42
539.575	1613.33
539.94	1594.8
540.305	1601.81
540.67	1578.08
541.034	1612.66
541.399	1592.99
541.764	1602.26
542.129	1593.45
542.494	1609.27
542.858	1584.18
543.223	1594.12
543.587	1609.04
543.952	1639.1
544.316	1623.73
544.681	1619.21
545.045	1607.68
545.41	1617.63
545.774	1603.16
546.138	1606.55
546.503	1627.12
546.867	1614.01
547.231	1654.01
547.595	1641.81
547.959	1647
548.324	1662.37
548.688	1618.98
549.052	1613.79
549.416	1631.41
549.779	1636.84
550.143	1623.73
550.507	1628.93
550.871	1648.36
551.235	1621.47
551.599	1625.54
551.962	1599.32
552.326	1664.41
552.689	1679.32
553.053	1655.37
553.417	1660.34
553.78	1689.72
554.143	1683.39
554.507	1657.85
554.87	1655.59
555.234	1694.01
555.597	1679.32
555.96	1695.82
556.323	1680.22
556.686	1690.17
557.05	1707.34
557.413	1684.74
557.776	1662.6
558.139	1689.94
558.502	1696.95
558.865	1697.85
559.228	1701.24
559.59	1709.6
559.953	1739.88
560.316	1742.82
560.679	1711.64
561.041	1735.14
561.404	1708.02
561.767	1759.54
562.129	1727.91
562.492	1768.81
562.854	1751.63
563.217	1729.49
563.579	1731.3
563.941	1758.64
564.304	1732.2
564.666	1730.17
565.028	1779.2
565.39	1773.1
565.753	1767.23
566.115	1793.22
566.477	1747.34
566.839	1750.96
567.201	1786.66
567.563	1785.76
567.925	1777.17
568.287	1764.52
568.648	1789.6
569.01	1776.94
569.372	1783.95
569.734	1814.23
570.095	1801.58
570.457	1805.87
570.819	1784.18
571.18	1790.5
571.542	1819.2
571.903	1804.97
572.265	1812.88
572.626	1806.32
572.987	1820.33
573.349	1820.33
573.71	1788.02
574.071	1811.97
574.432	1794.35
574.794	1831.41
575.155	1798.64
575.516	1794.35
575.877	1796.61
576.238	1818.75
576.599	1814.01
576.96	1811.29
577.32	1805.64
577.681	1800.45
578.042	1831.63
578.403	1798.19
578.763	1818.98
579.124	1810.84
579.485	1808.58
579.845	1830.05
580.206	1784.18
580.566	1804.51
580.927	1781.24
581.287	1788.24
581.648	1777.85
582.008	1802.25
582.368	1760.22
582.728	1785.31
583.089	1776.04
583.449	1768.13
583.809	1782.59
584.169	1786.44
584.529	1771.52
584.889	1756.15
585.249	1768.58
585.609	1746.44
585.969	1772.2
586.329	1781.01
586.688	1752.76
587.048	1777.62
587.408	1739.21
587.768	1759.77
588.127	1731.97
588.487	1736.04
588.846	1729.26
589.206	1730.17
589.565	1719.32
589.925	1713.67
590.284	1714.8
590.643	1737.62
591.003	1722.48
591.362	1741.24
591.721	1714.8
592.08	1728.36
592.44	1737.17
592.799	1701.01
593.158	1738.53
593.517	1717.29
593.876	1706.89
594.235	1716.38
594.593	1712.09
594.952	1696.27
595.311	1700.11
595.67	1738.98
596.029	1725.65
596.387	1733.33
596.746	1701.47
597.104	1718.42
597.463	1707.57
597.822	1706.44
598.18	1727.45
598.538	1701.47
598.897	1712.77
599.255	1706.44
599.613	1721.81
599.972	1711.18
600.33	1733.78
600.688	1694.69
601.046	1707.34
601.404	1727.45
601.762	1727.45
602.12	1708.92
602.478	1727.23
602.836	1757.96
603.194	1730.62
603.552	1719.55
603.91	1711.64
604.268	1710.05
604.625	1742.37
604.983	1738.75
605.341	1726.55
605.698	1693.11
606.056	1739.21
606.413	1738.08
606.771	1728.81
607.128	1747.12
607.485	1736.95
607.843	1710.05
608.2	1720.9
608.557	1736.95
608.914	1722.71
609.272	1723.39
609.629	1752.54
609.986	1770.62
610.343	1755.7
610.7	1754.35
611.057	1753.67
611.414	1729.26
611.771	1761.13
612.127	1769.71
612.484	1748.47
612.841	1745.08
613.198	1753.44
613.554	1771.75
613.911	1783.95
614.267	1739.43
614.624	1777.62
614.98	1763.84
615.337	1799.54
615.693	1768.81
616.05	1766.78
616.406	1779.88
616.762	1786.21
617.118	1781.92
617.475	1788.7
617.831	1769.04
618.187	1788.24
618.543	1761.8
618.899	1773.33
619.255	1785.98
619.611	1780.79
619.967	1801.8
620.323	1785.98
620.678	1736.72
621.034	1789.37
621.39	1740.79
621.746	1777.17
622.101	1782.14
622.457	1784.4
622.812	1761.58
623.168	1783.05
623.523	1798.19
623.879	1781.92
624.234	1788.24
624.589	1789.6
624.945	1784.18
625.3	1772.88
625.655	1776.72
626.01	1777.62
626.365	1756.15
626.72	1776.94
627.075	1780.79
627.43	1786.21
627.785	1771.75
628.14	1760.45
628.495	1767.91
628.85	1763.39
629.205	1753.67
629.559	1747.57
629.914	1763.61
630.269	1775.14
630.623	1780.11
630.978	1764.52
631.332	1756.15
631.687	1771.3
632.041	1762.48
632.396	1775.36
632.75	1760.45
633.104	1750.05
633.459	1782.37
633.813	1780.11
634.167	1765.87
634.521	1744.4
634.875	1727
635.229	1753.44
635.583	1751.18
635.937	1709.38
636.291	1750.73
636.645	1764.74
636.999	1753.22
637.352	1751.41
637.706	1738.53
638.06	1757.06
638.413	1740.56
638.767	1724.74
639.121	1750.5
639.474	1754.8
639.828	1736.27
640.181	1726.32
640.534	1761.8
640.888	1730.84
641.241	1697.4
641.594	1746.66
641.947	1698.98
642.301	1735.59
642.654	1722.26
643.007	1745.76
643.36	1757.74
643.713	1722.03
644.066	1748.24
644.419	1737.4
644.771	1717.06
645.124	1706.89
645.477	1691.75
645.83	1715.93
646.182	1717.06
646.535	1728.13
646.888	1721.35
647.24	1683.84
647.593	1743.5
647.945	1731.75
648.298	1738.98
648.65	1721.58
649.002	1740.56
649.355	1703.73
649.707	1713.22
650.059	1751.18
650.411	1752.76
650.763	1758.87
651.115	1773.56
651.467	1789.6
651.819	1762.93
652.171	1789.83
652.523	1819.66
652.875	1774.68
653.227	1798.87
653.578	1823.5
653.93	1794.12
654.282	1796.83
654.633	1778.98
654.985	1803.16
655.337	1835.02
655.688	1843.16
656.039	1854
656.391	1849.71
656.742	1869.15
657.094	1850.39
657.445	1856.49
657.796	1863.72
658.147	1881.8
658.498	1889.26
658.849	1893.1
659.2	1889.48
659.551	1905.08
659.902	1906.88
660.253	1939.2
660.604	1911.86
660.955	1926.32
661.306	1928.81
661.656	1967.9
662.007	1925.64
662.358	1965.41
662.708	1940.33
663.059	1970.84
663.409	1957.51
663.76	2028.24
664.11	2023.72
664.461	2033.21
664.811	2035.24
665.161	2065.52
665.511	2075.47
665.862	2074.79
666.212	2088.35
666.562	2103.49
666.912	2092.19
667.262	2105.75
667.612	2130.38
667.962	2146.88
668.312	2173.09
668.662	2181.68
669.011	2188.01
669.361	2181.68
669.711	2176.93
670.06	2236.37
670.41	2240.44
670.76	2225.52
671.109	2253.77
671.459	2259.19
671.808	2282.02
672.157	2293.54
672.507	2303.03
672.856	2290.38
673.205	2365.4
673.554	2343.26
673.904	2356.82
674.253	2400.43
674.602	2370.83
674.951	2401.56
675.3	2392.52
675.649	2414.44
675.998	2479.98
676.346	2490.6
676.695	2492.63
677.044	2476.81
677.393	2536.7
677.741	2524.27
678.09	2531.95
678.438	2559.75
678.787	2560.65
679.135	2607.21
679.484	2620.99
679.832	2649.01
680.181	2618.73
680.529	2671.38
680.877	2706.86
681.225	2727.65
681.573	2741.21
681.922	2714.32
682.27	2750.25
682.618	2773.75
682.966	2771.27
683.314	2820.99
683.661	2881.1
684.009	2862.79
684.357	2880.87
684.705	2898.05
685.053	2900.31
685.4	2909.8
685.748	2915.67
686.095	2940.53
686.443	2985.5
686.79	2998.16
687.138	3013.07
687.485	3005.84
687.832	2995.9
688.18	3085.84
688.527	3127.64
688.874	3110.02
689.221	3119.73
689.568	3159.96
689.915	3181.43
690.262	3179.62
690.609	3198.6
690.956	3223.69
691.303	3278.37
691.65	3251.71
691.997	3286.06
692.344	3275.66
692.69	3309.79
693.037	3346.85
693.383	3352.27
693.73	3371.71
694.077	3387.3
694.423	3411.25
694.769	3451.48
695.116	3468.43
695.462	3491.48
695.808	3507.75
696.155	3518.37
696.501	3545.94
696.847	3548.88
697.193	3565.82
697.539	3583.68
697.885	3630.46
698.231	3638.59
698.577	3664.35
698.923	3691.47
699.269	3721.75
699.614	3737.35
699.96	3745.93
700.306	3756.55
700.651	3817.57
700.997	3788.64
701.342	3812.82
701.688	3851.01
702.033	3804.01
702.379	3881.75
702.724	3847.4
703.069	3950.45
703.415	3923.78
703.76	3976.66
704.105	3958.58
704.45	3982.76
704.795	4018.92
705.14	4024.57
705.485	4077
705.83	4057.79
706.175	4083.32
706.52	4127.39
706.865	4116.54
707.209	4125.36
707.554	4155.64
707.899	4180.72
708.243	4182.31
708.588	4248.74
708.932	4232.47
709.277	4225.47
709.621	4311.34
709.966	4242.42
710.31	4318.12
710.654	4282.87
710.998	4335.3
711.342	4383.66
711.687	4352.47
712.031	4408.29
712.375	4383.43
712.719	4385.46
713.063	4386.59
713.407	4450.55
713.75	4512.92
714.094	4490.55
714.438	4471.79
714.782	4546.36
715.125	4533.93
715.469	4551.79
715.812	4530.09
716.156	4563.99
716.499	4567.83
716.843	4588.17
717.186	4573.26
717.53	4604.67
717.873	4634.5
718.216	4666.59
718.559	4595.4
718.902	4629.98
719.246	4688.28
719.589	4676.3
719.932	4648.73
720.275	4716.75
720.617	4719.92
720.96	4705.23
721.303	4680.15
721.646	4735.74
721.989	4740.26
722.331	4806.24
722.674	4781.39
723.016	4824.77
723.359	4798.11
723.701	4815.51
724.044	4843.98
724.386	4806.47
724.729	4831.78
725.071	4810.99
725.413	4833.14
725.755	4838.11
726.097	4838.11
726.439	4828.84
726.782	4887.6
727.124	4888.5
727.465	4837.2
727.807	4916.52
728.149	4883.3
728.491	4876.75
728.833	4906.13
729.175	4890.31
729.516	4906.35
729.858	4927.37
730.199	4910.65
730.541	4944.09
730.882	4932.79
731.224	4902.29
731.565	4905
731.906	4936.64
732.248	4921.04
732.589	4921.04
732.93	4923.75
733.271	4944.09
733.612	4988.39
733.953	5003.07
734.294	4899.57
734.635	4971.44
734.976	4985.9
735.317	4987.03
735.658	4922.62
735.999	4972.34
736.339	4954.94
736.68	4994.49
737.021	4950.19
737.361	4942.74
737.702	4954.94
738.042	4998.1
738.383	4940.03
738.723	4996.3
739.063	4939.8
739.404	4974.6
739.744	4949.74
740.084	4999.91
740.424	5025.22
740.764	4898.44
741.104	4968.05
741.444	4939.35
741.784	4923.53
742.124	4971.44
742.464	4935.05
742.804	4972.34
743.143	4950.87
743.483	4945
743.823	4951.32
744.162	4912
744.502	4910.2
744.841	4954.04
745.181	4889.63
745.52	4951.32
745.86	4950.87
746.199	4849.41
746.538	4935.51
746.877	4926.69
747.216	4940.48
747.556	4961.72
747.895	4900.25
748.234	4866.13
748.573	4866.58
748.911	4884.43
749.25	4916.75
749.589	4853.02
749.928	4907.71
750.267	4867.26
750.605	4867.03
750.944	4824.32
751.283	4822.29
751.621	4888.95
751.96	4839.69
752.298	4809.86
752.636	4788.84
752.975	4813.48
753.313	4772.8
753.651	4788.17
753.989	4771.44
754.327	4798.33
754.666	4828.62
755.004	4754.27
755.342	4760.82
755.679	4751.78
756.017	4746.81
756.355	4739.35
756.693	4748.84
757.031	4761.95
757.368	4691.22
757.706	4707.94
758.044	4681.5
758.381	4702.52
758.719	4684.89
759.056	4725.12
759.394	4639.92
759.731	4665.46
760.068	4623.42
760.405	4638.56
760.743	4629.07
761.08	4626.59
761.417	4621.39
761.754	4579.58
762.091	4588.17
762.428	4558.11
762.765	4530.54
763.102	4545.01
763.438	4523.54
763.775	4542.07
764.112	4531.67
764.449	4565.57
764.785	4504.1
765.122	4464.78
765.458	4455.97
765.795	4413.03
766.131	4456.87
766.467	4433.15
766.804	4436.76
767.14	4448.74
767.476	4385.01
767.812	4368.29
768.148	4379.81
768.485	4396.31
768.821	4311.34
769.157	4347.27
769.492	4324.45
769.828	4300.95
770.164	4221.63
770.5	4246.94
770.836	4312.47
771.171	4264.11
771.507	4248.74
771.842	4190.67
772.178	4182.53
772.513	4193.83
772.849	4155.64
