Data from carpet_green_FLMS001491_00025.txt Node
Date: Wed Feb 08 10:35:08 GMT 2017
User: dcchb
Spectrometer: FLMS00149
Trigger mode: 0
Integration Time (sec): 2.000000E-2
Scans to average: 10
Electric dark correction enabled: true
Nonlinearity correction enabled: false
Boxcar width: 0
XAxis mode: Wavelengths
Number of Pixels in Spectrum: 2048
>>>>>Begin Spectral Data<<<<<
341.393	-24.83
341.776	-24.83
342.16	-24.83
342.543	-67.54
342.927	-89.23
343.31	-80.65
343.693	-81.1
344.077	-71.38
344.46	-37.48
344.843	-56.92
345.226	-9.69
345.61	-41.55
345.993	-13.3
346.376	-3.81
346.759	12.46
347.142	12.01
347.525	51.33
347.908	53.36
348.291	70.31
348.674	94.72
349.057	101.72
349.44	102.4
349.823	146.01
350.206	136.07
350.588	162.96
350.971	182.17
351.354	199.8
351.737	211.77
352.119	222.62
352.502	234.15
352.884	237.76
353.267	236.41
353.65	263.98
354.032	260.13
354.414	265.78
354.797	270.53
355.179	292
355.562	298.1
355.944	290.42
356.326	303.75
356.709	306.69
357.091	296.29
357.473	314.37
357.855	302.17
358.238	317.76
358.62	322.96
359.002	292.22
359.384	312.56
359.766	324.31
360.148	303.52
360.53	297.87
360.912	297.65
361.294	307.36
361.676	303.75
362.057	309.85
362.439	287.93
362.821	317.08
363.203	307.82
363.584	298.33
363.966	296.52
364.348	301.72
364.729	298.1
365.111	304.88
365.493	287.25
365.874	279.79
366.256	272.79
366.637	279.79
367.019	287.25
367.4	292.22
367.781	286.12
368.163	277.76
368.544	277.76
368.925	265.33
369.306	287.25
369.688	265.33
370.069	308.04
370.45	259.68
370.831	296.74
371.212	280.7
371.593	297.87
371.974	284.54
372.355	267.14
372.736	261.26
373.117	259.46
373.498	282.05
373.879	293.13
374.26	273.02
374.641	299.91
375.021	285.67
375.402	272.56
375.783	286.8
376.163	296.29
376.544	286.35
376.925	301.26
377.305	292.68
377.686	299.91
378.066	277.54
378.447	277.99
378.827	302.17
379.208	307.36
379.588	296.52
379.968	282.96
380.349	281.38
380.729	282.28
381.109	298.1
381.489	286.12
381.87	299.46
382.25	289.29
382.63	305.33
383.01	309.62
383.39	305.56
383.77	303.52
384.15	289.51
384.53	296.97
384.91	279.79
385.29	301.72
385.67	289.96
386.049	288.61
386.429	291.55
386.809	301.04
387.189	285.44
387.568	301.26
387.948	283.18
388.328	304.2
388.707	311.43
389.087	285.67
389.466	292
389.846	310.98
390.225	325.22
390.605	299.68
390.984	305.1
391.363	282.05
391.743	298.1
392.122	294.94
392.501	307.82
392.881	322.51
393.26	307.82
393.639	311.66
394.018	296.52
394.397	309.17
394.776	317.76
395.155	321.83
395.534	310.3
395.913	330.87
396.292	306.46
396.671	300.59
397.05	292
397.429	304.2
397.808	312.11
398.186	305.33
398.565	336.74
398.944	329.74
399.323	310.3
399.701	314.6
400.08	315.5
400.458	324.09
400.837	327.03
401.215	329.29
401.594	322.73
401.972	346.69
402.351	305.56
402.729	312.56
403.107	334.03
403.486	341.49
403.864	354.37
404.242	317.53
404.62	316.18
404.999	307.82
405.377	335.61
405.755	343.75
406.133	304.65
406.511	337.19
406.889	291.77
407.267	322.05
407.645	333.35
408.023	316.18
408.401	327.7
408.779	334.48
409.156	330.87
409.534	335.39
409.912	308.95
410.29	323.18
410.667	342.62
411.045	327.25
411.422	331.09
411.8	334.93
412.178	330.42
412.555	342.17
412.933	359.57
413.31	337.42
413.687	344.65
414.065	333.35
414.442	350.08
414.819	361.15
415.197	342.84
415.574	341.71
415.951	349.4
416.328	331.54
416.705	356.63
417.082	348.95
417.46	336.74
417.837	349.62
418.214	364.76
418.591	353.69
418.967	346.91
419.344	330.42
419.721	353.92
420.098	345.56
420.475	351.88
420.852	365.22
421.228	375.61
421.605	340.36
421.982	359.34
422.358	327.48
422.735	346.91
423.111	350.3
423.488	350.08
423.864	356.63
424.241	373.13
424.617	362.73
424.994	389.85
425.37	385.78
425.746	353.47
426.123	366.12
426.499	395.72
426.875	362.96
427.251	362.28
427.627	380.36
428.003	353.47
428.379	390.3
428.756	404.09
429.132	356.86
429.507	396.85
429.883	386.46
430.259	373.58
430.635	365.67
431.011	388.27
431.387	396.18
431.763	381.26
432.138	398.21
432.514	402.73
432.89	390.75
433.265	379.68
433.641	402.96
434.016	382.84
434.392	401.83
434.767	395.27
435.143	412.45
435.518	427.59
435.894	424.2
436.269	394.37
436.644	417.42
437.02	394.14
437.395	403.63
437.77	377.42
438.145	405.67
438.52	420.58
438.895	426.46
439.271	427.36
439.646	411.54
440.021	425.78
440.395	411.54
440.77	409.06
441.145	412.9
441.52	426.91
441.895	413.58
442.27	430.75
442.645	406.12
443.019	431.43
443.394	411.77
443.769	436.85
444.143	444.54
444.518	444.54
444.892	411.77
445.267	441.15
445.641	438.89
446.016	458.32
446.39	444.31
446.764	426.68
447.139	434.82
447.513	433.24
447.887	437.3
448.262	432.11
448.636	455.84
449.01	450.19
449.384	449.28
449.758	459.45
450.132	453.58
450.506	461.94
450.88	457.19
451.254	460.13
451.628	463.97
452.002	454.48
452.376	449.51
452.75	458.32
453.123	472.78
453.497	489.51
453.871	464.2
454.244	486.57
454.618	468.04
454.992	460.81
455.365	476.63
455.739	468.26
456.112	489.96
456.486	505.1
456.859	469.39
457.232	507.59
457.606	508.72
457.979	501.94
458.352	512.11
458.725	534.48
459.099	504.2
459.472	488.6
459.845	518.88
460.218	502.84
460.591	548.71
460.964	549.17
461.337	516.62
461.71	537.42
462.083	558.88
462.456	558.66
462.829	553.23
463.201	533.35
463.574	541.26
463.947	543.74
464.32	576.28
464.692	541.71
465.065	575.83
465.438	542.61
465.81	565.66
466.183	581.48
466.555	576.06
466.928	572.44
467.3	600.92
467.672	602.27
468.045	595.27
468.417	610.41
468.789	595.49
469.161	595.94
469.534	619.22
469.906	611.76
470.278	640.92
470.65	640.24
471.022	646.11
471.394	676.17
471.766	664.87
472.138	645.66
472.51	680.01
472.882	679.56
473.253	675.49
473.625	674.36
473.997	673.23
474.369	715.94
474.74	689.5
475.112	718.88
475.484	713
475.855	719.33
476.227	740.35
476.598	747.81
476.97	753.68
477.341	767.47
477.713	771.99
478.084	768.14
478.455	776.96
478.827	804.07
479.198	814.7
479.569	842.27
479.94	858.31
480.311	843.17
480.682	869.16
481.053	876.84
481.424	887.46
481.795	864.19
482.166	923.62
482.537	901.7
482.908	893.56
483.279	958.87
483.65	940.12
484.021	940.79
484.391	960
484.762	952.55
485.133	973.79
485.503	988.25
485.874	1000.23
486.244	1003.17
486.615	1019.89
486.985	1044.75
487.356	1062.37
487.726	1068.93
488.097	1042.94
488.467	1056.95
488.837	1105.99
489.207	1107.57
489.578	1101.69
489.948	1133.33
490.318	1130.39
490.688	1133.11
491.058	1149.6
491.428	1179.43
491.798	1164.97
492.168	1203.61
492.538	1200
492.908	1218.53
493.278	1225.98
493.648	1214.91
494.017	1242.48
494.387	1258.53
494.757	1285.64
495.126	1275.02
495.496	1263.5
495.866	1273.67
496.235	1288.81
496.605	1312.76
496.974	1309.15
497.344	1320.45
497.713	1328.13
498.082	1331.97
498.452	1318.86
498.821	1367.68
499.19	1349.82
499.559	1360.9
499.928	1351.86
500.298	1379.43
500.667	1382.14
501.036	1363.16
501.405	1402.93
501.774	1392.76
502.143	1414.45
502.512	1417.17
502.88	1430.5
503.249	1468.69
503.618	1438.41
503.987	1428.69
504.356	1437.28
504.724	1458.75
505.093	1427.79
505.462	1489.93
505.83	1485.41
506.199	1492.87
506.567	1482.48
506.936	1522.7
507.304	1515.92
507.672	1484.51
508.041	1504.85
508.409	1517.73
508.777	1525.64
509.145	1505.3
509.514	1524.73
509.882	1565.18
510.25	1548.01
510.618	1548.01
510.986	1543.04
511.354	1572.19
511.722	1553.66
512.09	1583.49
512.458	1578.29
512.826	1588.46
513.193	1590.27
513.561	1590.49
513.929	1602.92
514.297	1617.39
514.664	1612.64
515.032	1618.06
515.4	1630.95
515.767	1646.09
516.135	1654.67
516.502	1645.41
516.869	1674.33
517.237	1686.09
517.604	1668.23
517.972	1697.16
518.339	1681.79
518.706	1692.64
519.073	1684.28
519.44	1691.28
519.808	1684.05
520.175	1679.53
520.542	1719.31
520.909	1736.25
521.276	1735.35
521.643	1730.83
522.009	1691.96
522.376	1710.04
522.743	1727.21
523.11	1756.82
523.477	1778.74
523.843	1774.22
524.21	1784.61
524.577	1789.59
524.943	1824.61
525.31	1792.52
525.676	1811.05
526.043	1826.87
526.409	1824.61
526.776	1838.4
527.142	1855.35
527.508	1837.95
527.874	1851.05
528.241	1856.7
528.607	1855.57
528.973	1859.87
529.339	1865.74
529.705	1879.3
530.071	1917.94
530.437	1915.23
530.803	1878.17
531.169	1898.74
531.535	1882.24
531.901	1916.14
532.267	1882.46
532.632	1921.11
532.998	1901.45
533.364	1935.34
533.73	1943.03
534.095	1924.72
534.461	1920.66
534.826	1945.74
535.192	1910.26
535.557	1925.4
535.923	1942.8
536.288	1905.74
536.653	1941.9
537.019	1924.95
537.384	1921.11
537.749	1922.24
538.114	1923.14
538.479	1894.22
538.845	1906.87
539.21	1912.75
539.575	1913.88
539.94	1956.81
540.305	1957.26
540.67	1922.92
541.034	1910.49
541.399	1932.41
541.764	1942.58
542.129	1928.11
542.494	1935.34
542.858	1926.98
543.223	1920.2
543.587	1980.99
543.952	1953.88
544.316	1964.5
544.681	1948
545.045	1942.58
545.41	1984.83
545.774	1933.99
546.138	1934.21
546.503	1942.12
546.867	1950.49
547.231	1967.21
547.595	1939.41
547.959	1956.14
548.324	1936.25
548.688	1978.51
549.052	2007.66
549.416	1976.25
549.779	1987.32
550.143	1965.4
550.507	1963.37
550.871	1975.57
551.235	1976.02
551.599	1984.38
551.962	2017.6
552.326	2000.2
552.689	1983.48
553.053	1993.87
553.417	1982.57
553.78	2013.31
554.143	1985.96
554.507	2003.59
554.87	1999.98
555.234	2019.18
555.597	2011.95
555.96	2028
556.323	2000.88
556.686	1982.35
557.05	1994.33
557.413	2009.01
557.776	2018.05
558.139	2039.3
558.502	2003.14
558.865	2019.18
559.228	2020.31
559.59	2058.28
559.953	2065.28
560.316	2043.82
560.679	2053.53
561.041	2020.31
561.404	2050.37
561.767	2072.06
562.129	2081.33
562.492	2064.15
562.854	2086.75
563.217	2065.06
563.579	2074.1
563.941	2084.27
564.304	2070.93
564.666	2108
565.028	2130.59
565.39	2100.09
565.753	2101.44
566.115	2130.14
566.477	2101.89
566.839	2095.79
567.201	2101.44
567.563	2111.84
567.925	2181.89
568.287	2081.1
568.648	2131.05
569.01	2136.92
569.372	2157.71
569.734	2109.13
570.095	2121.33
570.457	2142.8
570.819	2137.37
571.18	2158.84
571.542	2156.13
571.903	2120.65
572.265	2172.85
572.626	2143.02
572.987	2163.14
573.349	2155
573.71	2159.52
574.071	2175.56
574.432	2143.93
574.794	2206.07
575.155	2140.54
575.516	2136.7
575.877	2181.67
576.238	2141.67
576.599	2134.66
576.96	2181.21
577.32	2161.78
577.681	2157.71
578.042	2170.82
578.403	2121.33
578.763	2148.67
579.124	2155.68
579.485	2164.04
579.845	2129.92
580.206	2124.04
580.566	2166.07
580.927	2142.12
581.287	2134.66
581.648	2141.44
582.008	2096.7
582.368	2150.48
582.728	2160.2
583.089	2127.43
583.449	2120.42
583.809	2100.99
584.169	2092.18
584.529	2079.52
584.889	2112.29
585.249	2099.41
585.609	2079.75
585.969	2095.57
586.329	2078.17
586.688	2084.72
587.048	2061.44
587.408	2050.6
587.768	2096.7
588.127	2030.48
588.487	2077.71
588.846	2072.52
589.206	2049.24
589.565	2042.46
589.925	2075.45
590.284	2066.19
590.643	2032.97
591.003	2032.29
591.362	2050.14
591.721	2025.51
592.08	2026.87
592.44	2065.96
592.799	2034.55
593.158	2066.19
593.517	2010.82
593.876	2035.45
594.235	2018.28
594.593	2020.54
594.952	2003.14
595.311	1999.3
595.67	2028.9
596.029	2035.68
596.387	2016.02
596.746	2010.82
597.104	2000.88
597.463	2004.72
597.822	1979.64
598.18	2027.09
598.538	2014.66
598.897	2036.58
599.255	1979.64
599.613	2012.18
599.972	2027.77
600.33	2025.51
600.688	2015.57
601.046	2012.4
601.404	2012.4
601.762	2031.84
602.12	2077.94
602.478	2052.86
602.836	2019.41
603.194	2034.55
603.552	2016.7
603.91	2035
604.268	2027.32
604.625	2024.16
604.983	2025.51
605.341	2010.6
605.698	2022.8
606.056	2021.44
606.413	2035.91
606.771	2065.74
607.128	2003.37
607.485	2038.39
607.843	2056.92
608.2	2041.1
608.557	2053.31
608.914	2075.68
609.272	2058.96
609.629	2066.64
609.986	2087.43
610.343	2052.4
610.7	2087.21
611.057	2075.23
611.414	2072.97
611.771	2110.71
612.127	2096.92
612.484	2134.21
612.841	2089.69
613.198	2072.52
613.554	2099.18
613.911	2086.08
614.267	2111.84
614.624	2101.89
614.98	2089.69
615.337	2096.7
615.693	2089.92
616.05	2117.94
616.406	2120.42
616.762	2112.06
617.118	2103.48
617.475	2110.26
617.831	2113.64
618.187	2124.72
618.543	2104.83
618.899	2107.77
619.255	2106.19
619.611	2107.77
619.967	2156.58
620.323	2113.87
620.678	2124.72
621.034	2121.78
621.39	2098.96
621.746	2129.01
622.101	2147.99
622.457	2091.05
622.812	2153.87
623.168	2133.31
623.523	2118.39
623.879	2106.64
624.234	2113.42
624.589	2122.68
624.945	2114.55
625.3	2107.54
625.655	2146.41
626.01	2115
626.365	2115.9
626.72	2118.62
627.075	2101.44
627.43	2102.12
627.785	2106.41
628.14	2118.16
628.495	2106.64
628.85	2117.26
629.205	2085.17
629.559	2127.88
629.914	2112.74
630.269	2132.85
630.623	2127.2
630.978	2095.79
631.332	2099.86
631.687	2108.9
632.041	2075.23
632.396	2131.05
632.75	2085.85
633.104	2130.82
633.459	2101.67
633.813	2088.33
634.167	2078.17
634.521	2062.35
634.875	2104.15
635.229	2074.55
635.583	2053.99
635.937	2071.61
636.291	2077.94
636.645	2059.41
636.999	2064.38
637.352	2076.13
637.706	2079.75
638.06	2079.07
638.413	2068.22
638.767	2079.97
639.121	2106.41
639.474	2069.13
639.828	2091.27
640.181	2061.22
640.534	2089.69
640.888	2088.79
641.241	2074.78
641.594	2089.46
641.947	2108.9
642.301	2107.77
642.654	2074.78
643.007	2098.73
643.36	2075
643.713	2096.47
644.066	2046.98
644.419	2083.82
644.771	2067.09
645.124	2060.31
645.477	2085.17
645.83	2042.91
646.182	2071.84
646.535	2053.31
646.888	2081.33
647.24	2044.04
647.593	2041.33
647.945	2082.46
648.298	2069.58
648.65	2070.93
649.002	2066.64
649.355	2093.53
649.707	2039.3
650.059	2086.98
650.411	2108.45
650.763	2117.94
651.115	2158.16
651.467	2147.09
651.819	2103.93
652.171	2162.23
652.523	2152.51
652.875	2165.85
653.227	2164.72
653.578	2164.94
653.93	2202.46
654.282	2182.57
654.633	2166.07
654.985	2181.21
655.337	2200.65
655.688	2213.3
656.039	2265.73
656.391	2231.83
656.742	2236.58
657.094	2252.85
657.445	2270.03
657.796	2255.56
658.147	2265.96
658.498	2281.78
658.849	2291.95
659.2	2322.68
659.551	2290.82
659.902	2312.06
660.253	2306.18
660.604	2350.47
660.955	2323.13
661.306	2320.42
661.656	2391.15
662.007	2366.97
662.358	2389.12
662.708	2402.45
663.059	2450.36
663.409	2416.69
663.76	2444.03
664.11	2467.08
664.461	2433.86
664.811	2510.7
665.161	2470.47
665.511	2481.54
665.862	2487.42
666.212	2550.7
666.562	2576.68
666.912	2544.14
667.262	2581.88
667.612	2590.69
667.962	2643.57
668.312	2642.9
668.662	2634.99
669.011	2688.32
669.361	2672.27
669.711	2729.22
670.06	2693.06
670.41	2714.31
670.76	2745.27
671.109	2811.03
671.459	2775.77
671.808	2795.66
672.157	2844.93
672.507	2878.6
672.856	2844.25
673.205	2863.68
673.554	2888.99
673.904	2943.23
674.253	2973.06
674.602	2945.04
674.951	2979.61
675.3	2962.89
675.649	3025.26
675.998	3032.49
676.346	3047.86
676.695	3076.33
677.044	3130.57
677.393	3155.65
677.741	3168.76
678.09	3199.27
678.438	3164.24
678.787	3241.3
679.135	3266.16
679.484	3262.77
679.832	3344.8
680.181	3267.74
680.529	3356.32
680.877	3372.14
681.225	3368.3
681.573	3424.34
681.922	3377.79
682.27	3400.84
682.618	3460.28
682.966	3486.49
683.314	3507.73
683.661	3539.14
684.009	3563.1
684.357	3575.75
684.705	3617.33
685.053	3599.48
685.4	3669.99
685.748	3634.51
686.095	3676.99
686.443	3705.24
686.79	3703.21
687.138	3775.97
687.485	3791.34
687.832	3810.1
688.18	3821.17
688.527	3847.16
688.874	3835.41
689.221	3911.79
689.568	3947.95
689.915	3931
690.262	3965.57
690.609	3990.88
690.956	4007.15
691.303	4047.83
691.65	4062.29
691.997	4096.19
692.344	4081.95
692.69	4113.82
693.037	4160.37
693.383	4162.4
693.73	4188.84
694.077	4188.62
694.423	4230.65
694.769	4202.63
695.116	4229.52
695.462	4269.29
695.808	4316.52
696.155	4349.29
696.501	4349.52
696.847	4388.61
697.193	4353.13
697.539	4399.01
697.885	4399.69
698.231	4479.68
698.577	4526.91
698.923	4448.95
699.269	4478.33
699.614	4515.39
699.96	4503.41
700.306	4594.94
700.651	4606.69
700.997	4594.94
701.342	4583.64
701.688	4656.18
702.033	4666.8
702.379	4653.01
702.724	4697.31
703.069	4718.55
703.415	4673.13
703.76	4791.54
704.105	4826.57
704.45	4793.57
704.795	4838.32
705.14	4813.01
705.485	4849.17
705.83	4907.24
706.175	4922.16
706.52	4965.1
706.865	4888.26
707.209	4899.33
707.554	4915.61
707.899	4964.19
708.243	4988.15
708.588	5031.76
708.932	4984.53
709.277	5016.39
709.621	5034.7
709.966	4998.77
710.31	5063.62
710.654	5027.24
710.998	5077.86
711.342	5138.88
711.687	5139.55
712.031	5105.88
712.375	5140.68
712.719	5148.14
713.063	5155.82
713.407	5240.12
713.75	5198.54
714.094	5204.41
714.438	5237.18
714.782	5208.48
715.125	5256.39
715.469	5230.4
715.812	5253.22
716.156	5260.68
716.499	5337.97
716.843	5307.46
717.186	5307.46
717.53	5368.02
717.873	5310.17
718.216	5345.42
718.559	5316.72
718.902	5330.06
719.246	5424.07
719.589	5392.2
719.932	5353.33
720.275	5456.83
720.617	5371.64
720.96	5413.9
721.303	5415.93
721.646	5430.85
721.989	5460.22
722.331	5456.38
722.674	5476.72
723.016	5439.21
723.359	5474.01
723.701	5509.04
724.044	5507
724.386	5425.65
724.729	5463.84
725.071	5447.12
725.413	5543.16
725.755	5509.26
726.097	5534.8
726.439	5445.53
726.782	5482.14
727.124	5524.18
727.465	5488.25
727.807	5506.32
728.149	5492.31
728.491	5483.5
728.833	5510.84
729.175	5488.92
729.516	5538.41
729.858	5522.14
730.199	5528.02
730.541	5569.6
730.882	5523.27
731.224	5612.99
731.565	5552.2
731.906	5521.46
732.248	5577.06
732.589	5511.3
732.93	5561.24
733.271	5535.25
733.612	5531.41
733.953	5569.83
734.294	5547.23
734.635	5540.67
734.976	5579.54
735.317	5522.14
735.658	5543.84
735.999	5575.93
736.339	5499.77
736.68	5532.09
737.021	5522.14
737.361	5507.45
737.702	5626.1
738.042	5520.56
738.383	5514.46
738.723	5584.74
739.063	5584.51
739.404	5582.93
739.744	5504.97
740.084	5528.92
740.424	5568.02
740.764	5465.2
741.104	5525.31
741.444	5515.59
741.784	5485.99
742.124	5534.35
742.464	5490.51
742.804	5511.3
743.143	5508.36
743.483	5483.5
743.823	5514.46
744.162	5487.57
744.502	5543.61
744.841	5499.32
745.181	5539.09
745.52	5471.97
745.86	5477.85
746.199	5443.05
746.538	5481.92
746.877	5476.95
747.216	5481.92
747.556	5478.08
747.895	5460.9
748.234	5469.04
748.573	5394.01
748.911	5428.81
749.25	5398.53
749.589	5409.38
749.928	5421.35
750.267	5423.39
750.605	5389.27
750.944	5402.82
751.283	5412.09
751.621	5421.58
751.96	5387.23
752.298	5339.1
752.636	5437.85
752.975	5374.35
753.313	5316.05
753.651	5347.23
753.989	5327.57
754.327	5328.48
754.666	5306.78
755.004	5309.27
755.342	5294.8
755.679	5283.96
756.017	5267.01
756.355	5281.92
756.693	5282.83
757.031	5273.79
757.368	5204.41
757.706	5200.57
758.044	5172.77
758.381	5174.36
758.719	5168.48
759.056	5195.82
759.394	5142.94
759.731	5170.06
760.068	5142.72
760.405	5130.74
760.743	5105.66
761.08	5101.36
761.417	5098.2
761.754	5113.11
762.091	5036.28
762.428	5033.12
762.765	5029.05
763.102	5033.12
763.438	5003.29
763.775	5004.64
764.112	4995.6
764.449	4959.67
764.785	4923.29
765.122	4933.01
765.458	4922.84
765.795	4923.29
766.131	4885.1
766.467	4892.78
766.804	4860.47
767.14	4821.14
767.476	4849.17
767.812	4836.74
768.148	4812.56
768.485	4812.56
768.821	4802.39
769.157	4778.21
769.492	4775.27
769.828	4727.81
770.164	4753.12
770.5	4709.73
770.836	4717.42
771.171	4646.46
771.507	4691.66
771.842	4639.91
772.178	4670.41
772.513	4618.21
