Data from carpet_green_FLMS001491_00052.txt Node
Date: Wed Feb 08 10:35:33 GMT 2017
User: dcchb
Spectrometer: FLMS00149
Trigger mode: 0
Integration Time (sec): 2.000000E-2
Scans to average: 10
Electric dark correction enabled: true
Nonlinearity correction enabled: false
Boxcar width: 0
XAxis mode: Wavelengths
Number of Pixels in Spectrum: 2048
>>>>>Begin Spectral Data<<<<<
341.393	-14.69
341.776	-14.69
342.16	-14.69
342.543	-65.53
342.927	-68.92
343.31	-66.66
343.693	-80.68
344.077	-80.68
344.46	-33.67
344.843	-59.43
345.226	-35.48
345.61	-19.21
345.993	-33.22
346.376	0.9
346.759	11.07
347.142	18.98
347.525	40
347.908	65.31
348.291	74.35
348.674	100.79
349.057	97.62
349.44	132.65
349.823	144.85
350.206	128.58
350.588	160.9
350.971	166.1
351.354	221.24
351.737	213.55
352.119	220.33
352.502	235.02
352.884	226.89
353.267	276.15
353.65	256.72
354.032	272.99
354.414	285.64
354.797	297.17
355.179	298.75
355.562	293.55
355.944	295.36
356.326	311.86
356.709	300.33
357.091	295.81
357.473	319.31
357.855	302.82
358.238	301.24
358.62	324.29
359.002	317.51
359.384	307.34
359.766	310.95
360.148	307.56
360.53	300.11
360.912	310.73
361.294	278.64
361.676	303.49
362.057	286.55
362.439	276.6
362.821	293.33
363.203	289.03
363.584	286.55
363.966	283.16
364.348	270.73
364.729	268.02
365.111	282.93
365.493	262.59
365.874	282.7
366.256	272.31
366.637	278.41
367.019	296.49
367.4	265.53
367.781	270.5
368.163	270.95
368.544	265.3
368.925	277.51
369.306	279.99
369.688	299.2
370.069	271.41
370.45	265.98
370.831	269.6
371.212	260.56
371.593	282.7
371.974	278.86
372.355	279.54
372.736	266.89
373.117	258.52
373.498	270.5
373.879	284.74
374.26	291.29
374.641	288.13
375.021	270.73
375.402	289.48
375.783	287.45
376.163	265.53
376.544	268.69
376.925	288.58
377.305	272.76
377.686	285.64
378.066	283.83
378.447	282.25
378.827	297.39
379.208	263.27
379.588	273.44
379.968	288.35
380.349	279.54
380.729	303.72
381.109	277.96
381.489	298.75
381.87	276.15
382.25	281.35
382.63	291.29
383.01	275.25
383.39	284.29
383.77	293.33
384.15	305.75
384.53	294.46
384.91	292.87
385.29	289.03
385.67	295.59
386.049	283.61
386.429	293.1
386.809	290.61
387.189	277.05
387.568	309.82
387.948	278.64
388.328	296.94
388.707	280.67
389.087	275.25
389.466	278.86
389.846	294.46
390.225	303.72
390.605	300.78
390.984	305.75
391.363	291.97
391.743	300.78
392.122	279.99
392.501	308.01
392.881	298.07
393.26	299.2
393.639	301.01
394.018	320.67
394.397	311.63
394.776	307.34
395.155	306.88
395.534	287.68
395.913	295.13
396.292	293.1
396.671	296.94
397.05	300.33
397.429	307.11
397.808	287.9
398.186	293.55
398.565	288.81
398.944	309.37
399.323	286.55
399.701	285.19
400.08	305.98
400.458	297.39
400.837	298.07
401.215	313.66
401.594	298.07
401.972	310.73
402.351	307.34
402.729	303.49
403.107	299.2
403.486	298.52
403.864	303.72
404.242	301.01
404.62	317.96
404.999	310.27
405.377	298.98
405.755	308.24
406.133	308.69
406.511	314.57
406.889	314.34
407.267	330.16
407.645	323.83
408.023	318.18
408.401	322.03
408.779	315.02
409.156	308.92
409.534	301.01
409.912	327.45
410.29	318.18
410.667	332.19
411.045	307.34
411.422	288.58
411.8	319.77
412.178	302.59
412.555	338.52
412.933	329.48
413.31	322.48
413.687	318.41
414.065	332.42
414.442	302.59
414.819	327.45
415.197	316.6
415.574	320.22
415.951	308.47
416.328	307.11
416.705	323.16
417.082	335.58
417.46	326.55
417.837	341.91
418.214	330.61
418.591	323.83
418.967	316.38
419.344	329.26
419.721	324.74
420.098	308.92
420.475	325.19
420.852	326.55
421.228	320.67
421.605	309.14
421.982	343.27
422.358	334.68
422.735	305.98
423.111	317.28
423.488	330.84
423.864	327.67
424.241	334.91
424.617	327.68
424.994	346.88
425.37	322.7
425.746	324.51
426.123	341.91
426.499	319.09
426.875	338.97
427.251	342.36
427.627	338.07
428.003	336.26
428.379	330.16
428.756	353.44
429.132	340.33
429.507	364.28
429.883	354.11
430.259	348.47
430.635	357.5
431.011	349.37
431.387	338.3
431.763	351.4
432.138	342.14
432.514	343.04
432.89	358.86
433.265	359.09
433.641	352.53
434.016	344.85
434.392	348.47
434.767	339.43
435.143	349.82
435.518	358.86
435.894	338.07
436.269	376.49
436.644	353.44
437.02	351.63
437.395	355.7
437.77	360.44
438.145	346.43
438.52	360.67
438.895	370.61
439.271	367.22
439.646	361.35
440.021	364.96
440.395	365.64
440.77	366.32
441.145	368.13
441.52	374
441.895	370.61
442.27	360.22
442.645	341.91
443.019	363.38
443.394	364.74
443.769	361.57
444.143	368.35
444.518	381.01
444.892	381.91
445.267	365.64
445.641	388.69
446.016	369.48
446.39	376.71
446.764	355.7
447.139	364.96
447.513	371.52
447.887	381.68
448.262	397.96
448.636	368.13
449.01	383.72
449.384	380.1
449.758	376.71
450.132	377.17
450.506	387.11
450.88	373.32
451.254	378.3
451.628	376.04
452.002	357.73
452.376	381.46
452.75	399.09
453.123	399.09
453.497	413.55
453.871	422.59
454.244	380.78
454.618	382.14
454.992	384.17
455.365	394.11
455.739	399.76
456.112	403.83
456.486	406.77
456.859	424.17
457.232	418.75
457.606	401.12
457.979	395.02
458.352	390.72
458.725	416.03
459.099	423.27
459.472	413.77
459.845	395.7
460.218	443.15
460.591	392.31
460.964	394.11
461.337	424.17
461.71	409.03
462.083	411.74
462.456	425.53
462.829	407.9
463.201	425.3
463.574	410.16
463.947	419.88
464.32	449.03
464.692	418.07
465.065	428.01
465.438	433.89
465.81	431.85
466.183	428.24
466.555	414
466.928	464.62
467.3	458.07
467.672	426.66
468.045	449.71
468.417	454.23
468.789	459.87
469.161	448.58
469.534	451.97
469.906	452.87
470.278	475.02
470.65	473.66
471.022	454
471.394	479.08
471.766	461.91
472.138	468.01
472.51	472.53
472.882	489.7
473.253	499.42
473.625	502.81
473.997	468.46
474.369	498.29
474.74	486.31
475.112	509.14
475.484	502.59
475.855	509.82
476.227	513.88
476.598	517.73
476.97	516.37
477.341	533.55
477.713	524.28
478.084	525.41
478.455	532.64
478.827	556.37
479.198	534
479.569	526.99
479.94	556.37
480.311	555.47
480.682	576.93
481.053	574.67
481.424	585.52
481.795	567.22
482.166	580.32
482.537	590.04
482.908	604.96
483.279	593.88
483.65	581
484.021	599.31
484.391	615.35
484.762	615.35
485.133	602.24
485.503	628.46
485.874	639.76
486.244	620.55
486.615	628.68
486.985	653.54
487.356	630.04
487.726	646.54
488.097	659.87
488.467	681.79
488.837	671.39
489.207	679.53
489.578	704.84
489.948	688.12
490.318	707.55
490.688	675.24
491.058	707.1
491.428	694.67
491.798	712.75
492.168	726.99
492.538	742.35
492.908	725.4
493.278	741
493.648	734.44
494.017	717.27
494.387	727.44
494.757	735.12
495.126	765.4
495.496	764.73
495.866	758.62
496.235	762.92
496.605	759.08
496.974	763.37
497.344	754.1
497.713	771.96
498.082	770.15
498.452	770.15
498.821	773.99
499.19	766.53
499.559	799.3
499.928	794.1
500.298	789.58
500.667	818.74
501.036	810.37
501.405	834.33
501.774	795.69
502.143	806.31
502.512	832.97
502.88	819.64
503.249	805.18
503.618	808.79
503.987	824.39
504.356	821.9
504.724	806.08
505.093	856.25
505.462	835.91
505.83	837.72
506.199	804.95
506.567	859.41
506.936	859.41
507.304	872.29
507.672	846.76
508.041	862.58
508.409	862.8
508.777	873.2
509.145	868.23
509.514	842.01
509.882	878.17
510.25	881.78
510.618	850.6
510.986	866.87
511.354	885.63
511.722	876.14
512.09	890.6
512.458	882.69
512.826	903.03
513.193	886.08
513.561	870.94
513.929	896.7
514.297	919.98
514.664	902.12
515.032	888.11
515.4	891.73
515.767	903.48
516.135	908.45
516.502	889.02
516.869	911.39
517.237	922.24
517.604	914.33
517.972	908.9
518.339	944.16
518.706	926.08
519.073	931.05
519.44	931.73
519.808	942.12
520.175	931.73
520.542	958.84
520.909	965.62
521.276	971.73
521.643	924.72
522.009	967.66
522.376	938.28
522.743	973.08
523.11	963.59
523.477	964.27
523.843	979.86
524.21	981.22
524.577	961.33
524.943	970.6
525.31	979.64
525.676	976.7
526.043	1006.3
526.409	1003.59
526.776	987.09
527.142	1003.82
527.508	1002.69
527.874	992.74
528.241	973.31
528.607	997.04
528.973	999.3
529.339	993.65
529.705	985.96
530.071	1011.72
530.437	1021.89
530.803	1007.88
531.169	1046.75
531.535	1013.98
531.901	1015.11
532.267	996.13
532.632	1027.54
532.998	1048.79
533.364	1033.42
533.73	1028.22
534.095	1064.83
534.461	1056.24
534.826	1050.82
535.192	1037.03
535.557	1052.63
535.923	1031.61
536.288	1051.05
536.653	1058.73
537.019	1031.16
537.384	1052.18
537.749	1049.24
538.114	1028.45
538.479	1012.18
538.845	1054.66
539.21	1058.28
539.575	1059.63
539.94	1058.05
540.305	1067.54
540.67	1065.28
541.034	1042.46
541.399	1051.5
541.764	1050.59
542.129	1024.83
542.494	1082.68
542.858	1047.2
543.223	1022.57
543.587	1069.35
543.952	1048.33
544.316	1062.12
544.681	1060.09
545.045	1067.99
545.41	1054.66
545.774	1042.23
546.138	1061.22
546.503	1058.28
546.867	1069.8
547.231	1086.98
547.595	1042.23
547.959	1057.83
548.324	1046.98
548.688	1042.46
549.052	1059.18
549.416	1042.01
549.779	1077.26
550.143	1077.49
550.507	1049.46
550.871	1078.16
551.235	1081.1
551.599	1075.9
551.962	1067.77
552.326	1083.59
552.689	1071.84
553.053	1081.78
553.417	1068.22
553.78	1088.11
554.143	1074.32
554.507	1091.95
554.87	1077.94
555.234	1093.3
555.597	1095.34
555.96	1083.59
556.323	1085.4
556.686	1109.35
557.05	1096.47
557.413	1101.89
557.776	1099.18
558.139	1100.76
558.502	1114.77
558.865	1107.77
559.228	1109.12
559.59	1122
559.953	1121.78
560.316	1145.51
560.679	1126.75
561.041	1134.89
561.404	1130.82
561.767	1129.46
562.129	1112.06
562.492	1139.63
562.854	1119.29
563.217	1101.44
563.579	1110.25
563.941	1150.48
564.304	1150.48
564.666	1124.94
565.028	1145.96
565.39	1159.07
565.753	1167.2
566.115	1172.62
566.477	1148.22
566.839	1143.47
567.201	1170.36
567.563	1145.73
567.925	1183.7
568.287	1135.56
568.648	1169.46
569.01	1185.05
569.372	1182.12
569.734	1155.22
570.095	1176.24
570.457	1166.3
570.819	1182.12
571.18	1205.17
571.542	1148.44
571.903	1171.95
572.265	1178.5
572.626	1198.84
572.987	1183.25
573.349	1191.83
573.71	1185.28
574.071	1179.63
574.432	1184.15
574.794	1197.03
575.155	1192.29
575.516	1189.35
575.877	1173.75
576.238	1199.06
576.599	1190.7
576.96	1195.9
577.32	1214.43
577.681	1170.36
578.042	1192.06
578.403	1168.78
578.763	1195.67
579.124	1185.51
579.485	1171.72
579.845	1200.19
580.206	1198.61
580.566	1195.22
580.927	1169.69
581.287	1201.55
581.648	1171.49
582.008	1172.4
582.368	1175.11
582.728	1170.14
583.089	1211.72
583.449	1177.14
583.809	1168.1
584.169	1170.59
584.529	1163.81
584.889	1195.9
585.249	1192.74
585.609	1184.15
585.969	1176.69
586.329	1162.46
586.688	1197.26
587.048	1184.83
587.408	1169.91
587.768	1148.44
588.127	1182.34
588.487	1159.74
588.846	1153.64
589.206	1171.72
589.565	1171.72
589.925	1148.9
590.284	1157.26
590.643	1144.83
591.003	1164.26
591.362	1156.81
591.721	1130.14
592.08	1169.23
592.44	1150.48
592.799	1191.61
593.158	1156.13
593.517	1179.18
593.876	1176.69
594.235	1174.21
594.593	1136.69
594.952	1153.42
595.311	1172.62
595.67	1144.38
596.029	1190.25
596.387	1144.6
596.746	1160.87
597.104	1161.78
597.463	1138.73
597.822	1134.66
598.18	1157.94
598.538	1153.19
598.897	1180.08
599.255	1148.44
599.613	1182.57
599.972	1165.62
600.33	1155.68
600.688	1167.43
601.046	1162.91
601.404	1139.18
601.762	1154.32
602.12	1163.36
602.478	1182.34
602.836	1167.2
603.194	1148.22
603.552	1169.23
603.91	1168.56
604.268	1160.2
604.625	1154.55
604.983	1181.44
605.341	1147.09
605.698	1145.28
606.056	1151.38
606.413	1188.67
606.771	1165.85
607.128	1189.57
607.485	1180.08
607.843	1191.83
608.2	1187.77
608.557	1154.55
608.914	1169.69
609.272	1160.87
609.629	1189.57
609.986	1196.8
610.343	1175.79
610.7	1228.22
611.057	1207.88
611.414	1176.92
611.771	1192.29
612.127	1178.5
612.484	1186.64
612.841	1217.82
613.198	1203.58
613.554	1216.47
613.911	1189.35
614.267	1196.8
614.624	1227.31
614.98	1196.58
615.337	1201.78
615.693	1194.32
616.05	1191.38
616.406	1215.11
616.762	1198.61
617.118	1232.28
617.475	1206.97
617.831	1191.38
618.187	1203.58
618.543	1199.29
618.899	1211.04
619.255	1236.8
619.611	1217.82
619.967	1202.23
620.323	1184.83
620.678	1218.73
621.034	1214.21
621.39	1230.7
621.746	1202.23
622.101	1215.34
622.457	1237.93
622.812	1221.66
623.168	1223.02
623.523	1222.57
623.879	1201.1
624.234	1211.49
624.589	1238.16
624.945	1216.92
625.3	1229.35
625.655	1212.17
626.01	1213.3
626.365	1229.35
626.72	1206.52
627.075	1200.65
627.43	1199.52
627.785	1225.5
628.14	1224.37
628.495	1206.75
628.85	1208.78
629.205	1230.48
629.559	1219.63
629.914	1199.29
630.269	1190.03
630.623	1236.58
630.978	1211.72
631.332	1224.83
631.687	1207.88
632.041	1220.08
632.396	1203.36
632.75	1212.17
633.104	1181.21
633.459	1199.29
633.813	1198.16
634.167	1198.61
634.521	1173.08
634.875	1202.23
635.229	1190.93
635.583	1214.43
635.937	1196.13
636.291	1189.57
636.645	1201.32
636.999	1216.47
637.352	1200.19
637.706	1189.12
638.06	1190.7
638.413	1222.79
638.767	1207.43
639.121	1175.56
639.474	1194.77
639.828	1185.73
640.181	1222.34
640.534	1232.28
640.888	1192.29
641.241	1190.48
641.594	1208.56
641.947	1212.85
642.301	1218.5
642.654	1200.42
643.007	1219.4
643.36	1194.77
643.713	1202.91
644.066	1190.03
644.419	1198.16
644.771	1194.09
645.124	1171.72
645.477	1163.81
645.83	1153.87
646.182	1177.82
646.535	1161.33
646.888	1152.29
647.24	1168.78
647.593	1195.9
647.945	1187.99
648.298	1204.49
648.65	1196.58
649.002	1197.48
649.355	1199.29
649.707	1196.58
650.059	1185.05
650.411	1190.93
650.763	1219.18
651.115	1214.66
651.467	1222.79
651.819	1193.64
652.171	1236.35
652.523	1215.56
652.875	1216.01
653.227	1223.02
653.578	1222.11
653.93	1215.11
654.282	1232.28
654.633	1238.61
654.985	1234.32
655.337	1251.27
655.688	1246.07
656.039	1245.62
656.391	1260.31
656.742	1255.56
657.094	1261.21
657.445	1254.66
657.796	1247.65
658.147	1271.15
658.498	1265.96
658.849	1297.37
659.2	1291.04
659.551	1295.11
659.902	1289.91
660.253	1268.22
660.604	1324.03
660.955	1291.94
661.306	1306.86
661.656	1295.79
662.007	1329.46
662.358	1333.98
662.708	1300.53
663.059	1340.08
663.409	1316.8
663.76	1339.17
664.11	1358.61
664.461	1346.41
664.811	1349.34
665.161	1352.05
665.511	1356.57
665.862	1387.08
666.212	1368.1
666.562	1416.01
666.912	1416.01
667.262	1391.38
667.612	1426.18
667.962	1425.27
668.312	1444.48
668.662	1422.11
669.011	1438.83
669.361	1442
669.711	1436.35
670.06	1469.34
670.41	1445.16
670.76	1484.03
671.109	1513.63
671.459	1517.93
671.808	1510.92
672.157	1530.58
672.507	1507.98
672.856	1532.39
673.205	1559.51
673.554	1569
673.904	1578.04
674.253	1589.79
674.602	1607.19
674.951	1574.42
675.3	1579.85
675.649	1618.71
675.998	1649
676.346	1652.84
676.695	1658.26
677.044	1675.66
677.393	1687.41
677.741	1694.19
678.09	1715.66
678.438	1729.9
678.787	1759.95
679.135	1744.13
679.484	1733.06
679.832	1749.78
680.181	1762.21
680.529	1796.79
680.877	1784.81
681.225	1806.05
681.573	1864.81
681.922	1825.04
682.27	1856.9
682.618	1889.67
682.966	1891.93
683.314	1872.27
683.661	1922.21
684.009	1905.71
684.357	1895.32
684.705	1926.28
685.053	1960.85
685.4	1975.77
685.748	1967.63
686.095	1975.09
686.443	2015.09
686.79	2002.21
687.138	2034.3
687.485	2036.33
687.832	2057.35
688.18	2064.58
688.527	2074.75
688.874	2114.29
689.221	2135.76
689.568	2130.11
689.915	2135.31
690.262	2173.95
690.609	2182.99
690.956	2190.68
691.303	2194.29
691.65	2238.36
691.997	2259.38
692.344	2219.15
692.69	2218.25
693.037	2309.54
693.383	2281.3
693.73	2297.57
694.077	2320.84
694.423	2324.68
694.769	2352.03
695.116	2344.8
695.462	2362.42
695.808	2403.1
696.155	2396.77
696.501	2423.44
696.847	2429.54
697.193	2437.68
697.539	2436.77
697.885	2493.27
698.231	2448.3
698.577	2521.29
698.923	2523.32
699.269	2530.33
699.614	2555.86
699.96	2580.72
700.306	2583.66
700.651	2614.62
700.997	2585.02
701.342	2617.56
701.688	2639.93
702.033	2655.3
702.379	2664.56
702.724	2681.96
703.069	2708.86
703.415	2674.73
703.76	2744.33
704.105	2728.06
704.45	2763.09
704.795	2736.43
705.14	2739.59
705.485	2770.55
705.83	2802.41
706.175	2808.06
706.52	2822.75
706.865	2817.33
707.209	2864.78
707.554	2911.11
707.899	2884.9
708.243	2922.86
708.588	2922.18
708.932	2924.67
709.277	2908.85
709.621	2942.07
709.966	2973.48
710.31	2970.32
710.654	2976.42
710.998	2989.98
711.342	3015.51
711.687	2988.17
712.031	3012.58
712.375	3041.5
712.719	3066.36
713.063	3061.39
713.407	3081.05
713.75	3046.02
714.094	3116.98
714.438	3064.33
714.782	3113.82
715.125	3152.23
715.469	3163.08
715.812	3129.64
716.156	3163.08
716.499	3132.57
716.843	3157.88
717.186	3202.63
717.53	3210.76
717.873	3218.9
718.216	3225.23
718.559	3239.46
718.902	3241.04
719.246	3249.18
719.589	3263.64
719.932	3220.93
720.275	3288.05
720.617	3287.15
720.96	3331.66
721.303	3278.56
721.646	3335.51
721.989	3292.12
722.331	3326.47
722.674	3358.56
723.016	3335.73
723.359	3349.52
723.701	3380.7
724.044	3345.22
724.386	3319.46
724.729	3369.18
725.071	3372.11
725.413	3381.61
725.755	3383.87
726.097	3378.22
726.439	3362.62
726.782	3414.15
727.124	3377.76
727.465	3381.83
727.807	3384.32
728.149	3377.09
728.491	3383.87
728.833	3402.85
729.175	3399.68
729.516	3384.09
729.858	3439.46
730.199	3412.79
730.541	3421.15
730.882	3370.76
731.224	3429.06
731.565	3426.35
731.906	3402.62
732.248	3454.15
732.589	3393.58
732.93	3470.42
733.271	3433.36
733.612	3462.73
733.953	3462.51
734.294	3433.13
734.635	3410.53
734.976	3450.08
735.317	3457.08
735.658	3435.62
735.999	3473.58
736.339	3440.81
736.68	3509.06
737.021	3457.76
737.361	3457.99
737.702	3464.77
738.042	3448.5
738.383	3476.07
738.723	3443.53
739.063	3428.38
739.404	3500.7
739.744	3486.69
740.084	3413.02
740.424	3460.25
740.764	3490.08
741.104	3461.15
741.444	3458.67
741.784	3436.07
742.124	3446.92
742.464	3446.01
742.804	3435.84
743.143	3441.49
743.483	3428.16
743.823	3456.18
744.162	3458.67
744.502	3459.8
744.841	3396.07
745.181	3438.1
745.52	3416.18
745.86	3486.91
746.199	3441.72
746.538	3417.99
746.877	3456.86
747.216	3393.13
747.556	3403.75
747.895	3409.4
748.234	3419.35
748.573	3422.51
748.911	3400.81
749.25	3417.54
749.589	3406.69
749.928	3389.74
750.267	3395.84
750.605	3393.36
750.944	3385.9
751.283	3354.94
751.621	3354.04
751.96	3342.28
752.298	3396.97
752.636	3392.23
752.975	3328.5
753.313	3332.34
753.651	3359.46
753.989	3309.74
754.327	3326.69
754.666	3319.91
755.004	3332.57
755.342	3360.82
755.679	3335.96
756.017	3294.6
756.355	3354.04
756.693	3307.48
757.031	3317.43
757.368	3296.86
757.706	3316.07
758.044	3315.85
758.381	3312.68
758.719	3305.9
759.056	3255.96
759.394	3278.78
759.731	3274.04
760.068	3223.19
760.405	3251.21
760.743	3224.77
761.08	3225
761.417	3248.95
761.754	3271.55
762.091	3217.32
762.428	3237.2
762.765	3231.78
763.102	3220.48
763.438	3192.68
763.775	3121.27
764.112	3156.08
764.449	3183.87
764.785	3147.71
765.122	3128.51
765.458	3105.23
765.795	3101.84
766.131	3134.15
766.467	3074.95
766.804	3091.9
767.14	3076.76
767.476	3061.84
767.812	3049.41
768.148	3045.34
768.485	3040.82
768.821	3068.39
769.157	3058.68
769.492	3031.33
769.828	2987.49
770.164	3013.25
770.5	3016.87
770.836	2969.19
771.171	2984.1
771.507	2985.46
771.842	2919.02
772.178	2967.83
772.513	2960.37
772.849	2926.48
773.184	2881.96
773.519	2918.12
773.855	2919.7
774.19	2910.21
774.525	2901.17
774.86	2873.14
