Data from carpet_green_FLMS001491_00060.txt Node
Date: Wed Feb 08 10:35:34 GMT 2017
User: dcchb
Spectrometer: FLMS00149
Trigger mode: 0
Integration Time (sec): 2.000000E-2
Scans to average: 10
Electric dark correction enabled: true
Nonlinearity correction enabled: false
Boxcar width: 0
XAxis mode: Wavelengths
Number of Pixels in Spectrum: 2048
>>>>>Begin Spectral Data<<<<<
341.393	5.83
341.776	5.83
342.16	5.83
342.543	-58.35
342.927	-56.09
343.31	-69.42
343.693	-54.5
344.077	-62.87
344.46	-58.8
344.843	-66.03
345.226	-45.69
345.61	-49.31
345.993	-36.65
346.376	1.09
346.759	34.08
347.142	25.49
347.525	51.03
347.908	54.42
348.291	71.14
348.674	97.81
349.057	108.2
349.44	120.63
349.823	143
350.206	188.43
350.588	180.52
350.971	198.14
351.354	187.52
351.737	215.77
352.119	230.01
352.502	261.87
352.884	250.35
353.267	264.36
353.65	246.96
354.032	267.75
354.414	292.61
354.797	287.41
355.179	303.23
355.562	311.36
355.944	296
356.326	303.9
356.709	319.27
357.091	311.81
357.473	327.41
357.855	300.97
358.238	330.12
358.62	314.53
359.002	310.46
359.384	310.23
359.766	320.63
360.148	306.16
360.53	310.46
360.912	323.56
361.294	322.21
361.676	321.53
362.057	293.51
362.439	313.62
362.821	299.61
363.203	309.55
363.584	302.77
363.966	309.55
364.348	300.29
364.729	298.25
365.111	299.61
365.493	307.07
365.874	291.7
366.256	306.84
366.637	279.72
367.019	291.93
367.4	296.22
367.781	293.06
368.163	284.7
368.544	295.54
368.925	274.75
369.306	306.84
369.688	280.18
370.069	304.58
370.45	287.86
370.831	291.25
371.212	287.86
371.593	263
371.974	266.84
372.355	280.85
372.736	254.87
373.117	272.27
373.498	284.02
373.879	293.96
374.26	286.5
374.641	280.85
375.021	282.89
375.402	274.3
375.783	283.34
376.163	285.15
376.544	283.11
376.925	291.02
377.305	293.74
377.686	298.48
378.066	285.83
378.447	283.57
378.827	278.14
379.208	270.23
379.588	292.15
379.968	316.11
380.349	292.61
380.729	302.32
381.109	329.67
381.489	291.25
381.87	296.22
382.25	296.45
382.63	290.57
383.01	287.18
383.39	287.86
383.77	300.74
384.15	301.42
384.53	311.59
384.91	310.46
385.29	284.92
385.67	295.32
386.049	298.93
386.429	308.65
386.809	306.84
387.189	283.57
387.568	291.93
387.948	298.03
388.328	312.04
388.707	302.32
389.087	311.36
389.466	302.1
389.846	307.52
390.225	311.36
390.605	307.29
390.984	293.74
391.363	301.64
391.743	321.53
392.122	330.8
392.501	301.42
392.881	324.47
393.26	317.24
393.639	322.66
394.018	272.72
394.397	317.69
394.776	310.46
395.155	323.11
395.534	306.16
395.913	312.49
396.292	308.65
396.671	315.66
397.05	303.9
397.429	318.14
397.808	301.64
398.186	309.1
398.565	304.36
398.944	295.54
399.323	314.07
399.701	307.29
400.08	319.5
400.458	316.11
400.837	319.5
401.215	309.1
401.594	316.11
401.972	307.97
402.351	303.68
402.729	331.47
403.107	338.71
403.486	322.66
403.864	320.4
404.242	338.93
404.62	325.15
404.999	314.3
405.377	310.23
405.755	317.01
406.133	316.11
406.511	303.23
406.889	314.07
407.267	307.75
407.645	321.98
408.023	304.13
408.401	320.63
408.779	335.32
409.156	329.21
409.534	335.99
409.912	319.72
410.29	316.79
410.667	307.52
411.045	312.04
411.422	326.05
411.8	312.49
412.178	325.82
412.555	352.94
412.933	339.38
413.31	319.95
413.687	319.5
414.065	324.24
414.442	340.06
414.819	334.41
415.197	319.5
415.574	325.37
415.951	333.06
416.328	319.27
416.705	309.1
417.082	328.08
417.46	329.89
417.837	335.54
418.214	306.84
418.591	329.89
418.967	325.6
419.344	327.86
419.721	328.08
420.098	329.21
420.475	360.17
420.852	337.12
421.228	316.79
421.605	324.69
421.982	338.25
422.358	328.54
422.735	324.47
423.111	338.71
423.488	338.03
423.864	352.94
424.241	352.26
424.617	321.76
424.994	333.28
425.37	323.34
425.746	342.55
426.123	351.13
426.499	337.8
426.875	337.35
427.251	340.51
427.627	326.28
428.003	344.58
428.379	320.63
428.756	364.24
429.132	347.75
429.507	351.13
429.883	356.11
430.259	359.72
430.635	360.85
431.011	355.65
431.387	354.07
431.763	339.61
432.138	356.33
432.514	365.37
432.89	337.35
433.265	338.93
433.641	360.85
434.016	349.55
434.392	365.15
434.767	380.29
435.143	360.17
435.518	370.57
435.894	368.76
436.269	333.28
436.644	376.22
437.02	360.4
437.395	379.38
437.77	372.83
438.145	372.15
438.52	363.79
438.895	357.91
439.271	382.55
439.646	371.93
440.021	371.25
440.395	361.53
440.77	359.95
441.145	364.02
441.52	363.34
441.895	365.37
442.27	378.48
442.645	403.34
443.019	369.89
443.394	392.26
443.769	370.34
444.143	373.73
444.518	391.81
444.892	377.8
445.267	391.36
445.641	390.23
446.016	390.91
446.39	378.03
446.764	399.95
447.139	382.09
447.513	382.55
447.887	384.81
448.262	382.77
448.636	385.94
449.01	396.33
449.384	397.01
449.758	377.57
450.132	379.83
450.506	387.07
450.88	380.06
451.254	379.38
451.628	380.06
452.002	395.2
452.376	399.5
452.75	390.68
453.123	394.98
453.497	402.43
453.871	403.56
454.244	420.06
454.618	396.33
454.992	419.38
455.365	391.36
455.739	418.7
456.112	414.86
456.486	389.1
456.859	413.05
457.232	390.91
457.606	423.45
457.979	416.67
458.352	399.95
458.725	406.5
459.099	429.78
459.472	400.17
459.845	411.7
460.218	411.7
460.591	421.19
460.964	432.94
461.337	425.26
461.71	431.58
462.083	439.27
462.456	449.66
462.829	406.27
463.201	446.27
463.574	439.72
463.947	422.09
464.32	450.79
464.692	454.41
465.065	453.73
465.438	449.44
465.81	442.21
466.183	445.37
466.555	474.75
466.928	474.52
467.3	443.56
467.672	446.5
468.045	492.6
468.417	462.54
468.789	451.92
469.161	481.07
469.534	473.84
469.906	487.85
470.278	463
470.65	480.62
471.022	471.13
471.394	501.19
471.766	480.17
472.138	486.5
472.51	491.02
472.882	513.84
473.253	483.79
473.625	499.61
473.997	495.09
474.369	512.03
474.74	523.11
475.112	534.63
475.484	514.97
475.855	498.48
476.227	532.6
476.598	520.85
476.97	527.63
477.341	532.37
477.713	526.72
478.084	516.55
478.455	542.54
478.827	551.58
479.198	554.75
479.569	553.16
479.94	556.1
480.311	580.06
480.682	572.15
481.053	569.43
481.424	598.13
481.795	556.55
482.166	590.68
482.537	601.07
482.908	618.92
483.279	612.37
483.65	608.76
484.021	635.42
484.391	620.05
484.762	619.83
485.133	626.83
485.503	648.08
485.874	631.58
486.244	650.79
486.615	648.98
486.985	664.12
487.356	674.29
487.726	650.34
488.097	656.89
488.467	645.14
488.837	665.93
489.207	688.75
489.578	698.02
489.948	707.74
490.318	691.24
490.688	696.89
491.058	711.13
491.428	705.7
491.798	714.29
492.168	707.28
492.538	741.86
492.908	705.93
493.278	749.54
493.648	744.57
494.017	724.23
494.387	756.77
494.757	770.33
495.126	759.94
495.496	776.66
495.866	756.32
496.235	754.06
496.605	771.46
496.974	780.95
497.344	799.48
497.713	779.37
498.082	782.31
498.452	793.16
498.821	816.66
499.19	777.79
499.559	794.74
499.928	806.72
500.298	813.04
500.667	823.21
501.036	837.45
501.405	834.29
501.774	826.38
502.143	831.12
502.512	832.7
502.88	833.61
503.249	837.22
503.618	841.29
503.987	824.12
504.356	817.34
504.724	828.41
505.093	847.39
505.462	836.09
505.83	855.53
506.199	864.34
506.567	863.89
506.936	851.01
507.304	857.56
507.672	847.84
508.041	850.78
508.409	876.54
508.777	871.57
509.145	867.96
509.514	862.53
509.882	882.42
510.25	846.72
510.618	883.1
510.986	881.52
511.354	895.3
511.722	885.58
512.09	869.31
512.458	904.57
512.826	902.08
513.193	907.05
513.561	893.95
513.929	888.3
514.297	908.86
514.664	901.63
515.032	916.32
515.4	924.91
515.767	947.28
516.135	924.68
516.502	923.55
516.869	940.5
517.237	919.03
517.604	901.4
517.972	920.84
518.339	944.79
518.706	929.2
519.073	936.66
519.44	943.66
519.808	947.73
520.175	939.82
520.542	969.88
520.909	964.45
521.276	945.92
521.643	959.48
522.009	966.71
522.376	972.81
522.743	962.87
523.11	982.76
523.477	983.43
523.843	986.37
524.21	968.97
524.577	984.11
524.943	985.02
525.31	1012.36
525.676	992.7
526.043	983.89
526.409	975.98
526.776	1012.36
527.142	1008.07
527.508	1000.61
527.874	1016.2
528.241	1004.45
528.607	1030.21
528.973	1021.63
529.339	1027.73
529.705	1001.29
530.071	1018.91
530.437	1029.99
530.803	1027.73
531.169	1036.31
531.535	999.71
531.901	1039.7
532.267	1034.96
532.632	1036.77
532.998	1036.09
533.364	1032.92
533.73	1053.72
534.095	1047.61
534.461	1051.23
534.826	1041.74
535.192	1040.83
535.557	1042.64
535.923	1065.24
536.288	1046.94
536.653	1067.95
537.019	1057.33
537.384	1052.59
537.749	1051.46
538.114	1051.91
538.479	1060.95
538.845	1071.57
539.21	1032.7
539.575	1067.73
539.94	1037.22
540.305	1053.72
540.67	1067.27
541.034	1044.68
541.399	1053.94
541.764	1054.85
542.129	1030.44
542.494	1058.46
542.858	1062.08
543.223	1034.28
543.587	1079.03
543.952	1066.82
544.316	1054.85
544.681	1071.79
545.045	1050.78
545.41	1058.01
545.774	1068.86
546.138	1051.91
546.503	1081.51
546.867	1053.04
547.231	1066.14
547.595	1081.74
547.959	1080.83
548.324	1068.86
548.688	1060.49
549.052	1058.91
549.416	1069.31
549.779	1106.82
550.143	1102.3
550.507	1076.77
550.871	1081.29
551.235	1088.29
551.599	1081.51
551.962	1081.06
552.326	1100.49
552.689	1089.87
553.053	1079.7
553.417	1078.57
553.78	1111.34
554.143	1090.55
554.507	1090.78
554.87	1087.61
555.234	1111.79
555.597	1095.07
555.96	1121.28
556.323	1097.1
556.686	1115.63
557.05	1099.59
557.413	1119.25
557.776	1103.21
558.139	1117.89
558.502	1073.83
558.865	1109.53
559.228	1095.3
559.59	1128.06
559.953	1107.27
560.316	1123.32
560.679	1107.27
561.041	1118.8
561.404	1130.32
561.767	1139.81
562.129	1149.08
562.492	1153.15
562.854	1132.13
563.217	1145.01
563.579	1147.5
563.941	1130.32
564.304	1166.03
564.666	1161.06
565.028	1168.06
565.39	1148.18
565.753	1179.59
566.115	1164.67
566.477	1158.35
566.839	1142.3
567.201	1175.75
567.563	1154.96
567.925	1162.64
568.287	1182.07
568.648	1172.58
569.01	1157.44
569.372	1174.16
569.734	1179.36
570.095	1163.99
570.457	1183.2
570.819	1167.61
571.18	1176.2
571.542	1196.31
571.903	1196.54
572.265	1178.23
572.626	1182.98
572.987	1185.01
573.349	1194.95
573.71	1174.84
574.071	1186.37
574.432	1202.64
574.794	1208.97
575.155	1189.98
575.516	1192.24
575.877	1197.89
576.238	1192.92
576.599	1171.68
576.96	1199.47
577.32	1183.66
577.681	1206.48
578.042	1188.17
578.403	1192.02
578.763	1188.85
579.124	1174.84
579.485	1190.66
579.845	1209.19
580.206	1193.6
580.566	1185.92
580.927	1215.74
581.287	1168.97
581.648	1178.91
582.008	1188.4
582.368	1191.56
582.728	1208.06
583.089	1185.24
583.449	1187.5
583.809	1208.97
584.169	1176.42
584.529	1194.95
584.889	1191.34
585.249	1186.37
585.609	1189.76
585.969	1180.27
586.329	1176.88
586.688	1201.96
587.048	1195.86
587.408	1187.05
587.768	1184.79
588.127	1166.93
588.487	1157.89
588.846	1188.17
589.206	1172.36
589.565	1163.77
589.925	1164.22
590.284	1162.64
590.643	1171.9
591.003	1174.84
591.362	1172.58
591.721	1171.68
592.08	1193.6
592.44	1171
592.799	1171.68
593.158	1169.87
593.517	1165.58
593.876	1155.63
594.235	1165.8
594.593	1139.59
594.952	1173.71
595.311	1155.18
595.67	1171.68
596.029	1181.62
596.387	1172.36
596.746	1166.48
597.104	1156.31
597.463	1149.98
597.822	1156.31
598.18	1181.85
598.538	1162.19
598.897	1157.89
599.255	1162.19
599.613	1174.16
599.972	1175.97
600.33	1168.29
600.688	1180.72
601.046	1188.17
601.404	1177.1
601.762	1169.19
602.12	1162.19
602.478	1171
602.836	1185.24
603.194	1180.04
603.552	1179.36
603.91	1171.45
604.268	1178.01
604.625	1170.1
604.983	1172.58
605.341	1168.74
605.698	1180.49
606.056	1179.59
606.413	1196.08
606.771	1191.34
607.128	1175.97
607.485	1184.11
607.843	1196.54
608.2	1192.69
608.557	1203.54
608.914	1195.63
609.272	1201.73
609.629	1191.79
609.986	1207.61
610.343	1194.05
610.7	1192.69
611.057	1199.47
611.414	1201.28
611.771	1189.53
612.127	1203.54
612.484	1191.79
612.841	1189.08
613.198	1201.28
613.554	1198.8
613.911	1198.57
614.267	1205.35
614.624	1188.4
614.98	1217.33
615.337	1206.25
615.693	1196.31
616.05	1208.74
616.406	1229.98
616.762	1197.89
617.118	1225.46
617.475	1218.23
617.831	1230.66
618.187	1223.65
618.543	1232.69
618.899	1171.23
619.255	1207.38
619.611	1211
619.967	1207.84
620.323	1211.9
620.678	1215.97
621.034	1208.74
621.39	1206.25
621.746	1210.1
622.101	1225.46
622.457	1199.7
622.812	1211.68
623.168	1211
623.523	1229.3
623.879	1200.15
624.234	1218.91
624.589	1240.15
624.945	1206.93
625.3	1223.65
625.655	1216.2
626.01	1200.6
626.365	1216.42
626.72	1239.25
627.075	1221.39
627.43	1210.55
627.785	1195.63
628.14	1244.9
628.495	1226.82
628.85	1211
629.205	1223.43
629.559	1210.55
629.914	1218.68
630.269	1231.11
630.623	1223.43
630.978	1208.74
631.332	1231.56
631.687	1251.45
632.041	1190.89
632.396	1192.92
632.75	1226.37
633.104	1223.43
633.459	1192.92
633.813	1229.08
634.167	1194.28
634.521	1199.7
634.875	1194.28
635.229	1180.72
635.583	1188.17
635.937	1193.37
636.291	1202.41
636.645	1216.87
636.999	1225.24
637.352	1203.77
637.706	1228.63
638.06	1224.56
638.413	1209.42
638.767	1235.41
639.121	1193.37
639.474	1188.4
639.828	1182.3
640.181	1215.74
640.534	1192.24
640.888	1179.81
641.241	1225.91
641.594	1198.8
641.947	1220.72
642.301	1205.58
642.654	1202.41
643.007	1219.13
643.36	1218.91
643.713	1209.19
644.066	1201.06
644.419	1185.46
644.771	1201.28
645.124	1161.28
645.477	1196.54
645.83	1186.37
646.182	1177.33
646.535	1184.79
646.888	1198.34
647.24	1186.37
647.593	1196.31
647.945	1210.32
648.298	1214.39
648.65	1166.93
649.002	1213.94
649.355	1174.16
649.707	1196.31
650.059	1222.3
650.411	1222.75
650.763	1220.26
651.115	1221.62
651.467	1218.23
651.819	1211.45
652.171	1258.91
652.523	1224.78
652.875	1220.04
653.227	1213.94
653.578	1215.07
653.93	1249.64
654.282	1249.87
654.633	1251.9
654.985	1267.95
655.337	1238.34
655.688	1239.7
656.039	1245.8
656.391	1266.14
656.742	1235.86
657.094	1249.42
657.445	1295.52
657.796	1279.92
658.147	1293.93
658.498	1262.98
658.849	1285.8
659.2	1282.86
659.551	1280.38
659.902	1287.61
660.253	1288.06
660.604	1312.69
660.955	1286.25
661.306	1303.43
661.656	1292.13
662.007	1303.88
662.358	1316.53
662.708	1344.56
663.059	1345.01
663.409	1342.52
663.76	1348.85
664.11	1354.5
664.461	1361.28
664.811	1340.71
665.161	1347.49
665.511	1362.63
665.862	1389.3
666.212	1395.4
666.562	1406.7
666.912	1429.98
667.262	1401.5
667.612	1407.6
667.962	1443.99
668.312	1427.26
668.662	1436.98
669.011	1413.48
669.361	1476.53
669.711	1476.3
670.06	1474.5
670.41	1501.61
670.76	1496.19
671.109	1504.55
671.459	1506.36
671.808	1521.05
672.157	1514.49
672.507	1532.8
672.856	1548.84
673.205	1541.39
673.554	1574.61
673.904	1585.68
674.253	1629.29
674.602	1622.74
674.951	1608.5
675.3	1631.33
675.649	1617.77
675.998	1631.78
676.346	1652.12
676.695	1666.35
677.044	1689.18
677.393	1672.46
677.741	1684.66
678.09	1703.42
678.438	1743.87
678.787	1733.25
679.135	1740.02
679.484	1748.84
679.832	1780.02
680.181	1793.81
680.529	1799.68
680.877	1782.96
681.225	1790.65
681.573	1811.44
681.922	1836.75
682.27	1860.7
682.618	1886.01
682.966	1861.6
683.314	1884.88
683.661	1883.3
684.009	1917.42
684.357	1947.48
684.705	1970.3
685.053	1953.13
685.4	1979.57
685.748	2000.36
686.095	1998.32
686.443	2019.34
686.79	2028.6
687.138	2029.06
687.485	2077.64
687.832	2075.16
688.18	2119.22
688.527	2096.63
688.874	2136.62
689.221	2130.75
689.568	2159.22
689.915	2173.69
690.262	2175.95
690.609	2181.37
690.956	2214.14
691.303	2231.99
691.65	2229.5
691.997	2252.55
692.344	2293.23
692.69	2278.99
693.037	2299.33
693.383	2325.77
693.73	2315.6
694.077	2357.64
694.423	2328.94
694.769	2373.45
695.116	2410.97
695.462	2376.17
695.808	2412.55
696.155	2432.66
696.501	2435.83
696.847	2474.47
697.193	2476.28
697.539	2481.02
697.885	2493.68
698.231	2485.09
698.577	2529.61
698.923	2546.56
699.269	2542.72
699.614	2579.55
699.96	2555.37
700.306	2572.55
700.651	2574.35
700.997	2622.04
701.342	2642.83
701.688	2628.36
702.033	2661.81
702.379	2688.47
702.724	2702.49
703.069	2707.23
703.415	2731.64
703.76	2717.85
704.105	2791.97
704.45	2773.44
704.795	2789.49
705.14	2801.92
705.485	2757.4
705.83	2821.13
706.175	2857.74
706.52	2831.75
706.865	2881.69
707.209	2872.65
707.554	2878.07
707.899	2892.76
708.243	2922.82
708.588	2910.62
708.932	2945.42
709.277	2958.07
709.621	3005.75
709.966	2966.43
710.31	2991.29
710.654	3001.91
710.998	3029.48
711.342	2997.17
711.687	3047.11
712.031	3035.81
712.375	3069.26
712.719	3059.99
713.063	3103.15
713.407	3092.53
713.75	3102.25
714.094	3082.36
714.438	3127.78
714.782	3144.51
715.125	3153.32
715.469	3177.28
715.812	3178.86
716.156	3173.43
716.499	3160.55
716.843	3181.12
717.186	3183.6
717.53	3222.02
717.873	3251.4
718.216	3244.62
718.559	3242.81
718.902	3246.2
719.246	3262.02
719.589	3256.14
719.932	3268.12
720.275	3285.29
720.617	3317.61
720.96	3324.16
721.303	3331.4
721.646	3336.14
721.989	3315.8
722.331	3334.56
722.674	3341.11
723.016	3336.82
723.359	3337.05
723.701	3348.57
724.044	3347.89
724.386	3361
724.729	3357.16
725.071	3379.98
725.413	3376.14
725.755	3405.29
726.097	3417.04
726.439	3341.34
726.782	3385.18
727.124	3363.94
727.465	3458.4
727.807	3432.64
728.149	3432.41
728.491	3403.03
728.833	3432.41
729.175	3389.92
729.516	3453.43
729.858	3440.09
730.199	3407.55
730.541	3432.64
730.882	3473.31
731.224	3447.1
731.565	3449.81
731.906	3441
732.248	3472.18
732.589	3431.05
732.93	3466.53
733.271	3431.73
733.612	3481.22
733.953	3496.14
734.294	3469.7
734.635	3499.98
734.976	3465.86
735.317	3453.2
735.658	3446.65
735.999	3481.9
736.339	3454.33
736.68	3459.98
737.021	3451.17
737.361	3493.43
737.702	3464.5
738.042	3453.2
738.383	3471.5
738.723	3508.57
739.063	3494.33
739.404	3458.85
739.744	3472.41
740.084	3439.87
740.424	3498.62
740.764	3507.66
741.104	3478.51
741.444	3500.43
741.784	3462.24
742.124	3468.79
742.464	3463.6
742.804	3509.02
743.143	3447.32
743.483	3462.47
743.823	3451.62
744.162	3400.09
744.502	3483.93
744.841	3452.07
745.181	3476.7
745.52	3488.23
745.86	3443.48
746.199	3436.25
746.538	3450.94
746.877	3450.04
747.216	3456.82
747.556	3450.71
747.895	3444.16
748.234	3412.98
748.573	3419.53
748.911	3393.09
749.25	3450.26
749.589	3392.41
749.928	3400.09
750.267	3424.95
750.605	3405.97
750.944	3430.83
751.283	3419.75
751.621	3396.48
751.96	3385.18
752.298	3417.49
752.636	3362.13
752.975	3375.69
753.313	3355.12
753.651	3351.28
753.989	3361.68
754.327	3373.43
754.666	3375.24
755.004	3386.08
755.342	3367.33
755.679	3341.11
756.017	3314.9
756.355	3316.25
756.693	3307.89
757.031	3330.27
757.368	3344.5
757.706	3327.55
758.044	3294.56
758.381	3303.15
758.719	3324.62
759.056	3304.5
759.394	3303.6
759.731	3308.57
760.068	3277.39
760.405	3245.3
760.743	3295.92
761.08	3222.7
761.417	3237.16
761.754	3226.99
762.091	3235.8
762.428	3210.49
762.765	3203.49
763.102	3194
763.438	3215.69
763.775	3210.49
764.112	3169.59
764.449	3163.04
764.785	3165.98
765.122	3163.72
765.458	3143.6
765.795	3160.55
766.131	3092.31
766.467	3127.33
766.804	3103.83
767.14	3095.02
767.476	3120.1
767.812	3103.38
768.148	3088.46
768.485	3040.1
768.821	3059.99
769.157	3048.01
769.492	3055.92
769.828	3053.66
770.164	3039.65
770.5	2998.3
770.836	3010.05
771.171	3004.17
771.507	3021.57
771.842	2993.78
772.178	3015.92
772.513	2964.17
772.849	2962.37
773.184	2967.79
773.519	2966.43
773.855	2946.55
774.19	2933.67
774.525	2917.17
774.86	2892.76
775.195	2894.57
