Data from carpet_green_FLMS001491_00053.txt Node
Date: Wed Feb 08 10:35:33 GMT 2017
User: dcchb
Spectrometer: FLMS00149
Trigger mode: 0
Integration Time (sec): 2.000000E-2
Scans to average: 10
Electric dark correction enabled: true
Nonlinearity correction enabled: false
Boxcar width: 0
XAxis mode: Wavelengths
Number of Pixels in Spectrum: 2048
>>>>>Begin Spectral Data<<<<<
341.393	-3.73
341.776	-3.73
342.16	-3.73
342.543	-49.15
342.927	-60.68
343.31	-96.61
343.693	-68.59
344.077	-67.23
344.46	-47.57
344.843	-51.86
345.226	-37.63
345.61	-37.4
345.993	-21.36
346.376	19.55
346.759	25.2
347.142	28.36
347.525	32.2
347.908	51.64
348.291	71.3
348.674	93.22
349.057	106.78
349.44	134.57
349.823	151.75
350.206	151.52
350.588	174.12
350.971	199.88
351.354	191.75
351.737	219.54
352.119	220.45
352.502	226.1
352.884	254.12
353.267	267.9
353.65	263.61
354.032	292.08
354.414	288.02
354.797	287.11
355.179	293.89
355.562	304.51
355.944	295.47
356.326	309.71
356.709	313.1
357.091	304.51
357.473	331.63
357.855	316.71
358.238	325.98
358.62	305.42
359.002	302.48
359.384	316.49
359.766	318.97
360.148	314.68
360.53	287.56
360.912	311.29
361.294	310.61
361.676	314.46
362.057	304.51
362.439	311.74
362.821	302.48
363.203	308.13
363.584	315.36
363.966	310.16
364.348	302.03
364.729	294.12
365.111	291.4
365.493	295.02
365.874	277.62
366.256	286.89
366.637	303.38
367.019	299.99
367.4	298.86
367.781	286.89
368.163	301.35
368.544	279.2
368.925	281.46
369.306	278.75
369.688	273.78
370.069	281.24
370.45	293.66
370.831	297.51
371.212	290.27
371.593	277.85
371.974	262.93
372.355	300.44
372.736	268.58
373.117	283.72
373.498	274.46
373.879	287.56
374.26	284.85
374.641	293.21
375.021	299.77
375.402	289.82
375.783	294.34
376.163	292.08
376.544	292.76
376.925	281.24
377.305	294.12
377.686	288.69
378.066	306.77
378.447	293.44
378.827	272.42
379.208	292.53
379.588	283.72
379.968	292.31
380.349	277.17
380.729	288.47
381.109	296.15
381.489	300.44
381.87	304.74
382.25	307.68
382.63	273.1
383.01	294.34
383.39	314.91
383.77	308.13
384.15	287.56
384.53	298.64
384.91	284.85
385.29	300.44
385.67	293.44
386.049	320.78
386.429	301.57
386.809	294.34
387.189	300.44
387.568	302.93
387.948	316.04
388.328	289.6
388.707	276.94
389.087	294.79
389.466	291.63
389.846	304.29
390.225	299.99
390.605	311.07
390.984	323.27
391.363	299.54
391.743	315.36
392.122	316.49
392.501	318.52
392.881	306.32
393.26	316.04
393.639	311.52
394.018	317.84
394.397	310.61
394.776	308.35
395.155	312.2
395.534	318.07
395.913	308.58
396.292	325.75
396.671	306.77
397.05	302.48
397.429	308.58
397.808	320.1
398.186	285.76
398.565	316.04
398.944	308.58
399.323	305.87
399.701	304.96
400.08	330.95
400.458	309.94
400.837	315.36
401.215	313.1
401.594	314.91
401.972	333.66
402.351	318.3
402.729	319.88
403.107	341.57
403.486	312.87
403.864	304.29
404.242	322.36
404.62	303.16
404.999	326.66
405.377	344.51
405.755	304.06
406.133	297.51
406.511	332.99
406.889	344.96
407.267	325.08
407.645	324.17
408.023	330.5
408.401	331.4
408.779	325.75
409.156	318.97
409.534	321.91
409.912	293.66
410.29	331.4
410.667	321.46
411.045	332.99
411.422	320.56
411.8	327.56
412.178	321.46
412.555	326.43
412.933	338.64
413.31	332.31
413.687	333.89
414.065	323.04
414.442	322.82
414.819	335.02
415.197	338.64
415.574	327.11
415.951	334.57
416.328	331.18
416.705	335.7
417.082	333.21
417.46	343.15
417.837	341.57
418.214	330.27
418.591	318.3
418.967	331.63
419.344	351.06
419.721	342.48
420.098	326.43
420.475	334.57
420.852	333.44
421.228	339.99
421.605	345.64
421.982	338.64
422.358	340.89
422.735	355.13
423.111	331.4
423.488	337.73
423.864	340.89
424.241	332.99
424.617	334.57
424.994	386.32
425.37	370.05
425.746	328.24
426.123	346.09
426.499	338.18
426.875	337.96
427.251	337.51
427.627	360.56
428.003	325.08
428.379	341.8
428.756	342.25
429.132	358.75
429.507	348.8
429.883	354.91
430.259	374.79
430.635	351.52
431.011	353.78
431.387	372.76
431.763	354.23
432.138	349.93
432.514	344.06
432.89	348.35
433.265	354
433.641	361.91
434.016	352.42
434.392	362.82
434.767	363.04
435.143	356.26
435.518	379.99
435.894	370.27
436.269	339.09
436.644	370.72
437.02	371.63
437.395	372.53
437.77	365.3
438.145	371.85
438.52	364.85
438.895	376.83
439.271	363.04
439.646	386.09
440.021	389.03
440.395	380.67
440.77	365.75
441.145	363.72
441.52	381.35
441.895	367.56
442.27	380.44
442.645	377.5
443.019	380.22
443.394	360.33
443.769	399.42
444.143	389.03
444.518	400.33
444.892	375.24
445.267	380.89
445.641	401.68
446.016	375.47
446.39	393.77
446.764	384.51
447.139	394.68
447.513	380.22
447.887	390.39
448.262	378.63
448.636	383.61
449.01	388.58
449.384	399.42
449.758	417.28
450.132	385.87
450.506	391.74
450.88	379.76
451.254	365.98
451.628	415.02
452.002	384.74
452.376	386.09
452.75	378.41
453.123	386.09
453.497	397.16
453.871	405.3
454.244	425.41
454.618	394.23
454.992	412.98
455.365	415.02
455.739	394.45
456.112	411.18
456.486	414.57
456.859	401.46
457.232	384.51
457.606	398.97
457.979	432.64
458.352	414.79
458.725	417.96
459.099	431.06
459.472	402.14
459.845	426.77
460.218	417.05
460.591	456.15
460.964	450.95
461.337	450.04
461.71	428.58
462.083	448.46
462.456	434.23
462.829	418.63
463.201	425.19
463.574	436.94
463.947	443.04
464.32	460.89
464.692	445.98
465.065	473.77
465.438	440.55
465.81	441.23
466.183	460.89
466.555	446.43
466.928	463.6
467.3	451.63
467.672	444.62
468.045	448.01
468.417	464.96
468.789	476.48
469.161	453.43
469.534	469.93
469.906	481.23
470.278	485.52
470.65	482.59
471.022	467.22
471.394	492.76
471.766	476.26
472.138	485.75
472.51	487.11
472.882	487.11
473.253	499.31
473.625	493.89
473.997	511.29
474.369	499.53
474.74	521.91
475.112	505.41
475.484	509.93
475.855	499.31
476.227	543.38
476.598	549.25
476.97	524.39
477.341	532.3
477.713	538.18
478.084	531.17
478.455	525.97
478.827	531.85
479.198	541.79
479.569	542.7
479.94	549.48
480.311	560.32
480.682	587.22
481.053	569.36
481.424	571.17
481.795	615.46
482.166	585.41
482.537	589.93
482.908	600.1
483.279	608.23
483.65	611.85
484.021	644.39
484.391	609.59
484.762	627.67
485.133	612.98
485.503	623.37
485.874	650.94
486.244	631.28
486.615	655.69
486.985	649.36
487.356	656.37
487.726	663.37
488.097	687.33
488.467	671.96
488.837	668.12
489.207	686.42
489.578	685.52
489.948	701.11
490.318	704.73
490.688	712.41
491.058	704.05
491.428	693.88
491.798	725.97
492.168	718.06
492.538	715.8
492.908	746.53
493.278	735.46
493.648	731.39
494.017	744.5
494.387	750.38
494.757	731.85
495.126	741.79
495.496	761.67
495.866	757.83
496.235	758.74
496.605	765.29
496.974	794.67
497.344	785.4
497.713	788.57
498.082	796.7
498.452	780.66
498.821	772.07
499.19	784.27
499.559	808.91
499.928	817.04
500.298	804.84
500.667	808.68
501.036	841.67
501.405	824.05
501.774	824.95
502.143	813.2
502.512	823.82
502.88	818.85
503.249	820.66
503.618	816.14
503.987	846.19
504.356	825.4
504.724	837.83
505.093	843.03
505.462	845.06
505.83	838.96
506.199	829.92
506.567	862.01
506.936	860.66
507.304	845.74
507.672	858.85
508.041	866.08
508.409	880.99
508.777	871.95
509.145	877.83
509.514	865.17
509.882	866.76
510.25	891.16
510.618	872.41
510.986	874.21
511.354	880.09
511.722	878.06
512.09	897.26
512.458	899.52
512.826	895.23
513.193	920.99
513.561	912.63
513.929	899.07
514.297	925.96
514.664	919.86
515.032	908.34
515.4	924.16
515.767	897.04
516.135	927.77
516.502	920.09
516.869	920.54
517.237	932.29
517.604	934.1
517.972	924.38
518.339	924.38
518.706	927.32
519.073	941.56
519.44	931.16
519.808	940.65
520.175	946.3
520.542	977.04
520.909	942.24
521.276	984.49
521.643	930.94
522.009	978.62
522.376	979.75
522.743	961.67
523.11	960.54
523.477	962.12
523.843	970.48
524.21	997.37
524.577	993.31
524.943	994.66
525.31	993.76
525.676	1006.41
526.043	1007.09
526.409	1021.56
526.776	1029.46
527.142	1015
527.508	999.18
527.874	1026.07
528.241	1005.28
528.607	1056.36
528.973	1039.63
529.339	1036.02
529.705	1017.71
530.071	1055.45
530.437	998.05
530.803	1076.92
531.169	1044.38
531.535	1041.67
531.901	1024.72
532.267	1029.69
532.632	1038.5
532.998	1039.18
533.364	1035.34
533.73	1055.23
534.095	1044.61
534.461	1057.71
534.826	1024.04
535.192	1065.4
535.557	1052.29
535.923	1054.1
536.288	1063.14
536.653	1080.76
537.019	1059.75
537.384	1060.65
537.749	1054.55
538.114	1042.12
538.479	1065.62
538.845	1063.36
539.21	1049.12
539.575	1058.16
539.94	1049.12
540.305	1056.36
540.67	1065.62
541.034	1068.79
541.399	1063.14
541.764	1068.33
542.129	1063.36
542.494	1075.34
542.858	1085.96
543.223	1029.92
543.587	1072.85
543.952	1105.62
544.316	1077.37
544.681	1072.85
545.045	1072.18
545.41	1107.43
545.774	1076.02
546.138	1066.07
546.503	1060.65
546.867	1091.61
547.231	1069.46
547.595	1078.95
547.959	1078.95
548.324	1096.36
548.688	1075.79
549.052	1094.32
549.416	1068.33
549.779	1075.56
550.143	1083.25
550.507	1084.6
550.871	1088.67
551.235	1095.45
551.599	1097.49
551.962	1091.61
552.326	1078.28
552.689	1106.3
553.053	1104.49
553.417	1067.2
553.78	1107.2
554.143	1103.81
554.507	1112.85
554.87	1095.68
555.234	1092.51
555.597	1131.83
555.96	1140.2
556.323	1108.78
556.686	1123.93
557.05	1102.68
557.413	1110.37
557.776	1125.06
558.139	1100.65
558.502	1099.07
558.865	1102.23
559.228	1115.34
559.59	1108.78
559.953	1113.76
560.316	1120.31
560.679	1149.46
561.041	1152.63
561.404	1132.74
561.767	1153.75
562.129	1150.82
562.492	1135.68
562.854	1165.28
563.217	1139.74
563.579	1142
563.941	1165.28
564.304	1175.45
564.666	1158.95
565.028	1177.71
565.39	1160.31
565.753	1182
566.115	1166.18
566.477	1170.93
566.839	1151.72
567.201	1177.94
567.563	1157.14
567.925	1168.9
568.287	1177.26
568.648	1143.81
569.01	1193.08
569.372	1195.56
569.734	1166.64
570.095	1195.34
570.457	1191.95
570.819	1191.49
571.18	1185.17
571.542	1192.62
571.903	1225.62
572.265	1183.13
572.626	1192.85
572.987	1186.52
573.349	1191.95
573.71	1210.25
574.071	1210.02
574.432	1177.94
574.794	1195.34
575.155	1183.58
575.516	1193.3
575.877	1199.86
576.238	1223.58
576.599	1198.27
576.96	1196.47
577.32	1172.06
577.681	1191.04
578.042	1181.78
578.403	1215.22
578.763	1217.48
579.124	1193.75
579.485	1171.16
579.845	1188.78
580.206	1203.25
580.566	1209.57
580.927	1185.17
581.287	1178.84
581.648	1184.71
582.008	1184.04
582.368	1192.62
582.728	1221.55
583.089	1177.94
583.449	1189.01
583.809	1183.58
584.169	1214.09
584.529	1214.32
584.889	1208.67
585.249	1202.12
585.609	1182.23
585.969	1208.67
586.329	1170.25
586.688	1183.36
587.048	1189.23
587.408	1188.78
587.768	1183.81
588.127	1189.01
588.487	1166.86
588.846	1180.87
589.206	1184.04
589.565	1172.29
589.925	1167.09
590.284	1169.35
590.643	1189.23
591.003	1182.91
591.362	1184.04
591.721	1155.11
592.08	1157.37
592.44	1163.25
592.799	1191.49
593.158	1188.78
593.517	1198.95
593.876	1215.22
594.235	1168.44
594.593	1191.49
594.952	1167.77
595.311	1172.74
595.67	1156.92
596.029	1185.17
596.387	1172.51
596.746	1171.16
597.104	1170.93
597.463	1145.17
597.822	1147.65
598.18	1192.4
598.538	1149.91
598.897	1158.73
599.255	1170.7
599.613	1166.64
599.972	1161.21
600.33	1176.35
600.688	1178.39
601.046	1189.69
601.404	1179.97
601.762	1212.28
602.12	1191.72
602.478	1167.99
602.836	1176.35
603.194	1169.35
603.552	1172.96
603.91	1176.58
604.268	1203.25
604.625	1180.65
604.983	1184.26
605.341	1183.36
605.698	1196.24
606.056	1193.3
606.413	1196.01
606.771	1171.16
607.128	1164.6
607.485	1216.13
607.843	1192.85
608.2	1171.61
608.557	1218.39
608.914	1209.8
609.272	1169.12
609.629	1236.92
609.986	1196.01
610.343	1189.23
610.7	1191.95
611.057	1224.04
611.414	1217.93
611.771	1177.94
612.127	1197.14
612.484	1189.01
612.841	1210.7
613.198	1225.62
613.554	1186.97
613.911	1205.28
614.267	1172.74
614.624	1198.27
614.98	1223.58
615.337	1232.62
615.693	1195.79
616.05	1223.58
616.406	1227.43
616.762	1190.14
617.118	1227.65
617.475	1222
617.831	1209.12
618.187	1220.42
618.543	1222.68
618.899	1210.7
619.255	1243.47
619.611	1201.21
619.967	1237.59
620.323	1244.15
620.678	1226.3
621.034	1229.23
621.39	1217.71
621.746	1231.04
622.101	1210.7
622.457	1199.4
622.812	1227.65
623.168	1213.19
623.523	1216.8
623.879	1222.45
624.234	1205.05
624.589	1220.42
624.945	1237.37
625.3	1225.17
625.655	1184.94
626.01	1233.3
626.365	1221.32
626.72	1225.84
627.075	1237.82
627.43	1248.89
627.785	1234.88
628.14	1224.94
628.495	1215.9
628.85	1214.54
629.205	1219.97
629.559	1214.09
629.914	1209.8
630.269	1243.92
630.623	1236.69
630.978	1196.92
631.332	1228.56
631.687	1252.96
632.041	1212.96
632.396	1240.53
632.75	1196.69
633.104	1214.09
633.459	1201.44
633.813	1214.77
634.167	1217.71
634.521	1191.49
634.875	1204.38
635.229	1226.07
635.583	1197.14
635.937	1208.67
636.291	1221.55
636.645	1240.98
636.999	1208.44
637.352	1215.67
637.706	1226.3
638.06	1213.41
638.413	1192.17
638.767	1211.38
639.121	1214.77
639.474	1210.7
639.828	1224.04
640.181	1194.21
640.534	1236.24
640.888	1219.52
641.241	1216.35
641.594	1205.73
641.947	1202.12
642.301	1233.75
642.654	1186.75
643.007	1187.43
643.36	1225.39
643.713	1212.74
644.066	1222.45
644.419	1212.06
644.771	1206.41
645.124	1198.05
645.477	1216.8
645.83	1181.78
646.182	1187.65
646.535	1204.83
646.888	1195.79
647.24	1179.97
647.593	1214.77
647.945	1175.68
648.298	1192.85
648.65	1205.28
649.002	1189.91
649.355	1199.63
649.707	1192.85
650.059	1199.63
650.411	1205.73
650.763	1214.09
651.115	1233.07
651.467	1243.47
651.819	1228.56
652.171	1241.21
652.523	1239.63
652.875	1235.11
653.227	1237.14
653.578	1229.91
653.93	1227.88
654.282	1257.03
654.633	1232.4
654.985	1230.14
655.337	1246.86
655.688	1275.11
656.039	1236.69
656.391	1270.36
656.742	1258.38
657.094	1265.39
657.445	1285.05
657.796	1297.25
658.147	1279.18
658.498	1285.73
658.849	1292.51
659.2	1313.07
659.551	1290.25
659.902	1312.39
660.253	1323.02
660.604	1312.17
660.955	1323.69
661.306	1306.75
661.656	1354.88
662.007	1331.83
662.358	1328.89
662.708	1340.87
663.059	1338.83
663.409	1342
663.76	1332.96
664.11	1367.99
664.461	1352.17
664.811	1381.32
665.161	1402.11
665.511	1400.53
665.862	1389
666.212	1380.42
666.562	1402.11
666.912	1408.21
667.262	1419.96
667.612	1439.4
667.962	1452.96
668.312	1449.57
668.662	1488.66
669.011	1469.68
669.361	1469.9
669.711	1472.84
670.06	1471.94
670.41	1487.76
670.76	1518.72
671.109	1512.16
671.459	1506.51
671.808	1517.36
672.157	1520.07
672.507	1534.31
672.856	1559.85
673.205	1560.98
673.554	1556.91
673.904	1575.89
674.253	1616.34
674.602	1600.97
674.951	1608.21
675.3	1608.66
675.649	1629.67
675.998	1639.39
676.346	1673.06
676.695	1657.24
677.044	1693.4
677.393	1671.26
677.741	1693.85
678.09	1704.47
678.438	1720.29
678.787	1730.01
679.135	1752.38
679.484	1743.57
679.832	1770.91
680.181	1742.44
680.529	1833.51
680.877	1813.4
681.225	1824.02
681.573	1835.09
681.922	1842.78
682.27	1843.23
682.618	1881.19
682.966	1857.47
683.314	1933.17
683.661	1914.41
684.009	1917.35
684.357	1928.88
684.705	1969.33
685.053	1991.7
685.4	1995.31
685.748	2006.84
686.095	2024.47
686.443	2025.14
686.79	2023.34
687.138	2032.6
687.485	2062.88
687.832	2078.02
688.18	2089.78
688.527	2101.53
688.874	2132.94
689.221	2115.76
689.568	2143.11
689.915	2156.89
690.262	2168.42
690.609	2188.08
690.956	2214.52
691.303	2235.99
691.65	2257.68
691.997	2279.38
692.344	2251.35
692.69	2276.66
693.037	2302.65
693.383	2314.4
693.73	2329.54
694.077	2343.33
694.423	2341.29
694.769	2398.02
695.116	2384.68
695.462	2385.36
695.808	2420.39
696.155	2410.9
696.501	2419.94
696.847	2453.38
697.193	2463.1
697.539	2476.66
697.885	2504
698.231	2504.45
698.577	2534.74
698.923	2535.19
699.269	2517.33
699.614	2565.47
699.96	2587.39
700.306	2615.86
700.651	2580.84
700.997	2621.96
701.342	2632.13
701.688	2683.66
702.033	2672.13
702.379	2635.98
702.724	2696.09
703.069	2723.21
703.415	2720.04
703.76	2730.21
704.105	2720.95
704.45	2770.89
704.795	2757.1
705.14	2785.12
705.485	2814.28
705.83	2781.96
706.175	2830.32
706.52	2838.23
706.865	2888.17
707.209	2895.63
707.554	2862.41
707.899	2886.14
708.243	2887.95
708.588	2931.56
708.932	2953.48
709.277	2964.1
709.621	2942.18
709.966	2987.15
710.31	2963.2
710.654	2998.68
710.998	3030.77
711.342	3039.58
711.687	3066.02
712.031	3015.17
712.375	3032.35
712.719	3068.73
713.063	3112.12
713.407	3104.89
713.75	3095.85
714.094	3107.6
714.438	3090.43
714.782	3124.55
715.125	3133.59
715.469	3158
715.812	3150.54
716.156	3146.47
716.499	3170.88
716.843	3189.63
717.186	3205.45
717.53	3238.45
717.873	3268.05
718.216	3243.64
718.559	3196.41
718.902	3246.81
719.246	3243.19
719.589	3280.03
719.932	3291.55
720.275	3262.63
720.617	3296.3
720.96	3304.88
721.303	3315.05
721.646	3292.46
721.989	3321.83
722.331	3329.74
722.674	3324.77
723.016	3360.93
723.359	3369.52
723.701	3375.84
724.044	3337.43
724.386	3354.15
724.729	3371.32
725.071	3379.01
725.413	3403.87
725.755	3411.1
726.097	3393.24
726.439	3375.62
726.782	3350.76
727.124	3418.1
727.465	3390.08
727.807	3439.8
728.149	3406.35
728.491	3450.42
728.833	3434.37
729.175	3422.85
729.516	3446.8
729.858	3390.76
730.199	3443.64
730.541	3464.88
730.882	3466.91
731.224	3448.38
731.565	3434.37
731.906	3446.12
732.248	3428.05
732.589	3446.58
732.93	3413.58
733.271	3447.48
733.612	3456.29
733.953	3450.42
734.294	3489.29
734.635	3449.74
734.976	3458.78
735.317	3441.6
735.658	3448.84
735.999	3494.26
736.339	3478.67
736.68	3501.04
737.021	3467.82
737.361	3462.62
737.702	3499
738.042	3470.08
738.383	3459.46
738.723	3486.12
739.063	3450.87
739.404	3468.27
739.744	3479.57
740.084	3498.55
740.424	3468.27
740.764	3475.5
741.104	3468.5
741.444	3448.61
741.784	3440.93
742.124	3475.28
742.464	3449.06
742.804	3453.13
743.143	3420.36
743.483	3449.97
743.823	3472.34
744.162	3416.07
744.502	3473.47
744.841	3443.64
745.181	3452.68
745.52	3449.74
745.86	3452.9
746.199	3457.2
746.538	3463.52
746.877	3469.4
747.216	3459.01
747.556	3449.51
747.895	3418.55
748.234	3451.55
748.573	3426.46
748.911	3433.7
749.25	3376.3
749.589	3405.9
749.928	3383.75
750.267	3448.84
750.605	3404.77
750.944	3365.22
751.283	3400.25
751.621	3404.77
751.96	3402.74
752.298	3390.76
752.636	3327.71
752.975	3350.99
753.313	3389.85
753.651	3383.75
753.989	3350.08
754.327	3377.2
754.666	3344.88
755.004	3385.11
755.342	3367.26
755.679	3349.63
756.017	3344.43
756.355	3362.74
756.693	3341.95
757.031	3339.69
757.368	3293.13
757.706	3289.52
758.044	3305.34
758.381	3290.2
758.719	3250.2
759.056	3293.36
759.394	3251.33
759.731	3268.5
760.068	3255.17
760.405	3248.84
760.743	3235.06
761.08	3264.89
761.417	3229.63
761.754	3224.21
762.091	3228.28
762.428	3229.86
762.765	3187.15
763.102	3205
763.438	3209.29
763.775	3199.35
764.112	3186.7
764.449	3150.76
764.785	3189.41
765.122	3163.65
765.458	3169.07
765.795	3161.16
766.131	3127.49
766.467	3125.45
766.804	3127.94
767.14	3107.38
767.476	3082.52
767.812	3089.75
768.148	3078.68
768.485	3074.83
768.821	3024.21
769.157	3072.8
769.492	3064.67
769.828	3023.76
770.164	3008.62
770.5	3021.05
770.836	3039.13
771.171	3001.84
771.507	2979.02
771.842	2963.65
772.178	2970.2
772.513	2950.77
772.849	2936.08
773.184	2954.61
773.519	2943.54
773.855	2952.8
774.19	2950.54
774.525	2920.71
