Data from carpet_green_FLMS001491_00092.txt Node
Date: Wed Feb 08 10:36:07 GMT 2017
User: dcchb
Spectrometer: FLMS00149
Trigger mode: 0
Integration Time (sec): 2.000000E-2
Scans to average: 10
Electric dark correction enabled: true
Nonlinearity correction enabled: false
Boxcar width: 0
XAxis mode: Wavelengths
Number of Pixels in Spectrum: 2048
>>>>>Begin Spectral Data<<<<<
341.393	-7.73
341.776	-7.73
342.16	-7.73
342.543	-52.24
342.927	-68.74
343.31	-76.88
343.693	-54.5
344.077	-67.16
344.46	-54.96
344.843	-46.14
345.226	-38.23
345.61	-27.84
345.993	-22.41
346.376	3.35
346.759	11.71
347.142	7.19
347.525	34.53
347.908	69.56
348.291	74.53
348.674	79.96
349.057	107.3
349.44	110.24
349.823	141.65
350.206	133.29
350.588	169.22
350.971	194.08
351.354	200.4
351.737	197.47
352.119	241.31
352.502	241.53
352.884	254.64
353.267	261.87
353.65	255.77
354.032	270.68
354.414	281.76
354.797	279.27
355.179	291.25
355.562	270.46
355.944	296
356.326	297.8
356.709	291.93
357.091	295.77
357.473	311.14
357.855	311.36
358.238	320.63
358.62	335.54
359.002	303.9
359.384	300.97
359.766	309.33
360.148	315.66
360.53	317.01
360.912	327.63
361.294	285.37
361.676	301.19
362.057	321.08
362.439	288.09
362.821	308.2
363.203	290.57
363.584	304.81
363.966	310.01
364.348	303.68
364.729	305.26
365.111	284.92
365.493	288.09
365.874	298.93
366.256	287.41
366.637	296.9
367.019	288.31
367.4	280.4
367.781	283.11
368.163	286.96
368.544	286.5
368.925	280.4
369.306	274.98
369.688	281.98
370.069	309.55
370.45	294.41
370.831	288.76
371.212	287.63
371.593	295.32
371.974	293.28
372.355	269.33
372.736	289.67
373.117	305.94
373.498	272.72
373.879	291.7
374.26	275.2
374.641	291.25
375.021	283.57
375.402	273.62
375.783	291.7
376.163	284.92
376.544	297.8
376.925	290.8
377.305	277.46
377.686	301.64
378.066	286.05
378.447	294.87
378.827	282.89
379.208	301.87
379.588	286.28
379.968	296.9
380.349	288.31
380.729	277.24
381.109	318.37
381.489	297.8
381.87	295.77
382.25	300.29
382.63	286.5
383.01	294.19
383.39	296.45
383.77	278.59
384.15	309.1
384.53	293.28
384.91	294.87
385.29	287.86
385.67	289.89
386.049	314.3
386.429	295.32
386.809	292.15
387.189	296.22
387.568	317.69
387.948	304.58
388.328	305.03
388.707	292.83
389.087	296.45
389.466	311.59
389.846	305.49
390.225	312.72
390.605	300.51
390.984	340.74
391.363	313.4
391.743	302.55
392.122	306.62
392.501	281.53
392.881	310.01
393.26	301.42
393.639	304.58
394.018	312.49
394.397	294.19
394.776	316.56
395.155	316.33
395.534	327.63
395.913	325.6
396.292	308.88
396.671	317.46
397.05	317.24
397.429	314.53
397.808	313.4
398.186	311.81
398.565	311.81
398.944	326.05
399.323	324.92
399.701	323.34
400.08	319.72
400.458	320.18
400.837	323.34
401.215	321.53
401.594	301.19
401.972	318.14
402.351	318.37
402.729	330.8
403.107	332.83
403.486	328.76
403.864	306.39
404.242	332.15
404.62	317.01
404.999	337.35
405.377	331.47
405.755	313.85
406.133	327.18
406.511	340.29
406.889	321.31
407.267	323.11
407.645	344.36
408.023	327.41
408.401	322.66
408.779	327.86
409.156	337.58
409.534	343.45
409.912	319.5
410.29	323.34
410.667	324.47
411.045	328.76
411.422	345.03
411.8	328.08
412.178	324.47
412.555	370.34
412.933	347.97
413.31	342.77
413.687	351.81
414.065	338.93
414.442	338.25
414.819	330.12
415.197	352.26
415.574	333.06
415.951	351.59
416.328	326.5
416.705	338.93
417.082	340.51
417.46	343.23
417.837	369.21
418.214	349.1
418.591	361.3
418.967	359.27
419.344	347.29
419.721	361.53
420.098	341.19
420.475	359.5
420.852	377.35
421.228	350.68
421.605	348.65
421.982	361.53
422.358	363.79
422.735	370.57
423.111	370.57
423.488	359.95
423.864	367.18
424.241	372.15
424.617	364.24
424.994	362.89
425.37	368.54
425.746	386.84
426.123	362.89
426.499	364.24
426.875	374.19
427.251	358.82
427.627	371.93
428.003	373.06
428.379	366.5
428.756	387.29
429.132	370.12
429.507	386.39
429.883	384.13
430.259	379.16
430.635	379.16
431.011	401.53
431.387	389.1
431.763	373.06
432.138	390.23
432.514	383
432.89	359.5
433.265	422.77
433.641	397.24
434.016	408.53
434.392	378.25
434.767	401.08
435.143	408.53
435.518	415.31
435.894	428.42
436.269	400.63
436.644	432.49
437.02	419.38
437.395	419.61
437.77	402.66
438.145	420.29
438.52	429.78
438.895	412.6
439.271	404.24
439.646	443.34
440.021	426.39
440.395	431.58
440.77	437.69
441.145	414.41
441.52	441.98
441.895	420.51
442.27	416.44
442.645	437.23
443.019	445.37
443.394	460.06
443.769	443.79
444.143	430.45
444.518	448.53
444.892	456.44
445.267	427.97
445.641	438.82
446.016	428.42
446.39	448.31
446.764	465.71
447.139	445.14
447.513	442.21
447.887	443.79
448.262	468.42
448.636	460.28
449.01	466.61
449.384	472.94
449.758	457.35
450.132	467.29
450.506	462.54
450.88	464.8
451.254	458.7
451.628	450.79
452.002	475.2
452.376	493.96
452.75	500.06
453.123	483.11
453.497	500.06
453.871	486.5
454.244	503.9
454.618	507.97
454.992	516.78
455.365	489.89
455.739	503.22
456.112	534.86
456.486	510.9
456.859	528.76
457.232	526.72
457.606	541.41
457.979	552.03
458.352	547.97
458.725	552.71
459.099	543.45
459.472	550
459.845	554.52
460.218	547.74
460.591	548.19
460.964	578.93
461.337	554.75
461.71	553.84
462.083	557.68
462.456	568.08
462.829	563.33
463.201	576.21
463.574	579.38
463.947	600.85
464.32	584.8
464.692	582.77
465.065	597.23
465.438	606.04
465.81	615.31
466.183	596.33
466.555	629.09
466.928	619.6
467.3	599.72
467.672	654.18
468.045	641.75
468.417	659.15
468.789	645.36
469.161	667.51
469.534	656.89
469.906	682.65
470.278	662.99
470.65	675.87
471.022	686.95
471.394	687.4
471.766	697.79
472.138	717.68
472.51	713.61
472.882	714.29
473.253	728.98
473.625	727.17
473.997	742.99
474.369	733.95
474.74	753.84
475.112	765.81
475.484	775.76
475.855	793.38
476.227	785.47
476.598	810.11
476.97	793.38
477.341	807.17
477.713	839.71
478.084	816.89
478.455	848.3
478.827	830.67
479.198	844.91
479.569	861.86
479.94	862.08
480.311	898.47
480.682	893.04
481.053	914.51
481.424	922.42
481.795	926.49
482.166	923.1
482.537	965.81
482.908	991.57
483.279	975.07
483.65	999.48
484.021	990.89
484.391	1029.31
484.762	1049.87
485.133	1067.5
485.503	1039.48
485.874	1067.27
486.244	1094.17
486.615	1079.7
486.985	1111.79
487.356	1090.1
487.726	1125.35
488.097	1120.15
488.467	1124.22
488.837	1167.84
489.207	1171
489.578	1213.94
489.948	1181.4
490.318	1237.44
490.688	1219.81
491.058	1235.18
491.428	1236.54
491.798	1272.92
492.168	1268.85
492.538	1272.24
492.908	1305.46
493.278	1302.75
493.648	1306.82
494.017	1327.15
494.387	1347.27
494.757	1352.24
495.126	1379.58
495.496	1344.56
495.866	1359.02
496.235	1397.66
496.605	1370.54
496.974	1377.55
497.344	1411.67
497.713	1420.71
498.082	1452.57
498.452	1438.11
498.821	1446.25
499.19	1486.92
499.559	1481.05
499.928	1477.21
500.298	1459.58
500.667	1484.21
501.036	1495.51
501.405	1516.75
501.774	1476.75
502.143	1523.53
502.512	1544.55
502.88	1527.38
503.249	1526.7
503.618	1534.83
503.987	1527.6
504.356	1585.9
504.724	1568.96
505.093	1540.26
505.462	1586.36
505.83	1570.09
506.199	1589.97
506.567	1623.64
506.936	1630.88
507.304	1656.86
507.672	1597.66
508.041	1646.24
508.409	1667.94
508.777	1679.46
509.145	1676.07
509.514	1649.86
509.882	1655.28
510.25	1670.42
510.618	1690.53
510.986	1697.99
511.354	1712.91
511.722	1713.58
512.09	1694.15
512.458	1719.23
512.826	1754.71
513.193	1723.75
513.561	1746.8
513.929	1760.59
514.297	1749.06
514.664	1766.92
515.032	1793.13
515.4	1801.94
515.767	1823.41
516.135	1788.39
516.502	1803.98
516.869	1820.93
517.237	1825.9
517.604	1821.83
517.972	1850.08
518.339	1846.46
518.706	1851.66
519.073	1882.17
519.44	1855.73
519.808	1894.15
520.175	1879
520.542	1919.46
520.909	1916.74
521.276	1908.38
521.643	1926.23
522.009	1946.57
522.376	1956.06
522.743	1945.44
523.11	1974.14
523.477	1973.24
523.843	1965.56
524.21	1993.35
524.577	2021.83
524.943	2000.58
525.31	2049.62
525.676	2036.29
526.043	2037.19
526.409	2068.83
526.776	2082.61
527.142	2071.77
527.508	2088.26
527.874	2094.37
528.241	2095.72
528.607	2115.61
528.973	2095.72
529.339	2141.82
529.705	2112.9
530.071	2127.81
530.437	2116.29
530.803	2141.14
531.169	2142.73
531.535	2099.34
531.901	2135.72
532.267	2123.97
532.632	2151.09
532.998	2152.9
533.364	2182.73
533.73	2172.1
534.095	2183.86
534.461	2206.68
534.826	2165.1
535.192	2205.78
535.557	2208.26
535.923	2214.59
536.288	2175.27
536.653	2241.93
537.019	2170.3
537.384	2215.04
537.749	2211.42
538.114	2196.51
538.479	2188.15
538.845	2185.44
539.21	2195.15
539.575	2206.68
539.94	2206.91
540.305	2200.35
540.67	2225.21
541.034	2237.19
541.399	2229.05
541.764	2223.85
542.129	2233.8
542.494	2246.23
542.858	2229.28
543.223	2228.37
543.587	2258.66
543.952	2288.94
544.316	2227.02
544.681	2272.21
545.045	2227.7
545.41	2276.51
545.774	2265.43
546.138	2266.11
546.503	2241.03
546.867	2279.9
547.231	2249.84
547.595	2258.88
547.959	2282.16
548.324	2323.74
548.688	2281.48
549.052	2302.27
549.416	2257.3
549.779	2290.97
550.143	2267.24
550.507	2287.81
550.871	2286.45
551.235	2307.69
551.599	2305.66
551.962	2325.32
552.326	2298.65
552.689	2321.7
553.053	2316.96
553.417	2317.41
553.78	2304.53
554.143	2309.95
554.507	2314.7
554.87	2325.32
555.234	2329.39
555.597	2360.8
555.96	2339.78
556.323	2341.36
556.686	2357.41
557.05	2373
557.413	2350.63
557.776	2328.94
558.139	2393.34
558.502	2358.09
558.865	2378.2
559.228	2389.73
559.59	2397.41
559.953	2419.78
560.316	2396.73
560.679	2430.85
561.041	2374.81
561.404	2448.93
561.767	2433.34
562.129	2426.33
562.492	2431.53
562.854	2412.1
563.217	2454.13
563.579	2440.57
563.941	2465.43
564.304	2472.89
564.666	2467.92
565.028	2481.93
565.39	2485.54
565.753	2476.73
566.115	2494.36
566.477	2475.15
566.839	2498.42
567.201	2499.33
567.563	2481.25
567.925	2475.82
568.287	2473.34
568.648	2505.2
569.01	2529.38
569.372	2529.38
569.734	2535.71
570.095	2518.31
570.457	2541.13
570.819	2540.91
571.18	2537.97
571.542	2573.9
571.903	2559.89
572.265	2570.51
572.626	2564.18
572.987	2539.33
573.349	2582.04
573.71	2584.52
574.071	2572.32
574.432	2556.27
574.794	2587.46
575.155	2548.59
575.516	2542.49
575.877	2536.84
576.238	2519.89
576.599	2559.89
576.96	2551.53
577.32	2544.98
577.681	2523.51
578.042	2542.94
578.403	2557.63
578.763	2578.19
579.124	2537.97
579.485	2568.25
579.845	2555.37
580.206	2564.86
580.566	2563.73
580.927	2549.27
581.287	2565.99
581.648	2522.38
582.008	2511.08
582.368	2533.68
582.728	2549.72
583.089	2544.3
583.449	2538.42
583.809	2541.81
584.169	2544.75
584.529	2510.85
584.889	2523.96
585.249	2518.08
585.609	2496.39
585.969	2561.7
586.329	2512.43
586.688	2527.8
587.048	2515.6
587.408	2490.97
587.768	2495.49
588.127	2492.32
588.487	2492.1
588.846	2504.98
589.206	2490.51
589.565	2475.6
589.925	2483.73
590.284	2490.51
590.643	2533.45
591.003	2486.9
591.362	2486.9
591.721	2467.46
592.08	2479.89
592.44	2473.11
592.799	2449.38
593.158	2486.67
593.517	2468.59
593.876	2477.41
594.235	2481.47
594.593	2502.72
594.952	2487.58
595.311	2450.29
595.67	2453.9
596.029	2473.79
596.387	2494.13
596.746	2501.59
597.104	2441.93
597.463	2477.41
597.822	2472.21
598.18	2458.65
598.538	2467.24
598.897	2497.07
599.255	2497.52
599.613	2524.19
599.972	2506.33
600.33	2541.13
600.688	2481.25
601.046	2528.7
601.404	2495.71
601.762	2483.96
602.12	2524.41
602.478	2524.86
602.836	2515.82
603.194	2488.03
603.552	2531.42
603.91	2480.12
604.268	2504.3
604.625	2501.36
604.983	2526.67
605.341	2470.85
605.698	2524.19
606.056	2520.12
606.413	2512.21
606.771	2533.22
607.128	2515.15
607.485	2524.19
607.843	2565.09
608.2	2552.88
608.557	2551.75
608.914	2582.26
609.272	2574.13
609.629	2595.6
609.986	2588.59
610.343	2553.79
610.7	2564.18
611.057	2547.01
611.414	2572.32
611.771	2576.16
612.127	2576.61
612.484	2635.14
612.841	2566.67
613.198	2602.83
613.554	2614.35
613.911	2588.14
614.267	2622.04
614.624	2619.55
614.98	2623.62
615.337	2605.31
615.693	2600.79
616.05	2585.43
616.406	2596.05
616.762	2610.96
617.118	2636.72
617.475	2638.53
617.831	2646.67
618.187	2598.76
618.543	2631.98
618.899	2599.21
619.255	2633.56
619.611	2624.3
619.967	2616.16
620.323	2602.38
620.678	2597.86
621.034	2655.71
621.39	2611.41
621.746	2596.27
622.101	2624.75
622.457	2595.82
622.812	2630.62
623.168	2630.4
623.523	2647.35
623.879	2638.31
624.234	2604.41
624.589	2607.12
624.945	2612.54
625.3	2646.22
625.655	2636.72
626.01	2623.17
626.365	2599.89
626.72	2632.2
627.075	2642.6
627.43	2595.14
627.785	2554.69
628.14	2592.88
628.495	2592.21
628.85	2627.91
629.205	2613.22
629.559	2636.5
629.914	2584.97
630.269	2586.78
630.623	2603.73
630.978	2597.18
631.332	2602.38
631.687	2583.84
632.041	2577.29
632.396	2586.1
632.75	2583.39
633.104	2557.4
633.459	2561.02
633.813	2602.15
634.167	2559.21
634.521	2572.09
634.875	2595.6
635.229	2568.7
635.583	2589.49
635.937	2573
636.291	2579.1
636.645	2558.99
636.999	2577.52
637.352	2573
637.706	2579.32
638.06	2576.84
638.413	2597.63
638.767	2568.48
639.121	2575.03
639.474	2510.17
639.828	2556.73
640.181	2544.07
640.534	2591.98
640.888	2560.34
641.241	2557.86
641.594	2572.77
641.947	2582.49
642.301	2582.71
642.654	2576.39
643.007	2574.35
643.36	2537.07
643.713	2565.31
644.066	2599.21
644.419	2603.96
644.771	2562.6
645.124	2574.58
645.477	2546.78
645.83	2555.6
646.182	2537.52
646.535	2554.01
646.888	2514.69
647.24	2512.21
647.593	2529.16
647.945	2514.92
648.298	2547.69
648.65	2536.84
649.002	2557.4
649.355	2560.57
649.707	2570.29
650.059	2560.79
650.411	2610.51
650.763	2622.26
651.115	2660.23
651.467	2669.94
651.819	2656.61
652.171	2688.25
652.523	2682.82
652.875	2706.1
653.227	2668.14
653.578	2688.02
653.93	2694.12
654.282	2699.1
654.633	2722.82
654.985	2722.6
655.337	2713.56
655.688	2730.06
656.039	2760.34
656.391	2718.08
656.742	2761.47
657.094	2742.71
657.445	2753.33
657.796	2817.28
658.147	2776.61
658.498	2818.41
658.849	2847.34
659.2	2848.92
659.551	2795.36
659.902	2840.56
660.253	2870.62
660.604	2860.22
660.955	2889.6
661.306	2914.01
661.656	2886.89
662.007	2929.37
662.358	2925.08
662.708	2941.35
663.059	2945.42
663.409	2968.47
663.76	3007.11
664.11	3022.7
664.461	3012.53
664.811	3041.23
665.161	3042.14
665.511	3065.41
665.862	3104.06
666.212	3110.84
666.562	3130.5
666.912	3113.55
667.262	3124.85
667.612	3164.17
667.962	3173.66
668.312	3178.41
668.662	3227.67
669.011	3241
669.361	3234.22
669.711	3275.35
670.06	3267.44
670.41	3298.18
670.76	3291.4
671.109	3340.89
671.459	3385.86
671.808	3388.8
672.157	3353.32
672.507	3392.18
672.856	3438.51
673.205	3429.92
673.554	3478.74
673.904	3464.73
674.253	3527.1
674.602	3514.89
674.951	3560.99
675.3	3534.55
675.649	3612.97
675.998	3587.89
676.346	3554.89
676.695	3629.69
677.044	3684.15
677.393	3667.88
677.741	3723.93
678.09	3717.15
678.438	3724.83
678.787	3774.55
679.135	3816.35
679.484	3804.38
679.832	3895.67
680.181	3858.84
680.529	3912.17
680.877	3920.98
681.225	3890.25
681.573	3969.57
681.922	3988.1
682.27	3965.05
682.618	3979.06
682.966	4036.24
683.314	4076.69
683.661	4081.43
684.009	4098.83
684.357	4102
684.705	4162.11
685.053	4157.14
685.4	4161.88
685.748	4220.86
686.095	4233.97
686.443	4271.03
686.79	4286.17
687.138	4256.12
687.485	4329.79
687.832	4308.09
688.18	4390.58
688.527	4346.06
688.874	4410.01
689.221	4383.57
689.568	4392.38
689.915	4420.41
690.262	4490.24
690.609	4462.89
690.956	4467.18
691.303	4530.23
691.65	4528.88
691.997	4597.35
692.344	4547.86
692.69	4555.32
693.037	4621.53
693.383	4606.84
693.73	4651.13
694.077	4650.91
694.423	4706.5
694.769	4661.98
695.116	4697.24
695.462	4717.35
695.808	4783.79
696.155	4752.38
696.501	4767.97
696.847	4828.98
697.193	4811.81
697.539	4829.66
697.885	4828.31
698.231	4845.93
698.577	4869.21
698.923	4899.04
699.269	4924.12
699.614	4923.67
699.96	4960.73
700.306	4993.95
700.651	5003.44
700.997	5049.99
701.342	4980.62
701.688	4978.36
702.033	5013.39
702.379	5037.11
702.724	5082.08
703.069	5060.62
703.415	5078.47
703.76	5085.93
704.105	5097.68
704.45	5106.26
704.795	5154.85
705.14	5156.21
705.485	5181.97
705.83	5171.12
706.175	5153.04
706.52	5161.63
706.865	5198.92
707.209	5209.99
707.554	5209.99
707.899	5241.63
708.243	5279.59
708.588	5283.21
708.932	5251.57
709.277	5289.99
709.621	5282.08
709.966	5313.72
710.31	5321.17
710.654	5282.76
710.998	5321.17
711.342	5331.12
711.687	5314.17
712.031	5272.36
712.375	5331.57
712.719	5381.74
713.063	5363.21
713.407	5426.71
713.75	5361.17
714.094	5408.63
714.438	5409.76
714.782	5385.58
715.125	5386.93
715.469	5405.24
715.812	5380.16
716.156	5419.93
716.499	5393.71
716.843	5452.02
717.186	5487.5
717.53	5497.89
717.873	5503.99
718.216	5489.3
718.559	5460.83
718.902	5491.79
719.246	5468.97
719.589	5478.68
719.932	5477.33
720.275	5493.82
720.617	5515.74
720.96	5523.65
721.303	5520.94
721.646	5514.61
721.989	5513.26
722.331	5554.61
722.674	5543.77
723.016	5532.02
723.359	5554.16
723.701	5537.44
724.044	5560.26
724.386	5496.76
724.729	5543.99
725.071	5546.7
725.413	5514.84
725.755	5530.21
726.097	5502.64
726.439	5503.99
726.782	5538.8
727.124	5614.95
727.465	5565.01
727.807	5582.18
728.149	5566.36
728.491	5586.03
728.833	5599.36
729.175	5555.29
729.516	5563.2
729.858	5585.12
730.199	5545.35
730.541	5583.77
730.882	5583.99
731.224	5526.59
731.565	5606.82
731.906	5557.78
732.248	5621.73
732.589	5515.74
732.93	5534.28
733.271	5574.73
733.612	5545.35
733.953	5556.42
734.294	5527.95
734.635	5555.29
734.976	5518
735.317	5468.29
735.658	5480.72
735.999	5549.42
736.339	5526.14
736.68	5538.12
737.021	5500.15
737.361	5475.75
737.702	5546.03
738.042	5447.72
738.383	5525.46
738.723	5524.56
739.063	5514.84
739.404	5497.67
739.744	5512.81
740.084	5480.72
740.424	5505.35
740.764	5485.01
741.104	5525.91
741.444	5440.72
741.784	5473.03
742.124	5494.05
742.464	5419.02
742.804	5434.84
743.143	5500.38
743.483	5452.7
743.823	5395.97
744.162	5465.12
744.502	5484.56
744.841	5407.5
745.181	5463.54
745.52	5433.94
745.86	5427.16
746.199	5404.34
746.538	5411.11
746.877	5433.26
747.216	5427.61
747.556	5408.4
747.895	5380.61
748.234	5348.29
748.573	5385.58
748.911	5392.36
749.25	5389.42
749.589	5307.61
749.928	5363.43
750.267	5322.08
750.605	5360.27
750.944	5296.32
751.283	5306.48
751.621	5309.2
751.96	5282.3
752.298	5274.62
752.636	5243.89
752.975	5265.81
753.313	5230.78
753.651	5269.88
753.989	5230.33
754.327	5251.12
754.666	5226.71
755.004	5210.67
755.342	5195.98
755.679	5231.68
756.017	5176.09
756.355	5194.85
756.693	5184.45
757.031	5214.96
757.368	5182.19
757.706	5151.91
758.044	5054.51
758.381	5115.98
758.719	5121.4
759.056	5110.33
759.394	5118.92
759.731	5081.18
760.068	5078.02
760.405	5047.28
760.743	5059.26
761.08	5023.78
761.417	5016.55
761.754	4978.81
762.091	5001.63
762.428	4970.45
762.765	4918.25
763.102	4941.3
763.438	4922.54
763.775	4938.81
764.112	4935.2
764.449	4929.09
764.785	4893.39
765.122	4876.21
765.458	4821.98
765.795	4845.25
766.131	4814.97
766.467	4837.57
766.804	4784.24
767.14	4784.46
767.476	4746.73
767.812	4741.75
768.148	4779.72
768.485	4704.01
768.821	4696.33
769.157	4755.09
769.492	4696.33
769.828	4715.31
770.164	4636.67
770.5	4628.31
770.836	4638.03
771.171	4572.27
771.507	4589.89
771.842	4586.73
772.178	4583.11
772.513	4551.02
