Data from carpet_green_FLMS001491_00048.txt Node
Date: Wed Feb 08 10:35:25 GMT 2017
User: dcchb
Spectrometer: FLMS00149
Trigger mode: 0
Integration Time (sec): 2.000000E-2
Scans to average: 10
Electric dark correction enabled: true
Nonlinearity correction enabled: false
Boxcar width: 0
XAxis mode: Wavelengths
Number of Pixels in Spectrum: 2048
>>>>>Begin Spectral Data<<<<<
341.393	-33.83
341.776	-33.83
342.16	-33.83
342.543	-45.35
342.927	-82.41
343.31	-70.89
343.693	-74.28
344.077	-68.63
344.46	-64.33
344.843	-65.01
345.226	-35.41
345.61	-18.23
345.993	-9.87
346.376	-14.84
346.759	2.78
347.142	25.38
347.525	41.2
347.908	84.36
348.291	72.61
348.674	84.14
349.057	111.03
349.44	142.89
349.823	154.64
350.206	149.9
350.588	179.95
350.971	188.31
351.354	206.84
351.737	212.72
352.119	226.51
352.502	238.48
352.884	227.64
353.267	262.44
353.65	245.26
354.032	279.39
354.414	269.89
354.797	276
355.179	280.52
355.562	294.3
355.944	303.34
356.326	307.63
356.709	302.21
357.091	309.67
357.473	326.39
357.855	300.4
358.238	328.65
358.62	313.73
359.002	318.25
359.384	322.1
359.766	301.53
360.148	300.85
360.53	304.02
360.912	311.02
361.294	297.46
361.676	290.46
362.057	303.34
362.439	312.6
362.821	311.7
363.203	297.92
363.584	299.05
363.966	306.96
364.348	294.98
364.729	300.18
365.111	291.36
365.493	306.96
365.874	293.62
366.256	292.04
366.637	287.97
367.019	302.89
367.4	257.46
367.781	283.68
368.163	277.13
368.544	276
368.925	291.59
369.306	290.68
369.688	276
370.069	279.39
370.45	272.61
370.831	298.59
371.212	258.14
371.593	260.4
371.974	287.97
372.355	262.89
372.736	286.39
373.117	287.75
373.498	286.39
373.879	273.28
374.26	271.48
374.641	278.26
375.021	277.13
375.402	282.32
375.783	272.38
376.163	285.94
376.544	280.29
376.925	311.02
377.305	293.62
377.686	307.86
378.066	282.55
378.447	287.07
378.827	271.7
379.208	303.34
379.588	303.79
379.968	279.39
380.349	295.88
380.729	257.46
381.109	289.1
381.489	287.29
381.87	283.45
382.25	311.47
382.63	282.1
383.01	294.75
383.39	304.92
383.77	299.72
384.15	290.23
384.53	298.59
384.91	294.98
385.29	279.16
385.67	295.66
386.049	285.26
386.429	315.99
386.809	283.23
387.189	288.42
387.568	320.97
387.948	304.7
388.328	299.72
388.707	292.72
389.087	294.98
389.466	289.1
389.846	299.27
390.225	290.91
390.605	298.59
390.984	308.09
391.363	287.07
391.743	319.84
392.122	316.9
392.501	300.63
392.881	304.24
393.26	328.88
393.639	313.51
394.018	312.15
394.397	319.84
394.776	304.92
395.155	305.83
395.534	294.3
395.913	300.63
396.292	324.36
396.671	312.38
397.05	308.09
397.429	304.02
397.808	299.05
398.186	294.53
398.565	306.96
398.944	292.04
399.323	315.32
399.701	300.4
400.08	313.73
400.458	305.83
400.837	294.3
401.215	294.53
401.594	314.86
401.972	310.34
402.351	290.01
402.729	317.8
403.107	319.16
403.486	316.45
403.864	305.83
404.242	322.55
404.62	317.8
404.999	316.45
405.377	311.25
405.755	310.12
406.133	312.6
406.511	304.7
406.889	314.86
407.267	341.98
407.645	324.13
408.023	324.81
408.401	300.18
408.779	325.94
409.156	320.74
409.534	317.12
409.912	320.97
410.29	333.4
410.667	338.14
411.045	335.66
411.422	303.11
411.8	326.16
412.178	327.52
412.555	332.04
412.933	321.87
413.31	297.24
413.687	306.5
414.065	320.51
414.442	321.19
414.819	319.38
415.197	321.64
415.574	335.88
415.951	305.15
416.328	311.47
416.705	321.19
417.082	321.42
417.46	312.83
417.837	329.33
418.214	327.29
418.591	328.65
418.967	328.42
419.344	318.03
419.721	352.6
420.098	350.12
420.475	342.21
420.852	344.47
421.228	328.42
421.605	331.81
421.982	341.98
422.358	352.6
422.735	335.43
423.111	332.49
423.488	327.07
423.864	334.3
424.241	333.4
424.617	328.88
424.994	357.35
425.37	346.73
425.746	369.33
426.123	334.07
426.499	353.96
426.875	347.63
427.251	351.7
427.627	349.21
428.003	359.84
428.379	365.26
428.756	364.58
429.132	366.16
429.507	344.47
429.883	355.77
430.259	351.02
430.635	352.38
431.011	356.22
431.387	369.33
431.763	350.57
432.138	356.9
432.514	341.76
432.89	343.56
433.265	354.86
433.641	370
434.016	358.71
434.392	354.64
434.767	357.58
435.143	381.53
435.518	352.15
435.894	364.13
436.269	379.27
436.644	360.29
437.02	370.68
437.395	359.84
437.77	386.95
438.145	377.24
438.52	354.19
438.895	367.74
439.271	385.6
439.646	373.17
440.021	390.57
440.395	361.87
440.77	374.3
441.145	371.81
441.52	367.29
441.895	398.48
442.27	401.19
442.645	383.56
443.019	397.57
443.394	376.78
443.769	384.02
444.143	382.21
444.518	385.15
444.892	379.72
445.267	399.83
445.641	382.43
446.016	381.08
446.39	392.6
446.764	396.67
447.139	407.52
447.513	394.41
447.887	381.53
448.262	394.41
448.636	396.22
449.01	389.89
449.384	398.48
449.758	407.29
450.132	399.83
450.506	410
450.88	397.8
451.254	397.8
451.628	401.87
452.002	415.88
452.376	404.58
452.75	377.69
453.123	389.89
453.497	414.97
453.871	424.47
454.244	429.44
454.618	397.8
454.992	427.4
455.365	416.1
455.739	416.78
456.112	440.96
456.486	424.47
456.859	439.38
457.232	426.95
457.606	428.53
457.979	421.53
458.352	431.7
458.725	426.95
459.099	429.89
459.472	425.6
459.845	436.67
460.218	444.8
460.591	433.96
460.964	449.1
461.337	447.29
461.71	441.19
462.083	456.33
462.456	467.63
462.829	466.05
463.201	449.1
463.574	467.18
463.947	469.66
464.32	461.08
464.692	449.55
465.065	456.56
465.438	470.57
465.81	456.56
466.183	459.49
466.555	494.29
466.928	463.56
467.3	476.67
467.672	483
468.045	500.17
468.417	482.32
468.789	484.35
469.161	498.36
469.534	504.24
469.906	508.08
470.278	513.05
470.65	519.83
471.022	527.97
471.394	529.32
471.766	537.01
472.138	507.18
472.51	516.44
472.882	522.54
473.253	513.05
473.625	523.9
473.997	545.37
474.369	544.46
474.74	536.78
475.112	536.78
475.484	548.76
475.855	576.78
476.227	574.97
476.598	571.58
476.97	591.24
477.341	574.07
477.713	572.48
478.084	608.64
478.455	600.96
478.827	599.15
479.198	623.78
479.569	623.78
479.94	612.94
480.311	617
480.682	619.04
481.053	644.12
481.424	637.79
481.795	637.57
482.166	646.61
482.537	650.22
482.908	664.69
483.279	665.82
483.65	662.88
484.021	689.09
484.391	690.45
484.762	695.42
485.133	696.1
485.503	704.23
485.874	709.66
486.244	721.18
486.615	723.44
486.985	755.3
487.356	737.45
487.726	727.51
488.097	746.94
488.467	761.18
488.837	755.53
489.207	770.67
489.578	767.51
489.948	773.84
490.318	798.92
490.688	798.47
491.058	809.09
491.428	812.03
491.798	824.91
492.168	822.65
492.538	827.39
492.908	816.32
493.278	805.25
493.648	836.43
494.017	861.29
494.387	860.39
494.757	885.25
495.126	857
495.496	859.71
495.866	863.78
496.235	892.48
496.605	908.3
496.974	871.46
497.344	878.47
497.713	878.24
498.082	925.02
498.452	916.88
498.821	913.72
499.19	906.26
499.559	910.78
499.928	925.92
500.298	926.6
500.667	937.45
501.036	932.93
501.405	940.84
501.774	935.64
502.143	939.93
502.512	929.76
502.88	918.46
503.249	945.36
503.618	930.44
503.987	964.34
504.356	953.94
504.724	964.34
505.093	942.42
505.462	997.56
505.83	974.73
506.199	972.93
506.567	974.96
506.936	987.39
507.304	984.68
507.672	1016.77
508.041	1007.05
508.409	979.48
508.777	1004.79
509.145	1013.15
509.514	980.61
509.882	1006.15
510.25	1036.65
510.618	1023.09
510.986	992.59
511.354	1031.91
511.722	1034.85
512.09	1018.12
512.458	1026.48
512.826	1040.5
513.193	1040.72
513.561	1038.01
513.929	1031.46
514.297	1063.32
514.664	1043.66
515.032	1050.89
515.4	1082.53
515.767	1070.1
516.135	1070.55
516.502	1064.22
516.869	1088.63
517.237	1095.41
517.604	1113.49
517.972	1099.7
518.339	1084.79
518.706	1107.84
519.073	1097.44
519.44	1111.68
519.808	1100.61
520.175	1109.42
520.542	1095.18
520.909	1134.28
521.276	1120.04
521.643	1135.18
522.009	1125.92
522.376	1155.75
522.743	1122.08
523.11	1128.63
523.477	1130.21
523.843	1133.83
524.21	1162.3
524.577	1142.41
524.943	1146.26
525.31	1153.49
525.676	1168.4
526.043	1159.59
526.409	1167.72
526.776	1145.58
527.142	1196.88
527.508	1183.09
527.874	1185.58
528.241	1179.93
528.607	1181.73
528.973	1193.49
529.339	1206.59
529.705	1190.32
530.071	1185.35
530.437	1211.79
530.803	1209.98
531.169	1238.46
531.535	1243.65
531.901	1195.52
532.267	1226.48
532.632	1225.35
532.998	1234.16
533.364	1228.74
533.73	1205.69
534.095	1222.41
534.461	1234.61
534.826	1241.39
535.192	1220.6
535.557	1253.82
535.923	1242.75
536.288	1226.93
536.653	1246.59
537.019	1235.07
537.384	1221.28
537.749	1242.98
538.114	1237.55
538.479	1240.04
538.845	1225.58
539.21	1243.65
539.575	1246.82
539.94	1244.33
540.305	1231.9
540.67	1245.01
541.034	1251.34
541.399	1236.65
541.764	1241.85
542.129	1260.15
542.494	1261.51
542.858	1238.91
543.223	1238
543.587	1282.97
543.952	1232.58
544.316	1231.68
544.681	1244.78
545.045	1263.31
545.41	1235.97
545.774	1253.82
546.138	1255.86
546.503	1254.5
546.867	1211.11
547.231	1272.58
547.595	1241.17
547.959	1248.17
548.324	1259.25
548.688	1257.89
549.052	1260.83
549.416	1254.5
549.779	1271.45
550.143	1257.66
550.507	1259.7
550.871	1287.95
551.235	1242.98
551.599	1272.58
551.962	1261.05
552.326	1254.73
552.689	1276.2
553.053	1268.74
553.417	1244.56
553.78	1301.28
554.143	1248.17
554.507	1266.48
554.87	1257.21
555.234	1298.57
555.597	1275.74
555.96	1276.87
556.323	1267.61
556.686	1280.04
557.05	1281.39
557.413	1288.85
557.776	1299.92
558.139	1275.07
558.502	1285.69
558.865	1296.53
559.228	1301.96
559.59	1309.64
559.953	1287.04
560.316	1284.1
560.679	1312.13
561.041	1330.21
561.404	1340.83
561.767	1319.58
562.129	1330.43
562.492	1320.94
562.854	1316.42
563.217	1312.35
563.579	1302.86
563.941	1328.62
564.304	1308.28
564.666	1311.9
565.028	1309.87
565.39	1346.02
565.753	1356.42
566.115	1331.56
566.477	1354.61
566.839	1342.18
567.201	1349.87
567.563	1336.08
567.925	1354.61
568.287	1358
568.648	1359.81
569.01	1360.71
569.372	1331.79
569.734	1311.45
570.095	1372.92
570.457	1392.58
570.819	1369.53
571.18	1325.23
571.542	1347.83
571.903	1348.74
572.265	1355.97
572.626	1359.13
572.987	1342.18
573.349	1351.67
573.71	1373.82
574.071	1383.54
574.432	1354.16
574.794	1349.41
575.155	1352.13
575.516	1359.13
575.877	1329.53
576.238	1346.93
576.599	1356.19
576.96	1360.71
577.32	1376.76
577.681	1342.86
578.042	1373.59
578.403	1326.36
578.763	1367.04
579.124	1370.2
579.485	1340.15
579.845	1367.27
580.206	1334.72
580.566	1350.09
580.927	1363.42
581.287	1374.27
581.648	1336.31
582.008	1332.24
582.368	1326.36
582.728	1332.46
583.089	1361.16
583.449	1318.45
583.809	1364.1
584.169	1336.76
584.529	1325.46
584.889	1338.79
585.249	1343.31
585.609	1328.17
585.969	1340.83
586.329	1339.02
586.688	1308.74
587.048	1339.92
587.408	1298.79
587.768	1344.89
588.127	1333.14
588.487	1311.67
588.846	1326.82
589.206	1323.2
589.565	1306.02
589.925	1331.11
590.284	1317.1
590.643	1307.83
591.003	1305.8
591.362	1306.93
591.721	1325.69
592.08	1302.18
592.44	1308.28
592.799	1282.75
593.158	1331.34
593.517	1327.95
593.876	1323.2
594.235	1280.71
594.593	1304.44
594.952	1305.8
595.311	1298.57
595.67	1289.08
596.029	1300.83
596.387	1292.01
596.746	1315.29
597.104	1302.64
597.463	1288.4
597.822	1329.53
598.18	1319.58
598.538	1316.19
598.897	1308.96
599.255	1315.52
599.613	1325.01
599.972	1294.05
600.33	1308.51
600.688	1314.39
601.046	1300.6
601.404	1323.65
601.762	1306.93
602.12	1298.12
602.478	1332.46
602.836	1318.23
603.194	1301.51
603.552	1303.09
603.91	1320.26
604.268	1331.79
604.625	1332.01
604.983	1315.74
605.341	1327.04
605.698	1313.71
606.056	1318.68
606.413	1307.83
606.771	1343.09
607.128	1329.3
607.485	1315.06
607.843	1331.56
608.2	1335.4
608.557	1342.18
608.914	1322.75
609.272	1312.35
609.629	1327.27
609.986	1338.57
610.343	1329.08
610.7	1349.64
611.057	1359.81
611.414	1362.29
611.771	1337.66
612.127	1364.1
612.484	1342.41
612.841	1346.93
613.198	1364.78
613.554	1340.37
613.911	1343.54
614.267	1340.83
614.624	1336.98
614.98	1347.15
615.337	1365.46
615.693	1329.98
616.05	1364.33
616.406	1381.73
616.762	1364.33
617.118	1379.02
617.475	1340.15
617.831	1337.89
618.187	1382.63
618.543	1358.9
618.899	1377.21
619.255	1333.14
619.611	1358
619.967	1371.56
620.323	1369.07
620.678	1369.75
621.034	1364.78
621.39	1368.85
621.746	1330.88
622.101	1351.9
622.457	1348.06
622.812	1374.95
623.168	1363.42
623.523	1372.92
623.879	1332.01
624.234	1353.71
624.589	1340.15
624.945	1371.56
625.3	1366.81
625.655	1371.56
626.01	1360.49
626.365	1362.97
626.72	1374.05
627.075	1301.05
627.43	1347.83
627.785	1347.15
628.14	1358.45
628.495	1365.46
628.85	1341.5
629.205	1339.92
629.559	1373.14
629.914	1361.16
630.269	1356.42
630.623	1341.73
630.978	1334.95
631.332	1342.86
631.687	1332.46
632.041	1345.8
632.396	1352.13
632.75	1334.05
633.104	1362.75
633.459	1336.76
633.813	1325.01
634.167	1343.09
634.521	1348.51
634.875	1315.97
635.229	1332.24
635.583	1337.66
635.937	1321.17
636.291	1344.67
636.645	1351.22
636.999	1334.27
637.352	1343.76
637.706	1339.02
638.06	1352.13
638.413	1340.37
638.767	1309.87
639.121	1336.53
639.474	1363.42
639.828	1334.27
640.181	1331.79
640.534	1344.89
640.888	1355.74
641.241	1334.27
641.594	1345.57
641.947	1301.51
642.301	1325.23
642.654	1304.9
643.007	1299.02
643.36	1336.53
643.713	1356.65
644.066	1327.27
644.419	1330.66
644.771	1314.84
645.124	1330.21
645.477	1318.45
645.83	1329.08
646.182	1302.86
646.535	1315.52
646.888	1329.98
647.24	1318.91
647.593	1319.36
647.945	1342.63
648.298	1337.89
648.65	1300.6
649.002	1338.11
649.355	1344.44
649.707	1369.07
650.059	1347.83
650.411	1349.64
650.763	1341.28
651.115	1356.42
651.467	1388.73
651.819	1368.4
652.171	1405.23
652.523	1405.46
652.875	1401.39
653.227	1377.21
653.578	1369.3
653.93	1401.84
654.282	1385.57
654.633	1411.56
654.985	1400.03
655.337	1424.44
655.688	1434.16
656.039	1442.29
656.391	1415.4
656.742	1437.32
657.094	1433.48
657.445	1422.18
657.796	1445.23
658.147	1415.85
658.498	1431.22
658.849	1438.68
659.2	1479.58
659.551	1451.33
659.902	1470.31
660.253	1480.71
660.604	1496.53
660.955	1504.21
661.306	1506.47
661.656	1529.97
662.007	1546.92
662.358	1502.63
662.708	1498.34
663.059	1504.21
663.409	1547.15
663.76	1541.05
664.11	1575.17
664.461	1570.65
664.811	1612.46
665.161	1600.48
665.511	1570.88
665.862	1613.59
666.212	1625.79
666.562	1611.55
666.912	1648.84
667.262	1648.16
667.612	1626.24
667.962	1637.32
668.312	1670.54
668.662	1702.62
669.011	1688.16
669.361	1670.54
669.711	1707.37
670.06	1722.74
670.41	1749.63
670.76	1713.7
671.109	1751.21
671.459	1768.39
671.808	1753.24
672.157	1809.74
672.507	1783.07
672.856	1795.28
673.205	1833.92
673.554	1819.46
673.904	1849.51
674.253	1843.19
674.602	1863.52
674.951	1838.44
675.3	1864.2
675.649	1880.93
675.998	1884.99
676.346	1912.79
676.695	1948.27
677.044	1916.86
677.393	1936.52
677.741	1968.61
678.09	1932.22
678.438	1965.22
678.787	2002.28
679.135	2031.43
679.484	2022.39
679.832	2021.49
680.181	2012.9
680.529	2077.76
680.877	2082.05
681.225	2087.02
681.573	2108.94
681.922	2108.72
682.27	2157.08
682.618	2145.32
682.966	2150.3
683.314	2162.95
683.661	2210.63
684.009	2173.35
684.357	2144.2
684.705	2238.43
685.053	2262.38
685.4	2238.66
685.748	2232.78
686.095	2268.26
686.443	2287.24
686.79	2317.07
687.138	2278.65
687.485	2325.21
687.832	2332.21
688.18	2358.65
688.527	2348.03
688.874	2355.71
689.221	2379.22
689.568	2414.47
689.915	2443.85
690.262	2429.61
690.609	2421.7
690.956	2480.46
691.303	2452.21
691.65	2461.02
691.997	2512.77
692.344	2492.89
692.69	2496.73
693.037	2485.88
693.383	2552.55
693.73	2569.49
694.077	2574.69
694.423	2588.25
694.769	2625.09
695.116	2610.62
695.462	2588.7
695.808	2648.59
696.155	2639.78
696.501	2672.09
696.847	2674.58
697.193	2668.48
697.539	2720.45
697.885	2712.54
698.231	2697.85
698.577	2717.74
698.923	2737.17
699.269	2770.62
699.614	2750.96
699.96	2797.29
700.306	2818.08
700.651	2795.25
700.997	2822.6
701.342	2815.36
701.688	2834.57
702.033	2822.14
702.379	2848.36
702.724	2855.36
703.069	2868.7
703.415	2902.14
703.76	2896.04
704.105	2952.08
704.45	2908.69
704.795	2952.99
705.14	2944.63
705.485	2958.18
705.83	2992.08
706.175	2949.6
706.52	3034.34
706.865	3016.04
707.209	2995.47
707.554	3042.25
707.899	3028.24
708.243	3044.96
708.588	3071.18
708.932	3080.67
709.277	3051.29
709.621	3104.17
709.966	3080.67
710.31	3129.03
710.654	3103.27
710.998	3151.63
711.342	3129.03
711.687	3124.28
712.031	3116.15
712.375	3148.01
712.719	3143.26
713.063	3175.81
713.407	3230.49
713.75	3164.28
714.094	3219.65
714.438	3208.12
714.782	3198.4
715.125	3220.1
715.469	3239.76
715.812	3244.05
716.156	3212.64
716.499	3267.78
716.843	3256.03
717.186	3255.13
717.53	3297.61
717.873	3293.09
718.216	3258.29
718.559	3311.62
718.902	3259.65
719.246	3276.59
719.589	3277.5
719.932	3290.38
720.275	3333.32
720.617	3350.49
720.96	3335.8
721.303	3345.75
721.646	3343.26
721.989	3345.29
722.331	3385.97
722.674	3390.72
723.016	3364.5
723.359	3350.49
723.701	3388.68
724.044	3373.99
724.386	3377.38
724.729	3399.76
725.071	3392.07
725.413	3393.43
725.755	3429.13
726.097	3383.03
726.439	3416.03
726.782	3417.16
727.124	3437.04
727.465	3399.76
727.807	3420.32
728.149	3381
728.491	3409.02
728.833	3414.9
729.175	3411.51
729.516	3401.56
729.858	3403.82
730.199	3432.3
730.541	3443.37
730.882	3452.86
731.224	3444.27
731.565	3410.15
731.906	3384.61
732.248	3467.32
732.589	3418.29
732.93	3450.6
733.271	3409.25
733.612	3441.34
733.953	3444.95
734.294	3429.81
734.635	3470.04
734.976	3430.49
735.317	3396.14
735.658	3412.41
735.999	3405.86
736.339	3422.81
736.68	3470.04
737.021	3435.69
737.361	3390.49
737.702	3467.1
738.042	3457.83
738.383	3429.36
738.723	3445.18
739.063	3435.69
739.404	3445.4
739.744	3464.39
740.084	3406.08
740.424	3417.83
740.764	3414.9
741.104	3449.92
741.444	3434.33
741.784	3421.22
742.124	3419.42
742.464	3431.84
742.804	3419.42
743.143	3418.06
743.483	3409.92
743.823	3413.77
744.162	3432.52
744.502	3405.18
744.841	3423.03
745.181	3409.47
745.52	3419.19
745.86	3445.86
746.199	3447.89
746.538	3355.01
746.877	3397.27
747.216	3411.73
747.556	3404.95
747.895	3367.21
748.234	3373.32
748.573	3366.76
748.911	3385.97
749.25	3369.47
749.589	3362.92
749.928	3367.89
750.267	3350.04
750.605	3393.43
750.944	3327.67
751.283	3370.15
751.621	3340.55
751.96	3343.94
752.298	3314.56
752.636	3343.71
752.975	3333.32
753.313	3316.82
753.651	3279.08
753.989	3336.03
754.327	3271.62
754.666	3277.27
755.004	3287.44
755.342	3307.78
755.679	3308.46
756.017	3239.53
756.355	3300.1
756.693	3327.21
757.031	3288.8
757.368	3228.46
757.706	3240.66
758.044	3235.92
758.381	3252.87
758.719	3223.71
759.056	3225.75
759.394	3250.61
759.731	3160.67
760.068	3204.51
760.405	3137.39
760.743	3192.3
761.08	3175.58
761.417	3159.76
761.754	3188.24
762.091	3185.98
762.428	3114.34
762.765	3139.42
763.102	3163.38
763.438	3131.29
763.775	3115.92
764.112	3129.71
764.449	3078.41
764.785	3112.98
765.122	3081.35
765.458	3088.35
765.795	3052.19
766.131	3054.23
766.467	3037.96
766.804	3022.82
767.14	3021.23
767.476	3024.17
767.812	3008.13
768.148	3032.31
768.485	2997.96
768.821	3027.56
769.157	2988.92
769.492	2992.53
769.828	2951.63
770.164	2935.59
770.5	2958.64
770.836	2939.43
771.171	2939.65
771.507	2900.11
771.842	2873.67
772.178	2877.06
772.513	2915.7
772.849	2889.03
773.184	2892.88
773.519	2904.85
773.855	2882.93
