Data from carpet_green_FLMS001491_00050.txt Node
Date: Wed Feb 08 10:35:26 GMT 2017
User: dcchb
Spectrometer: FLMS00149
Trigger mode: 0
Integration Time (sec): 2.000000E-2
Scans to average: 10
Electric dark correction enabled: true
Nonlinearity correction enabled: false
Boxcar width: 0
XAxis mode: Wavelengths
Number of Pixels in Spectrum: 2048
>>>>>Begin Spectral Data<<<<<
341.393	-1.07
341.776	-1.07
342.16	-1.07
342.543	-57.12
342.927	-69.09
343.31	-72.71
343.693	-62.99
344.077	-78.81
344.46	-64.12
344.843	-40.85
345.226	-36.78
345.61	-44.01
345.993	-18.25
346.376	-23.9
346.759	7.29
347.142	24.69
347.525	55.42
347.908	90.68
348.291	70.79
348.674	76.89
349.057	116.66
349.44	101.3
349.823	129.09
350.206	157.34
350.588	165.48
350.971	179.94
351.354	194.63
351.737	183.55
352.119	226.94
352.502	247.96
352.884	241.86
353.267	243.21
353.65	246.83
354.032	270.56
354.414	288.86
354.797	284.57
355.179	276.89
355.562	292.48
355.944	285.92
356.326	305.81
356.709	280.73
357.091	298.13
357.473	297.68
357.855	292.7
358.238	303.1
358.62	307.85
359.002	313.72
359.384	297.22
359.766	304.91
360.148	311.46
360.53	324.57
360.912	297.45
361.294	307.85
361.676	297.9
362.057	294.06
362.439	298.13
362.821	299.71
363.203	305.81
363.584	283.89
363.966	263.1
364.348	277.56
364.729	277.11
365.111	291.57
365.493	286.15
365.874	263.1
366.256	283.21
366.637	258.13
367.019	278.24
367.4	285.47
367.781	288.41
368.163	263.33
368.544	252.25
368.925	278.69
369.306	275.08
369.688	268.07
370.069	273.5
370.45	280.05
370.831	283.66
371.212	275.76
371.593	273.04
371.974	277.79
372.355	264
372.736	256.55
373.117	268.52
373.498	286.15
373.879	272.14
374.26	267.17
374.641	264.23
375.021	275.3
375.402	261.52
375.783	275.3
376.163	282.99
376.544	278.02
376.925	290.9
377.305	284.57
377.686	269.43
378.066	274.85
378.447	276.43
378.827	279.37
379.208	272.82
379.588	269.43
379.968	300.84
380.349	274.4
380.729	273.5
381.109	290.9
381.489	280.05
381.87	299.71
382.25	272.82
382.63	287.05
383.01	285.92
383.39	277.11
383.77	283.21
384.15	294.51
384.53	315.53
384.91	267.39
385.29	297.22
385.67	290.9
386.049	298.35
386.429	290.44
386.809	288.86
387.189	278.92
387.568	290.9
387.948	288.18
388.328	278.69
388.707	284.57
389.087	291.12
389.466	304.23
389.846	304.91
390.225	297.45
390.605	309.2
390.984	300.39
391.363	299.94
391.743	293.61
392.122	304.46
392.501	310.56
392.881	295.19
393.26	311.01
393.639	310.1
394.018	296.77
394.397	303.55
394.776	275.76
395.155	313.04
395.534	285.25
395.913	304.23
396.292	299.03
396.671	320.73
397.05	301.52
397.429	303.55
397.808	284.12
398.186	306.94
398.565	286.6
398.944	309.65
399.323	315.08
399.701	304.46
400.08	298.13
400.458	305.13
400.837	307.62
401.215	296.32
401.594	306.26
401.972	301.52
402.351	306.72
402.729	330.22
403.107	309.2
403.486	301.52
403.864	308.07
404.242	311.91
404.62	318.69
404.999	324.34
405.377	324.57
405.755	311.46
406.133	309.65
406.511	313.27
406.889	308.97
407.267	305.36
407.645	331.35
408.023	295.42
408.401	305.81
408.779	318.69
409.156	309.65
409.534	323.66
409.912	318.92
410.29	305.81
410.667	312.82
411.045	305.13
411.422	327.28
411.8	332.03
412.178	321.4
412.555	320.95
412.933	318.69
413.31	344
413.687	326.83
414.065	322.76
414.442	313.95
414.819	289.31
415.197	329.77
415.574	311.23
415.951	320.05
416.328	331.8
416.705	319.14
417.082	320.5
417.46	321.63
417.837	327.51
418.214	311.23
418.591	318.92
418.967	339.48
419.344	338.8
419.721	339.71
420.098	328.41
420.475	317.79
420.852	347.17
421.228	347.84
421.605	340.39
421.982	345.81
422.358	341.74
422.735	336.54
423.111	334.96
423.488	325.7
423.864	325.47
424.241	331.8
424.617	334.28
424.994	344.23
425.37	326.83
425.746	322.99
426.123	343.78
426.499	362.76
426.875	351.23
427.251	333.83
427.627	325.92
428.003	329.54
428.379	338.35
428.756	323.44
429.132	322.99
429.507	347.17
429.883	353.95
430.259	358.47
430.635	322.99
431.011	337.9
431.387	367.5
431.763	351.46
432.138	353.27
432.514	362.08
432.89	357.56
433.265	351.01
433.641	368.86
434.016	362.08
434.392	361.63
434.767	362.76
435.143	350.1
435.518	356.21
435.894	382.19
436.269	350.78
436.644	359.37
437.02	359.6
437.395	365.02
437.77	369.99
438.145	366.37
438.52	381.74
438.895	392.59
439.271	366.37
439.646	372.02
440.021	392.81
440.395	365.7
440.77	352.59
441.145	395.75
441.52	373.38
441.895	394.17
442.27	389.2
442.645	380.39
443.019	376.32
443.394	359.6
443.769	364.34
444.143	380.16
444.518	379.93
444.892	402.31
445.267	399.59
445.641	375.87
446.016	373.61
446.39	390.1
446.764	386.04
447.139	392.81
447.513	386.04
447.887	395.3
448.262	402.53
448.636	388.52
449.01	394.62
449.384	384.91
449.758	396.88
450.132	406.37
450.506	385.36
450.88	392.59
451.254	421.51
451.628	400.72
452.002	404.34
452.376	385.81
452.75	406.83
453.123	398.69
453.497	409.09
453.871	400.95
454.244	415.19
454.618	403.21
454.992	423.32
455.365	393.94
455.739	418.58
456.112	414.28
456.486	434.17
456.859	402.98
457.232	436.43
457.606	429.42
457.979	420.16
458.352	426.71
458.725	420.84
459.099	436.88
459.472	434.17
459.845	428.52
460.218	435.3
460.591	443.89
460.964	434.62
461.337	463.55
461.71	440.04
462.083	451.57
462.456	440.04
462.829	444.79
463.201	456.77
463.574	450.21
463.947	450.21
464.32	464.23
464.692	449.76
465.065	457.67
465.438	478.69
465.81	465.81
466.183	472.36
466.555	467.61
466.928	484.11
467.3	488.63
467.672	474.85
468.045	483.66
468.417	487.95
468.789	484.79
469.161	508.29
469.534	485.69
469.906	498.35
470.278	464.45
470.65	502.19
471.022	509.65
471.394	514.62
471.766	493.83
472.138	517.56
472.51	534.96
472.882	503.55
473.253	546.26
473.625	528.86
473.997	556.2
474.369	539.93
474.74	542.19
475.112	555.3
475.484	549.65
475.855	555.52
476.227	579.48
476.598	554.84
476.97	576.76
477.341	592.36
477.713	588.97
478.084	593.49
478.455	599.36
478.827	611.79
479.198	601.17
479.569	628.29
479.94	621.28
480.311	605.46
480.682	643.66
481.053	635.75
481.424	638.46
481.795	634.84
482.166	654.73
482.537	663.99
482.908	649.3
483.279	665.35
483.65	684.11
484.021	677.33
484.391	684.11
484.762	688.17
485.133	689.3
485.503	708.06
485.874	708.51
486.244	727.27
486.615	726.59
486.985	745.12
487.356	743.54
487.726	734.95
488.097	752.58
488.467	752.81
488.837	756.19
489.207	760.26
489.578	772.01
489.948	790.32
490.318	759.36
490.688	782.63
491.058	822.63
491.428	816.53
491.798	827.38
492.168	822.63
492.538	835.51
492.908	840.71
493.278	831.45
493.648	819.02
494.017	842.07
494.387	827.61
494.757	860.6
495.126	864.67
495.496	839.36
495.866	891.56
496.235	870.32
496.605	870.32
496.974	866.02
497.344	900.37
497.713	887.04
498.082	894.27
498.452	889.98
498.821	896.08
499.19	916.42
499.559	917.77
499.928	905.34
500.298	906.7
500.667	936.08
501.036	920.03
501.405	925
501.774	918.68
502.143	939.69
502.512	934.95
502.88	950.54
503.249	947.38
503.618	946.02
503.987	966.13
504.356	947.6
504.724	953.03
505.093	948.51
505.462	969.3
505.83	959.13
506.199	985.57
506.567	982.18
506.936	965.45
507.304	1012.46
507.672	965.68
508.041	987.38
508.409	1014.49
508.777	981.05
509.145	999.58
509.514	988.28
509.882	1002.74
510.25	995.06
510.618	998
510.986	1021.72
511.354	1037.77
511.722	1017.2
512.09	1035.74
512.458	1018.11
512.826	1034.38
513.193	1044.55
513.561	1046.81
513.929	1030.76
514.297	1046.36
514.664	1052.91
515.032	1023.31
515.4	1066.02
515.767	1072.8
516.135	1055.62
516.502	1050.65
516.869	1057.2
517.237	1092.91
517.604	1081.16
517.972	1068.05
518.339	1091.55
518.706	1068.28
519.073	1102.85
519.44	1108.05
519.808	1089.52
520.175	1109.63
520.542	1093.14
520.909	1130.87
521.276	1099.01
521.643	1088.62
522.009	1120.03
522.376	1115.51
522.743	1106.24
523.11	1110.76
523.477	1138.78
523.843	1142.17
524.21	1137.88
524.577	1132.23
524.943	1152.34
525.31	1152.79
525.676	1165
526.043	1177.43
526.409	1165.22
526.776	1168.16
527.142	1148.95
527.508	1182.17
527.874	1191.44
528.241	1179.23
528.607	1165.22
528.973	1202.06
529.339	1183.53
529.705	1175.17
530.071	1199.57
530.437	1204.32
530.803	1200.93
531.169	1190.76
531.535	1236.41
531.901	1202.06
532.267	1215.84
532.632	1200.7
532.998	1238.22
533.364	1193.25
533.73	1198.9
534.095	1200.25
534.461	1208.84
534.826	1224.88
535.192	1230.31
535.557	1222.85
535.923	1211.55
536.288	1240.25
536.653	1243.19
537.019	1212.45
537.384	1239.12
537.749	1206.35
538.114	1224.21
538.479	1221.72
538.845	1227.59
539.21	1175.39
539.575	1228.5
539.94	1226.92
540.305	1238.22
540.67	1233.92
541.034	1241.15
541.399	1214.49
541.764	1271.89
542.129	1219.91
542.494	1221.95
542.858	1249.97
543.223	1259.46
543.587	1227.14
543.952	1235.96
544.316	1251.1
544.681	1222.17
545.045	1253.36
545.41	1221.95
545.774	1237.76
546.138	1251.55
546.503	1216.52
546.867	1237.54
547.231	1273.7
547.595	1257.88
547.959	1248.61
548.324	1241.61
548.688	1226.24
549.052	1245.9
549.416	1240.48
549.779	1251.1
550.143	1214.94
550.507	1250.87
550.871	1273.92
551.235	1259.91
551.599	1264.43
551.962	1257.88
552.326	1240.93
552.689	1265.11
553.053	1233.7
553.417	1233.24
553.78	1259.91
554.143	1287.25
554.507	1270.98
554.87	1287.48
555.234	1278.67
555.597	1303.3
555.96	1268.5
556.323	1276.86
556.686	1286.8
557.05	1272.79
557.413	1259.46
557.776	1266.01
558.139	1275.28
558.502	1270.98
558.865	1312.79
559.228	1280.7
559.59	1299.01
559.953	1292
560.316	1305.78
560.679	1315.5
561.041	1312.79
561.404	1308.95
561.767	1321.83
562.129	1326.8
562.492	1278.44
562.854	1299.46
563.217	1323.86
563.579	1316.86
563.941	1322.51
564.304	1310.3
564.666	1341.26
565.028	1351.66
565.39	1316.86
565.753	1336.52
566.115	1320.93
566.477	1344.43
566.839	1312.79
567.201	1345.56
567.563	1346.91
567.925	1345.11
568.287	1339
568.648	1337.65
569.01	1355.5
569.372	1337.42
569.734	1346.01
570.095	1335.61
570.457	1329.51
570.819	1328.16
571.18	1329.51
571.542	1337.87
571.903	1364.99
572.265	1331.55
572.626	1327.48
572.987	1332.68
573.349	1364.31
573.71	1364.31
574.071	1350.08
574.432	1373.13
574.794	1368.83
575.155	1357.08
575.516	1356.63
575.877	1365.22
576.238	1368.83
576.599	1362.51
576.96	1360.92
577.32	1329.06
577.681	1381.04
578.042	1361.83
578.403	1378.78
578.763	1364.77
579.124	1385.56
579.485	1339.46
579.845	1339.91
580.206	1338.1
580.566	1322.51
580.927	1353.47
581.287	1346.69
581.648	1326.35
582.008	1345.78
582.368	1329.06
582.728	1324.77
583.089	1338.55
583.449	1320.47
583.809	1327.48
584.169	1322.96
584.529	1319.34
584.889	1343.07
585.249	1317.54
585.609	1315.28
585.969	1346.01
586.329	1325.67
586.688	1323.41
587.048	1311.43
587.408	1302.62
587.768	1303.07
588.127	1299.46
588.487	1302.4
588.846	1283.19
589.206	1321.6
589.565	1319.12
589.925	1330.64
590.284	1295.39
590.643	1315.5
591.003	1280.02
591.362	1276.41
591.721	1308.95
592.08	1304.2
592.44	1308.27
592.799	1314.6
593.158	1322.51
593.517	1326.58
593.876	1323.64
594.235	1309.4
594.593	1298.1
594.952	1273.92
595.311	1301.27
595.67	1289.51
596.029	1306.46
596.387	1300.14
596.746	1294.03
597.104	1276.86
597.463	1296.29
597.822	1314.37
598.18	1299.46
598.538	1298.1
598.897	1283.64
599.255	1304.88
599.613	1273.92
599.972	1270.76
600.33	1310.08
600.688	1302.4
601.046	1305.11
601.404	1270.31
601.762	1327.03
602.12	1339.23
602.478	1312.56
602.836	1309.4
603.194	1325.22
603.552	1333.81
603.91	1306.69
604.268	1299.23
604.625	1298.1
604.983	1330.87
605.341	1337.2
605.698	1332.9
606.056	1328.84
606.413	1317.54
606.771	1323.86
607.128	1318.89
607.485	1328.61
607.843	1311.43
608.2	1349.4
608.557	1341.49
608.914	1326.12
609.272	1327.48
609.629	1316.41
609.986	1332.22
610.343	1316.41
610.7	1326.12
611.057	1315.28
611.414	1322.96
611.771	1311.21
612.127	1335.84
612.484	1336.97
612.841	1356.63
613.198	1352.34
613.554	1323.41
613.911	1350.3
614.267	1365.22
614.624	1383.07
614.98	1343.75
615.337	1355.28
615.693	1336.29
616.05	1335.39
616.406	1351.66
616.762	1340.81
617.118	1362.51
617.475	1345.33
617.831	1359.79
618.187	1346.24
618.543	1338.1
618.899	1350.3
619.255	1349.4
619.611	1364.99
619.967	1358.44
620.323	1384.43
620.678	1341.26
621.034	1391.43
621.39	1325.22
621.746	1331.09
622.101	1337.65
622.457	1356.86
622.812	1360.25
623.168	1355.95
623.523	1387.36
623.879	1353.92
624.234	1356.41
624.589	1341.04
624.945	1334.26
625.3	1345.11
625.655	1332.9
626.01	1362.73
626.365	1360.02
626.72	1363.18
627.075	1356.86
627.43	1354.82
627.785	1346.46
628.14	1352.11
628.495	1339.46
628.85	1319.34
629.205	1325.67
629.559	1339.46
629.914	1332.45
630.269	1351.89
630.623	1375.16
630.978	1351.66
631.332	1329.51
631.687	1346.01
632.041	1330.64
632.396	1370.64
632.75	1339.91
633.104	1346.46
633.459	1347.82
633.813	1328.84
634.167	1336.52
634.521	1346.91
634.875	1299.01
635.229	1328.61
635.583	1322.96
635.937	1314.6
636.291	1310.3
636.645	1322.51
636.999	1297.88
637.352	1323.86
637.706	1326.12
638.06	1302.17
638.413	1319.34
638.767	1315.05
639.121	1338.1
639.474	1324.99
639.828	1317.31
640.181	1312.11
640.534	1342.62
640.888	1330.19
641.241	1303.3
641.594	1340.36
641.947	1335.61
642.301	1336.07
642.654	1306.69
643.007	1346.24
643.36	1349.63
643.713	1331.32
644.066	1334.03
644.419	1307.59
644.771	1309.85
645.124	1330.64
645.477	1309.85
645.83	1332.68
646.182	1321.6
646.535	1301.04
646.888	1317.76
647.24	1320.02
647.593	1327.48
647.945	1327.25
648.298	1343.3
648.65	1347.59
649.002	1329.06
649.355	1330.19
649.707	1316.18
650.059	1322.73
650.411	1338.55
650.763	1316.86
651.115	1373.58
651.467	1374.26
651.819	1379.46
652.171	1388.49
652.523	1362.05
652.875	1379.68
653.227	1350.98
653.578	1422.62
653.93	1412.9
654.282	1400.02
654.633	1412.45
654.985	1409.06
655.337	1430.3
655.688	1411.54
656.039	1424.88
656.391	1416.29
656.742	1425.56
657.094	1419.23
657.445	1414.93
657.796	1462.16
658.147	1449.74
658.498	1484.54
658.849	1463.75
659.2	1476.63
659.551	1483.18
659.902	1480.7
660.253	1501.03
660.604	1493.12
660.955	1494.71
661.306	1520.92
661.656	1499.45
662.007	1519.79
662.358	1522.95
662.708	1542.39
663.059	1521.82
663.409	1514.14
663.76	1545.33
664.11	1562.05
664.461	1569.73
664.811	1542.39
665.161	1577.87
665.511	1609.05
665.862	1598.88
666.212	1623.06
666.562	1597.98
666.912	1610.64
667.262	1628.49
667.612	1636.4
667.962	1620.35
668.312	1667.36
668.662	1670.52
669.011	1683.63
669.361	1682.72
669.711	1687.47
670.06	1696.51
670.41	1725.21
670.76	1740.35
671.109	1764.76
671.459	1754.81
671.808	1741.03
672.157	1762.72
672.507	1776.51
672.856	1799.78
673.205	1790.74
673.554	1837.75
673.904	1838.2
674.253	1834.36
674.602	1827.35
674.951	1834.13
675.3	1851.76
675.649	1860.57
675.998	1898.76
676.346	1891.31
676.695	1901.48
677.044	1914.58
677.393	1933.34
677.741	1973.11
678.09	1974.69
678.438	1987.35
678.787	2004.98
679.135	2028.7
679.484	2015.6
679.832	2037.74
680.181	2061.47
680.529	2055.14
680.877	2061.47
681.225	2082.04
681.573	2105.31
681.922	2142.6
682.27	2139.21
682.618	2145.99
682.966	2117.29
683.314	2182.82
683.661	2149.15
684.009	2148.93
684.357	2193.67
684.705	2234.57
685.053	2209.72
685.4	2235.25
685.748	2237.74
686.095	2275.02
686.443	2269.6
686.79	2309.37
687.138	2297.17
687.485	2309.83
687.832	2322.48
688.18	2305.31
688.527	2348.24
688.874	2379.88
689.221	2376.49
689.568	2374.46
689.915	2390.73
690.262	2413.1
690.609	2424.85
690.956	2438.64
691.303	2475.92
691.65	2443.38
691.997	2511.18
692.344	2507.56
692.69	2538.07
693.037	2552.31
693.383	2576.71
693.73	2503.72
694.077	2539.65
694.423	2561.57
694.769	2589.37
695.116	2588.91
695.462	2616.94
695.808	2589.37
696.155	2600.21
696.501	2642.7
696.847	2670.49
697.193	2683.83
697.539	2694.67
697.885	2695.58
698.231	2687.67
698.577	2674.34
698.923	2717.27
699.269	2743.94
699.614	2748.23
699.96	2799.08
700.306	2781.23
700.651	2785.52
700.997	2831.17
701.342	2810.38
701.688	2828
702.033	2823.26
702.379	2866.65
702.724	2876.82
703.069	2918.17
703.415	2905.74
703.76	2882.24
704.105	2896.7
704.45	2915.91
704.795	2921.56
705.14	2931.5
705.485	2965.63
705.83	2955.68
706.175	2988.45
706.52	2989.81
706.865	3011.28
707.209	3019.86
707.554	3020.54
707.899	3018.96
708.243	3049.24
708.588	3037.72
708.932	3048.79
709.277	3031.39
709.621	3085.4
709.966	3057.83
710.31	3105.96
710.654	3082.91
710.998	3100.31
711.342	3139.41
711.687	3124.72
712.031	3187.54
712.375	3152.52
712.719	3115.91
713.063	3146.19
713.407	3169.01
713.75	3162.46
714.094	3212.85
714.438	3213.08
714.782	3207.88
715.125	3247.43
715.469	3253.3
715.812	3190.48
716.156	3213.98
716.499	3232.51
716.843	3296.02
717.186	3288.33
717.53	3249.24
717.873	3278.61
718.216	3292.85
718.559	3289.01
718.902	3290.37
719.246	3335.79
719.589	3292.63
719.932	3322
720.275	3340.31
720.617	3269.35
720.96	3330.82
721.303	3307.99
721.646	3352.96
721.989	3352.06
722.331	3339.4
722.674	3355.22
723.016	3363.13
723.359	3353.41
723.701	3387.09
724.044	3381.66
724.386	3339.4
724.729	3380.08
725.071	3357.71
725.413	3394.54
725.755	3412.85
726.097	3348.22
726.439	3378.5
726.782	3377.14
727.124	3429.57
727.465	3416.46
727.807	3348.67
728.149	3370.59
728.491	3396.8
728.833	3456.46
729.175	3407.88
729.516	3455.33
729.858	3394.09
730.199	3469.34
730.541	3436.12
730.882	3445.84
731.224	3432.96
731.565	3402.45
731.906	3426.41
732.248	3475.9
732.589	3394.77
732.93	3401.1
733.271	3440.19
733.612	3433.19
733.953	3430.7
734.294	3420.53
734.635	3385.73
734.976	3438.16
735.317	3403.81
735.658	3469.57
735.999	3447.88
736.339	3437.03
736.68	3417.59
737.021	3454.65
737.361	3393.41
737.702	3475.22
738.042	3463.69
738.383	3392.28
738.723	3421.21
739.063	3451.94
739.404	3461.21
739.744	3415.11
740.084	3421.44
740.424	3428.21
740.764	3403.36
741.104	3447.65
741.444	3444.71
741.784	3434.32
742.124	3428.67
742.464	3452.4
742.804	3421.89
743.143	3410.36
743.483	3437.03
743.823	3434.77
744.162	3383.92
744.502	3408.33
744.841	3385.96
745.181	3404.94
745.52	3423.7
745.86	3413.07
746.199	3413.07
746.538	3387.99
746.877	3427.54
747.216	3385.05
747.556	3386.41
747.895	3366.75
748.234	3352.74
748.573	3373.98
748.911	3374.66
749.25	3387.31
749.589	3387.99
749.928	3391.15
750.267	3371.95
750.605	3368.78
750.944	3335.11
751.283	3332.62
751.621	3329.01
751.96	3291.95
752.298	3323.36
752.636	3324.94
752.975	3309.8
753.313	3325.62
753.651	3336.47
753.989	3319.29
754.327	3305.28
754.666	3297.14
755.004	3308.67
755.342	3252.63
755.679	3253.98
756.017	3265.28
756.355	3231.84
756.693	3263.47
757.031	3283.59
757.368	3222.34
757.706	3207.66
758.044	3229.12
758.381	3217.15
758.719	3236.58
759.056	3191.39
759.394	3235.45
759.731	3215.57
760.068	3197.71
760.405	3171.27
760.743	3181.44
761.08	3172.18
761.417	3159.3
761.754	3143.93
762.091	3171.5
762.428	3140.99
762.765	3118.84
763.102	3166.75
763.438	3133.99
763.775	3130.82
764.112	3114.1
764.449	3112.97
764.785	3066.64
765.122	3061.44
765.458	3067.32
765.795	3055.57
766.131	3040.88
766.467	3070.03
766.804	3041.56
767.14	3031.62
767.476	3051.73
767.812	2988.9
768.148	3001.33
768.485	3037.49
768.821	3011.73
769.157	3022.35
769.492	2973.31
769.828	2938.96
770.164	2936.25
770.5	2933.09
770.836	2935.35
771.171	2950.71
771.507	2902.35
771.842	2922.69
772.178	2913.43
772.513	2908.68
772.849	2866.87
773.184	2865.29
773.519	2876.59
773.855	2865.07
