Data from carpet_green_FLMS001491_00011.txt Node
Date: Wed Feb 08 10:34:58 GMT 2017
User: dcchb
Spectrometer: FLMS00149
Trigger mode: 0
Integration Time (sec): 2.000000E-2
Scans to average: 10
Electric dark correction enabled: true
Nonlinearity correction enabled: false
Boxcar width: 0
XAxis mode: Wavelengths
Number of Pixels in Spectrum: 2048
>>>>>Begin Spectral Data<<<<<
341.393	-12.01
341.776	-12.01
342.16	-12.01
342.543	-63.98
342.927	-72.34
343.31	-61.04
343.693	-68.95
344.077	-57.43
344.46	-71.21
344.843	-49.29
345.226	-50.87
345.61	-36.41
345.993	-28.05
346.376	-9.07
346.759	15.34
347.142	25.28
347.525	63.47
347.908	63.02
348.291	78.39
348.674	84.49
349.057	102.34
349.44	126.75
349.823	137.37
350.206	145.5
350.588	171.72
350.971	186.41
351.354	201.32
351.737	201.55
352.119	230.25
352.502	236.12
352.884	233.19
353.267	241.32
353.65	248.1
354.032	284.03
354.414	281.77
354.797	285.16
355.179	282
355.562	293.07
355.944	305.05
356.326	288.33
356.709	312.28
357.091	301.43
357.473	305.27
357.855	326.06
358.238	321.55
358.62	320.42
359.002	320.87
359.384	299.62
359.766	311.38
360.148	298.95
360.53	336.01
360.912	312.51
361.294	311.15
361.676	276.12
362.057	315.9
362.439	296.01
362.821	289.68
363.203	285.84
363.584	301.43
363.966	271.83
364.348	298.49
364.729	286.74
365.111	282.9
365.493	280.42
365.874	260.3
366.256	271.6
366.637	265.28
367.019	277.48
367.4	264.82
367.781	287.42
368.163	276.8
368.544	270.25
368.925	269.8
369.306	289.23
369.688	273.18
370.069	287.87
370.45	291.49
370.831	272.51
371.212	270.02
371.593	278.38
371.974	256.91
372.355	276.57
372.736	282.22
373.117	264.82
373.498	274.31
373.879	282.68
374.26	275.67
374.641	292.62
375.021	268.89
375.402	281.32
375.783	290.36
376.163	268.67
376.544	280.19
376.925	307.99
377.305	292.62
377.686	288.78
378.066	286.97
378.447	279.96
378.827	273.64
379.208	263.02
379.588	299.62
379.968	281.32
380.349	276.57
380.729	274.31
381.109	283.35
381.489	271.6
381.87	300.75
382.25	301.66
382.63	286.74
383.01	290.59
383.39	275.22
383.77	297.82
384.15	304.82
384.53	293.3
384.91	290.59
385.29	290.81
385.67	284.03
386.049	280.87
386.429	300.53
386.809	286.29
387.189	288.78
387.568	307.99
387.948	293.3
388.328	278.61
388.707	290.36
389.087	293.52
389.466	305.05
389.846	301.66
390.225	288.33
390.605	300.08
390.984	312.28
391.363	298.72
391.743	284.71
392.122	292.39
392.501	297.82
392.881	321.55
393.26	316.57
393.639	295.33
394.018	312.73
394.397	291.04
394.776	293.3
395.155	269.12
395.534	311.83
395.913	293.75
396.292	298.72
396.671	296.46
397.05	303.92
397.429	286.97
397.808	301.88
398.186	308.89
398.565	282.45
398.944	287.2
399.323	303.24
399.701	303.92
400.08	296.24
400.458	319.29
400.837	294.43
401.215	309.57
401.594	329
401.972	305.05
402.351	310.92
402.729	305.5
403.107	281.09
403.486	315.44
403.864	322
404.242	301.66
404.62	301.43
404.999	302.56
405.377	312.73
405.755	298.49
406.133	316.57
406.511	290.81
406.889	293.98
407.267	318.16
407.645	303.69
408.023	301.88
408.401	318.83
408.779	332.17
409.156	307.08
409.534	309.12
409.912	310.47
410.29	311.83
410.667	322.45
411.045	337.36
411.422	348.21
411.8	318.83
412.178	324.48
412.555	306.4
412.933	326.06
413.31	319.74
413.687	317.7
414.065	323.58
414.442	318.83
414.819	297.37
415.197	338.27
415.574	345.27
415.951	317.7
416.328	316.8
416.705	338.49
417.082	331.94
417.46	338.49
417.837	329
418.214	322
418.591	328.55
418.967	335.78
419.344	329
419.721	318.61
420.098	326.52
420.475	333.52
420.852	331.71
421.228	340.53
421.605	335.78
421.982	329.23
422.358	322.68
422.735	338.72
423.111	339.17
423.488	332.17
423.864	335.33
424.241	352.28
424.617	338.95
424.994	363.13
425.37	355.67
425.746	342.34
426.123	340.98
426.499	335.56
426.875	323.81
427.251	348.66
427.627	332.62
428.003	322
428.379	358.83
428.756	357.25
429.132	338.72
429.507	342.34
429.883	353.18
430.259	345.73
430.635	344.37
431.011	351.15
431.387	351.37
431.763	366.29
432.138	354.76
432.514	359.06
432.89	359.51
433.265	361.09
433.641	351.6
434.016	344.37
434.392	357.7
434.767	348.44
435.143	357.25
435.518	368.1
435.894	381.43
436.269	357.25
436.644	372.39
437.02	363.8
437.395	376.69
437.77	374.65
438.145	365.39
438.52	348.89
438.895	364.26
439.271	370.58
439.646	362.9
440.021	403.58
440.395	367.19
440.77	372.17
441.145	378.04
441.52	369.45
441.895	398.61
442.27	365.16
442.645	371.04
443.019	364.48
443.394	389.11
443.769	384.82
444.143	387.53
444.518	374.43
444.892	381.88
445.267	402
445.641	384.37
446.016	399.74
446.39	389.11
446.764	388.66
447.139	389.79
447.513	390.92
447.887	389.79
448.262	392.5
448.636	394.54
449.01	396.8
449.384	414.42
449.758	395.22
450.132	410.36
450.506	404.93
450.88	401.77
451.254	412.62
451.628	397.02
452.002	409.45
452.376	399.28
452.75	380.98
453.123	407.19
453.497	438.6
453.871	410.13
454.244	427.98
454.618	414.88
454.992	427.98
455.365	429.11
455.739	414.65
456.112	421.2
456.486	434.08
456.859	442.67
457.232	418.49
457.606	415.78
457.979	423.46
458.352	428.66
458.725	427.31
459.099	438.83
459.472	456.68
459.845	446.97
460.218	420.98
460.591	443.8
460.964	446.51
461.337	465.27
461.71	456.68
462.083	467.76
462.456	450.81
462.829	461.43
463.201	454.2
463.574	475.89
463.947	452.84
464.32	467.08
464.692	464.82
465.065	476.57
465.438	488.32
465.81	481.77
466.183	484.48
466.555	458.72
466.928	500.3
467.3	491.48
467.672	481.99
468.045	493.52
468.417	516.12
468.789	472.73
469.161	501.88
469.534	488.77
469.906	513.4
470.278	509.56
470.65	515.44
471.022	525.61
471.394	546.17
471.766	519.73
472.138	529
472.51	522.44
472.882	561.31
473.253	550.01
473.625	539.84
473.997	569
474.369	561.31
474.74	559.05
475.112	582.78
475.484	569.45
475.855	583.46
476.227	590.46
476.598	608.77
476.97	600.18
477.341	601.09
477.713	576.68
478.084	618.94
478.455	607.64
478.827	613.51
479.198	620.75
479.569	622.1
479.94	653.97
480.311	622.33
480.682	637.24
481.053	660.97
481.424	658.49
481.795	661.65
482.166	652.84
482.537	654.64
482.908	681.99
483.279	666.62
483.65	663.68
484.021	693.96
484.391	710.24
484.762	705.72
485.133	714.76
485.503	719.05
485.874	723.34
486.244	752.49
486.615	739.39
486.985	742.55
487.356	764.47
487.726	777.58
488.097	777.35
488.467	771.02
488.837	773.74
489.207	795.43
489.578	792.95
489.948	813.28
490.318	802.44
490.688	804.02
491.058	825.94
491.428	839.27
491.798	825.49
492.168	827.52
492.538	855.09
492.908	845.37
493.278	878.82
493.648	857.35
494.017	868.42
494.387	891.25
494.757	910.46
495.126	884.47
495.496	890.34
495.866	855.54
496.235	896.9
496.605	923.79
496.974	926.5
497.344	914.98
497.713	891.7
498.082	929.21
498.452	937.35
498.821	926.95
499.19	940.29
499.559	960.85
499.928	933.73
500.298	937.35
500.667	971.02
501.036	979.16
501.405	951.36
501.774	941.19
502.143	949.33
502.512	979.83
502.88	993.84
503.249	969.44
503.618	980.96
503.987	982.54
504.356	994.3
504.724	1021.19
505.093	993.62
505.462	1002.21
505.83	1016.22
506.199	1015.76
506.567	1043.11
506.936	1027.52
507.304	1042.2
507.672	1046.05
508.041	1010.34
508.409	1054.86
508.777	1039.49
509.145	1034.97
509.514	1074.52
509.882	1056.44
510.25	1010.34
510.618	1059.6
510.986	1060.73
511.354	1082.88
511.722	1079.72
512.09	1091.69
512.458	1084.91
512.826	1070
513.193	1057.57
513.561	1064.8
513.929	1088.08
514.297	1091.24
514.664	1099.6
515.032	1123.78
515.4	1123.11
515.767	1106.38
516.135	1122.43
516.502	1109.32
516.869	1114.97
517.237	1130.79
517.604	1153.84
517.972	1143.44
518.339	1164.69
518.706	1134.18
519.073	1105.48
519.44	1140.28
519.808	1135.31
520.175	1147.96
520.542	1145.25
520.909	1141.18
521.276	1167.85
521.643	1174.63
522.009	1187.96
522.376	1185.48
522.743	1192.03
523.11	1190.67
523.477	1218.47
523.843	1184.35
524.21	1197.91
524.577	1225.7
524.943	1224.12
525.31	1207.62
525.676	1222.09
526.043	1238.13
526.409	1226.38
526.776	1256.44
527.142	1248.07
527.508	1220.96
527.874	1247.4
528.241	1207.4
528.607	1263.44
528.973	1262.54
529.339	1277.45
529.705	1262.09
530.071	1260.96
530.437	1305.93
530.803	1273.61
531.169	1281.52
531.535	1284.68
531.901	1282.42
532.267	1295.08
532.632	1283.33
532.998	1300.05
533.364	1298.92
533.73	1283.78
534.095	1314.06
534.461	1284.46
534.826	1287.4
535.192	1308.19
535.557	1309.54
535.923	1280.62
536.288	1300.05
536.653	1310.9
537.019	1323.33
537.384	1335.76
537.749	1320.39
538.114	1323.78
538.479	1288.75
538.845	1306.15
539.21	1309.32
539.575	1297.79
539.94	1307.06
540.305	1297.34
540.67	1314.97
541.034	1295.53
541.399	1322.87
541.764	1306.83
542.129	1315.42
542.494	1317.23
542.858	1315.87
543.223	1318.58
543.587	1345.93
543.952	1301.41
544.316	1315.42
544.681	1332.14
545.045	1321.07
545.41	1322.65
545.774	1304.57
546.138	1317.68
546.503	1319.49
546.867	1311.58
547.231	1327.17
547.595	1349.31
547.959	1313.61
548.324	1320.16
548.688	1326.26
549.052	1350.44
549.416	1339.6
549.779	1329.43
550.143	1321.29
550.507	1336.89
550.871	1333.04
551.235	1322.65
551.599	1362.2
551.962	1344.34
552.326	1352.03
552.689	1351.8
553.053	1336.43
553.417	1357.45
553.78	1349.31
554.143	1350.9
554.507	1334.85
554.87	1360.39
555.234	1346.6
555.597	1330.78
555.96	1348.64
556.323	1352.25
556.686	1368.75
557.05	1379.37
557.413	1363.33
557.776	1382.76
558.139	1348.64
558.502	1379.6
558.865	1365.59
559.228	1369.65
559.59	1357.9
559.953	1363.78
560.316	1389.54
560.679	1380.95
561.041	1417.79
561.404	1382.31
561.767	1415.08
562.129	1389.99
562.492	1388.18
562.854	1401.97
563.217	1400.16
563.579	1421.63
563.941	1419.82
564.304	1411.01
564.666	1435.64
565.028	1405.36
565.39	1425.47
565.753	1421.18
566.115	1386.83
566.477	1434.28
566.839	1456.43
567.201	1424.12
567.563	1446.94
567.925	1436.09
568.287	1450.56
568.648	1440.16
569.01	1444.91
569.372	1421.63
569.734	1425.92
570.095	1434.51
570.457	1453.27
570.819	1469.09
571.18	1447.17
571.542	1445.58
571.903	1457.56
572.265	1444.68
572.626	1405.36
572.987	1461.85
573.349	1460.5
573.71	1460.95
574.071	1432.48
574.432	1458.92
574.794	1444.23
575.155	1459.37
575.516	1448.3
575.877	1461.4
576.238	1444.45
576.599	1466.37
576.96	1459.37
577.32	1461.85
577.681	1453.94
578.042	1451.91
578.403	1434.28
578.763	1453.04
579.124	1453.27
579.485	1460.5
579.845	1421.86
580.206	1449.88
580.566	1445.13
580.927	1449.88
581.287	1446.94
581.648	1442.42
582.008	1476.77
582.368	1421.86
582.728	1439.71
583.089	1420.5
583.449	1422.76
583.809	1419.37
584.169	1436.54
584.529	1407.17
584.889	1447.17
585.249	1411.91
585.609	1432.25
585.969	1436.77
586.329	1418.92
586.688	1397.22
587.048	1413.49
587.408	1455.98
587.768	1412.59
588.127	1394.29
588.487	1389.54
588.846	1407.62
589.206	1383.89
589.565	1383.66
589.925	1392.48
590.284	1406.04
590.643	1375.53
591.003	1413.27
591.362	1393.61
591.721	1397.68
592.08	1382.53
592.44	1401.06
592.799	1375.75
593.158	1405.13
593.517	1368.98
593.876	1404.91
594.235	1409.65
594.593	1385.25
594.952	1372.59
595.311	1391.8
595.67	1413.04
596.029	1382.99
596.387	1386.38
596.746	1422.08
597.104	1387.73
597.463	1384.57
597.822	1374.85
598.18	1381.4
598.538	1391.8
598.897	1395.87
599.255	1384.34
599.613	1394.51
599.972	1384.57
600.33	1408.3
600.688	1391.12
601.046	1412.14
601.404	1386.38
601.762	1356.32
602.12	1397.22
602.478	1408.97
602.836	1408.75
603.194	1397.9
603.552	1400.61
603.91	1408.07
604.268	1399.93
604.625	1387.28
604.983	1442.65
605.341	1393.61
605.698	1424.12
606.056	1454.17
606.413	1434.28
606.771	1426.83
607.128	1417.79
607.485	1416.66
607.843	1405.36
608.2	1419.82
608.557	1411.01
608.914	1436.54
609.272	1410.56
609.629	1443.78
609.986	1415.3
610.343	1426.6
610.7	1427.5
611.057	1439.93
611.414	1452.59
611.771	1431.35
612.127	1424.57
612.484	1467.96
612.841	1449.43
613.198	1418.47
613.554	1444.45
613.911	1436.32
614.267	1437.9
614.624	1416.21
614.98	1459.82
615.337	1445.13
615.693	1443.1
616.05	1437.67
616.406	1454.4
616.762	1465.92
617.118	1448.07
617.475	1434.96
617.831	1444.23
618.187	1462.53
618.543	1469.54
618.899	1473.83
619.255	1455.75
619.611	1445.36
619.967	1466.37
620.323	1469.54
620.678	1472.25
621.034	1444
621.39	1467.28
621.746	1466.83
622.101	1461.4
622.457	1471.12
622.812	1485.81
623.168	1466.37
623.523	1436.32
623.879	1467.73
624.234	1450.33
624.589	1451.23
624.945	1443.78
625.3	1441.52
625.655	1448.75
626.01	1450.56
626.365	1453.49
626.72	1458.01
627.075	1457.33
627.43	1457.11
627.785	1454.4
628.14	1481.06
628.495	1444
628.85	1460.72
629.205	1451.46
629.559	1452.36
629.914	1439.03
630.269	1428.63
630.623	1410.78
630.978	1454.62
631.332	1441.06
631.687	1449.2
632.041	1447.17
632.396	1430.22
632.75	1394.96
633.104	1403.78
633.459	1444.91
633.813	1422.08
634.167	1441.29
634.521	1435.87
634.875	1409.43
635.229	1440.16
635.583	1428.41
635.937	1434.96
636.291	1416.21
636.645	1434.28
636.999	1434.96
637.352	1435.41
637.706	1435.19
638.06	1403.78
638.413	1398.58
638.767	1419.6
639.121	1444.91
639.474	1422.99
639.828	1430.89
640.181	1435.64
640.534	1420.73
640.888	1438.35
641.241	1410.56
641.594	1431.57
641.947	1406.71
642.301	1432.93
642.654	1428.86
643.007	1446.71
643.36	1414.17
643.713	1409.2
644.066	1440.16
644.419	1440.16
644.771	1409.88
645.124	1399.71
645.477	1422.53
645.83	1414.85
646.182	1399.26
646.535	1452.14
646.888	1413.04
647.24	1404
647.593	1428.41
647.945	1413.27
648.298	1435.19
648.65	1422.31
649.002	1446.71
649.355	1446.04
649.707	1442.42
650.059	1440.84
650.411	1463.66
650.763	1462.08
651.115	1501.85
651.467	1502.31
651.819	1517.67
652.171	1481.97
652.523	1491.46
652.875	1483.77
653.227	1472.7
653.578	1512.47
653.93	1496.66
654.282	1509.99
654.633	1498.92
654.985	1512.25
655.337	1541.17
655.688	1530.78
656.039	1533.26
656.391	1532.13
656.742	1548.63
657.094	1539.59
657.445	1547.5
657.796	1562.19
658.147	1571.68
658.498	1582.75
658.849	1585.69
659.2	1616.2
659.551	1608.29
659.902	1612.36
660.253	1624.56
660.604	1636.31
660.955	1642.87
661.306	1650.55
661.656	1631.12
662.007	1674.05
662.358	1662.53
662.708	1686.71
663.059	1663.43
663.409	1657.33
663.76	1679.48
664.11	1705.92
664.461	1715.18
664.811	1724.9
665.161	1736.2
665.511	1719.02
665.862	1752.47
666.212	1775.52
666.562	1786.82
666.912	1763.09
667.262	1772.58
667.612	1778.23
667.962	1815.52
668.312	1835.18
668.662	1834.5
669.011	1861.17
669.361	1839.92
669.711	1834.73
670.06	1859.36
670.41	1872.24
670.76	1888.74
671.109	1897.32
671.459	1906.59
671.808	1887.61
672.157	1925.57
672.507	1943.88
672.856	1921.96
673.205	1985.91
673.554	1974.84
673.904	1991.11
674.253	2030.88
674.602	2021.61
674.951	1991.33
675.3	1990.2
675.649	2032.23
675.998	2072.69
676.346	2082.18
676.695	2082.85
677.044	2122.85
677.393	2125.11
677.741	2143.87
678.09	2129.63
678.438	2130.54
678.787	2135.28
679.135	2175.06
679.484	2173.93
679.832	2203.76
680.181	2217.31
680.529	2174.15
680.877	2241.72
681.225	2254.83
681.573	2295.73
681.922	2274.26
682.27	2276.07
682.618	2271.1
682.966	2285.79
683.314	2337.09
683.661	2366.24
684.009	2371.43
684.357	2354.03
684.705	2360.36
685.053	2417.76
685.4	2399.68
685.748	2407.82
686.095	2423.18
686.443	2468.83
686.79	2446.46
687.138	2468.38
687.485	2494.82
687.832	2498.44
688.18	2526.46
688.527	2520.36
688.874	2499.12
689.221	2562.84
689.568	2558.77
689.915	2556.97
690.262	2581.15
690.609	2619.56
690.956	2623.41
691.303	2691.43
691.65	2645.78
691.997	2669.28
692.344	2697.08
692.69	2648.94
693.037	2703.4
693.383	2715.15
693.73	2696.62
694.077	2709.73
694.423	2727.58
694.769	2740.46
695.116	2780.92
695.462	2788.82
695.808	2796.73
696.155	2808.94
696.501	2813.46
696.847	2831.99
697.193	2836.28
697.539	2856.17
697.885	2844.19
698.231	2871.31
698.577	2892.33
698.923	2862.95
699.269	2890.52
699.614	2917.41
699.96	2913.79
700.306	2926.22
700.651	2914.7
700.997	2938.43
701.342	2957.63
701.688	2973.68
702.033	2958.09
702.379	2993.11
702.724	3014.13
703.069	3004.19
703.415	3004.64
703.76	2996.28
704.105	3068.37
704.45	3040.57
704.795	3062.04
705.14	3062.04
705.485	3084.41
705.83	3066.11
706.175	3115.6
706.52	3089.16
706.865	3099.1
707.209	3134.8
707.554	3134.35
707.899	3138.65
708.243	3134.58
708.588	3161.02
708.932	3158.31
709.277	3151.53
709.621	3186.78
709.966	3182.26
710.31	3198.08
710.654	3197.85
710.998	3199.89
711.342	3223.39
711.687	3220
712.031	3235.14
712.375	3222.94
712.719	3254.35
713.063	3226.33
713.407	3292.31
713.75	3298.42
714.094	3293.44
714.438	3257.51
714.782	3310.62
715.125	3281.92
715.469	3303.39
715.812	3317.4
716.156	3339.77
716.499	3347.68
716.843	3348.13
717.186	3339.77
717.53	3343.84
717.873	3377.74
718.216	3387
718.559	3352.88
718.902	3347.45
719.246	3394.46
719.589	3394.01
719.932	3391.3
720.275	3379.54
720.617	3364.86
720.96	3363.05
721.303	3380.22
721.646	3387.91
721.989	3407.11
722.331	3401.24
722.674	3397.4
723.016	3400.56
723.359	3409.37
723.701	3457.28
724.044	3427
724.386	3397.17
724.729	3444.17
725.071	3458.41
725.413	3450.28
725.755	3451.63
726.097	3421.12
726.439	3419.77
726.782	3395.14
727.124	3481.24
727.465	3446.89
727.807	3475.36
728.149	3455.25
728.491	3462.93
728.833	3435.36
729.175	3466.77
729.516	3408.7
729.858	3481.91
730.199	3438.75
730.541	3458.86
730.882	3465.42
731.224	3492.31
731.565	3422.25
731.906	3425.64
732.248	3463.61
732.589	3481.01
732.93	3440.33
733.271	3487.79
733.612	3464.29
733.953	3485.08
734.294	3442.82
734.635	3461.35
734.976	3445.98
735.317	3438.07
735.658	3463.84
735.999	3435.36
736.339	3448.02
736.68	3501.35
737.021	3444.63
737.361	3455.47
737.702	3446.43
738.042	3444.63
738.383	3463.38
738.723	3458.86
739.063	3455.93
739.404	3444.17
739.744	3467.45
740.084	3435.59
740.424	3401.92
740.764	3481.01
741.104	3447.79
741.444	3419.77
741.784	3458.41
742.124	3443.95
742.464	3439.88
742.804	3427.23
743.143	3455.7
743.483	3436.72
743.823	3384.97
744.162	3439.66
744.502	3437.62
744.841	3460.22
745.181	3430.84
745.52	3393.55
745.86	3433.55
746.199	3433.55
746.538	3407.11
746.877	3431.29
747.216	3369.15
747.556	3394.01
747.895	3410.96
748.234	3399.43
748.573	3400.79
748.911	3404.18
749.25	3328.47
749.589	3386.55
749.928	3346.32
750.267	3409.37
750.605	3330.73
750.944	3336.16
751.283	3344.06
751.621	3365.31
751.96	3339.77
752.298	3321.01
752.636	3337.74
752.975	3338.64
753.313	3356.49
753.651	3323.05
753.989	3299.09
754.327	3306.78
754.666	3308.36
755.004	3302.26
755.342	3292.77
755.679	3292.77
756.017	3272.43
756.355	3287.34
756.693	3252.54
757.031	3283.05
757.368	3265.2
757.706	3257.06
758.044	3229.72
758.381	3245.08
758.719	3215.25
759.056	3224.29
759.394	3250.28
759.731	3234.01
760.068	3195.14
760.405	3155.59
760.743	3180.45
761.08	3169.15
761.417	3134.8
761.754	3155.82
762.091	3147.91
762.428	3144.52
762.765	3138.65
763.102	3142.94
763.438	3129.16
763.775	3135.03
764.112	3101.13
764.449	3121.25
764.785	3134.13
765.122	3106.56
765.458	3062.72
765.795	3094.13
766.131	3038.08
766.467	3068.14
766.804	3036.73
767.14	3025.88
767.476	3029.5
767.812	3020.91
768.148	3010.51
768.485	2972.1
768.821	2982.27
769.157	3023.17
769.492	2965.54
769.828	2958.99
770.164	2950.63
770.5	2940.69
770.836	2969.61
771.171	2956.96
771.507	2930.06
771.842	2933.23
772.178	2943.4
772.513	2938.43
772.849	2878.99
773.184	2908.82
773.519	2892.55
