Data from carpet_green_FLMS001491_00040.txt Node
Date: Wed Feb 08 10:35:17 GMT 2017
User: dcchb
Spectrometer: FLMS00149
Trigger mode: 0
Integration Time (sec): 2.000000E-2
Scans to average: 10
Electric dark correction enabled: true
Nonlinearity correction enabled: false
Boxcar width: 0
XAxis mode: Wavelengths
Number of Pixels in Spectrum: 2048
>>>>>Begin Spectral Data<<<<<
341.393	-13.26
341.776	-13.26
342.16	-13.26
342.543	-53.04
342.927	-72.47
343.31	-58.91
343.693	-90.1
344.077	-70.66
344.46	-75.41
344.843	-39.02
345.226	-45.8
345.61	-17.78
345.993	-41.96
346.376	10.69
346.759	26.96
347.142	10.47
347.525	36.23
347.908	56.34
348.291	80.07
348.674	97.47
349.057	121.42
349.44	120.97
349.823	126.62
350.206	131.59
350.588	172.95
350.971	187.41
351.354	229.67
351.737	218.37
352.119	212.27
352.502	239.84
352.884	227.41
353.267	246.17
353.65	247.97
354.032	281.19
354.414	273.06
354.797	267.41
355.179	287.29
355.562	282.32
355.944	289.78
356.326	298.14
356.709	292.72
357.091	304.24
357.473	317.58
357.855	297.46
358.238	331.36
358.62	333.62
359.002	307.63
359.384	296.56
359.766	320.74
360.148	300.63
360.53	308.54
360.912	302.89
361.294	308.09
361.676	323.9
362.057	303.11
362.439	301.76
362.821	297.46
363.203	297.69
363.584	304.7
363.966	285.26
364.348	308.76
364.729	292.27
365.111	280.97
365.493	305.37
365.874	289.1
366.256	297.01
366.637	274.64
367.019	286.16
367.4	283.45
367.781	282.32
368.163	278.03
368.544	275.32
368.925	289.78
369.306	268.99
369.688	259.05
370.069	280.06
370.45	281.65
370.831	288.65
371.212	275.32
371.593	272.83
371.974	272.15
372.355	273.28
372.736	260.4
373.117	283.45
373.498	273.51
373.879	311.47
374.26	297.24
374.641	267.63
375.021	277.35
375.402	287.07
375.783	267.86
376.163	266.05
376.544	280.52
376.925	272.83
377.305	278.48
377.686	286.39
378.066	298.59
378.447	290.68
378.827	284.13
379.208	282.1
379.588	281.65
379.968	280.29
380.349	283.45
380.729	285.71
381.109	288.42
381.489	286.39
381.87	285.26
382.25	286.84
382.63	299.72
383.01	300.4
383.39	302.89
383.77	290.68
384.15	294.75
384.53	311.25
384.91	304.7
385.29	294.07
385.67	308.76
386.049	322.1
386.429	288.65
386.809	292.72
387.189	299.5
387.568	288.88
387.948	298.14
388.328	316.9
388.707	304.47
389.087	289.55
389.466	313.51
389.846	293.4
390.225	308.54
390.605	313.73
390.984	322.32
391.363	298.37
391.743	306.05
392.122	293.17
392.501	318.71
392.881	327.75
393.26	313.96
393.639	299.27
394.018	290.68
394.397	307.41
394.776	279.16
395.155	306.5
395.534	315.32
395.913	306.5
396.292	320.29
396.671	315.99
397.05	292.94
397.429	313.06
397.808	306.05
398.186	281.19
398.565	304.92
398.944	315.99
399.323	310.34
399.701	333.62
400.08	320.74
400.458	297.46
400.837	316.67
401.215	324.81
401.594	296.79
401.972	319.38
402.351	318.93
402.729	312.83
403.107	312.83
403.486	313.06
403.864	324.58
404.242	299.72
404.62	311.02
404.999	317.35
405.377	318.48
405.755	315.77
406.133	315.77
406.511	308.54
406.889	308.99
407.267	313.96
407.645	317.35
408.023	315.99
408.401	325.49
408.779	318.25
409.156	329.55
409.534	312.6
409.912	329.55
410.29	323.9
410.667	320.74
411.045	323.68
411.422	299.27
411.8	301.76
412.178	325.71
412.555	337.91
412.933	342.21
413.31	321.64
413.687	331.36
414.065	321.42
414.442	335.43
414.819	331.59
415.197	316.67
415.574	332.04
415.951	348.99
416.328	345.37
416.705	344.02
417.082	345.15
417.46	317.12
417.837	334.98
418.214	318.03
418.591	336.78
418.967	344.69
419.344	321.19
419.721	325.49
420.098	348.76
420.475	352.6
420.852	340.4
421.228	353.51
421.605	338.37
421.982	350.8
422.358	334.3
422.735	340.85
423.111	359.38
423.488	342.66
423.864	355.77
424.241	341.76
424.617	363
424.994	333.17
425.37	324.13
425.746	359.84
426.123	350.57
426.499	350.12
426.875	347.63
427.251	345.82
427.627	352.83
428.003	338.37
428.379	345.15
428.756	346.28
429.132	342.89
429.507	347.18
429.883	372.04
430.259	351.02
430.635	354.86
431.011	365.26
431.387	375.43
431.763	379.27
432.138	357.35
432.514	368.65
432.89	369.55
433.265	365.94
433.641	365.03
434.016	362.32
434.392	358.93
434.767	381.53
435.143	387.18
435.518	372.49
435.894	379.5
436.269	389.21
436.644	371.59
437.02	386.5
437.395	375.43
437.77	381.08
438.145	400.74
438.52	388.99
438.895	386.28
439.271	380.4
439.646	386.73
440.021	385.37
440.395	383.34
440.77	390.34
441.145	370.23
441.52	389.89
441.895	395.77
442.27	412.49
442.645	407.74
443.019	410
443.394	389.89
443.769	406.16
444.143	404.13
444.518	409.55
444.892	407.07
445.267	376.11
445.641	385.6
446.016	402.09
446.39	389.66
446.764	415.65
447.139	401.42
447.513	410.23
447.887	407.97
448.262	405.71
448.636	405.94
449.01	408.42
449.384	428.53
449.758	404.58
450.132	412.04
450.506	415.88
450.88	427.63
451.254	405.94
451.628	425.6
452.002	426.73
452.376	417.91
452.75	418.14
453.123	401.64
453.497	398.93
453.871	413.39
454.244	430.12
454.618	432.83
454.992	431.7
455.365	422.21
455.739	451.58
456.112	444.58
456.486	433.51
456.859	452.94
457.232	452.71
457.606	441.19
457.979	446.39
458.352	464.47
458.725	437.8
459.099	457.23
459.472	445.26
459.845	452.94
460.218	459.49
460.591	445.71
460.964	448.42
461.337	475.09
461.71	466.73
462.083	464.24
462.456	458.14
462.829	486.16
463.201	466.5
463.574	478.25
463.947	499.94
464.32	482.32
464.692	486.61
465.065	474.86
465.438	502.43
465.81	513.73
466.183	494.52
466.555	496.1
466.928	490
467.3	517.8
467.672	522.54
468.045	501.3
468.417	506.95
468.789	526.38
469.161	525.48
469.534	525.71
469.906	546.5
470.278	539.04
470.65	536.1
471.022	532.26
471.394	548.08
471.766	553.28
472.138	545.59
472.51	547.63
472.882	584.46
473.253	539.72
473.625	571.81
473.997	589.21
474.369	587.63
474.74	581.52
475.112	597.57
475.484	598.92
475.855	594.41
476.227	601.86
476.598	614.97
476.97	611.13
477.341	613.39
477.713	634.63
478.084	617
478.455	634.4
478.827	637.12
479.198	650
479.569	658.36
479.94	666.95
480.311	674.4
480.682	673.27
481.053	706.72
481.424	686.38
481.795	687.51
482.166	701.07
482.537	676.89
482.908	711.01
483.279	708.75
483.65	733.84
484.021	745.36
484.391	750.79
484.762	747.62
485.133	750.56
485.503	773.38
485.874	786.94
486.244	789.88
486.615	781.52
486.985	809.54
487.356	785.81
487.726	825.59
488.097	824.68
488.467	845.02
488.837	850.9
489.207	847.73
489.578	862.42
489.948	861.97
490.318	862.42
490.688	863.55
491.058	885.7
491.428	881.63
491.798	906.04
492.168	928.63
492.538	918.69
492.908	924.79
493.278	909.43
493.648	918.69
494.017	958.92
494.387	947.62
494.757	953.49
495.126	953.04
495.496	984.23
495.866	991.23
496.235	987.16
496.605	988.29
496.974	986.94
497.344	970.67
497.713	972.7
498.082	990.33
498.452	1014.28
498.821	1025.13
499.19	992.59
499.559	1002.53
499.928	1034.85
500.298	1044.34
500.667	1043.43
501.036	1026.48
501.405	1044.11
501.774	1017.67
502.143	1028.74
502.512	1044.56
502.88	1053.38
503.249	1049.76
503.618	1064.68
503.987	1073.94
504.356	1068.07
504.724	1093.6
505.093	1081.62
505.462	1075.75
505.83	1081.62
506.199	1088.4
506.567	1098.35
506.936	1101.28
507.304	1115.3
507.672	1105.8
508.041	1118.23
508.409	1099.7
508.777	1149.42
509.145	1124.11
509.514	1105.13
509.882	1135.63
510.25	1136.09
510.618	1146.03
510.986	1116.65
511.354	1147.16
511.722	1166.59
512.09	1162.98
512.458	1138.12
512.826	1154.16
513.193	1186.25
513.561	1210.21
513.929	1182.41
514.297	1179.93
514.664	1189.42
515.032	1185.12
515.4	1198.68
515.767	1195.52
516.135	1203.65
516.502	1221.28
516.869	1237.55
517.237	1215.63
517.604	1202.98
517.972	1221.73
518.339	1236.65
518.706	1237.1
519.073	1202.52
519.44	1260.6
519.808	1242.07
520.175	1248.4
520.542	1254.5
520.909	1264.67
521.276	1250.21
521.643	1277.33
522.009	1282.3
522.376	1272.58
522.743	1269.87
523.11	1280.71
523.477	1292.24
523.843	1309.41
524.21	1282.07
524.577	1284.33
524.943	1312.8
525.31	1318.45
525.676	1320.26
526.043	1328.17
526.409	1327.04
526.776	1344.67
527.142	1348.74
527.508	1346.25
527.874	1354.39
528.241	1330.21
528.607	1351.45
528.973	1344.89
529.339	1326.36
529.705	1359.13
530.071	1368.4
530.437	1378.11
530.803	1374.05
531.169	1374.95
531.535	1371.33
531.901	1368.17
532.267	1374.72
532.632	1375.85
532.998	1393.03
533.364	1404.33
533.73	1379.47
534.095	1405.46
534.461	1385.12
534.826	1397.32
535.192	1406.59
535.557	1391.22
535.923	1407.49
536.288	1389.64
536.653	1414.27
537.019	1387.83
537.384	1407.94
537.749	1396.42
538.114	1398.68
538.479	1413.82
538.845	1417.66
539.21	1387.15
539.575	1401.84
539.94	1414.04
540.305	1428.73
540.67	1405.01
541.034	1411.33
541.399	1414.27
541.764	1418.11
542.129	1420.15
542.494	1402.52
542.858	1426.93
543.223	1429.64
543.587	1414.72
543.952	1412.01
544.316	1408.85
544.681	1404.55
545.045	1418.79
545.41	1419.69
545.774	1418.34
546.138	1401.39
546.503	1432.12
546.867	1437.55
547.231	1419.24
547.595	1410.2
547.959	1424.44
548.324	1436.64
548.688	1433.93
549.052	1430.77
549.416	1432.58
549.779	1400.94
550.143	1438.68
550.507	1457.89
550.871	1436.42
551.235	1466.47
551.599	1444.78
551.962	1476.87
552.326	1446.13
552.689	1475.29
553.053	1462.86
553.417	1440.26
553.78	1481.61
554.143	1438.68
554.507	1447.72
554.87	1453.59
555.234	1485.68
555.597	1445.91
555.96	1480.03
556.323	1480.71
556.686	1477.55
557.05	1454.27
557.413	1508.51
557.776	1489.07
558.139	1488.39
558.502	1445.23
558.865	1462.63
559.228	1495.17
559.59	1515.74
559.953	1484.78
560.316	1476.42
560.679	1500.6
561.041	1511.22
561.404	1508.05
561.767	1524.78
562.129	1492.46
562.492	1497.43
562.854	1523.42
563.217	1523.42
563.579	1516.19
563.941	1524.1
564.304	1538.79
564.666	1543.31
565.028	1525.23
565.39	1531.33
565.753	1555.74
566.115	1520.48
566.477	1536.08
566.839	1515.96
567.201	1543.76
567.563	1525.68
567.925	1565
568.287	1566.13
568.648	1559.8
569.01	1540.82
569.372	1557.32
569.734	1547.15
570.095	1556.64
570.457	1547.15
570.819	1583.53
571.18	1572.01
571.542	1544.44
571.903	1570.65
572.265	1545.11
572.626	1570.42
572.987	1567.04
573.349	1548.05
573.71	1575.17
574.071	1577.43
574.432	1588.28
574.794	1609.75
575.155	1589.18
575.516	1550.99
575.877	1572.91
576.238	1572.91
576.599	1575.62
576.96	1583.76
577.32	1552.12
577.681	1571.33
578.042	1568.16
578.403	1565.68
578.763	1560.71
579.124	1545.57
579.485	1574.04
579.845	1565.68
580.206	1567.49
580.566	1567.04
580.927	1584.44
581.287	1573.36
581.648	1562.06
582.008	1551.89
582.368	1556.41
582.728	1581.5
583.089	1533.82
583.449	1551.22
583.809	1540.37
584.169	1564.1
584.529	1548.05
584.889	1510.77
585.249	1518
585.609	1539.01
585.969	1557.54
586.329	1508.96
586.688	1543.53
587.048	1550.99
587.408	1509.64
587.768	1532.46
588.127	1547.6
588.487	1529.07
588.846	1542.63
589.206	1545.11
589.565	1504.44
589.925	1518.45
590.284	1512.35
590.643	1511.67
591.003	1503.99
591.362	1498.79
591.721	1507.6
592.08	1536.53
592.44	1525.23
592.799	1519.13
593.158	1515.29
593.517	1514.38
593.876	1518.22
594.235	1505.79
594.593	1504.44
594.952	1478
595.311	1509.64
595.67	1502.4
596.029	1531.33
596.387	1486.36
596.746	1498.34
597.104	1482.97
597.463	1520.03
597.822	1513.25
598.18	1486.13
598.538	1486.81
598.897	1502.63
599.255	1522.52
599.613	1494.95
599.972	1477.32
600.33	1504.66
600.688	1483.42
601.046	1513.03
601.404	1489.97
601.762	1508.05
602.12	1502.18
602.478	1527.94
602.836	1513.48
603.194	1524.1
603.552	1527.71
603.91	1502.18
604.268	1526.36
604.625	1512.57
604.983	1525.23
605.341	1506.92
605.698	1508.51
606.056	1517.09
606.413	1530.43
606.771	1498.34
607.128	1539.01
607.485	1529.75
607.843	1513.93
608.2	1541.72
608.557	1523.19
608.914	1537.43
609.272	1539.47
609.629	1535.4
609.986	1544.21
610.343	1542.4
610.7	1531.1
611.057	1568.84
611.414	1532.23
611.771	1542.85
612.127	1536.08
612.484	1573.36
612.841	1595.73
613.198	1565
613.554	1524.32
613.911	1558.22
614.267	1536.08
614.624	1553.02
614.98	1560.26
615.337	1565.23
615.693	1546.24
616.05	1571.78
616.406	1561.16
616.762	1556.41
617.118	1573.14
617.475	1548.28
617.831	1573.14
618.187	1578.79
618.543	1562.06
618.899	1605.9
619.255	1568.84
619.611	1568.62
619.967	1558
620.323	1601.16
620.678	1573.14
621.034	1578.56
621.39	1588.28
621.746	1562.29
622.101	1599.8
622.457	1567.94
622.812	1591.44
623.168	1551.22
623.523	1547.37
623.879	1574.27
624.234	1561.39
624.589	1547.6
624.945	1579.01
625.3	1571.55
625.655	1586.24
626.01	1577.88
626.365	1545.34
626.72	1552.57
627.075	1569.07
627.43	1583.31
627.785	1569.07
628.14	1575.17
628.495	1575.4
628.85	1575.62
629.205	1564.32
629.559	1544.66
629.914	1546.92
630.269	1549.63
630.623	1558
630.978	1545.79
631.332	1547.6
631.687	1554.15
632.041	1565.68
632.396	1565.68
632.75	1547.6
633.104	1561.16
633.459	1545.34
633.813	1517.32
634.167	1542.85
634.521	1557.09
634.875	1561.16
635.229	1562.29
635.583	1533.14
635.937	1539.01
636.291	1518.22
636.645	1519.13
636.999	1532.46
637.352	1529.3
637.706	1545.34
638.06	1503.31
638.413	1549.41
638.767	1512.35
639.121	1542.63
639.474	1539.47
639.828	1588.96
640.181	1532.01
640.534	1531.33
640.888	1549.18
641.241	1542.85
641.594	1524.32
641.947	1542.18
642.301	1546.47
642.654	1527.04
643.007	1559.58
643.36	1553.7
643.713	1560.93
644.066	1550.76
644.419	1550.99
644.771	1532.23
645.124	1531.33
645.477	1522.06
645.83	1516.87
646.182	1536.75
646.535	1511.67
646.888	1504.44
647.24	1508.96
647.593	1548.05
647.945	1534.04
648.298	1520.71
648.65	1517.54
649.002	1555.51
649.355	1543.98
649.707	1510.99
650.059	1538.79
650.411	1559.58
650.763	1577.43
651.115	1576.3
651.467	1572.68
651.819	1589.18
652.171	1591.22
652.523	1614.04
652.875	1602.97
653.227	1583.08
653.578	1603.87
653.93	1592.57
654.282	1602.97
654.633	1614.49
654.985	1623.53
655.337	1620.37
655.688	1611.33
656.039	1603.87
656.391	1635.73
656.742	1661.95
657.094	1653.36
657.445	1659.69
657.796	1660.37
658.147	1656.52
658.498	1684.77
658.849	1695.62
659.2	1693.36
659.551	1704.66
659.902	1706.01
660.253	1727.48
660.604	1676.41
660.955	1737.65
661.306	1721.61
661.656	1734.94
662.007	1710.99
662.358	1763.64
662.708	1756.86
663.059	1788.95
663.409	1785.56
663.76	1781.72
664.11	1808.16
664.461	1823.53
664.811	1829.63
665.161	1855.62
665.511	1817.88
665.862	1834.37
666.212	1851.32
666.562	1862.85
666.912	1880.25
667.262	1861.94
667.612	1931.55
667.962	1908.72
668.312	1943.07
668.662	1955.95
669.011	1984.88
669.361	1958.89
669.711	1950.98
670.06	1979.91
670.41	1982.84
670.76	2010.87
671.109	2040.24
671.459	2029.17
671.808	2062.39
672.157	2046.34
672.507	2059.45
672.856	2098.32
673.205	2117.08
673.554	2120.24
673.904	2113.91
674.253	2150.97
674.602	2138.32
674.951	2140.13
675.3	2167.47
675.649	2208.15
675.998	2171.31
676.346	2256.96
676.695	2251.31
677.044	2249.73
677.393	2303.96
677.741	2320.24
678.09	2321.59
678.438	2324.08
678.787	2311.87
679.135	2352.1
679.484	2355.49
679.832	2417.63
680.181	2374.92
680.529	2425.77
680.877	2447.92
681.225	2438.88
681.573	2489.95
681.922	2496.05
682.27	2501.47
682.618	2514.13
682.966	2558.65
683.314	2533.34
683.661	2550.74
684.009	2543.51
684.357	2588.03
684.705	2634.58
685.053	2628.02
685.4	2655.82
685.748	2676.84
686.095	2697.85
686.443	2708.25
686.79	2691.53
687.138	2744.86
687.485	2733.78
687.832	2810.39
688.18	2828.02
688.527	2790.73
688.874	2819.88
689.221	2882.48
689.568	2865.53
689.915	2889.03
690.262	2906.21
690.609	2936.49
690.956	2929.26
691.303	2950.73
691.65	2980.78
691.997	3002.25
692.344	3011.52
692.69	3034.34
693.037	3056.49
693.383	3048.58
693.73	3108.69
694.077	3083.61
694.423	3122.7
694.769	3124.73
695.116	3134.9
695.462	3165.41
695.808	3185.3
696.155	3150.5
696.501	3199.31
696.847	3209.03
697.193	3226.2
697.539	3242.25
697.885	3279.53
698.231	3254
698.577	3328.57
698.923	3321.57
699.269	3315.01
699.614	3352.3
699.96	3332.86
700.306	3383.48
700.651	3351.62
700.997	3393.2
701.342	3413.77
701.688	3445.63
702.033	3455.12
702.379	3441.79
702.724	3455.35
703.069	3513.2
703.415	3486.76
703.76	3548.9
704.105	3536.47
704.45	3521.79
704.795	3556.14
705.14	3582.58
705.485	3586.64
705.83	3568.79
706.175	3600.65
706.52	3610.15
706.865	3630.94
707.209	3660.09
707.554	3663.48
707.899	3667.77
708.243	3694.89
708.588	3696.7
708.932	3711.39
709.277	3714.55
709.621	3721.33
709.966	3720.88
710.31	3774.43
710.654	3764.94
710.998	3818.28
711.342	3772.85
711.687	3772.17
712.031	3773.53
712.375	3811.72
712.719	3833.87
713.063	3846.75
713.407	3891.27
713.75	3889.46
714.094	3883.58
714.438	3909.12
714.782	3886.52
715.125	3888.56
715.469	3932.17
715.812	3906.63
716.156	3954.77
716.499	3958.38
716.843	3983.24
717.186	3952.51
717.53	3980.76
717.873	4009.46
718.216	3990.47
718.559	4018.5
718.902	3999.51
719.246	4051.72
719.589	4003.81
719.932	4000.19
720.275	4002.68
720.617	4043.13
720.96	4092.39
721.303	4059.85
721.646	4086.74
721.989	4073.18
722.331	4111.15
722.674	4094.65
723.016	4068.44
723.359	4069.57
723.701	4100.75
724.044	4105.95
724.386	4079.96
724.729	4072.51
725.071	4124.26
725.413	4160.19
725.755	4149.79
726.097	4137.81
726.439	4150.7
726.782	4148.21
727.124	4145.95
727.465	4158.15
727.807	4188.44
728.149	4146.18
728.491	4206.29
728.833	4187.53
729.175	4140.07
729.516	4192.95
729.858	4168.1
730.199	4210.58
730.541	4206.06
730.882	4168.32
731.224	4192.5
731.565	4195.44
731.906	4218.04
732.248	4237.7
732.589	4260.3
732.93	4207.87
733.271	4186.85
733.612	4232.95
733.953	4206.29
734.294	4218.72
734.635	4207.64
734.976	4242.22
735.317	4169.23
735.658	4232.28
735.999	4219.62
736.339	4200.41
736.68	4230.02
737.021	4216
737.361	4188.21
737.702	4233.86
738.042	4223.46
738.383	4215.1
738.723	4198.6
739.063	4229.11
739.404	4252.84
739.744	4234.76
740.084	4240.41
740.424	4203.8
740.764	4203.8
741.104	4197.02
741.444	4209.23
741.784	4176.23
742.124	4164.25
742.464	4186.18
742.804	4216
743.143	4174.42
743.483	4156.12
743.823	4216.23
744.162	4156.12
744.502	4202.22
744.841	4193.63
745.181	4212.39
745.52	4227.76
745.86	4176.23
746.199	4249.22
746.538	4149.11
746.877	4173.07
747.216	4212.16
747.556	4145.72
747.895	4199.73
748.234	4206.06
748.573	4191.82
748.911	4155.67
749.25	4141.2
749.589	4138.72
749.928	4143.01
750.267	4147.53
750.605	4149.57
750.944	4166.74
751.283	4078.16
751.621	4130.13
751.96	4056.24
752.298	4112.73
752.636	4041.55
752.975	4124.71
753.313	4040.64
753.651	4041.09
753.989	4042.68
754.327	4070.7
754.666	4047.65
755.004	4053.75
755.342	4067.99
755.679	4025.28
756.017	4011.04
756.355	4054.2
756.693	4060.98
757.031	3997.71
757.368	3969.91
757.706	4011.94
758.044	4003.81
758.381	4001.32
758.719	4002.23
759.056	3926.97
759.394	3934.88
759.731	3942.57
760.068	3942.34
760.405	3914.54
760.743	3897.37
761.08	3926.52
761.417	3865.73
761.754	3900.53
762.091	3898.73
762.428	3836.81
762.765	3888.56
763.102	3845.85
763.438	3846.75
763.775	3809.69
764.112	3815.34
764.449	3815.11
764.785	3775.79
765.122	3765.4
765.458	3785.28
765.795	3729.24
766.131	3784.38
766.467	3717.26
766.804	3718.16
767.14	3676.58
767.476	3710.03
767.812	3693.31
768.148	3727.66
768.485	3682.46
768.821	3664.38
769.157	3683.82
769.492	3653.76
769.828	3650.37
770.164	3619.86
770.5	3600.65
770.836	3654.44
771.171	3594.55
771.507	3619.86
771.842	3574.44
772.178	3535.12
772.513	3593.65
772.849	3542.35
773.184	3546.42
