Data from carpet_green_FLMS001491_00008.txt Node
Date: Wed Feb 08 10:34:48 GMT 2017
User: dcchb
Spectrometer: FLMS00149
Trigger mode: 0
Integration Time (sec): 2.000000E-2
Scans to average: 10
Electric dark correction enabled: true
Nonlinearity correction enabled: false
Boxcar width: 0
XAxis mode: Wavelengths
Number of Pixels in Spectrum: 2048
>>>>>Begin Spectral Data<<<<<
341.393	-11.37
341.776	-11.37
342.16	-11.37
342.543	-66.28
342.927	-67.64
343.31	-75.55
343.693	-78.26
344.077	-76.45
344.46	-59.96
344.843	-48.66
345.226	-44.59
345.61	-30.8
345.993	6.03
346.376	-4.14
346.759	7.84
347.142	22.98
347.525	28.18
347.908	64.79
348.291	84.45
348.674	95.97
349.057	108.18
349.44	118.8
349.823	148.63
350.206	166.93
350.588	183.43
350.971	199.25
351.354	200.38
351.737	220.49
352.119	224.56
352.502	228.62
352.884	233.6
353.267	258.45
353.65	262.07
354.032	248.96
354.414	284.44
354.797	304.55
355.179	296.42
355.562	288.74
355.944	302.75
356.326	314.27
356.709	319.24
357.091	314.27
357.473	315.63
357.855	306.14
358.238	309.07
358.62	301.62
359.002	286.25
359.384	300.26
359.766	302.52
360.148	308.85
360.53	319.69
360.912	314.05
361.294	306.14
361.676	314.27
362.057	330.99
362.439	298.45
362.821	291.45
363.203	293.03
363.584	290.32
363.966	291
364.348	278.57
364.729	309.07
365.111	300.03
365.493	290.54
365.874	281.73
366.256	283.09
366.637	286.02
367.019	291.22
367.4	282.63
367.781	287.83
368.163	285.35
368.544	286.25
368.925	271.79
369.306	269.3
369.688	268.62
370.069	269.07
370.45	289.64
370.831	271.79
371.212	267.04
371.593	296.19
371.974	279.92
372.355	265.46
372.736	287.61
373.117	290.09
373.498	264.1
373.879	284.67
374.26	291
374.641	271.56
375.021	279.47
375.402	274.05
375.783	278.11
376.163	294.84
376.544	293.03
376.925	276.76
377.305	290.54
377.686	272.92
378.066	285.8
378.447	285.35
378.827	288.51
379.208	272.69
379.588	296.42
379.968	295.06
380.349	293.93
380.729	288.74
381.109	298
381.489	298.23
381.87	283.09
382.25	276.08
382.63	300.26
383.01	309.07
383.39	324.44
383.77	281.96
384.15	296.87
384.53	288.51
384.91	301.62
385.29	295.29
385.67	290.54
386.049	294.61
386.429	296.64
386.809	289.64
387.189	308.17
387.568	296.64
387.948	296.87
388.328	294.61
388.707	313.37
389.087	293.03
389.466	305.01
389.846	291.9
390.225	304.55
390.605	300.03
390.984	297.77
391.363	303.65
391.743	298
392.122	317.21
392.501	280.83
392.881	295.06
393.26	310.88
393.639	295.97
394.018	291.9
394.397	314.05
394.776	320.6
395.155	315.63
395.534	315.63
395.913	307.04
396.292	297.55
396.671	298.45
397.05	307.04
397.429	308.17
397.808	300.71
398.186	313.59
398.565	315.4
398.944	312.92
399.323	307.04
399.701	316.98
400.08	300.03
400.458	298.9
400.837	298.68
401.215	325.8
401.594	308.4
401.972	305.91
402.351	310.66
402.729	325.57
403.107	309.07
403.486	315.85
403.864	304.55
404.242	303.88
404.62	313.37
404.999	329.19
405.377	302.07
405.755	322.18
406.133	312.46
406.511	341.16
406.889	327.83
407.267	322.41
407.645	319.92
408.023	307.72
408.401	329.41
408.779	316.98
409.156	331.67
409.534	326.02
409.912	325.57
410.29	327.83
410.667	340.71
411.045	321.05
411.422	321.95
411.8	347.49
412.178	314.05
412.555	309.53
412.933	321.28
413.31	302.29
413.687	319.24
414.065	310.43
414.442	337.32
414.819	340.26
415.197	330.32
415.574	333.25
415.951	327.83
416.328	330.77
416.705	333.03
417.082	314.05
417.46	330.54
417.837	338.9
418.214	311.11
418.591	352.91
418.967	352.46
419.344	333.71
419.721	331.45
420.098	345.91
420.475	328.51
420.852	326.7
421.228	319.24
421.605	321.95
421.982	327.6
422.358	331.9
422.735	352.46
423.111	350.65
423.488	338.23
423.864	355.4
424.241	344.33
424.617	352.69
424.994	329.86
425.37	346.59
425.746	338
426.123	338.23
426.499	365.57
426.875	363.31
427.251	347.26
427.627	351.33
428.003	364.21
428.379	348.85
428.756	346.59
429.132	340.26
429.507	360.82
429.883	360.6
430.259	348.17
430.635	348.62
431.011	352.01
431.387	361.73
431.763	357.66
432.138	352.46
432.514	358.11
432.89	370.32
433.265	358.79
433.641	367.6
434.016	338.9
434.392	365.12
434.767	371.22
435.143	373.48
435.518	373.48
435.894	364.21
436.269	378
436.644	360.6
437.02	355.17
437.395	349.07
437.77	394.04
438.145	363.08
438.52	371.45
438.895	378
439.271	387.94
439.646	390.2
440.021	378.45
440.395	389.75
440.77	360.37
441.145	380.71
441.52	388.85
441.895	386.13
442.27	387.26
442.645	391.56
443.019	385.68
443.394	418
443.769	383.65
444.143	371.45
444.518	397.89
444.892	380.48
445.267	379.81
445.641	412.35
446.016	398.79
446.39	389.07
446.764	407.15
447.139	388.17
447.513	384.78
447.887	387.26
448.262	398.79
448.636	406.92
449.01	391.56
449.384	381.61
449.758	415.96
450.132	392.01
450.506	389.07
450.88	410.09
451.254	392.91
451.628	419.13
452.002	412.12
452.376	397.21
452.75	408.96
453.123	400.6
453.497	413.93
453.871	427.26
454.244	422.07
454.618	404.89
454.992	435.17
455.365	410.31
455.739	423.42
456.112	420.03
456.486	433.82
456.859	440.82
457.232	467.26
457.606	430.88
457.979	430.43
458.352	430.43
458.725	448.28
459.099	433.59
459.472	437.66
459.845	449.18
460.218	447.38
460.591	426.13
460.964	453.25
461.337	435.17
461.71	462.06
462.083	460.03
462.456	456.41
462.829	445.34
463.201	466.81
463.574	458.45
463.947	449.86
464.32	493.02
464.692	466.58
465.065	485.79
465.438	476.3
465.81	507.03
466.183	496.41
466.555	493.93
466.928	484.44
467.3	485.11
467.672	501.39
468.045	490.54
468.417	496.19
468.789	480.82
469.161	486.92
469.534	510.88
469.906	497.54
470.278	518.11
470.65	497.77
471.022	523.98
471.394	543.42
471.766	517.88
472.138	528.5
472.51	520.37
472.882	542.97
473.253	547.26
473.625	552.46
473.997	535.96
474.369	559.01
474.74	552.46
475.112	559.69
475.484	555.17
475.855	590.65
476.227	570.31
476.598	593.81
476.97	610.99
477.341	593.13
477.713	621.83
478.084	590.87
478.455	618.9
478.827	590.87
479.198	611.89
479.569	606.69
479.94	634.04
480.311	650.99
480.682	648.73
481.053	637.65
481.424	639.91
481.795	677.65
482.166	675.62
482.537	660.48
482.908	691.21
483.279	671.55
483.65	696.41
484.021	691.89
484.391	702.74
484.762	711.78
485.133	725.11
485.503	700.93
485.874	720.14
486.244	736.18
486.615	772.56
486.985	739.34
487.356	737.09
487.726	755.39
488.097	750.19
488.467	761.04
488.837	784.32
489.207	786.12
489.578	793.13
489.948	791.1
490.318	789.74
490.688	794.03
491.058	810.08
491.428	788.84
491.798	829.74
492.168	824.77
492.538	834.48
492.908	860.25
493.278	851.43
493.648	852.56
494.017	851.88
494.387	854.6
494.757	862.28
495.126	854.14
495.496	896.4
495.866	909.51
496.235	868.38
496.605	892.34
496.974	885.1
497.344	876.74
497.713	886.91
498.082	914.03
498.452	926.23
498.821	938.44
499.19	898.21
499.559	920.81
499.928	912.22
500.298	938.66
500.667	946.57
501.036	947.7
501.405	940.7
501.774	907.25
502.143	935.5
502.512	942.96
502.88	954.48
503.249	979.11
503.618	935.95
503.987	972.11
504.356	966.23
504.724	948.38
505.093	966.01
505.462	975.27
505.83	974.59
506.199	1004.42
506.567	1014.59
506.936	998.55
507.304	1014.37
507.672	1003.97
508.041	996.74
508.409	1012.78
508.777	1022.95
509.145	1017.76
509.514	1026.8
509.882	1030.64
510.25	1011.2
510.618	1027.92
510.986	1042.16
511.354	1032.22
511.722	1031.31
512.09	1047.36
512.458	1042.16
512.826	1059.34
513.193	1042.61
513.561	1036.51
513.929	1040.13
514.297	1069.05
514.664	1093.46
515.032	1070.41
515.4	1045.55
515.767	1065.66
516.135	1052.78
516.502	1056.17
516.869	1093.91
517.237	1090.52
517.604	1108.83
517.972	1107.92
518.339	1113.12
518.706	1100.01
519.073	1094.14
519.44	1090.52
519.808	1106.34
520.175	1102.27
520.542	1095.27
520.909	1122.84
521.276	1105.89
521.643	1123.52
522.009	1130.75
522.376	1133.46
522.743	1150.41
523.11	1161.71
523.477	1126.91
523.843	1156.06
524.21	1131.88
524.577	1176.85
524.943	1149.28
525.31	1167.81
525.676	1146.11
526.043	1184.76
526.409	1176.62
526.776	1172.78
527.142	1180.46
527.508	1211.42
527.874	1191.99
528.241	1208.26
528.607	1186.79
528.973	1191.31
529.339	1197.86
529.705	1172.78
530.071	1208.94
530.437	1220.01
530.803	1200.8
531.169	1205.77
531.535	1209.39
531.901	1241.48
532.267	1235.83
532.632	1241.93
532.998	1238.54
533.364	1228.82
533.73	1226.79
534.095	1227.02
534.461	1233.34
534.826	1232.21
535.192	1217.07
535.557	1231.31
535.923	1241.48
536.288	1229.28
536.653	1250.07
537.019	1228.82
537.384	1226.34
537.749	1207.81
538.114	1259.33
538.479	1244.87
538.845	1222.72
539.21	1226.34
539.575	1241.93
539.94	1231.76
540.305	1235.15
540.67	1259.33
541.034	1237.41
541.399	1250.52
541.764	1243.74
542.129	1254.13
542.494	1234.93
542.858	1259.33
543.223	1233.57
543.587	1269.5
543.952	1236.06
544.316	1251.65
544.681	1255.04
545.045	1271.08
545.41	1229.73
545.774	1243.29
546.138	1222.5
546.503	1279.22
546.867	1253.46
547.231	1241.25
547.595	1260.46
547.959	1253.46
548.324	1233.8
548.688	1247.81
549.052	1250.07
549.416	1256.62
549.779	1258.65
550.143	1267.01
550.507	1245.55
550.871	1263.62
551.235	1241.03
551.599	1277.64
551.962	1290.29
552.326	1292.78
552.689	1282.83
553.053	1253.23
553.417	1256.85
553.78	1267.47
554.143	1273.12
554.507	1293
554.87	1297.52
555.234	1297.97
555.597	1290.74
555.96	1306.34
556.323	1278.99
556.686	1286.9
557.05	1293.91
557.413	1287.13
557.776	1315.83
558.139	1297.52
558.502	1299.33
558.865	1280.12
559.228	1302.49
559.59	1331.65
559.953	1300.91
560.316	1320.12
560.679	1316.05
561.041	1324.41
561.404	1310.63
561.767	1319.44
562.129	1309.95
562.492	1318.54
562.854	1338.2
563.217	1334.81
563.579	1332.1
563.941	1341.82
564.304	1346.11
564.666	1348.14
565.028	1342.72
565.39	1331.19
565.753	1359.22
566.115	1372.32
566.477	1337.97
566.839	1355.15
567.201	1351.53
567.563	1384.75
567.925	1351.08
568.287	1370.97
568.648	1357.18
569.01	1362.38
569.372	1374.13
569.734	1375.26
570.095	1368.71
570.457	1371.19
570.819	1359.44
571.18	1370.06
571.542	1351.53
571.903	1389.05
572.265	1375.49
572.626	1373.9
572.987	1391.76
573.349	1357.41
573.71	1374.81
574.071	1371.19
574.432	1399.89
574.794	1408.03
575.155	1375.49
575.516	1395.15
575.877	1401.7
576.238	1376.84
576.599	1385.43
576.96	1375.49
577.32	1381.36
577.681	1387.24
578.042	1376.84
578.403	1340.91
578.763	1398.54
579.124	1370.51
579.485	1392.44
579.845	1393.34
580.206	1347.46
580.566	1369.84
580.927	1360.12
581.287	1365.54
581.648	1360.12
582.008	1397.86
582.368	1379.1
582.728	1394.24
583.089	1394.24
583.449	1353.11
583.809	1375.49
584.169	1378.2
584.529	1367.13
584.889	1351.53
585.249	1346.56
585.609	1373.23
585.969	1365.09
586.329	1344.98
586.688	1349.72
587.048	1379.1
587.408	1329.39
587.768	1336.39
588.127	1347.01
588.487	1343.85
588.846	1321.02
589.206	1345.66
589.565	1331.87
589.925	1330.06
590.284	1345.2
590.643	1365.32
591.003	1362.38
591.362	1345.88
591.721	1342.72
592.08	1322.83
592.44	1356.05
592.799	1332.1
593.158	1344.75
593.517	1342.27
593.876	1337.07
594.235	1338.2
594.593	1347.46
594.952	1328.03
595.311	1335.49
595.67	1341.36
596.029	1362.83
596.387	1318.54
596.746	1343.85
597.104	1318.99
597.463	1321.48
597.822	1321.25
598.18	1322.15
598.538	1289.16
598.897	1307.92
599.255	1325.54
599.613	1314.02
599.972	1323.28
600.33	1351.31
600.688	1325.09
601.046	1335.94
601.404	1312.89
601.762	1317.18
602.12	1330.06
602.478	1342.27
602.836	1322.15
603.194	1360.12
603.552	1363.06
603.91	1353.79
604.268	1363.96
604.625	1320.57
604.983	1355.6
605.341	1356.28
605.698	1341.14
606.056	1370.97
606.413	1346.33
606.771	1370.29
607.128	1352.21
607.485	1344.3
607.843	1372.32
608.2	1376.84
608.557	1362.15
608.914	1354.24
609.272	1365.09
609.629	1363.51
609.986	1344.3
610.343	1354.24
610.7	1372.77
611.057	1335.49
611.414	1359.67
611.771	1376.39
612.127	1367.13
612.484	1353.79
612.841	1399.44
613.198	1350.18
613.554	1385.2
613.911	1384.53
614.267	1380.91
614.624	1370.74
614.98	1401.47
615.337	1371.64
615.693	1355.83
616.05	1370.29
616.406	1396.95
616.762	1358.76
617.118	1356.96
617.475	1363.74
617.831	1381.36
618.187	1391.76
618.543	1401.93
618.899	1383.4
619.255	1404.41
619.611	1387.69
619.967	1377.29
620.323	1366.9
620.678	1380.01
621.034	1383.4
621.39	1359.89
621.746	1396.28
622.101	1414.81
622.457	1388.14
622.812	1388.82
623.168	1367.13
623.523	1377.75
623.879	1368.71
624.234	1373.23
624.589	1390.18
624.945	1382.94
625.3	1407.35
625.655	1369.61
626.01	1376.39
626.365	1376.62
626.72	1363.51
627.075	1396.28
627.43	1391.08
627.785	1381.14
628.14	1399.89
628.495	1390.85
628.85	1370.29
629.205	1368.03
629.559	1383.17
629.914	1378.88
630.269	1354.02
630.623	1373.9
630.978	1356.28
631.332	1375.49
631.687	1359.89
632.041	1357.63
632.396	1373.45
632.75	1368.03
633.104	1360.35
633.459	1366.67
633.813	1364.41
634.167	1370.97
634.521	1352.21
634.875	1356.96
635.229	1369.61
635.583	1349.27
635.937	1341.59
636.291	1357.63
636.645	1343.4
636.999	1347.24
637.352	1358.76
637.706	1362.83
638.06	1360.57
638.413	1380.23
638.767	1321.25
639.121	1378.88
639.474	1355.15
639.828	1351.08
640.181	1343.17
640.534	1370.06
640.888	1371.87
641.241	1356.5
641.594	1351.08
641.947	1355.37
642.301	1354.24
642.654	1366.22
643.007	1354.24
643.36	1351.76
643.713	1364.64
644.066	1362.61
644.419	1371.87
644.771	1347.24
645.124	1350.4
645.477	1338.88
645.83	1331.87
646.182	1358.99
646.535	1306.79
646.888	1370.29
647.24	1330.97
647.593	1342.49
647.945	1344.3
648.298	1366
648.65	1349.27
649.002	1347.69
649.355	1363.74
649.707	1366.22
650.059	1351.08
650.411	1373.45
650.763	1373.9
651.115	1400.57
651.467	1402.38
651.819	1408.25
652.171	1420.46
652.523	1397.41
652.875	1427.46
653.227	1408.48
653.578	1424.75
653.93	1415.71
654.282	1415.71
654.633	1422.49
654.985	1427.91
655.337	1470.4
655.688	1424.07
656.039	1450.74
656.391	1441.47
656.742	1448.03
657.094	1466.33
657.445	1495.48
657.796	1478.76
658.147	1452.55
658.498	1508.82
658.849	1528.48
659.2	1506.56
659.551	1506.1
659.902	1488.93
660.253	1502.94
660.604	1533
660.955	1551.98
661.306	1563.73
661.656	1535.48
662.007	1557.63
662.358	1538.19
662.708	1561.7
663.059	1576.61
663.409	1571.41
663.76	1604.86
664.11	1616.38
664.461	1634.01
664.811	1608.47
665.161	1626.1
665.511	1626.78
665.862	1637.85
666.212	1659.55
666.562	1680.56
666.912	1686.66
667.262	1667.46
667.612	1670.39
667.962	1700.45
668.312	1725.08
668.662	1733.67
669.011	1716.49
669.361	1727.34
669.711	1744.52
670.06	1757.62
670.41	1744.29
670.76	1782.71
671.109	1793.33
671.459	1824.51
671.808	1833.33
672.157	1851.18
672.507	1839.2
672.856	1874.68
673.205	1861.8
673.554	1888.92
673.904	1895.25
674.253	1924.17
674.602	1916.49
674.951	1925.75
675.3	1923.04
675.649	1948.8
675.998	1962.82
676.346	2009.59
676.695	2017.96
677.044	2010.95
677.393	2074.23
677.741	2053.89
678.09	2109.7
678.438	2064.51
678.787	2102.7
679.135	2139.53
679.484	2115.35
679.832	2158.74
680.181	2194.67
680.529	2179.31
680.877	2204.62
681.225	2188.57
681.573	2218.18
681.922	2235.12
682.27	2232.87
682.618	2270.15
682.966	2295.91
683.314	2300.89
683.661	2337.72
684.009	2335.69
684.357	2342.24
684.705	2380.43
685.053	2403.71
685.4	2408.91
685.748	2439.64
686.095	2434.22
686.443	2448.45
686.79	2462.46
687.138	2514.67
687.485	2533.42
687.832	2581.33
688.18	2608.22
688.527	2568
688.874	2607.77
689.221	2612.06
689.568	2647.54
689.915	2644.61
690.262	2670.37
690.609	2695.45
690.956	2698.62
691.303	2719.86
691.65	2730.03
691.997	2758.73
692.344	2786.75
692.69	2821.1
693.037	2831.49
693.383	2810.02
693.73	2874.43
694.077	2852.74
694.423	2886.18
694.769	2929.8
695.116	2924.82
695.462	2962.34
695.808	2974.99
696.155	2998.72
696.501	2991.49
696.847	3043.01
697.193	3034.65
697.539	3039.85
697.885	3058.15
698.231	3082.56
698.577	3127.08
698.923	3166.4
699.269	3210.69
699.614	3186.51
699.96	3193.29
700.306	3235.1
700.651	3195.55
700.997	3239.17
701.342	3273.74
701.688	3286.4
702.033	3330.46
702.379	3321.88
702.724	3348.54
703.069	3356.23
703.415	3331.14
703.76	3348.99
704.105	3405.49
704.45	3427.18
704.795	3420.86
705.14	3450.01
705.485	3429.9
705.83	3507.86
706.175	3519.61
706.52	3554.19
706.865	3566.84
707.209	3563.68
707.554	3588.54
707.899	3607.29
708.243	3621.76
708.588	3643.22
708.932	3668.53
709.277	3621.3
709.621	3691.81
709.966	3660.4
710.31	3755.31
710.654	3741.98
710.998	3768.42
711.342	3798.93
711.687	3741.07
712.031	3795.08
712.375	3805.71
712.719	3793.28
713.063	3866.27
713.407	3847.51
713.75	3866.72
714.094	3918.24
714.438	3898.58
714.782	3903.56
715.125	3919.15
715.469	3945.14
715.812	3964.12
716.156	3929.09
716.499	3953.72
716.843	3988.3
717.186	3998.47
717.53	4032.59
717.873	4032.37
718.216	4032.59
718.559	4078.24
718.902	4073.95
719.246	4108.52
719.589	4085.02
719.932	4089.99
720.275	4095.19
720.617	4075.75
720.96	4163.44
721.303	4159.82
721.646	4177.22
721.989	4137
722.331	4151.68
722.674	4162.76
723.016	4204.34
723.359	4201.17
723.701	4209.31
724.044	4174.96
724.386	4205.92
724.729	4251.12
725.071	4271.46
725.413	4211.8
725.755	4262.87
726.097	4230.55
726.439	4268.07
726.782	4261.74
727.124	4272.13
727.465	4253.38
727.807	4304.45
728.149	4278.69
728.491	4310.32
728.833	4292.47
729.175	4319.82
729.516	4336.99
729.858	4338.12
730.199	4310.1
730.541	4361.62
730.882	4326.14
731.224	4388.29
731.565	4334.05
731.906	4336.99
732.248	4337.44
732.589	4361.4
732.93	4369.76
733.271	4368.4
733.612	4383.54
733.953	4360.94
734.294	4343.77
734.635	4334.05
734.976	4389.42
735.317	4357.78
735.658	4389.42
735.999	4407.72
736.339	4380.38
736.68	4374.28
737.021	4367.95
737.361	4400.04
737.702	4403.43
738.042	4435.97
738.383	4348.29
738.723	4368.85
739.063	4411.34
739.404	4361.17
739.744	4437.78
740.084	4369.08
740.424	4428.29
740.764	4346.93
741.104	4395.97
741.444	4319.82
741.784	4345.58
742.124	4377.22
742.464	4344.45
742.804	4375.18
743.143	4347.84
743.483	4355.07
743.823	4376.09
744.162	4340.61
744.502	4372.47
744.841	4336.99
745.181	4397.1
745.52	4345.13
745.86	4369.08
746.199	4334.28
746.538	4348.74
746.877	4346.93
747.216	4332.02
747.556	4380.83
747.895	4355.52
748.234	4381.51
748.573	4255.18
748.911	4328.63
749.25	4341.74
749.589	4342.41
749.928	4288.18
750.267	4303.55
750.605	4323.66
750.944	4287.73
751.283	4296.09
751.621	4289.76
751.96	4294.05
752.298	4281.85
752.636	4253.6
752.975	4288.18
753.313	4235.98
753.651	4253.6
753.989	4244.56
754.327	4269.87
754.666	4202.53
755.004	4223.32
755.342	4210.67
755.679	4278.69
756.017	4216.09
756.355	4230.78
756.693	4223.32
757.031	4176.77
757.368	4157.56
757.706	4184.68
758.044	4162.53
758.381	4165.47
758.719	4117.79
759.056	4145.13
759.394	4131.57
759.731	4154.4
760.068	4093.16
760.405	4061.97
760.743	4068.97
761.08	4080.05
761.417	4088.86
761.754	4061.07
762.091	4045.25
762.428	4059.71
762.765	4009.54
763.102	4020.61
763.438	4069.2
763.775	3995.3
764.112	3979.94
764.449	4036.66
764.785	3982.88
765.122	3904.46
765.458	3946.49
765.795	3944.68
766.131	3961.18
766.467	3929.77
766.804	3899.71
767.14	3879.83
767.476	3889.77
767.812	3860.84
768.148	3895.19
768.485	3838.7
768.821	3870.11
769.157	3822.65
769.492	3830.56
769.828	3834.86
770.164	3793.05
770.5	3791.92
770.836	3832.82
771.171	3796.44
771.507	3754.18
771.842	3750.11
772.178	3736.78
772.513	3729.32
772.849	3752.6
773.184	3713.73
773.519	3669.89
