Data from carpet_green_FLMS001491_00089.txt Node
Date: Wed Feb 08 10:35:59 GMT 2017
User: dcchb
Spectrometer: FLMS00149
Trigger mode: 0
Integration Time (sec): 2.000000E-2
Scans to average: 10
Electric dark correction enabled: true
Nonlinearity correction enabled: false
Boxcar width: 0
XAxis mode: Wavelengths
Number of Pixels in Spectrum: 2048
>>>>>Begin Spectral Data<<<<<
341.393	-25.2
341.776	-25.2
342.16	-25.2
342.543	-64.52
342.927	-69.26
343.31	-54.57
343.693	-74.24
344.077	-38.76
344.46	-84.86
344.843	-51.41
345.226	-37.85
345.61	-24.29
345.993	-22.94
346.376	-8.7
346.759	16.38
347.142	21.36
347.525	54.8
347.908	40.79
348.291	80.79
348.674	82.14
349.057	101.35
349.44	132.99
349.823	140.22
350.206	142.93
350.588	150.39
350.971	185.42
351.354	206.66
351.737	213.44
352.119	219.09
352.502	223.16
352.884	230.62
353.267	251.18
353.65	278.98
354.032	269.94
354.414	276.26
354.797	280.56
355.179	294.34
355.562	300.22
355.944	306.77
356.326	296.15
356.709	300.44
357.091	311.29
357.473	312.87
357.855	298.64
358.238	304.51
358.62	312.87
359.002	303.61
359.384	307.45
359.766	310.16
360.148	318.97
360.53	326.66
360.912	338.86
361.294	313.78
361.676	289.37
362.057	289.14
362.439	297.96
362.821	314
363.203	283.72
363.584	310.16
363.966	291.18
364.348	285.76
364.729	273.55
365.111	278.3
365.493	291.63
365.874	286.21
366.256	282.14
366.637	286.21
367.019	271.29
367.4	283.5
367.781	290.5
368.163	283.5
368.544	298.41
368.925	269.71
369.306	294.57
369.688	292.31
370.069	276.49
370.45	272.2
370.831	287.56
371.212	287.34
371.593	290.73
371.974	271.29
372.355	279.65
372.736	248.02
373.117	272.2
373.498	281.91
373.879	276.72
374.26	284.4
374.641	281.46
375.021	272.2
375.402	283.5
375.783	286.66
376.163	283.72
376.544	276.72
376.925	294.79
377.305	282.14
377.686	268.35
378.066	278.75
378.447	276.26
378.827	268.35
379.208	271.07
379.588	289.82
379.968	282.14
380.349	282.59
380.729	283.5
381.109	281.01
381.489	288.92
381.87	283.95
382.25	290.95
382.63	305.19
383.01	287.56
383.39	326.43
383.77	280.33
384.15	295.92
384.53	283.72
384.91	289.82
385.29	306.55
385.67	298.18
386.049	297.28
386.429	310.84
386.809	288.02
387.189	283.5
387.568	285.3
387.948	283.5
388.328	312.2
388.707	310.84
389.087	305.19
389.466	307.68
389.846	310.61
390.225	292.08
390.605	309.26
390.984	293.44
391.363	282.59
391.743	286.89
392.122	303.83
392.501	316.26
392.881	306.77
393.26	303.38
393.639	297.28
394.018	305.64
394.397	288.69
394.776	292.31
395.155	285.08
395.534	313.55
395.913	311.74
396.292	306.55
396.671	308.58
397.05	316.71
397.429	302.93
397.808	314.68
398.186	297.73
398.565	303.38
398.944	311.29
399.323	292.53
399.701	306.55
400.08	297.28
400.458	323.27
400.837	310.84
401.215	311.07
401.594	311.52
401.972	320.1
402.351	313.55
402.729	319.88
403.107	321.91
403.486	285.98
403.864	331.4
404.242	312.87
404.62	320.78
404.999	330.5
405.377	320.1
405.755	313.33
406.133	316.71
406.511	304.74
406.889	308.35
407.267	337.51
407.645	320.33
408.023	340.44
408.401	325.08
408.779	327.34
409.156	324.85
409.534	328.47
409.912	317.39
410.29	330.27
410.667	324.4
411.045	323.49
411.422	338.64
411.8	323.72
412.178	319.88
412.555	329.14
412.933	332.31
413.31	319.65
413.687	326.88
414.065	322.14
414.442	327.11
414.819	313.33
415.197	325.08
415.574	330.95
415.951	324.85
416.328	345.87
416.705	322.14
417.082	347.9
417.46	323.95
417.837	340.22
418.214	335.47
418.591	343.15
418.967	344.06
419.344	329.37
419.721	338.41
420.098	337.05
420.475	331.4
420.852	342.25
421.228	340.89
421.605	348.35
421.982	333.66
422.358	340.67
422.735	345.64
423.111	320.1
423.488	330.73
423.864	319.43
424.241	316.26
424.617	337.73
424.994	341.12
425.37	342.7
425.746	336.6
426.123	339.99
426.499	339.31
426.875	350.16
427.251	361.91
427.627	360.1
428.003	342.93
428.379	358.3
428.756	351.06
429.132	355.13
429.507	356.04
429.883	348.8
430.259	372.53
430.635	363.27
431.011	382.02
431.387	342.25
431.763	353.55
432.138	351.74
432.514	341.12
432.89	359.65
433.265	347.22
433.641	368.24
434.016	384.51
434.392	358.3
434.767	350.61
435.143	377.05
435.518	370.05
435.894	372.08
436.269	370.27
436.644	369.37
437.02	345.87
437.395	377.05
437.77	367.56
438.145	364.85
438.52	384.51
438.895	394.68
439.271	380.89
439.646	391.52
440.021	389.48
440.395	368.92
440.77	389.03
441.145	378.63
441.52	384.74
441.895	359.88
442.27	383.38
442.645	401.68
443.019	363.95
443.394	370.95
443.769	381.12
444.143	387.22
444.518	382.93
444.892	394.9
445.267	396.49
445.641	388.35
446.016	379.76
446.39	383.38
446.764	408.01
447.139	397.39
447.513	401.68
447.887	418.86
448.262	403.04
448.636	396.71
449.01	399.42
449.384	374.79
449.758	391.06
450.132	412.53
450.506	396.71
450.88	402.14
451.254	406.43
451.628	409.82
452.002	408.46
452.376	436.94
452.75	422.02
453.123	403.94
453.497	396.71
453.871	420.44
454.244	414.79
454.618	424.51
454.992	402.59
455.365	421.8
455.739	442.36
456.112	450.72
456.486	411.18
456.859	437.16
457.232	439.88
457.606	419.76
457.979	426.99
458.352	447.56
458.725	428.35
459.099	448.69
459.472	453.66
459.845	451.17
460.218	444.4
460.591	459.99
460.964	431.29
461.337	437.16
461.71	460.67
462.083	440.55
462.456	444.4
462.829	465.41
463.201	457.73
463.574	466.32
463.947	473.09
464.32	473.55
464.692	490.27
465.065	464.06
465.438	470.16
465.81	460.21
466.183	489.37
466.555	486.43
466.928	491.85
467.3	509.03
467.672	494.34
468.045	474.9
468.417	494.34
468.789	482.36
469.161	500.44
469.534	509.03
469.906	506.99
470.278	512.87
470.65	515.35
471.022	519.2
471.394	532.08
471.766	507.44
472.138	526.2
472.51	549.25
472.882	545.18
473.253	542.02
473.625	517.39
473.997	544.05
474.369	553.77
474.74	558.74
475.112	562.81
475.484	586.09
475.855	554.9
476.227	593.77
476.598	581.11
476.97	599.65
477.341	600.1
477.713	583.37
478.084	599.65
478.455	609.59
478.827	615.69
479.198	600.32
479.569	614.56
479.94	639.42
480.311	641.23
480.682	623.83
481.053	674.67
481.424	678.51
481.795	673.77
482.166	651.62
482.537	676.25
482.908	679.19
483.279	688.68
483.65	685.52
484.021	690.49
484.391	706.76
484.762	721.45
485.133	723.71
485.503	739.08
485.874	709.25
486.244	731.39
486.615	733.2
486.985	766.42
487.356	745.18
487.726	783.82
488.097	775.01
488.467	777.27
488.837	784.95
489.207	805.97
489.578	799.41
489.948	787.66
490.318	816.81
490.688	816.36
491.058	843.03
491.428	828.11
491.798	830.6
492.168	849.81
492.538	856.14
492.908	854.55
493.278	872.18
493.648	873.99
494.017	881.45
494.387	885.51
494.757	900.88
495.126	903.37
495.496	895.23
495.866	934.33
496.235	923.93
496.605	922.12
496.974	917.83
497.344	910.15
497.713	932.52
498.082	923.03
498.452	945.17
498.821	954.89
499.19	962.57
499.559	951.95
499.928	956.7
500.298	959.64
500.667	961.9
501.036	958.73
501.405	986.98
501.774	971.16
502.143	969.35
502.512	962.12
502.88	989.69
503.249	978.39
503.618	996.02
503.987	996.7
504.356	977.04
504.724	978.39
505.093	977.94
505.462	1009.58
505.83	1012.52
506.199	1026.75
506.567	1026.75
506.936	1015
507.304	1012.74
507.672	1017.49
508.041	1067.2
508.409	1042.57
508.777	1029.69
509.145	1046.64
509.514	1056.13
509.882	1046.64
510.25	1048.9
510.618	1072.63
510.986	1071.27
511.354	1075.34
511.722	1068.56
512.09	1048.45
512.458	1097.03
512.826	1075.79
513.193	1091.84
513.561	1097.94
513.929	1102.68
514.297	1132.74
514.664	1118.73
515.032	1094.55
515.4	1104.72
515.767	1115.79
516.135	1153.75
516.502	1124.15
516.869	1141.78
517.237	1147.88
517.604	1105.62
517.972	1131.61
518.339	1147.2
518.706	1173.19
519.073	1157.82
519.44	1170.03
519.808	1172.96
520.175	1150.14
520.542	1153.08
520.909	1174.32
521.276	1196.01
521.643	1154.43
522.009	1181.32
522.376	1213.41
522.743	1200.08
523.11	1208.67
523.477	1195.11
523.843	1197.6
524.21	1233.98
524.577	1218.16
524.943	1250.02
525.31	1230.36
525.676	1238.05
526.043	1273.53
526.409	1260.42
526.776	1237.37
527.142	1268.78
527.508	1268.1
527.874	1235.56
528.241	1256.58
528.607	1270.36
528.973	1271.04
529.339	1262.68
529.705	1276.92
530.071	1287.99
530.437	1270.81
530.803	1282.79
531.169	1296.12
531.535	1280.76
531.901	1293.86
532.267	1287.76
532.632	1287.31
532.998	1287.31
533.364	1308.1
533.73	1305.84
534.095	1351.49
534.461	1321.43
534.826	1287.54
535.192	1294.32
535.557	1301.77
535.923	1310.81
536.288	1324.82
536.653	1297.71
537.019	1317.82
537.384	1304.71
537.749	1308.78
538.114	1311.49
538.479	1330.25
538.845	1296.8
539.21	1330.25
539.575	1329.34
539.94	1306.52
540.305	1335.45
540.67	1356.24
541.034	1315.56
541.399	1304.03
541.764	1325.73
542.129	1359.63
542.494	1348.1
542.858	1318.72
543.223	1344.48
543.587	1349.91
543.952	1345.84
544.316	1331.83
544.681	1332.06
545.045	1329.12
545.41	1341.32
545.774	1339.51
546.138	1317.14
546.503	1328.21
546.867	1322.79
547.231	1330.93
547.595	1373.18
547.959	1357.14
548.324	1326.41
548.688	1345.84
549.052	1296.8
549.416	1366.63
549.779	1344.94
550.143	1350.81
550.507	1370.25
550.871	1352.62
551.235	1346.29
551.599	1362.79
551.962	1373.64
552.326	1365.05
552.689	1346.74
553.053	1357.82
553.417	1356.01
553.78	1372.51
554.143	1371.6
554.507	1364.6
554.87	1352.85
555.234	1363.92
555.597	1393.75
555.96	1379.06
556.323	1401.66
556.686	1377.93
557.05	1377.03
557.413	1370.02
557.776	1393.97
558.139	1387.42
558.502	1389.45
558.865	1382.68
559.228	1389.45
559.59	1400.98
559.953	1390.58
560.316	1419.51
560.679	1426.29
561.041	1418.38
561.404	1431.49
561.767	1433.3
562.129	1413.64
562.492	1430.13
562.854	1446.63
563.217	1407.08
563.579	1424.03
563.941	1404.37
564.304	1413.18
564.666	1440.53
565.028	1462.9
565.39	1440.53
565.753	1460.19
566.115	1480.3
566.477	1426.97
566.839	1452.73
567.201	1453.41
567.563	1469.23
567.925	1449.79
568.287	1467.87
568.648	1428.78
569.01	1480.53
569.372	1477.81
569.734	1456.12
570.095	1438.95
570.457	1488.89
570.819	1482.79
571.18	1491.37
571.542	1486.4
571.903	1463.8
572.265	1476.46
572.626	1445.27
572.987	1467.87
573.349	1445.72
573.71	1485.5
574.071	1480.53
574.432	1464.48
574.794	1454.31
575.155	1485.05
575.516	1472.84
575.877	1479.17
576.238	1480.75
576.599	1458.83
576.96	1485.27
577.32	1494.31
577.681	1472.84
578.042	1491.15
578.403	1485.05
578.763	1483.92
579.124	1502.9
579.485	1439.4
579.845	1465.84
580.206	1479.4
580.566	1482.56
580.927	1477.14
581.287	1489.34
581.648	1477.14
582.008	1487.08
582.368	1445.72
582.728	1478.04
583.089	1461.32
583.449	1457.02
583.809	1462.22
584.169	1451.15
584.529	1450.92
584.889	1479.17
585.249	1453.18
585.609	1457.7
585.969	1442.79
586.329	1429.45
586.688	1449.34
587.048	1422.45
587.408	1420.19
587.768	1426.97
588.127	1428.78
588.487	1454.76
588.846	1430.58
589.206	1440.98
589.565	1410.7
589.925	1417.02
590.284	1380.19
590.643	1428.78
591.003	1416.12
591.362	1449.57
591.721	1420.19
592.08	1425.84
592.44	1434.88
592.799	1433.52
593.158	1376.57
593.517	1418.38
593.876	1418.61
594.235	1433.52
594.593	1441.21
594.952	1432.39
595.311	1408.66
595.67	1415.44
596.029	1417.48
596.387	1398.72
596.746	1403.01
597.104	1415.22
597.463	1420.41
597.822	1429.68
598.18	1398.72
598.538	1407.53
598.897	1415.22
599.255	1410.92
599.613	1438.27
599.972	1419.96
600.33	1422.22
600.688	1421.77
601.046	1448.66
601.404	1435.78
601.762	1421.09
602.12	1418.38
602.478	1409.12
602.836	1415.44
603.194	1418.83
603.552	1420.19
603.91	1417.93
604.268	1397.14
604.625	1421.32
604.983	1422.45
605.341	1427.87
605.698	1429.68
606.056	1446.63
606.413	1451.15
606.771	1420.64
607.128	1440.98
607.485	1450.92
607.843	1440.3
608.2	1467.65
608.557	1452.96
608.914	1436.69
609.272	1441.43
609.629	1443.92
609.986	1456.35
610.343	1449.57
610.7	1459.28
611.057	1422.9
611.414	1448.89
611.771	1464.71
612.127	1433.3
612.484	1474.65
612.841	1483.92
613.198	1455.44
613.554	1461.09
613.911	1442.56
614.267	1457.02
614.624	1462.67
614.98	1496.34
615.337	1484.59
615.693	1465.61
616.05	1493.41
616.406	1459.74
616.762	1493.41
617.118	1471.26
617.475	1464.03
617.831	1494.09
618.187	1480.75
618.543	1483.46
618.899	1470.36
619.255	1471.49
619.611	1504.71
619.967	1473.52
620.323	1473.52
620.678	1470.58
621.034	1473.52
621.39	1501.54
621.746	1473.29
622.101	1470.58
622.457	1456.12
622.812	1466.74
623.168	1474.42
623.523	1492.73
623.879	1485.5
624.234	1488.44
624.589	1450.24
624.945	1480.3
625.3	1500.41
625.655	1490.02
626.01	1481.66
626.365	1470.36
626.72	1482.33
627.075	1466.52
627.43	1471.71
627.785	1465.84
628.14	1488.66
628.495	1475.55
628.85	1481.66
629.205	1473.97
629.559	1493.86
629.914	1467.87
630.269	1467.42
630.623	1480.07
630.978	1485.05
631.332	1470.36
631.687	1484.14
632.041	1451.83
632.396	1490.7
632.75	1457.02
633.104	1440.3
633.459	1445.05
633.813	1452.73
634.167	1447.08
634.521	1451.83
634.875	1466.06
635.229	1459.06
635.583	1455.22
635.937	1459.51
636.291	1467.87
636.645	1490.7
636.999	1462
637.352	1459.74
637.706	1483.24
638.06	1464.26
638.413	1469.23
638.767	1458.15
639.121	1466.97
639.474	1416.57
639.828	1448.89
640.181	1454.54
640.534	1465.39
640.888	1462
641.241	1441.43
641.594	1453.86
641.947	1468.55
642.301	1470.81
642.654	1473.29
643.007	1453.41
643.36	1468.32
643.713	1459.28
644.066	1463.35
644.419	1470.58
644.771	1428.55
645.124	1448.21
645.477	1441.21
645.83	1430.13
646.182	1442.79
646.535	1436.23
646.888	1443.24
647.24	1452.96
647.593	1466.97
647.945	1427.65
648.298	1463.13
648.65	1458.61
649.002	1457.7
649.355	1461.54
649.707	1444.37
650.059	1465.39
650.411	1511.03
650.763	1489.57
651.115	1517.59
651.467	1478.04
651.819	1496.57
652.171	1517.36
652.523	1520.98
652.875	1512.16
653.227	1518.27
653.578	1528.89
653.93	1497.93
654.282	1527.3
654.633	1553.97
654.985	1541.99
655.337	1538.15
655.688	1528.43
656.039	1548.32
656.391	1549.22
656.742	1564.14
657.094	1581.77
657.445	1535.21
657.796	1563.01
658.147	1552.84
658.498	1578.83
658.849	1627.87
659.2	1619.96
659.551	1591.71
659.902	1616.12
660.253	1627.19
660.604	1633.29
660.955	1637.58
661.306	1649.11
661.656	1621.09
662.007	1666.06
662.358	1660.86
662.708	1649.11
663.059	1691.37
663.409	1642.33
663.76	1685.49
664.11	1715.1
664.461	1700.86
664.811	1728.43
665.161	1701.31
665.511	1748.54
665.862	1729.79
666.212	1765.72
666.562	1763
666.912	1756.23
667.262	1759.39
667.612	1769.11
667.962	1793.51
668.312	1809.78
668.662	1816.34
669.011	1829.44
669.361	1853.17
669.711	1858.6
670.06	1881.19
670.41	1900.18
670.76	1876.67
671.109	1918.25
671.459	1883.68
671.808	1913.06
672.157	1932.04
672.507	1960.74
672.856	1911.7
673.205	1952.38
673.554	1995.99
673.904	1989.89
674.253	2003.68
674.602	1977.69
674.951	1991.47
675.3	2003
675.649	2047.74
675.998	2066.73
676.346	2096.56
676.695	2091.58
677.044	2077.35
677.393	2141.75
677.741	2117.35
678.09	2153.28
678.438	2166.38
678.787	2212.03
679.135	2176.55
679.484	2185.59
679.832	2242.99
680.181	2228.53
680.529	2264.46
680.877	2279.83
681.225	2295.19
681.573	2259.04
681.922	2310.33
682.27	2334.29
682.618	2367.73
682.966	2334.29
683.314	2346.72
683.661	2386.26
684.009	2382.42
684.357	2413.61
684.705	2412.48
685.053	2442.53
685.4	2452.03
685.748	2466.49
686.095	2462.2
686.443	2509.2
686.79	2536.32
687.138	2530.44
687.485	2566.15
687.832	2516.21
688.18	2565.7
688.527	2581.51
688.874	2605.02
689.221	2604.79
689.568	2660.16
689.915	2649.31
690.262	2685.92
690.609	2693.83
690.956	2724.34
691.303	2714.17
691.65	2758.23
691.997	2776.54
692.344	2792.81
692.69	2792.81
693.037	2806.37
693.383	2776.31
693.73	2846.82
694.077	2832.35
694.423	2840.49
694.769	2877.33
695.116	2880.04
695.462	2911
695.808	2913.03
696.155	2933.37
696.501	2959.36
696.847	2953.93
697.193	2932.92
697.539	2994.84
697.885	2994.16
698.231	3020.37
698.577	3008.4
698.923	3027.15
699.269	3055.63
699.614	3030.32
699.96	3047.72
700.306	3135.62
700.651	3105.57
700.997	3131.56
701.342	3160.03
701.688	3134.72
702.033	3163.42
702.379	3180.82
702.724	3195.74
703.069	3233.93
703.415	3236.64
703.76	3253.36
704.105	3280.48
704.45	3274.38
704.795	3280.03
705.14	3326.81
705.485	3279.57
705.83	3326.81
706.175	3349.18
706.52	3341.49
706.865	3349.63
707.209	3385.11
707.554	3389.63
707.899	3377.2
708.243	3419.46
708.588	3420.36
708.932	3435.95
709.277	3409.97
709.621	3483.64
709.966	3424.66
710.31	3468.95
710.654	3484.32
710.998	3483.64
711.342	3524.77
711.687	3512.79
712.031	3500.81
712.375	3511.43
712.719	3555.05
713.063	3564.54
713.407	3587.59
713.75	3606.57
714.094	3604.54
714.438	3577.19
714.782	3610.19
715.125	3601.6
715.469	3599.11
715.812	3628.04
716.156	3619.45
716.499	3642.96
716.843	3676.4
717.186	3675.04
717.53	3705.78
717.873	3676.17
718.216	3660.81
718.559	3685.67
718.902	3685.67
719.246	3714.82
719.589	3724.76
719.932	3702.84
720.275	3743.52
720.617	3738.32
720.96	3747.59
721.303	3747.36
721.646	3774.7
721.989	3731.09
722.331	3766.79
722.674	3790.07
723.016	3775.15
723.359	3841.14
723.701	3792.33
724.044	3812.44
724.386	3783.52
724.729	3812.89
725.071	3793.46
725.413	3814.48
725.755	3790.52
726.097	3821.26
726.439	3805.21
726.782	3771.99
727.124	3862.84
727.465	3873.46
727.807	3847.92
728.149	3867.13
728.491	3845.44
728.833	3828.94
729.175	3857.86
729.516	3832.55
729.858	3868.49
730.199	3892.44
730.541	3922.5
730.882	3915.26
731.224	3864.87
731.565	3847.47
731.906	3872.33
732.248	3899.45
732.589	3885.21
732.93	3885.89
733.271	3877.75
733.612	3936.05
733.953	3931.08
734.294	3929.95
734.635	3903.74
734.976	3950.29
735.317	3871.2
735.658	3893.57
735.999	3900.12
736.339	3899.67
736.68	3902.61
737.021	3922.04
737.361	3871.88
737.702	3889.95
738.042	3874.36
738.383	3853.35
738.723	3907.35
739.063	3929.95
739.404	3907.81
739.744	3932.44
740.084	3885.89
740.424	3902.84
740.764	3898.77
741.104	3880.91
741.444	3876.17
741.784	3893.12
742.124	3883.63
742.464	3893.57
742.804	3924.08
743.143	3867.36
743.483	3841.82
743.823	3869.39
744.162	3850.41
744.502	3889.5
744.841	3894.47
745.181	3867.58
745.52	3841.14
745.86	3838.66
746.199	3843.4
746.538	3829.16
746.877	3869.62
747.216	3856.06
747.556	3834.81
747.895	3860.35
748.234	3852.89
748.573	3833.23
748.911	3834.14
749.25	3839.33
749.589	3844.53
749.928	3829.84
750.267	3826.68
750.605	3809.28
750.944	3795.49
751.283	3786.68
751.621	3784.19
751.96	3746.23
752.298	3776.51
752.636	3753.23
752.975	3786.68
753.313	3762.5
753.651	3788.26
753.989	3763.86
754.327	3767.92
754.666	3739.22
755.004	3747.59
755.342	3753.01
755.679	3705.78
756.017	3730.41
756.355	3748.26
756.693	3702.16
757.031	3727.92
757.368	3701.48
757.706	3708.04
758.044	3674.59
758.381	3699
758.719	3647.7
759.056	3677.08
759.394	3655.61
759.731	3622.39
760.068	3619.23
760.405	3649.06
760.743	3592.79
761.08	3609.28
761.417	3604.76
761.754	3592.79
762.091	3597.98
762.428	3590.98
762.765	3548.04
763.102	3565.22
763.438	3585.56
763.775	3569.06
764.112	3513.69
764.449	3512.11
764.785	3523.86
765.122	3509.63
765.458	3481.6
765.795	3531.09
766.131	3514.82
766.467	3514.37
766.804	3458.1
767.14	3464.88
767.476	3463.07
767.812	3449.29
768.148	3429.85
768.485	3426.46
768.821	3366.35
769.157	3393.47
769.492	3385.79
769.828	3404.09
770.164	3368.61
770.5	3356.63
770.836	3356.41
771.171	3335.84
771.507	3332.45
771.842	3309.18
772.178	3313.92
772.513	3373.13
772.849	3313.7
773.184	3288.16
