Data from carpet_green_FLMS001491_00030.txt Node
Date: Wed Feb 08 10:35:09 GMT 2017
User: dcchb
Spectrometer: FLMS00149
Trigger mode: 0
Integration Time (sec): 2.000000E-2
Scans to average: 10
Electric dark correction enabled: true
Nonlinearity correction enabled: false
Boxcar width: 0
XAxis mode: Wavelengths
Number of Pixels in Spectrum: 2048
>>>>>Begin Spectral Data<<<<<
341.393	-6.24
341.776	-6.24
342.16	-6.24
342.543	-50.76
342.927	-70.87
343.31	-70.2
343.693	-75.39
344.077	-69.74
344.46	-55.73
344.843	-52.57
345.226	-36.07
345.61	-23.87
345.993	1.21
346.376	-8.28
346.759	7.54
347.142	25.39
347.525	41.67
347.908	58.16
348.291	73.76
348.674	79.86
349.057	104.26
349.44	117.6
349.823	123.25
350.206	135.9
350.588	178.84
350.971	187.2
351.354	195.11
351.737	218.16
352.119	224.26
352.502	239.17
352.884	239.85
353.267	252.28
353.65	277.14
354.032	294.77
354.414	275.56
354.797	292.51
355.179	290.7
355.562	280.76
355.944	310.13
356.326	304.48
356.709	292.28
357.091	305.16
357.473	296.35
357.855	302.68
358.238	319.4
358.62	321.66
359.002	279.4
359.384	325.95
359.766	291.83
360.148	311.26
360.53	312.17
360.912	277.59
361.294	292.28
361.676	295.9
362.057	320.3
362.439	316.01
362.821	288.89
363.203	312.17
363.584	289.57
363.966	287.99
364.348	305.39
364.729	294.31
365.111	287.08
365.493	299.51
365.874	305.39
366.256	289.57
366.637	271.26
367.019	292.73
367.4	295.67
367.781	275.33
368.163	277.82
368.544	275.33
368.925	271.26
369.306	287.99
369.688	276.46
370.069	276.46
370.45	267.2
370.831	262.68
371.212	274.88
371.593	283.69
371.974	283.92
372.355	289.12
372.736	269.23
373.117	263.13
373.498	281.89
373.879	287.76
374.26	284.37
374.641	285.73
375.021	285.27
375.402	260.64
375.783	270.36
376.163	283.24
376.544	289.57
376.925	287.76
377.305	276.91
377.686	292.51
378.066	286.18
378.447	272.17
378.827	282.34
379.208	273.52
379.588	292.05
379.968	286.18
380.349	270.59
380.729	287.99
381.109	299.51
381.489	292.73
381.87	297.25
382.25	284.6
382.63	276.01
383.01	290.7
383.39	294.77
383.77	290.25
384.15	294.54
384.53	296.57
384.91	278.27
385.29	294.77
385.67	303.58
386.049	277.59
386.429	308.33
386.809	298.38
387.189	291.15
387.568	286.4
387.948	305.39
388.328	309.23
388.707	299.74
389.087	301.32
389.466	311.04
389.846	302.22
390.225	301.09
390.605	322.56
390.984	292.28
391.363	297.93
391.743	303.35
392.122	312.84
392.501	306.07
392.881	310.81
393.26	318.27
393.639	301.09
394.018	306.52
394.397	319.17
394.776	306.29
395.155	308.78
395.534	303.58
395.913	315.1
396.292	319.62
396.671	305.84
397.05	315.56
397.429	310.36
397.808	290.47
398.186	307.42
398.565	311.94
398.944	317.82
399.323	271.04
399.701	316.23
400.08	290.25
400.458	314.2
400.837	308.1
401.215	312.39
401.594	324.37
401.972	316.23
402.351	311.94
402.729	327.08
403.107	318.72
403.486	313.97
403.864	342.67
404.242	318.72
404.62	303.58
404.999	321.66
405.377	313.52
405.755	326.4
406.133	323.01
406.511	340.64
406.889	305.61
407.267	328.21
407.645	326.86
408.023	329.12
408.401	330.25
408.779	359.4
409.156	327.08
409.534	355.1
409.912	325.95
410.29	320.3
410.667	347.42
411.045	325.27
411.422	338.15
411.8	325.05
412.178	315.56
412.555	334.31
412.933	321.21
413.31	325.5
413.687	352.62
414.065	333.18
414.442	332.51
414.819	346.52
415.197	336.12
415.574	325.5
415.951	332.28
416.328	335.67
416.705	349.91
417.082	343.8
417.46	356.69
417.837	342
418.214	322.56
418.591	365.5
418.967	352.84
419.344	344.03
419.721	334.09
420.098	344.03
420.475	347.65
420.852	363.47
421.228	361.66
421.605	355.56
421.982	336.8
422.358	344.48
422.735	364.37
423.111	344.93
423.488	343.58
423.864	367.98
424.241	354.43
424.617	355.56
424.994	346.06
425.37	381.54
425.746	358.95
426.123	370.7
426.499	356.46
426.875	362.11
427.251	353.75
427.627	347.65
428.003	380.64
428.379	362.11
428.756	369.11
429.132	385.39
429.507	391.71
429.883	382
430.259	374.54
430.635	367.31
431.011	367.53
431.387	387.19
431.763	390.81
432.138	371.37
432.514	389
432.89	399.62
433.265	395.55
433.641	410.7
434.016	400.98
434.392	400.98
434.767	386.06
435.143	382.67
435.518	411.83
435.894	396.91
436.269	401.66
436.644	401.88
437.02	414.99
437.395	420.41
437.77	403.69
438.145	408.66
438.52	395.33
438.895	408.89
439.271	409.34
439.646	422.9
440.021	425.16
440.395	422.67
440.77	414.76
441.145	428.1
441.52	424.48
441.895	417.93
442.27	419.73
442.645	420.19
443.019	445.72
443.394	410.92
443.769	433.29
444.143	422.9
444.518	452.73
444.892	426.51
445.267	435.1
445.641	467.42
446.016	440.53
446.39	413.41
446.764	438.49
447.139	426.74
447.513	425.38
447.887	452.28
448.262	422.9
448.636	449.34
449.01	428.77
449.384	456.57
449.758	464.03
450.132	438.72
450.506	451.6
450.88	471.48
451.254	439.85
451.628	452.95
452.002	449.11
452.376	445.27
452.75	457.93
453.123	453.63
453.497	462.22
453.871	460.19
454.244	458.6
454.618	483.91
454.992	477.13
455.365	499.05
455.739	476
456.112	495.89
456.486	487.3
456.859	492.95
457.232	512.39
457.606	517.59
457.979	516.23
458.352	516.46
458.725	504.7
459.099	537.02
459.472	494.99
459.845	517.81
460.218	529.34
460.591	520.07
460.964	536.79
461.337	517.81
461.71	546.51
462.083	540.41
462.456	544.93
462.829	534.99
463.201	555.1
463.574	553.74
463.947	549.67
464.32	564.14
464.692	563.01
465.065	577.24
465.438	578.15
465.81	568.88
466.183	573.18
466.555	584.25
466.928	607.07
467.3	569.34
467.672	578.15
468.045	608.2
468.417	609.56
468.789	616.11
469.161	621.76
469.534	610.69
469.906	615.66
470.278	617.24
470.65	631.25
471.022	651.37
471.394	646.85
471.766	649.56
472.138	661.31
472.51	661.54
472.882	674.87
473.253	689.56
473.625	670.58
473.997	687.3
474.369	684.59
474.74	714.64
475.112	729.56
475.484	710.57
475.855	742.21
476.227	731.36
476.598	761.42
476.97	770.46
477.341	744.7
477.713	758.93
478.084	779.95
478.455	786.28
478.827	819.95
479.198	820.18
479.569	795.54
479.94	821.76
480.311	830.12
480.682	835.32
481.053	867.18
481.424	877.8
481.795	861.31
482.166	892.72
482.537	914.64
482.908	908.54
483.279	915.31
483.65	932.94
484.021	963.45
484.391	948.99
484.762	961.42
485.133	963.68
485.503	984.47
485.874	986.73
486.244	1022.2
486.615	1007.74
486.985	1041.64
487.356	1061.98
487.726	1060.85
488.097	1055.2
488.467	1102.65
488.837	1119.38
489.207	1125.48
489.578	1119.6
489.948	1126.83
490.318	1144.46
490.688	1139.04
491.058	1145.37
491.428	1165.48
491.798	1159.83
492.168	1210.9
492.538	1190.56
492.908	1209.32
493.278	1224.46
493.648	1235.76
494.017	1244.12
494.387	1261.52
494.757	1266.49
495.126	1278.24
495.496	1292.93
495.866	1308.52
496.235	1320.5
496.605	1291.58
496.974	1272.37
497.344	1315.3
497.713	1328.86
498.082	1347.39
498.452	1344
498.821	1345.81
499.19	1347.17
499.559	1371.8
499.928	1347.62
500.298	1359.37
500.667	1371.8
501.036	1385.36
501.405	1403.21
501.774	1377.9
502.143	1373.38
502.512	1402.76
502.88	1412.25
503.249	1418.35
503.618	1423.32
503.987	1439.37
504.356	1438.24
504.724	1437.56
505.093	1441.63
505.462	1457.67
505.83	1484.79
506.199	1473.72
506.567	1514.17
506.936	1498.8
507.304	1484.34
507.672	1489.76
508.041	1501.74
508.409	1512.59
508.777	1509.42
509.145	1550.78
509.514	1551.46
509.882	1553.49
510.25	1541.74
510.618	1526.6
510.986	1560.95
511.354	1547.16
511.722	1578.8
512.09	1592.59
512.458	1571.34
512.826	1586.48
513.193	1577.67
513.561	1588.07
513.929	1583.77
514.297	1630.1
514.664	1640.04
515.032	1627.84
515.4	1609.08
515.767	1649.08
516.135	1628.97
516.502	1642.08
516.869	1643.43
517.237	1669.65
517.604	1658.12
517.972	1670.1
518.339	1690.21
518.706	1661.74
519.073	1691.79
519.44	1684.79
519.808	1714.84
520.175	1734.05
520.542	1731.56
520.909	1717.78
521.276	1709.19
521.643	1695.18
522.009	1744.45
522.376	1733.15
522.743	1742.64
523.11	1750.1
523.477	1774.05
523.843	1772.47
524.21	1780.83
524.577	1774.28
524.943	1816.53
525.31	1808.17
525.676	1803.43
526.043	1802.3
526.409	1823.31
526.776	1823.99
527.142	1835.74
527.508	1856.99
527.874	1850.88
528.241	1883.43
528.607	1849.98
528.973	1892.46
529.339	1870.09
529.705	1868.96
530.071	1861.5
530.437	1881.84
530.803	1916.19
531.169	1920.49
531.535	1891.11
531.901	1891.79
532.267	1889.07
532.632	1890.66
532.998	1887.94
533.364	1932.69
533.73	1943.08
534.095	1906.93
534.461	1884.33
534.826	1928.17
535.192	1922.07
535.557	1944.44
535.923	1903.31
536.288	1911.9
536.653	1940.82
537.019	1946.47
537.384	1962.52
537.749	1916.64
538.114	1943.99
538.479	1952.35
538.845	1946.7
539.21	1920.03
539.575	1939.92
539.94	1914.84
540.305	1932.24
540.67	1913.48
541.034	1941.28
541.399	1939.92
541.764	1928.85
542.129	1948.28
542.494	1948.73
542.858	1952.35
543.223	1968.39
543.587	1955.97
543.952	1936.98
544.316	1929.98
544.681	1923.42
545.045	1945.8
545.41	1967.72
545.774	1928.62
546.138	1957.55
546.503	1969.75
546.867	1919.58
547.231	1974.5
547.595	1972.01
547.959	1978.34
548.324	1989.41
548.688	1963.42
549.052	1991.44
549.416	1959.58
549.779	1976.3
550.143	1969.3
550.507	1962.97
550.871	1963.65
551.235	2019.01
551.599	1992.57
551.962	2002.52
552.326	2005.23
552.689	2002.07
553.053	2003.2
553.417	2003.65
553.78	1972.91
554.143	1970.88
554.507	1989.64
554.87	2014.72
555.234	2003.65
555.597	2030.99
555.96	2021.05
556.323	1999.35
556.686	2003.42
557.05	1995.29
557.413	2028.73
557.776	2017.21
558.139	2037.32
558.502	2023.08
558.865	2040.48
559.228	2060.82
559.59	2047.04
559.953	2038.22
560.316	2019.47
560.679	2054.49
561.041	2080.48
561.404	2036.64
561.767	2057.43
562.129	2050.65
562.492	2075.74
562.854	2059.69
563.217	2077.77
563.579	2075.51
563.941	2093.82
564.304	2096.75
564.666	2110.99
565.028	2088.84
565.39	2103.76
565.753	2115.74
566.115	2098.79
566.477	2125.68
566.839	2110.76
567.201	2112.35
567.563	2106.92
567.925	2115.51
568.287	2131.1
568.648	2117.09
569.01	2129.29
569.372	2101.05
569.734	2130.2
570.095	2126.81
570.457	2153.7
570.819	2137.2
571.18	2142.63
571.542	2132.01
571.903	2124.77
572.265	2139.01
572.626	2150.99
572.987	2146.69
573.349	2157.77
573.71	2169.07
574.071	2135.85
574.432	2151.44
574.794	2172.46
575.155	2171.1
575.516	2148.73
575.877	2178.56
576.238	2121.16
576.599	2167.26
576.96	2142.85
577.32	2137.88
577.681	2103.31
578.042	2151.89
578.403	2159.12
578.763	2150.54
579.124	2143.98
579.485	2165.23
579.845	2135.62
580.206	2190.99
580.566	2133.59
580.927	2125.23
581.287	2135.62
581.648	2132.23
582.008	2120.48
582.368	2117.77
582.728	2101.72
583.089	2136.75
583.449	2117.77
583.809	2115.74
584.169	2099.46
584.529	2115.96
584.889	2117.77
585.249	2104.66
585.609	2068.28
585.969	2077.09
586.329	2078.45
586.688	2099.92
587.048	2068.73
587.408	2048.39
587.768	2063.08
588.127	2054.95
588.487	2061.73
588.846	2083.87
589.206	2038.9
589.565	2004.33
589.925	2055.17
590.284	2066.47
590.643	2051.1
591.003	2043.65
591.362	2060.82
591.721	2023.31
592.08	2051.1
592.44	2054.95
592.799	2047.94
593.158	2024.44
593.517	2014.04
593.876	2037.32
594.235	2014.27
594.593	2032.35
594.952	2023.08
595.311	2037.55
595.67	2000.48
596.029	2023.53
596.387	2018.11
596.746	2005.68
597.104	2021.27
597.463	2001.61
597.822	2016.3
598.18	1978.11
598.538	2012.69
598.897	1992.35
599.255	2016.3
599.613	2040.26
599.972	2041.16
600.33	2020.6
600.688	2020.82
601.046	2021.95
601.404	2008.17
601.762	1995.96
602.12	2068.73
602.478	2036.19
602.836	2046.58
603.194	2001.84
603.552	2074.15
603.91	2040.03
604.268	2019.69
604.625	2069.63
604.983	2045.45
605.341	2019.92
605.698	2039.35
606.056	2011.78
606.413	2014.04
606.771	2050.43
607.128	2089.97
607.485	2040.03
607.843	2080.71
608.2	2080.93
608.557	2054.95
608.914	2074.15
609.272	2065.12
609.629	2080.71
609.986	2090.88
610.343	2072.57
610.7	2094.72
611.057	2086.13
611.414	2076.19
611.771	2094.04
612.127	2071.89
612.484	2105.57
612.841	2098.33
613.198	2127.49
613.554	2097.43
613.911	2123.42
614.267	2093.36
614.624	2091.78
614.98	2086.13
615.337	2090.43
615.693	2090.65
616.05	2096.07
616.406	2110.99
616.762	2096.3
617.118	2079.8
617.475	2110.54
617.831	2118.67
618.187	2077.32
618.543	2119.13
618.899	2135.62
619.255	2106.92
619.611	2142.4
619.967	2141.05
620.323	2143.98
620.678	2117.09
621.034	2132.23
621.39	2131.33
621.746	2105.34
622.101	2141.5
622.457	2131.1
622.812	2104.89
623.168	2118.45
623.523	2127.94
623.879	2141.27
624.234	2115.74
624.589	2154.15
624.945	2106.92
625.3	2101.5
625.655	2111.67
626.01	2129.29
626.365	2090.2
626.72	2108.96
627.075	2102.18
627.43	2121.16
627.785	2089.3
628.14	2087.04
628.495	2100.14
628.85	2116.64
629.205	2117.77
629.559	2140.82
629.914	2116.19
630.269	2120.25
630.623	2130.42
630.978	2107.37
631.332	2104.66
631.687	2124.77
632.041	2066.7
632.396	2087.04
632.75	2109.63
633.104	2087.71
633.459	2065.79
633.813	2077.32
634.167	2085.68
634.521	2073.48
634.875	2101.95
635.229	2087.71
635.583	2081.84
635.937	2106.24
636.291	2066.92
636.645	2083.65
636.999	2069.41
637.352	2109.18
637.706	2059.92
638.06	2095.4
638.413	2092.01
638.767	2067.38
639.121	2088.17
639.474	2087.26
639.828	2059.92
640.181	2104.21
640.534	2092.23
640.888	2099.92
641.241	2071.67
641.594	2091.33
641.947	2083.65
642.301	2081.16
642.654	2050.2
643.007	2085.91
643.36	2104.44
643.713	2108.96
644.066	2096.98
644.419	2110.99
644.771	2094.94
645.124	2073.25
645.477	2095.85
645.83	2068.28
646.182	2043.65
646.535	2050.65
646.888	2056.75
647.24	2047.49
647.593	2064.21
647.945	2061.5
648.298	2071.67
648.65	2043.87
649.002	2075.28
649.355	2094.27
649.707	2076.19
650.059	2090.65
650.411	2057.21
650.763	2107.83
651.115	2184.43
651.467	2130.88
651.819	2153.25
652.171	2176.75
652.523	2165.68
652.875	2179.91
653.227	2168.16
653.578	2181.04
653.93	2170.42
654.282	2188.28
654.633	2171.78
654.985	2226.47
655.337	2204.55
655.688	2232.79
656.039	2263.53
656.391	2228.05
656.742	2218.33
657.094	2242.96
657.445	2291.55
657.796	2275.96
658.147	2274.6
658.498	2266.47
658.849	2266.24
659.2	2291.32
659.551	2286.58
659.902	2315.73
660.253	2325.67
660.604	2307.14
660.955	2312.57
661.306	2352.79
661.656	2357.31
662.007	2397.31
662.358	2390.53
662.708	2403.86
663.059	2432.34
663.409	2443.64
663.76	2440.02
664.11	2461.26
664.461	2506.01
664.811	2504.88
665.161	2486.35
665.511	2486.35
665.862	2524.09
666.212	2535.16
666.562	2549.17
666.912	2553.92
667.262	2555.05
667.612	2618.32
667.962	2600.92
668.312	2661.26
668.662	2638.43
669.011	2686.34
669.361	2657.87
669.711	2708.26
670.06	2713.69
670.41	2748.26
670.76	2750.29
671.109	2751.2
671.459	2764.98
671.808	2815.15
672.157	2842.72
672.507	2867.81
672.856	2880.91
673.205	2867.81
673.554	2909.39
673.904	2953
674.253	2962.94
674.602	2994.13
674.951	2974.7
675.3	2971.53
675.649	3017.63
675.998	3091.75
676.346	3142.6
676.695	3075.94
677.044	3111.87
677.393	3153.45
677.741	3185.54
678.09	3202.49
678.438	3194.35
678.787	3231.41
679.135	3299.66
679.484	3258.3
679.832	3294.91
680.181	3327.91
680.529	3349.6
680.877	3374.01
681.225	3390.96
681.573	3443.61
681.922	3391.18
682.27	3484.74
682.618	3478.19
682.966	3497.17
683.314	3519.77
683.661	3559.54
684.009	3604.51
684.357	3584.4
684.705	3622.59
685.053	3657.16
685.4	3619.42
685.748	3626.66
686.095	3694.9
686.443	3718.41
686.79	3698.74
687.138	3782.13
687.485	3808.8
687.832	3843.15
688.18	3844.28
688.527	3865.07
688.874	3891.51
689.221	3903.03
689.568	3890.83
689.915	3957.95
690.262	3947.1
690.609	3995.46
690.956	3987.32
691.303	4038.17
691.65	4056.48
691.997	4040.88
692.344	4116.13
692.69	4099.86
693.037	4170.37
693.383	4133.54
693.73	4213.76
694.077	4221.22
694.423	4255.34
694.769	4250.59
695.116	4287.2
695.462	4310.03
695.808	4313.64
696.155	4352.06
696.501	4333.76
696.847	4350.93
697.193	4380.31
697.539	4441.78
697.885	4421.21
698.231	4433.87
698.577	4464.37
698.923	4481.77
699.269	4494.2
699.614	4514.77
699.96	4516.58
700.306	4543.47
700.651	4575.78
700.997	4577.59
701.342	4641.09
701.688	4627.76
702.033	4644.48
702.379	4751.6
702.724	4736.91
703.069	4778.04
703.415	4724.48
703.76	4755.67
704.105	4738.94
704.45	4827.08
704.795	4775.55
705.14	4819.62
705.485	4827.53
705.83	4858.71
706.175	4915.89
706.52	4861.65
706.865	4914.31
707.209	4906.62
707.554	4940.29
707.899	4998.6
708.243	4985.49
708.588	4997.24
708.932	4994.08
709.277	4972.84
709.621	5041.99
709.966	5015.55
710.31	5079.27
710.654	5098.26
710.998	5105.26
711.342	5110.01
711.687	5122.21
712.031	5102.1
712.375	5150.91
712.719	5203.56
713.063	5164.92
713.407	5210.12
713.75	5207.41
714.094	5177.8
714.438	5216.9
714.782	5234.3
715.125	5245.82
715.469	5291.7
715.812	5286.27
716.156	5280.62
716.499	5287.4
716.843	5312.71
717.186	5285.14
717.53	5340.96
717.873	5400.17
718.216	5356.78
718.559	5355.88
718.902	5344.8
719.246	5395.42
719.589	5330.34
719.932	5396.1
720.275	5451.92
720.617	5398.59
720.96	5434.29
721.303	5465.25
721.646	5430.9
721.989	5432.94
722.331	5439.94
722.674	5433.61
723.016	5493.27
723.359	5534.63
723.701	5477.23
724.044	5453.95
724.386	5465.7
724.729	5471.81
725.071	5517.68
725.413	5486.49
725.755	5510.9
726.097	5512.48
726.439	5437.23
726.782	5462.54
727.124	5522.2
727.465	5514.06
727.807	5514.29
728.149	5533.27
728.491	5488.75
728.833	5540.73
729.175	5518.13
729.516	5466.83
729.858	5549.09
730.199	5541.41
730.541	5567.85
730.882	5585.93
731.224	5536.21
731.565	5529.2
731.906	5553.84
732.248	5536.44
732.589	5529.66
732.93	5591.58
733.271	5514.52
733.612	5568.3
733.953	5531.92
734.294	5529.66
734.635	5558.36
734.976	5556.77
735.317	5526.72
735.658	5552.03
735.999	5531.01
736.339	5536.66
736.68	5582.31
737.021	5502.31
737.361	5521.3
737.702	5522.65
738.042	5514.52
738.383	5539.83
738.723	5524.01
739.063	5537.57
739.404	5559.94
739.744	5597.68
740.084	5500.28
740.424	5568.3
740.764	5531.24
741.104	5556.55
741.444	5535.98
741.784	5481.97
742.124	5583.44
742.464	5494.4
742.804	5507.28
743.143	5491.24
743.483	5498.47
743.823	5442.88
744.162	5499.83
744.502	5495.08
744.841	5462.77
745.181	5512.03
745.52	5477.23
745.86	5501.18
746.199	5536.89
746.538	5467.74
746.877	5517.68
747.216	5481.3
747.556	5466.61
747.895	5498.25
748.234	5438.81
748.573	5486.04
748.911	5406.95
749.25	5444.24
749.589	5456.21
749.928	5415.76
750.267	5406.27
750.605	5401.3
750.944	5345.25
751.283	5402.88
751.621	5405.37
751.96	5360.4
752.298	5366.95
752.636	5375.54
752.975	5331.92
753.313	5333.5
753.651	5340.28
753.989	5284.69
754.327	5295.76
754.666	5303.22
755.004	5356.33
755.342	5274.75
755.679	5277.46
756.017	5257.57
756.355	5259.83
756.693	5236.33
757.031	5283.34
757.368	5224.35
757.706	5219.16
758.044	5228.42
758.381	5199.72
758.719	5168.31
759.056	5187.52
759.394	5198.59
759.731	5100.52
760.068	5151.36
760.405	5112.49
760.743	5126.5
761.08	5061.87
761.417	5042.66
761.754	5055.32
762.091	5070.46
762.428	5038.14
762.765	5024.59
763.102	4993.17
763.438	4957.24
763.775	4968.32
764.112	4999.95
764.449	4966.51
764.785	4980.74
765.122	4919.05
765.458	4940.52
765.795	4882.22
766.131	4910.24
766.467	4892.16
766.804	4861.88
767.14	4843.12
767.476	4861.2
767.812	4849.22
768.148	4827.53
768.485	4804.7
768.821	4746.17
769.157	4800.41
769.492	4745.5
769.828	4784.82
770.164	4717.93
770.5	4726.51
770.836	4745.95
771.171	4675.22
771.507	4713.41
771.842	4653.07
772.178	4671.6
772.513	4665.5
772.849	4594.77
