Data from carpet_green_FLMS001491_00055.txt Node
Date: Wed Feb 08 10:35:33 GMT 2017
User: dcchb
Spectrometer: FLMS00149
Trigger mode: 0
Integration Time (sec): 2.000000E-2
Scans to average: 10
Electric dark correction enabled: true
Nonlinearity correction enabled: false
Boxcar width: 0
XAxis mode: Wavelengths
Number of Pixels in Spectrum: 2048
>>>>>Begin Spectral Data<<<<<
341.393	-24.34
341.776	-24.34
342.16	-24.34
342.543	-66.37
342.927	-73.15
343.31	-74.05
343.693	-79.48
344.077	-67.72
344.46	-31.34
344.843	-36.99
345.226	-39.02
345.61	-52.13
345.993	-17.78
346.376	2.78
346.759	13.63
347.142	17.92
347.525	41.65
347.908	70.13
348.291	67.87
348.674	94.76
349.057	89.79
349.44	111.25
349.823	120.97
350.206	155.32
350.588	190.35
350.971	165.49
351.354	183.57
351.737	230.35
352.119	215.66
352.502	236
352.884	234.41
353.267	244.13
353.65	255.66
354.032	251.36
354.414	271.02
354.797	281.42
355.179	287.29
355.562	285.26
355.944	293.85
356.326	314.19
356.709	289.55
357.091	297.24
357.473	313.96
357.855	306.96
358.238	309.22
358.62	310.12
359.002	320.51
359.384	291.36
359.766	318.48
360.148	287.75
360.53	297.92
360.912	301.98
361.294	294.75
361.676	292.94
362.057	296.79
362.439	301.31
362.821	296.33
363.203	279.84
363.584	281.87
363.966	281.42
364.348	273.28
364.729	293.17
365.111	299.95
365.493	299.05
365.874	298.59
366.256	295.88
366.637	284.58
367.019	269.67
367.4	275.77
367.781	287.29
368.163	303.11
368.544	283.23
368.925	275.54
369.306	294.98
369.688	294.98
370.069	281.65
370.45	257.46
370.831	270.57
371.212	260.18
371.593	275.54
371.974	285.71
372.355	268.99
372.736	292.72
373.117	265.83
373.498	268.99
373.879	283.45
374.26	278.03
374.641	299.27
375.021	280.74
375.402	280.29
375.783	285.03
376.163	287.52
376.544	285.26
376.925	285.94
377.305	275.32
377.686	280.29
378.066	280.74
378.447	289.55
378.827	287.07
379.208	305.6
379.588	303.11
379.968	293.85
380.349	284.58
380.729	282.78
381.109	294.3
381.489	302.44
381.87	282.55
382.25	280.52
382.63	286.62
383.01	300.63
383.39	300.18
383.77	298.82
384.15	293.62
384.53	305.6
384.91	274.41
385.29	303.34
385.67	294.3
386.049	297.92
386.429	321.19
386.809	296.79
387.189	277.58
387.568	290.68
387.948	296.56
388.328	295.2
388.707	294.98
389.087	303.34
389.466	297.01
389.846	312.15
390.225	272.83
390.605	303.11
390.984	309.22
391.363	301.53
391.743	295.88
392.122	302.89
392.501	316.22
392.881	292.04
393.26	330.46
393.639	308.54
394.018	297.92
394.397	315.99
394.776	285.49
395.155	291.36
395.534	291.59
395.913	314.41
396.292	289.55
396.671	294.75
397.05	306.73
397.429	300.63
397.808	318.25
398.186	308.31
398.565	309.89
398.944	295.88
399.323	296.33
399.701	323.45
400.08	293.4
400.458	320.97
400.837	290.46
401.215	311.25
401.594	301.08
401.972	305.15
402.351	309.67
402.729	311.93
403.107	337.24
403.486	313.96
403.864	335.43
404.242	287.52
404.62	305.15
404.999	317.35
405.377	322.77
405.755	304.47
406.133	322.77
406.511	314.86
406.889	322.55
407.267	333.4
407.645	310.8
408.023	297.92
408.401	309.44
408.779	318.48
409.156	317.35
409.534	301.76
409.912	317.8
410.29	333.85
410.667	331.59
411.045	306.5
411.422	320.06
411.8	314.86
412.178	313.73
412.555	301.08
412.933	321.64
413.31	311.47
413.687	335.88
414.065	313.96
414.442	330.46
414.819	315.32
415.197	322.77
415.574	317.58
415.951	315.54
416.328	335.66
416.705	325.03
417.082	335.88
417.46	323.68
417.837	342.66
418.214	348.31
418.591	325.26
418.967	331.36
419.344	320.06
419.721	306.28
420.098	333.17
420.475	334.53
420.852	324.58
421.228	336.78
421.605	338.59
421.982	319.61
422.358	310.57
422.735	318.25
423.111	342.43
423.488	330.23
423.864	324.81
424.241	329.33
424.617	340.17
424.994	318.93
425.37	353.51
425.746	362.32
426.123	333.17
426.499	327.97
426.875	345.6
427.251	348.54
427.627	323.9
428.003	333.17
428.379	325.03
428.756	354.86
429.132	352.83
429.507	337.24
429.883	344.02
430.259	355.77
430.635	334.98
431.011	351.7
431.387	329.78
431.763	339.27
432.138	341.53
432.514	345.82
432.89	373.39
433.265	357.12
433.641	362.32
434.016	355.77
434.392	345.6
434.767	363.68
435.143	336.78
435.518	356.22
435.894	347.18
436.269	364.58
436.644	350.34
437.02	347.86
437.395	353.28
437.77	344.92
438.145	352.15
438.52	349.21
438.895	375.65
439.271	358.93
439.646	348.31
440.021	370.46
440.395	365.03
440.77	372.26
441.145	373.17
441.52	384.47
441.895	376.78
442.27	361.19
442.645	367.29
443.019	386.95
443.394	389.66
443.769	365.94
444.143	368.2
444.518	342.89
444.892	377.91
445.267	364.58
445.641	385.15
446.016	364.35
446.39	365.03
446.764	362.55
447.139	372.49
447.513	389.66
447.887	383.79
448.262	379.5
448.636	375.43
449.01	379.27
449.384	377.91
449.758	373.85
450.132	383.34
450.506	382.66
450.88	395.09
451.254	372.72
451.628	365.26
452.002	401.42
452.376	390.34
452.75	379.95
453.123	404.35
453.497	395.99
453.871	388.53
454.244	395.99
454.618	391.92
454.992	400.96
455.365	406.84
455.739	392.6
456.112	393.28
456.486	391.7
456.859	398.48
457.232	400.51
457.606	378.14
457.979	421.53
458.352	413.17
458.725	426.05
459.099	400.06
459.472	388.99
459.845	410.23
460.218	401.87
460.591	418.59
460.964	414.3
461.337	410.23
461.71	414.75
462.083	410.91
462.456	426.5
462.829	427.18
463.201	439.16
463.574	424.92
463.947	431.47
464.32	421.3
464.692	433.28
465.065	458.82
465.438	433.96
465.81	438.03
466.183	456.56
466.555	433.05
466.928	443.9
467.3	434.64
467.672	446.84
468.045	449.32
468.417	447.06
468.789	459.49
469.161	462.88
469.534	477.12
469.906	472.6
470.278	460.85
470.65	460.62
471.022	482.09
471.394	468.98
471.766	480.28
472.138	456.78
472.51	476.22
472.882	512.37
473.253	473.5
473.625	491.81
473.997	502.88
474.369	503.56
474.74	490.45
475.112	525.71
475.484	519.15
475.855	494.29
476.227	517.12
476.598	521.41
476.97	526.16
477.341	535.2
477.713	530
478.084	538.36
478.455	523.22
478.827	538.59
479.198	569.1
479.569	534.29
479.94	541.3
480.311	545.14
480.682	560.96
481.053	552.37
481.424	593.95
481.795	582.43
482.166	570.45
482.537	577
482.908	576.78
483.279	585.14
483.65	611.35
484.021	620.85
484.391	624.23
484.762	621.07
485.133	631.69
485.503	634.63
485.874	621.98
486.244	634.18
486.615	652.48
486.985	667.62
487.356	643.22
487.726	674.63
488.097	654.52
488.467	677.11
488.837	689.32
489.207	652.03
489.578	686.15
489.948	698.13
490.318	691.58
490.688	704.91
491.058	704.01
491.428	698.13
491.798	711.92
492.168	713.95
492.538	720.73
492.908	709.88
493.278	729.09
493.648	726.38
494.017	720.5
494.387	727.96
494.757	748.75
495.126	767.06
495.496	732.71
495.866	746.27
496.235	769.32
496.605	745.81
496.974	761.86
497.344	770.9
497.713	748.98
498.082	761.41
498.452	787.62
498.821	799.82
499.19	781.52
499.559	797.11
499.928	793.95
500.298	802.76
500.667	787.85
501.036	821.07
501.405	807.96
501.774	808.41
502.143	821.07
502.512	792.14
502.88	793.5
503.249	805.93
503.618	811.57
503.987	810.67
504.356	825.36
504.724	826.26
505.093	815.64
505.462	822.87
505.83	838.47
506.199	841.18
506.567	835.3
506.936	823.33
507.304	839.14
507.672	838.47
508.041	873.27
508.409	869.65
508.777	839.6
509.145	868.75
509.514	876.66
509.882	864.91
510.25	871.01
510.618	875.53
510.986	872.82
511.354	870.33
511.722	877.34
512.09	907.17
512.458	898.13
512.826	899.71
513.193	911.69
513.561	897.9
513.929	910.78
514.297	914.62
514.664	934.06
515.032	901.52
515.4	892.48
515.767	907.17
516.135	907.39
516.502	911.01
516.869	926.37
517.237	905.81
517.604	901.06
517.972	909.88
518.339	913.49
518.706	933.15
519.073	929.54
519.44	932.7
519.808	940.16
520.175	942.42
520.542	953.04
520.909	929.09
521.276	943.77
521.643	936.77
522.009	950.33
522.376	952.14
522.743	950.1
523.11	923.21
523.477	967.28
523.843	998.69
524.21	964.57
524.577	969.54
524.943	983.77
525.31	983.77
525.676	1010.21
526.043	1021.29
526.409	988.07
526.776	1007.5
527.142	1014.51
527.508	1009.99
527.874	990.55
528.241	976.54
528.607	1005.69
528.973	1033.04
529.339	1002.98
529.705	1029.65
530.071	1012.93
530.437	1022.64
530.803	1021.74
531.169	1000.27
531.535	1009.99
531.901	989.2
532.267	1025.81
532.632	1034.17
532.998	1032.81
533.364	1016.77
533.73	1038.24
534.095	1027.39
534.461	1010.89
534.826	1034.62
535.192	1046.82
535.557	1030.78
535.923	1048.4
536.288	1030.55
536.653	1017.22
537.019	1053.15
537.384	1058.8
537.749	1023.32
538.114	1042.53
538.479	1044.34
538.845	1066.48
539.21	1031
539.575	1037.78
539.94	1020.16
540.305	1050.66
540.67	1052.92
541.034	1052.92
541.399	1039.59
541.764	1045.47
542.129	1041.85
542.494	1054.96
542.858	1035.07
543.223	1058.57
543.587	1049.53
543.952	1047.5
544.316	1023.32
544.681	1065.35
545.045	1041.63
545.41	1075.07
545.774	1065.13
546.138	1037.11
546.503	1035.52
546.867	1061.51
547.231	1086.82
547.595	1043.88
547.959	1050.21
548.324	1061.51
548.688	1036.65
549.052	1050.66
549.416	1057.44
549.779	1065.13
550.143	1073.71
550.507	1044.56
550.871	1067.16
551.235	1101.51
551.599	1053.15
551.962	1085.47
552.326	1085.24
552.689	1065.81
553.053	1078.01
553.417	1065.13
553.78	1093.15
554.143	1067.16
554.507	1079.14
554.87	1096.99
555.234	1111.91
555.597	1057.9
555.96	1085.69
556.323	1102.87
556.686	1081.17
557.05	1128.18
557.413	1075.75
557.776	1089.76
558.139	1095.64
558.502	1108.52
558.865	1075.52
559.228	1115.3
559.59	1101.51
559.953	1096.31
560.316	1109.19
560.679	1118.69
561.041	1112.13
561.404	1137.89
561.767	1122.08
562.129	1119.14
562.492	1124.11
562.854	1128.85
563.217	1149.42
563.579	1141.74
563.941	1163.43
564.304	1134.05
564.666	1124.33
565.028	1171.57
565.39	1131.34
565.753	1149.87
566.115	1130.89
566.477	1166.82
566.839	1163.66
567.201	1133.83
567.563	1158.23
567.925	1166.59
568.287	1167.72
568.648	1147.16
569.01	1168.4
569.372	1153.71
569.734	1181.28
570.095	1177.67
570.457	1173.15
570.819	1171.11
571.18	1190.1
571.542	1144
571.903	1164.56
572.265	1186.48
572.626	1194.39
572.987	1181.96
573.349	1152.58
573.71	1189.87
574.071	1158.46
574.432	1173.6
574.794	1185.35
575.155	1182.19
575.516	1195.97
575.877	1188.51
576.238	1179.25
576.599	1191.23
576.96	1183.32
577.32	1213.15
577.681	1187.16
578.042	1163.66
578.403	1219.47
578.763	1166.82
579.124	1184.45
579.485	1204.33
579.845	1198.91
580.206	1191.45
580.566	1190.77
580.927	1195.29
581.287	1172.02
581.648	1184.22
582.008	1188.74
582.368	1172.7
582.728	1188.74
583.089	1160.04
583.449	1178.57
583.809	1158.01
584.169	1180.83
584.529	1168.63
584.889	1183.54
585.249	1176.99
585.609	1174.73
585.969	1165.01
586.329	1154.84
586.688	1165.69
587.048	1150.77
587.408	1157.33
587.768	1158.91
588.127	1150.1
588.487	1140.38
588.846	1159.36
589.206	1155.75
589.565	1166.82
589.925	1161.85
590.284	1135.18
590.643	1151.23
591.003	1155.07
591.362	1166.59
591.721	1136.76
592.08	1144.9
592.44	1141.28
592.799	1173.15
593.158	1146.93
593.517	1141.51
593.876	1160.72
594.235	1148.97
594.593	1141.28
594.952	1159.59
595.311	1169.98
595.67	1164.79
596.029	1143.77
596.387	1162.3
596.746	1156.2
597.104	1133.37
597.463	1134.28
597.822	1138.35
598.18	1157.78
598.538	1100.83
598.897	1158.01
599.255	1141.51
599.613	1147.61
599.972	1173.6
600.33	1157.55
600.688	1165.01
601.046	1154.16
601.404	1185.35
601.762	1168.63
602.12	1156.88
602.478	1166.82
602.836	1168.63
603.194	1170.44
603.552	1159.81
603.91	1154.39
604.268	1144.45
604.625	1165.69
604.983	1164.33
605.341	1161.62
605.698	1191.68
606.056	1178.8
606.413	1185.58
606.771	1185.8
607.128	1180.6
607.485	1193.94
607.843	1200.27
608.2	1177.67
608.557	1180.38
608.914	1214.05
609.272	1179.47
609.629	1198.23
609.986	1207.72
610.343	1157.1
610.7	1165.24
611.057	1217.21
611.414	1192.13
611.771	1164.11
612.127	1187.61
612.484	1200.04
612.841	1183.77
613.198	1178.34
613.554	1192.58
613.911	1183.77
614.267	1186.03
614.624	1177.89
614.98	1180.15
615.337	1201.62
615.693	1185.12
616.05	1182.19
616.406	1226.71
616.762	1198.01
617.118	1193.71
617.475	1194.84
617.831	1202.75
618.187	1203.43
618.543	1191
618.899	1206.37
619.255	1209.3
619.611	1198.46
619.967	1210.66
620.323	1184.9
620.678	1178.57
621.034	1189.42
621.39	1205.69
621.746	1182.86
622.101	1213.6
622.457	1201.62
622.812	1189.19
623.168	1225.12
623.523	1212.24
623.879	1207.95
624.234	1221.96
624.589	1203.43
624.945	1208.4
625.3	1196.65
625.655	1193.03
626.01	1204.33
626.365	1185.35
626.72	1209.08
627.075	1186.03
627.43	1190.32
627.785	1219.7
628.14	1183.32
628.495	1182.86
628.85	1195.07
629.205	1186.93
629.559	1183.54
629.914	1181.28
630.269	1222.64
630.623	1214.5
630.978	1212.92
631.332	1201.62
631.687	1216.54
632.041	1203.2
632.396	1182.64
632.75	1205.91
633.104	1208.63
633.459	1210.43
633.813	1193.26
634.167	1189.19
634.521	1190.32
634.875	1194.84
635.229	1205.46
635.583	1190.77
635.937	1193.71
636.291	1193.94
636.645	1202.52
636.999	1204.56
637.352	1201.62
637.706	1182.64
638.06	1171.11
638.413	1208.4
638.767	1185.58
639.121	1197.1
639.474	1205.69
639.828	1187.16
640.181	1197.33
640.534	1186.71
640.888	1181.96
641.241	1165.92
641.594	1200.94
641.947	1214.5
642.301	1194.39
642.654	1198.01
643.007	1191
643.36	1166.59
643.713	1183.99
644.066	1197.55
644.419	1199.59
644.771	1166.14
645.124	1178.8
645.477	1177.44
645.83	1165.24
646.182	1176.99
646.535	1164.56
646.888	1171.34
647.24	1191.45
647.593	1164.11
647.945	1174.5
648.298	1205.46
648.65	1172.7
649.002	1179.93
649.355	1169.98
649.707	1173.83
650.059	1213.15
650.411	1219.7
650.763	1207.72
651.115	1200.72
651.467	1197.33
651.819	1228.29
652.171	1215.86
652.523	1226.03
652.875	1231.45
653.227	1232.13
653.578	1245.24
653.93	1242.07
654.282	1239.13
654.633	1243.2
654.985	1249.76
655.337	1247.5
655.688	1270.09
656.039	1245.69
656.391	1249.76
656.742	1265.57
657.094	1263.09
657.445	1265.35
657.796	1233.26
658.147	1278.23
658.498	1243.88
658.849	1293.82
659.2	1286.59
659.551	1252.24
659.902	1296.99
660.253	1281.17
660.604	1313.03
660.955	1298.57
661.306	1292.47
661.656	1313.71
662.007	1315.06
662.358	1316.42
662.708	1318
663.059	1343.09
663.409	1351.22
663.76	1313.03
664.11	1336.98
664.461	1353.26
664.811	1356.65
665.161	1374.72
665.511	1356.19
665.862	1397.77
666.212	1396.42
666.562	1379.47
666.912	1388.73
667.262	1393.71
667.612	1413.82
667.962	1424.21
668.312	1433.93
668.662	1441.61
669.011	1439.58
669.361	1433.48
669.711	1447.04
670.06	1464.89
670.41	1478.68
670.76	1482.07
671.109	1505.57
671.459	1513.25
671.808	1526.13
672.157	1548.73
672.507	1527.04
672.856	1532.46
673.205	1541.05
673.554	1582.85
673.904	1544.89
674.253	1578.56
674.602	1584.66
674.951	1602.74
675.3	1582.4
675.649	1603.87
675.998	1647.94
676.346	1641.84
676.695	1670.08
677.044	1665.11
677.393	1665.56
677.741	1664.21
678.09	1703.98
678.438	1718.67
678.787	1720.25
679.135	1725.9
679.484	1783.75
679.832	1805.45
680.181	1755.28
680.529	1778.1
680.877	1788.95
681.225	1820.36
681.573	1808.61
681.922	1832.34
682.27	1873.02
682.618	1859.91
682.966	1907.14
683.314	1883.64
683.661	1898.33
684.009	1911.21
684.357	1899.46
684.705	1909.17
685.053	1932.9
685.4	1948.49
685.748	1966.57
686.095	2017.87
686.443	2024.88
686.79	1994.82
687.138	2053.8
687.485	2060.36
687.832	2033.92
688.18	2086.57
688.527	2096.96
688.874	2099.9
689.221	2114.59
689.568	2147.81
689.915	2155.72
690.262	2171.09
690.609	2188.26
690.956	2188.71
691.303	2202.95
691.65	2201.59
691.997	2240.01
692.344	2259.45
692.69	2256.73
693.037	2296.28
693.383	2286.56
693.73	2333.12
694.077	2334.47
694.423	2318.88
694.769	2355.94
695.116	2366.34
695.462	2364.53
695.808	2394.36
696.155	2393.68
696.501	2372.89
696.847	2425.77
697.193	2436.84
697.539	2493.79
697.885	2480.46
698.231	2499.67
698.577	2526.56
698.923	2535.82
699.269	2573.34
699.614	2507.8
699.96	2581.25
700.306	2608.36
700.651	2602.71
700.997	2587.12
701.342	2626.44
701.688	2646.1
702.033	2661.92
702.379	2662.37
702.724	2702.15
703.069	2746.21
703.415	2703.73
703.76	2738.76
704.105	2747.34
704.45	2775.82
704.795	2776.27
705.14	2765.42
705.485	2781.47
705.83	2795.93
706.175	2835.48
706.52	2838.19
706.865	2865.53
707.209	2831.86
707.554	2877.96
707.899	2934.91
708.243	2908.92
708.588	2960.44
708.932	2917.96
709.277	2905.76
709.621	2947.56
709.966	2932.2
710.31	2982.14
710.654	2973.33
710.998	2999.09
711.342	3000.22
711.687	3086.77
712.031	3025.3
712.375	3039.54
712.719	3094.68
713.063	3089.48
713.407	3072.76
713.75	3074.79
714.094	3084.51
714.438	3107.33
714.782	3133.1
715.125	3134.9
715.469	3146.88
715.812	3183.94
716.156	3156.37
716.499	3162.25
716.843	3202.25
717.186	3187.11
717.53	3221.45
717.873	3225.3
718.216	3203.6
718.559	3211.74
718.902	3264.62
719.246	3273.2
719.589	3263.26
719.932	3266.43
720.275	3248.12
720.617	3289.93
720.96	3293.77
721.303	3294
721.646	3335.58
721.989	3322.7
722.331	3303.49
722.674	3356.14
723.016	3328.12
723.359	3387.78
723.701	3388.23
724.044	3334.22
724.386	3372.41
724.729	3356.82
725.071	3381.22
725.413	3380.77
725.755	3377.83
726.097	3390.94
726.439	3388.46
726.782	3385.29
727.124	3374.45
727.465	3354.56
727.807	3442.47
728.149	3408.34
728.491	3406.31
728.833	3444.27
729.175	3435.91
729.516	3396.59
729.858	3435.91
730.199	3474.1
730.541	3428.23
730.882	3451.05
731.224	3426.42
731.565	3463.71
731.906	3438.17
732.248	3455.12
732.589	3461.67
732.93	3418.96
733.271	3446.53
733.612	3478.17
733.953	3443.6
734.294	3484.95
734.635	3429.81
734.976	3457.15
735.317	3454.22
735.658	3475.23
735.999	3438.85
736.339	3463.93
736.68	3459.41
737.021	3463.26
737.361	3465.52
737.702	3490.37
738.042	3428.23
738.383	3473.2
738.723	3501.67
739.063	3487.21
739.404	3449.25
739.744	3483.14
740.084	3446.99
740.424	3497.61
740.764	3460.32
741.104	3525.63
741.444	3427.55
741.784	3441.34
742.124	3486.98
742.464	3429.58
742.804	3464.84
743.143	3433.43
743.483	3451.51
743.823	3446.08
744.162	3427.33
744.502	3458.06
744.841	3459.64
745.181	3438.4
745.52	3431.62
745.86	3446.76
746.199	3443.6
746.538	3430.26
746.877	3449.47
747.216	3451.28
747.556	3468.91
747.895	3464.39
748.234	3416.7
748.573	3411.96
748.911	3439.08
749.25	3448.12
749.589	3446.99
749.928	3433.43
750.267	3399.3
750.605	3413.54
750.944	3450.6
751.283	3386.87
751.621	3392.75
751.96	3380.09
752.298	3400.21
752.636	3362.92
752.975	3380.09
753.313	3423.94
753.651	3400.43
753.989	3362.24
754.327	3360.89
754.666	3336.93
755.004	3352.98
755.342	3360.43
755.679	3374.67
756.017	3320.66
756.355	3381.68
756.693	3316.37
757.031	3289.25
757.368	3300.55
757.706	3323.37
758.044	3297.61
758.381	3294.9
758.719	3308.23
759.056	3314.33
759.394	3252.87
759.731	3237.27
760.068	3259.65
760.405	3256.48
760.743	3259.87
761.08	3251.51
761.417	3214.22
761.754	3227.33
762.091	3226.43
762.428	3191.63
762.765	3191.85
763.102	3223.26
763.438	3203.83
763.775	3166.54
764.112	3138.97
764.449	3162.25
764.785	3188.91
765.122	3150.5
765.458	3077.28
765.795	3174.9
766.131	3139.65
766.467	3097.39
766.804	3103.27
767.14	3068.46
767.476	3070.72
767.812	3077.5
768.148	3094.23
768.485	3052.65
768.821	3061.46
769.157	3072.98
769.492	3038.86
769.828	2997.96
770.164	3040.67
770.5	3016.49
770.836	3010.61
771.171	2999.77
771.507	2946.21
771.842	2985.75
772.178	2984.62
772.513	2924.06
772.849	2986.66
773.184	2953.21
773.519	2936.04
773.855	2946.21
774.19	2919.09
774.525	2934
