Data from carpet_green_FLMS001491_00041.txt Node
Date: Wed Feb 08 10:35:24 GMT 2017
User: dcchb
Spectrometer: FLMS00149
Trigger mode: 0
Integration Time (sec): 2.000000E-2
Scans to average: 10
Electric dark correction enabled: true
Nonlinearity correction enabled: false
Boxcar width: 0
XAxis mode: Wavelengths
Number of Pixels in Spectrum: 2048
>>>>>Begin Spectral Data<<<<<
341.393	6.86
341.776	6.86
342.16	6.86
342.543	-60.03
342.927	-74.26
343.31	-68.39
343.693	-90.99
344.077	-51.89
344.46	-54.38
344.843	-63.64
345.226	-36.3
345.61	-23.42
345.993	-23.42
346.376	-13.7
346.759	17.71
347.142	42.57
347.525	54.09
347.908	53.87
348.291	73.08
348.674	69.46
349.057	115.34
349.44	116.92
349.823	140.65
350.206	161.21
350.588	170.7
350.971	185.16
351.354	184.03
351.737	213.86
352.119	221.1
352.502	249.57
352.884	253.86
353.267	236.46
353.65	250.02
354.032	275.78
354.414	272.39
354.797	278.27
355.179	285.5
355.562	280.08
355.944	267.87
356.326	297.7
356.709	294.31
357.091	303.13
357.473	308.55
357.855	324.37
358.238	318.27
358.62	309.23
359.002	309.91
359.384	300.64
359.766	297.48
360.148	328.21
360.53	294.31
360.912	307.65
361.294	329.12
361.676	297.25
362.057	285.05
362.439	302
362.821	295.22
363.203	283.92
363.584	299.74
363.966	304.48
364.348	317.14
364.729	274.2
365.111	298.83
365.493	301.32
365.874	283.69
366.256	278.95
366.637	283.02
367.019	284.82
367.4	275.56
367.781	293.64
368.163	295.44
368.544	252.73
368.925	306.74
369.306	289.34
369.688	280.53
370.069	280.3
370.45	270.13
370.831	295.9
371.212	288.89
371.593	280.3
371.974	284.6
372.355	267.2
372.736	283.92
373.117	282.11
373.498	290.7
373.879	265.16
374.26	311.26
374.641	286.4
375.021	276.69
375.402	271.72
375.783	290.7
376.163	258.16
376.544	297.48
376.925	292.05
377.305	280.98
377.686	279.4
378.066	298.83
378.447	261.32
378.827	305.61
379.208	294.54
379.588	276.46
379.968	280.76
380.349	276.01
380.729	282.34
381.109	273.3
381.489	268.1
381.87	312.17
382.25	288.44
382.63	313.3
383.01	284.37
383.39	300.19
383.77	286.63
384.15	292.96
384.53	279.63
384.91	285.05
385.29	299.51
385.67	300.19
386.049	293.18
386.429	302.68
386.809	291.15
387.189	318.49
387.568	297.48
387.948	304.26
388.328	307.2
388.707	276.01
389.087	315.78
389.466	292.51
389.846	309.23
390.225	308.1
390.605	287.99
390.984	296.35
391.363	301.09
391.743	305.39
392.122	313.52
392.501	277.82
392.881	314.2
393.26	295.67
393.639	296.12
394.018	273.98
394.397	309.46
394.776	322.56
395.155	304.94
395.534	303.58
395.913	301.55
396.292	312.17
396.671	327.99
397.05	297.03
397.429	315.56
397.808	316.01
398.186	297.48
398.565	299.96
398.944	312.62
399.323	311.49
399.701	306.97
400.08	314.2
400.458	310.81
400.837	302.9
401.215	317.36
401.594	309.23
401.972	286.18
402.351	313.97
402.729	326.86
403.107	310.59
403.486	311.04
403.864	302.68
404.242	303.81
404.62	303.13
404.999	301.77
405.377	301.77
405.755	317.82
406.133	330.92
406.511	322.11
406.889	304.26
407.267	330.92
407.645	297.7
408.023	326.4
408.401	333.64
408.779	325.95
409.156	316.23
409.534	336.57
409.912	321.43
410.29	322.56
410.667	333.18
411.045	312.62
411.422	341.09
411.8	314.65
412.178	334.99
412.555	336.57
412.933	329.12
413.31	311.26
413.687	330.47
414.065	339.96
414.442	319.17
414.819	304.48
415.197	347.87
415.574	312.62
415.951	334.31
416.328	322.11
416.705	334.31
417.082	313.3
417.46	339.51
417.837	339.06
418.214	318.04
418.591	327.53
418.967	330.02
419.344	334.09
419.721	337.03
420.098	310.81
420.475	315.56
420.852	346.06
421.228	336.12
421.605	337.7
421.982	344.48
422.358	331.6
422.735	340.87
423.111	354.43
423.488	329.57
423.864	345.84
424.241	344.71
424.617	366.85
424.994	354.2
425.37	327.76
425.746	349
426.123	330.47
426.499	344.03
426.875	324.14
427.251	339.28
427.627	349.45
428.003	342
428.379	339.51
428.756	360.53
429.132	350.58
429.507	351.04
429.883	350.58
430.259	365.72
430.635	356.46
431.011	349.23
431.387	364.59
431.763	335.44
432.138	371.83
432.514	356.23
432.89	362.56
433.265	353.97
433.641	353.97
434.016	355.33
434.392	348.55
434.767	370.02
435.143	376.8
435.518	370.24
435.894	362.34
436.269	354.88
436.644	364.37
437.02	359.4
437.395	369.57
437.77	367.08
438.145	394.88
438.52	366.18
438.895	385.84
439.271	362.79
439.646	392.39
440.021	377.93
440.395	395.78
440.77	394.2
441.145	385.39
441.52	388.78
441.895	367.31
442.27	374.54
442.645	377.25
443.019	386.52
443.394	382.9
443.769	374.09
444.143	378.61
444.518	382.45
444.892	376.8
445.267	377.48
445.641	399.17
446.016	398.49
446.39	373.41
446.764	400.07
447.139	382
447.513	365.05
447.887	383.58
448.262	384.26
448.636	418.38
449.01	396.23
449.384	403.69
449.758	403.69
450.132	396.01
450.506	407.53
450.88	395.55
451.254	389.68
451.628	405.5
452.002	403.92
452.376	400.07
452.75	409.34
453.123	402.11
453.497	398.72
453.871	413.86
454.244	421.54
454.618	424.25
454.992	443.24
455.365	437.59
455.739	401.88
456.112	448.43
456.486	417.93
456.859	432.39
457.232	430.13
457.606	436.46
457.979	444.37
458.352	452.5
458.725	435.78
459.099	446.85
459.472	439.17
459.845	458.83
460.218	461.54
460.591	424.25
460.964	438.49
461.337	461.77
461.71	459.51
462.083	437.81
462.456	437.36
462.829	455.21
463.201	472.61
463.574	471.03
463.947	452.05
464.32	459.73
464.692	458.83
465.065	486.85
465.438	481.43
465.81	469
466.183	460.64
466.555	471.94
466.928	495.44
467.3	500.86
467.672	508.55
468.045	497.02
468.417	526.17
468.789	494.76
469.161	489.34
469.534	512.16
469.906	496.12
470.278	526.17
470.65	514.2
471.022	512.16
471.394	511.03
471.766	538.38
472.138	533.63
472.51	534.76
472.882	535.44
473.253	559.39
473.625	509.68
473.997	542.9
474.369	538.6
474.74	547.19
475.112	547.41
475.484	552.16
475.855	561.65
476.227	564.14
476.598	558.04
476.97	580.86
477.341	572.95
477.713	572.05
478.084	600.52
478.455	608.43
478.827	604.81
479.198	605.27
479.569	600.29
479.94	593.06
480.311	636.45
480.682	633.29
481.053	640.52
481.424	625.83
481.795	629.67
482.166	654.08
482.537	656.56
482.908	641.65
483.279	664.25
483.65	672.38
484.021	662.44
484.391	685.94
484.762	693.17
485.133	698.82
485.503	683.46
485.874	701.76
486.244	708.77
486.615	731.82
486.985	727.75
487.356	739.05
487.726	735.21
488.097	744.25
488.467	747.41
488.837	779.95
489.207	745.6
489.578	778.82
489.948	782.21
490.318	791.7
490.688	791.25
491.058	793.74
491.428	791.48
491.798	799.84
492.168	817.46
492.538	829.22
492.908	822.89
493.278	829.44
493.648	828.99
494.017	833.74
494.387	845.49
494.757	857.69
495.126	858.82
495.496	859.5
495.866	872.83
496.235	868.76
496.605	876.9
496.974	864.47
497.344	876.22
497.713	893.17
498.082	880.74
498.452	894.75
498.821	900.4
499.19	913.51
499.559	890
499.928	898.82
500.298	913.51
500.667	919.83
501.036	926.84
501.405	894.52
501.774	924.35
502.143	919.61
502.512	938.82
502.88	942.43
503.249	948.76
503.618	915.99
503.987	955.99
504.356	952.15
504.724	953.73
505.093	954.18
505.462	960.96
505.83	986.5
506.199	971.58
506.567	982.43
506.936	984.24
507.304	1008.87
507.672	982.21
508.041	993.96
508.409	983.34
508.777	985.14
509.145	1001.87
509.514	1008.19
509.882	984.24
510.25	971.13
510.618	1011.81
510.986	1001.87
511.354	1032.37
511.722	1007.97
512.09	1009.1
512.458	1045.03
512.826	1028.76
513.193	1026.72
513.561	994.86
513.929	1054.07
514.297	1045.03
514.664	1043.67
515.032	1047.51
515.4	1058.14
515.767	1063.11
516.135	1069.89
516.502	1035.09
516.869	1071.69
517.237	1073.95
517.604	1067.4
517.972	1070.11
518.339	1076.44
518.706	1084.12
519.073	1081.41
519.44	1068.98
519.808	1087.51
520.175	1102.2
520.542	1099.04
520.909	1102.65
521.276	1110.79
521.643	1117.12
522.009	1107.63
522.376	1096.1
522.743	1102.65
523.11	1142.2
523.477	1115.76
523.843	1160.96
524.21	1139.04
524.577	1151.01
524.943	1122.09
525.31	1147.85
525.676	1134.52
526.043	1152.6
526.409	1168.42
526.776	1148.76
527.142	1168.19
527.508	1168.87
527.874	1180.17
528.241	1166.38
528.607	1168.42
528.973	1180.62
529.339	1182.2
529.705	1176.33
530.071	1188.53
530.437	1252.48
530.803	1202.99
531.169	1202.76
531.535	1191.92
531.901	1197.57
532.267	1172.71
532.632	1187.62
532.998	1213.84
533.364	1212.26
533.73	1240.28
534.095	1207.28
534.461	1244.8
534.826	1210.45
535.192	1216.78
535.557	1214.29
535.923	1210
536.288	1204.35
536.653	1202.99
537.019	1225.14
537.384	1224.23
537.749	1200.51
538.114	1222.2
538.479	1221.75
538.845	1202.99
539.21	1230.79
539.575	1221.97
539.94	1186.72
540.305	1219.94
540.67	1223.56
541.034	1258.58
541.399	1211.8
541.764	1233.5
542.129	1229.43
542.494	1218.81
542.858	1211.58
543.223	1225.14
543.587	1220.84
543.952	1230.11
544.316	1238.92
544.681	1228.75
545.045	1242.09
545.41	1212.93
545.774	1231.69
546.138	1224.01
546.503	1237.11
546.867	1223.56
547.231	1236.89
547.595	1224.01
547.959	1231.46
548.324	1240.05
548.688	1230.79
549.052	1232.82
549.416	1220.62
549.779	1235.98
550.143	1249.32
550.507	1269.2
550.871	1258.36
551.235	1216.78
551.599	1241.63
551.962	1285.25
552.326	1238.47
552.689	1240.28
553.053	1268.3
553.417	1257
553.78	1249.77
554.143	1218.36
554.507	1236.21
554.87	1239.6
555.234	1249.32
555.597	1254.52
555.96	1246.61
556.323	1270.79
556.686	1255.87
557.05	1260.84
557.413	1265.81
557.776	1274.63
558.139	1249.77
558.502	1287.28
558.865	1268.3
559.228	1283.89
559.59	1305.59
559.953	1316.66
560.316	1291.12
560.679	1296.55
561.041	1315.3
561.404	1300.16
561.767	1293.84
562.129	1314.85
562.492	1287.96
562.854	1281.86
563.217	1309.88
563.579	1297.68
563.941	1316.66
564.304	1307.17
564.666	1297
565.028	1322.99
565.39	1293.84
565.753	1323.89
566.115	1307.62
566.477	1300.39
566.839	1322.76
567.201	1328.86
567.563	1343.78
567.925	1323.67
568.287	1322.31
568.648	1338.58
569.01	1348.52
569.372	1329.09
569.734	1341.29
570.095	1360.73
570.457	1342.2
570.819	1329.77
571.18	1355.76
571.542	1331.12
571.903	1312.37
572.265	1363.89
572.626	1313.95
572.987	1368.86
573.349	1336.55
573.71	1354.17
574.071	1367.51
574.432	1342.87
574.794	1338.35
575.155	1352.14
575.516	1344.91
575.877	1353.04
576.238	1346.94
576.599	1366.83
576.96	1344
577.32	1345.81
577.681	1348.07
578.042	1348.98
578.403	1338.13
578.763	1337.45
579.124	1324.12
579.485	1353.72
579.845	1345.13
580.206	1338.13
580.566	1327.73
580.927	1341.74
581.287	1319.37
581.648	1312.82
582.008	1342.65
582.368	1300.62
582.728	1346.72
583.089	1320.05
583.449	1316.21
583.809	1343.33
584.169	1318.47
584.529	1317.11
584.889	1337.22
585.249	1330.67
585.609	1304.46
585.969	1323.67
586.329	1320.5
586.688	1296.77
587.048	1318.69
587.408	1313.04
587.768	1304.23
588.127	1282.99
588.487	1281.86
588.846	1295.87
589.206	1291.8
589.565	1278.02
589.925	1289.77
590.284	1297.68
590.643	1299.26
591.003	1287.51
591.362	1286.83
591.721	1287.28
592.08	1299.03
592.44	1296.1
592.799	1272.82
593.158	1269.88
593.517	1300.62
593.876	1282.99
594.235	1291.35
594.593	1292.93
594.952	1303.78
595.311	1265.59
595.67	1265.14
596.029	1276.66
596.387	1278.02
596.746	1283.21
597.104	1301.75
597.463	1283.21
597.822	1311.24
598.18	1274.4
598.538	1261.75
598.897	1284.8
599.255	1250.9
599.613	1293.61
599.972	1257.9
600.33	1319.37
600.688	1265.81
601.046	1299.03
601.404	1284.34
601.762	1289.09
602.12	1286.38
602.478	1295.64
602.836	1295.64
603.194	1288.86
603.552	1277.34
603.91	1324.57
604.268	1316.66
604.625	1298.81
604.983	1312.59
605.341	1299.94
605.698	1283.89
606.056	1314.85
606.413	1314.4
606.771	1305.36
607.128	1287.96
607.485	1300.84
607.843	1344.23
608.2	1325.25
608.557	1313.95
608.914	1321.41
609.272	1317.11
609.629	1313.5
609.986	1318.69
610.343	1317.79
610.7	1324.8
611.057	1335.64
611.414	1325.25
611.771	1325.93
612.127	1337
612.484	1322.54
612.841	1346.04
613.198	1326.38
613.554	1340.84
613.911	1356.66
614.267	1306.04
614.624	1322.08
614.98	1336.55
615.337	1346.26
615.693	1362.99
616.05	1332.93
616.406	1358.47
616.762	1345.59
617.118	1323.67
617.475	1324.12
617.831	1315.98
618.187	1345.59
618.543	1338.58
618.899	1356.43
619.255	1351.01
619.611	1347.39
619.967	1355.3
620.323	1328.64
620.678	1350.56
621.034	1335.19
621.39	1346.04
621.746	1299.03
622.101	1342.65
622.457	1327.06
622.812	1327.51
623.168	1346.26
623.523	1368.18
623.879	1344.46
624.234	1314.17
624.589	1352.37
624.945	1329.77
625.3	1328.64
625.655	1328.41
626.01	1332.03
626.365	1324.57
626.72	1341.07
627.075	1322.76
627.43	1338.81
627.785	1306.27
628.14	1325.7
628.495	1329.99
628.85	1335.19
629.205	1292.71
629.559	1344.91
629.914	1326.15
630.269	1342.2
630.623	1323.21
630.978	1315.53
631.332	1308.75
631.687	1336.09
632.041	1321.86
632.396	1333.16
632.75	1328.86
633.104	1285.7
633.459	1287.96
633.813	1329.09
634.167	1310.11
634.521	1309.65
634.875	1317.56
635.229	1327.51
635.583	1328.64
635.937	1306.27
636.291	1322.08
636.645	1301.97
636.999	1306.04
637.352	1319.6
637.706	1288.86
638.06	1313.95
638.413	1317.34
638.767	1305.81
639.121	1302.42
639.474	1313.5
639.828	1310.11
640.181	1317.79
640.534	1333.61
640.888	1297
641.241	1293.38
641.594	1318.02
641.947	1307.4
642.301	1299.26
642.654	1302.2
643.007	1321.18
643.36	1322.31
643.713	1314.63
644.066	1326.38
644.419	1319.6
644.771	1334.74
645.124	1295.87
645.477	1290.22
645.83	1304.91
646.182	1308.75
646.535	1311.69
646.888	1329.32
647.24	1291.8
647.593	1296.32
647.945	1317.79
648.298	1291.35
648.65	1311.46
649.002	1326.83
649.355	1333.38
649.707	1312.37
650.059	1329.09
650.411	1366.6
650.763	1357.34
651.115	1342.2
651.467	1313.95
651.819	1332.03
652.171	1390.56
652.523	1379.03
652.875	1376.32
653.227	1369.31
653.578	1370.67
653.93	1358.24
654.282	1377.68
654.633	1369.31
654.985	1402.08
655.337	1411.8
655.688	1380.84
656.039	1419.48
656.391	1390.33
656.742	1420.84
657.094	1437.11
657.445	1429.43
657.796	1411.35
658.147	1421.06
658.498	1425.58
658.849	1423.55
659.2	1478.01
659.551	1438.92
659.902	1439.82
660.253	1467.39
660.604	1480.5
660.955	1463.78
661.306	1487.96
661.656	1475.98
662.007	1498.35
662.358	1493.6
662.708	1490.89
663.059	1499.25
663.409	1507.84
663.76	1540.38
664.11	1534.51
664.461	1576.54
664.811	1546.48
665.161	1568.86
665.511	1545.58
665.862	1583.77
666.212	1600.04
666.562	1625.58
666.912	1602.53
667.262	1624.9
667.612	1644.11
667.962	1613.15
668.312	1629.19
668.662	1651.79
669.011	1667.39
669.361	1651.79
669.711	1675.97
670.06	1698.12
670.41	1707.38
670.76	1685.69
671.109	1741.51
671.459	1719.36
671.808	1742.19
672.157	1728.17
672.507	1761.39
672.856	1786.03
673.205	1815.18
673.554	1792.13
673.904	1798.68
674.253	1852.01
674.602	1840.49
674.951	1817.21
675.3	1830.32
675.649	1879.36
675.998	1899.7
676.346	1873.71
676.695	1935.63
677.044	1903.09
677.393	1957.1
677.741	1946.02
678.09	1937.43
678.438	1939.92
678.787	1971.33
679.135	2019.47
679.484	1993.48
679.832	2034.38
680.181	2014.72
680.529	2013.82
680.877	2026.25
681.225	2045.45
681.573	2096.07
681.922	2096.75
682.27	2102.85
682.618	2092.01
682.966	2126.81
683.314	2149.41
683.661	2131.1
684.009	2176.52
684.357	2180.82
684.705	2194.38
685.053	2193.02
685.4	2212.23
685.748	2214.04
686.095	2228.5
686.443	2252.91
686.79	2273.92
687.138	2303.3
687.485	2287.03
687.832	2329.97
688.18	2341.49
688.527	2322.96
688.874	2334.26
689.221	2401.15
689.568	2382.17
689.915	2392.11
690.262	2419.68
690.609	2410.87
690.956	2429.63
691.303	2448.38
691.65	2430.08
691.997	2467.82
692.344	2462.62
692.69	2478.66
693.037	2531.09
693.383	2508.49
693.73	2535.61
694.077	2559.34
694.423	2548.27
694.769	2557.31
695.116	2593.46
695.462	2621.71
695.808	2583.52
696.155	2663.07
696.501	2605.67
696.847	2651.09
697.193	2675.04
697.539	2670.52
697.885	2684.08
698.231	2679.34
698.577	2679.11
698.923	2707.36
699.269	2706.45
699.614	2754.81
699.96	2758.88
700.306	2777.86
700.651	2795.72
700.997	2820.8
701.342	2791.65
701.688	2794.59
702.033	2820.12
702.379	2814.7
702.724	2836.62
703.069	2841.59
703.415	2857.18
703.76	2868.94
704.105	2899.44
704.45	2861.48
704.795	2883.17
705.14	2918.43
705.485	2933.57
705.83	2964.53
706.175	2950.29
706.52	2937.86
706.865	2983.28
707.209	2971.31
707.554	3007.69
707.899	3040.23
708.243	2988.93
708.588	3019.44
708.932	3035.49
709.277	3072.55
709.621	3053.56
709.966	3099.89
710.31	3060.57
710.654	3077.52
710.998	3082.26
711.342	3082.94
711.687	3091.3
712.031	3109.61
712.375	3160.23
712.719	3157.29
713.063	3157.97
713.407	3195.71
713.75	3162.04
714.094	3146.67
714.438	3207.23
714.782	3207.68
715.125	3197.29
715.469	3245.88
715.812	3231.41
716.156	3251.3
716.499	3237.06
716.843	3261.69
717.186	3256.95
717.53	3280.9
717.873	3279.55
718.216	3261.69
718.559	3313.67
718.902	3257.4
719.246	3267.8
719.589	3242.94
719.932	3298.3
720.275	3297.4
720.617	3318.64
720.96	3289.94
721.303	3304.86
721.646	3321.35
721.989	3320.22
722.331	3323.16
722.674	3337.17
723.016	3333.78
723.359	3365.42
723.701	3372.2
724.044	3340.11
724.386	3351.18
724.729	3360.9
725.071	3328.13
725.413	3353.22
725.755	3342.37
726.097	3359.54
726.439	3359.32
726.782	3402.48
727.124	3406.55
727.465	3385.31
727.807	3377.62
728.149	3380.33
728.491	3400.67
728.833	3398.87
729.175	3455.59
729.516	3389.6
729.858	3403.84
730.199	3427.57
730.541	3408.13
730.882	3459.88
731.224	3446.77
731.565	3441.58
731.906	3421.46
732.248	3391.86
732.589	3471.63
732.93	3397.96
733.271	3404.52
733.612	3396.15
733.953	3434.12
734.294	3435.7
734.635	3443.38
734.976	3437.73
735.317	3432.54
735.658	3427.57
735.999	3430.28
736.339	3434.8
736.68	3405.64
737.021	3424.63
737.361	3407.68
737.702	3428.47
738.042	3442.48
738.383	3413.55
738.723	3431.86
739.063	3454.68
739.404	3472.31
739.744	3424.18
740.084	3436.83
740.424	3413.55
740.764	3419.43
741.104	3381.92
741.444	3431.63
741.784	3401.8
742.124	3449.03
742.464	3390.96
742.804	3384.63
743.143	3480.45
743.483	3392.09
743.823	3387.79
744.162	3397.06
744.502	3391.63
744.841	3383.27
745.181	3458.52
745.52	3388.47
745.86	3348.02
746.199	3369.04
746.538	3393.67
746.877	3404.52
747.216	3423.05
747.556	3393.44
747.895	3353.44
748.234	3332.88
748.573	3346.44
748.911	3345.76
749.25	3341.69
749.589	3360.9
749.928	3369.71
750.267	3345.76
750.605	3344.18
750.944	3296.27
751.283	3322.71
751.621	3361.35
751.96	3284.29
752.298	3295.14
752.636	3335.36
752.975	3301.01
753.313	3314.12
753.651	3341.69
753.989	3285.87
754.327	3290.17
754.666	3281.81
755.004	3264.63
755.342	3259.89
755.679	3284.07
756.017	3256.27
756.355	3222.82
756.693	3267.34
757.031	3211.07
757.368	3204.75
757.706	3234.58
758.044	3238.64
758.381	3192.77
758.719	3205.65
759.056	3236.84
759.394	3193.22
759.731	3216.05
760.068	3195.48
760.405	3194.35
760.743	3208.36
761.08	3174.46
761.417	3176.5
761.754	3185.76
762.091	3151.19
762.428	3144.63
762.765	3122.04
763.102	3134.24
763.438	3102.83
763.775	3078.65
764.112	3111.64
764.449	3104.86
764.785	3050.17
765.122	3105.54
765.458	3083.17
765.795	3056.73
766.131	3057.41
766.467	3021.25
766.804	3054.24
767.14	3041.13
767.476	3048.59
767.812	3015.6
768.148	3018.99
768.485	2993
768.821	2978.09
769.157	2971.98
769.492	2996.62
769.828	2963.62
770.164	2931.76
770.5	2937.86
770.836	2897.18
771.171	2949.39
771.507	2934.02
771.842	2890.4
772.178	2891.08
772.513	2848.82
772.849	2883.4
773.184	2896.28
773.519	2834.81
773.855	2860.35
774.19	2863.74
