Data from carpet_green_FLMS001491_00082.txt Node
Date: Wed Feb 08 10:35:57 GMT 2017
User: dcchb
Spectrometer: FLMS00149
Trigger mode: 0
Integration Time (sec): 2.000000E-2
Scans to average: 10
Electric dark correction enabled: true
Nonlinearity correction enabled: false
Boxcar width: 0
XAxis mode: Wavelengths
Number of Pixels in Spectrum: 2048
>>>>>Begin Spectral Data<<<<<
341.393	-26.67
341.776	-26.67
342.16	-26.67
342.543	-51.3
342.927	-74.12
343.31	-80.22
343.693	-57.17
344.077	-80.68
344.46	-49.04
344.843	-39.32
345.226	-36.61
345.61	-31.64
345.993	-3.62
346.376	4.52
346.759	-0.68
347.142	26.89
347.525	27.57
347.908	68.25
348.291	53.56
348.674	88.13
349.057	110.05
349.44	111.64
349.823	148.02
350.206	167.23
350.588	177.17
350.971	188.47
351.354	214.01
351.737	208.36
352.119	221.69
352.502	239.09
352.884	258.75
353.267	263.95
353.65	238.64
354.032	275.7
354.414	286.77
354.797	317.05
355.179	296.49
355.562	292.87
355.944	314.79
356.326	306.88
356.709	314.79
357.091	318.86
357.473	319.99
357.855	313.21
358.238	313.66
358.62	312.31
359.002	309.37
359.384	317.28
359.766	331.29
360.148	320.22
360.53	327.22
360.912	307.34
361.294	305.08
361.676	310.5
362.057	309.82
362.439	305.53
362.821	305.53
363.203	299.2
363.584	287.68
363.966	274.8
364.348	279.09
364.729	298.52
365.111	275.25
365.493	283.16
365.874	287.68
366.256	282.48
366.637	272.54
367.019	274.12
367.4	284.74
367.781	294.91
368.163	265.98
368.544	287.22
368.925	286.32
369.306	295.81
369.688	289.26
370.069	299.43
370.45	262.59
370.831	269.15
371.212	294
371.593	256.72
371.974	289.71
372.355	271.41
372.736	272.99
373.117	284.06
373.498	284.06
373.879	284.06
374.26	282.25
374.641	293.55
375.021	287
375.402	277.73
375.783	279.99
376.163	276.6
376.544	279.99
376.925	302.36
377.305	284.51
377.686	288.13
378.066	277.96
378.447	321.57
378.827	286.55
379.208	305.98
379.588	277.28
379.968	309.37
380.349	306.43
380.729	280.44
381.109	290.39
381.489	279.31
381.87	293.1
382.25	300.56
382.63	276.38
383.01	298.98
383.39	295.59
383.77	304.85
384.15	298.52
384.53	291.29
384.91	291.74
385.29	287
385.67	317.28
386.049	297.17
386.429	285.42
386.809	296.72
387.189	297.85
387.568	282.7
387.948	299.88
388.328	294.23
388.707	271.86
389.087	311.18
389.466	299.43
389.846	312.99
390.225	280.9
390.605	314.57
390.984	307.79
391.363	312.08
391.743	290.39
392.122	305.3
392.501	300.78
392.881	313.66
393.26	300.78
393.639	310.95
394.018	292.87
394.397	296.26
394.776	309.14
395.155	318.18
395.534	294.23
395.913	303.49
396.292	313.44
396.671	328.8
397.05	304.4
397.429	309.37
397.808	312.31
398.186	332.42
398.565	310.73
398.944	309.14
399.323	303.72
399.701	308.92
400.08	318.64
400.458	315.02
400.837	322.48
401.215	309.6
401.594	306.21
401.972	310.5
402.351	309.37
402.729	323.83
403.107	303.04
403.486	320.22
403.864	317.28
404.242	312.76
404.62	311.86
404.999	301.46
405.377	315.7
405.755	345.08
406.133	333.55
406.511	310.73
406.889	308.01
407.267	318.86
407.645	325.42
408.023	335.58
408.401	312.08
408.779	327.45
409.156	328.35
409.534	326.09
409.912	319.99
410.29	308.24
410.667	329.48
411.045	312.08
411.422	324.51
411.8	306.21
412.178	343.04
412.555	338.52
412.933	335.81
413.31	319.77
413.687	335.36
414.065	339.43
414.442	327
414.819	317.51
415.197	330.61
415.574	325.87
415.951	327.68
416.328	333.78
416.705	319.77
417.082	347.56
417.46	348.24
417.837	336.49
418.214	313.66
418.591	358.86
418.967	330.39
419.344	350.73
419.721	338.3
420.098	352.53
420.475	328.58
420.852	331.52
421.228	340.33
421.605	339.43
421.982	352.76
422.358	346.43
422.735	350.05
423.111	346.66
423.488	350.27
423.864	356.15
424.241	376.04
424.617	345.08
424.994	344.4
425.37	344.17
425.746	340.56
426.123	337.39
426.499	349.14
426.875	357.05
427.251	341.69
427.627	350.05
428.003	339.43
428.379	334.68
428.756	346.88
429.132	347.79
429.507	359.09
429.883	352.31
430.259	354.57
430.635	354.79
431.011	366.09
431.387	359.76
431.763	370.16
432.138	350.27
432.514	371.29
432.89	353.44
433.265	364.51
433.641	373.32
434.016	371.29
434.392	372.42
434.767	372.19
435.143	369.26
435.518	371.06
435.894	367.67
436.269	359.54
436.644	358.86
437.02	378.52
437.395	374.68
437.77	376.71
438.145	388.92
438.52	380.78
438.895	393.66
439.271	381.91
439.646	386.43
440.021	389.82
440.395	385.75
440.77	380.55
441.145	387.11
441.52	402.25
441.895	389.59
442.27	370.16
442.645	393.21
443.019	382.36
443.394	382.36
443.769	371.74
444.143	380.33
444.518	390.95
444.892	391.18
445.267	396.6
445.641	396.83
446.016	406.32
446.39	409.71
446.764	395.02
447.139	396.37
447.513	392.31
447.887	392.76
448.262	377.84
448.636	413.55
449.01	409.71
449.384	411.97
449.758	408.12
450.132	387.11
450.506	406.77
450.88	407.45
451.254	411.06
451.628	413.77
452.002	404.51
452.376	425.3
452.75	437.28
453.123	404.74
453.497	418.29
453.871	421.01
454.244	394.57
454.618	424.62
454.992	414.68
455.365	430.05
455.739	428.01
456.112	445.41
456.486	416.49
456.859	430.05
457.232	398.63
457.606	439.76
457.979	439.08
458.352	438.63
458.725	436.6
459.099	453.32
459.472	453.1
459.845	427.56
460.218	440.67
460.591	466.43
460.964	449.03
461.337	427.56
461.71	463.72
462.083	453.55
462.456	475.92
462.829	465.75
463.201	468.91
463.574	467.33
463.947	468.24
464.32	472.08
464.692	482.02
465.065	466.88
465.438	498.97
465.81	498.52
466.183	495.58
466.555	512.53
466.928	491.96
467.3	490.38
467.672	491.06
468.045	504.17
468.417	508.69
468.789	515.24
469.161	504.85
469.534	504.62
469.906	518.63
470.278	514.11
470.65	513.21
471.022	522.47
471.394	507.78
471.766	541.23
472.138	539.65
472.51	531.29
472.882	549.59
473.253	548.46
473.625	557.73
473.997	568.12
474.369	554.56
474.74	555.24
475.112	576.71
475.484	572.19
475.855	594.33
476.227	594.56
476.598	574
476.97	594.33
477.341	598.4
477.713	598.18
478.084	629.14
478.455	615.13
478.827	619.42
479.198	611.96
479.569	622.58
479.94	632.07
480.311	646.54
480.682	638.85
481.053	645.41
481.424	651.73
481.795	672.07
482.166	670.94
482.537	678.4
482.908	684.73
483.279	705.74
483.65	707.55
484.021	703.26
484.391	720.88
484.762	711.17
485.133	719.3
485.503	725.4
485.874	751.17
486.244	742.35
486.615	756.82
486.985	755.46
487.356	798.4
487.726	764.73
488.097	797.04
488.467	800.88
488.837	782.13
489.207	808.11
489.578	810.83
489.948	822.58
490.318	851.95
490.688	841.33
491.058	843.59
491.428	827.32
491.798	856.47
492.168	846.31
492.538	842.92
492.908	897.38
493.278	876.36
493.648	856.7
494.017	887.21
494.387	881.11
494.757	890.37
495.126	934.21
495.496	912.29
495.866	933.31
496.235	923.14
496.605	925.17
496.974	928.34
497.344	901.22
497.713	931.73
498.082	959.07
498.452	966.08
498.821	961.78
499.19	965.4
499.559	962.69
499.928	977.15
500.298	959.75
500.667	990.26
501.036	993.42
501.405	990.71
501.774	993.42
502.143	1000.65
502.512	982.57
502.88	1007.88
503.249	1003.14
503.618	1001.33
503.987	988.22
504.356	1034.55
504.724	1030.48
505.093	1032.06
505.462	1011.05
505.83	1014.21
506.199	1039.75
506.567	1048.11
506.936	1063.47
507.304	1046.98
507.672	1044.49
508.041	1033.87
508.409	1063.02
508.777	1095.79
509.145	1083.59
509.514	1067.54
509.882	1061.89
510.25	1061.44
510.618	1079.07
510.986	1066.41
511.354	1079.75
511.722	1070.25
512.09	1103.25
512.458	1103.7
512.826	1106.41
513.193	1122.91
513.561	1145.05
513.929	1137.82
514.297	1140.08
514.664	1135.11
515.032	1130.14
515.4	1155.45
515.767	1131.95
516.135	1133.98
516.502	1138.5
516.869	1151.61
517.237	1157.26
517.604	1177.14
517.972	1187.09
518.339	1183.92
518.706	1172.85
519.073	1180.76
519.44	1172.85
519.808	1178.73
520.175	1219.4
520.542	1201.55
520.909	1202
521.276	1183.25
521.643	1202.23
522.009	1222.57
522.376	1221.89
522.743	1249.46
523.11	1208.33
523.477	1237.71
523.843	1244.49
524.21	1245.62
524.577	1254.66
524.943	1210.82
525.31	1256.92
525.676	1249.23
526.043	1246.52
526.409	1272.06
526.776	1264.6
527.142	1275.22
527.508	1251.94
527.874	1281.55
528.241	1255.11
528.607	1288.1
528.973	1298.95
529.339	1292.85
529.705	1307.99
530.071	1284.49
530.437	1313.41
530.803	1312.06
531.169	1320.19
531.535	1315.45
531.901	1310.47
532.267	1298.04
532.632	1326.07
532.998	1311.15
533.364	1324.48
533.73	1361.55
534.095	1334.88
534.461	1348.67
534.826	1331.72
535.192	1345.95
535.557	1336.46
535.923	1338.27
536.288	1362.22
536.653	1320.42
537.019	1331.49
537.384	1338.72
537.749	1314.54
538.114	1330.36
538.479	1347.76
538.845	1330.81
539.21	1365.16
539.575	1358.16
539.94	1345.95
540.305	1352.96
540.67	1330.59
541.034	1341.43
541.399	1360.87
541.764	1352.73
542.129	1384.82
542.494	1367.2
542.858	1362.45
543.223	1374.88
543.587	1340.3
543.952	1356.35
544.316	1344.37
544.681	1373.52
545.045	1352.96
545.41	1371.49
545.774	1362
546.138	1354.09
546.503	1335.78
546.867	1360.64
547.231	1352.96
547.595	1365.61
547.959	1361.32
548.324	1375.11
548.688	1382.34
549.052	1362.9
549.416	1372.62
549.779	1373.3
550.143	1380.53
550.507	1403.58
550.871	1385.27
551.235	1400.87
551.599	1388.44
551.962	1387.53
552.326	1370.36
552.689	1411.04
553.053	1369
553.417	1394.09
553.78	1381.21
554.143	1402
554.507	1390.02
554.87	1377.82
555.234	1393.41
555.597	1385.95
555.96	1408.32
556.323	1400.42
556.686	1381.43
557.05	1427.31
557.413	1407.87
557.776	1390.02
558.139	1394.09
558.502	1425.5
558.865	1426.4
559.228	1449.68
559.59	1431.83
559.953	1419.4
560.316	1415.1
560.679	1450.13
561.041	1429.34
561.404	1459.85
561.767	1432.5
562.129	1437.48
562.492	1429.34
562.854	1462.56
563.217	1443.35
563.579	1439.28
563.941	1458.94
564.304	1464.82
564.666	1497.14
565.028	1476.8
565.39	1471.15
565.753	1499.85
566.115	1449.91
566.477	1450.58
566.839	1498.27
567.201	1465.05
567.563	1506.18
567.925	1485.61
568.287	1523.12
568.648	1489.23
569.01	1478.15
569.372	1511.15
569.734	1503.46
570.095	1520.64
570.457	1507.3
570.819	1505.05
571.18	1511.15
571.542	1521.54
571.903	1507.53
572.265	1493.75
572.626	1518.83
572.987	1500.53
573.349	1500.3
573.71	1491.71
574.071	1488.32
574.432	1504.59
574.794	1511.82
575.155	1513.63
575.516	1507.08
575.877	1520.19
576.238	1482.45
576.599	1529.9
576.96	1500.53
577.32	1525.84
577.681	1520.86
578.042	1500.3
578.403	1484.25
578.763	1490.58
579.124	1495.78
579.485	1518.6
579.845	1489.23
580.206	1521.32
580.566	1487.19
580.927	1511.37
581.287	1518.6
581.648	1491.26
582.008	1494.88
582.368	1509.56
582.728	1509.11
583.089	1498.04
583.449	1505.95
583.809	1480.19
584.169	1456.01
584.529	1470.24
584.889	1492.84
585.249	1489
585.609	1498.49
585.969	1469.79
586.329	1474.09
586.688	1487.19
587.048	1506.18
587.408	1476.8
587.768	1479.96
588.127	1485.61
588.487	1455.78
588.846	1447.87
589.206	1466.4
589.565	1437.93
589.925	1453.52
590.284	1444.26
590.643	1436.8
591.003	1468.66
591.362	1468.66
591.721	1465.5
592.08	1445.16
592.44	1460.53
592.799	1446.52
593.158	1456.01
593.517	1447.19
593.876	1479.51
594.235	1461.88
594.593	1440.19
594.952	1464.37
595.311	1453.3
595.67	1461.43
596.029	1419.17
596.387	1447.65
596.746	1439.28
597.104	1445.84
597.463	1432.28
597.822	1456.23
598.18	1450.58
598.538	1426.4
598.897	1442.22
599.255	1446.97
599.613	1491.49
599.972	1452.39
600.33	1450.58
600.688	1448.32
601.046	1479.96
601.404	1443.58
601.762	1432.5
602.12	1471.37
602.478	1458.04
602.836	1430.47
603.194	1452.84
603.552	1462.33
603.91	1451.49
604.268	1447.19
604.625	1448.32
604.983	1451.04
605.341	1465.05
605.698	1467.98
606.056	1458.94
606.413	1468.66
606.771	1482.22
607.128	1488.1
607.485	1466.4
607.843	1463.46
608.2	1476.35
608.557	1491.94
608.914	1430.7
609.272	1485.61
609.629	1483.12
609.986	1489
610.343	1470.02
610.7	1473.41
611.057	1462.79
611.414	1492.39
611.771	1487.87
612.127	1470.7
612.484	1480.87
612.841	1500.75
613.198	1502.79
613.554	1492.84
613.911	1505.5
614.267	1487.64
614.624	1480.19
614.98	1498.72
615.337	1520.19
615.693	1484.71
616.05	1494.42
616.406	1504.59
616.762	1496.46
617.118	1520.86
617.475	1484.71
617.831	1505.72
618.187	1497.36
618.543	1538.04
618.899	1523.8
619.255	1498.27
619.611	1490.36
619.967	1517.7
620.323	1498.72
620.678	1524.03
621.034	1525.16
621.39	1488.77
621.746	1519.96
622.101	1526.74
622.457	1517.47
622.812	1505.72
623.168	1504.37
623.523	1495.33
623.879	1491.49
624.234	1510.92
624.589	1522.9
624.945	1522.22
625.3	1515.21
625.655	1500.98
626.01	1492.16
626.365	1507.53
626.72	1504.37
627.075	1495.33
627.43	1516.34
627.785	1518.15
628.14	1510.24
628.495	1518.6
628.85	1495.55
629.205	1512.95
629.559	1489
629.914	1518.15
630.269	1501.88
630.623	1512.73
630.978	1505.05
631.332	1544.14
631.687	1492.84
632.041	1500.07
632.396	1516.57
632.75	1479.96
633.104	1479.74
633.459	1535.33
633.813	1499.62
634.167	1480.87
634.521	1481.09
634.875	1484.03
635.229	1493.29
635.583	1480.19
635.937	1514.31
636.291	1474.09
636.645	1489
636.999	1479.51
637.352	1487.87
637.706	1490.81
638.06	1486.06
638.413	1483.8
638.767	1500.3
639.121	1470.24
639.474	1480.87
639.828	1472.73
640.181	1466.85
640.534	1481.54
640.888	1454.2
641.241	1487.42
641.594	1470.7
641.947	1495.1
642.301	1501.2
642.654	1467.98
643.007	1489.23
643.36	1499.85
643.713	1524.71
644.066	1496.91
644.419	1470.24
644.771	1474.99
645.124	1494.2
645.477	1464.14
645.83	1467.08
646.182	1470.47
646.535	1465.05
646.888	1485.84
647.24	1457.59
647.593	1503.46
647.945	1497.36
648.298	1509.11
648.65	1485.38
649.002	1465.27
649.355	1495.33
649.707	1493.75
650.059	1506.4
650.411	1512.95
650.763	1526.06
651.115	1514.31
651.467	1528.1
651.819	1544.14
652.171	1546.17
652.523	1528.77
652.875	1549.11
653.227	1537.59
653.578	1555.67
653.93	1562.44
654.282	1564.48
654.633	1580.98
654.985	1558.38
655.337	1587.98
655.688	1557.47
656.039	1570.35
656.391	1585.27
656.742	1597.02
657.094	1589.56
657.445	1606.29
657.796	1605.61
658.147	1631.37
658.498	1627.08
658.849	1632.5
659.2	1668.66
659.551	1616.45
659.902	1643.8
660.253	1645.15
660.604	1659.84
660.955	1686.06
661.306	1684.48
661.656	1681.31
662.007	1723.8
662.358	1700.52
662.708	1667.53
663.059	1711.82
663.409	1686.51
663.76	1742.33
664.11	1753.85
664.461	1718.37
664.811	1760.86
665.161	1775.77
665.511	1766.06
665.862	1789.78
666.212	1794.08
666.562	1819.16
666.912	1797.47
667.262	1804.25
667.612	1875.43
667.962	1875.88
668.312	1836.11
668.662	1853.51
669.011	1877.69
669.361	1893.28
669.711	1893.74
670.06	1905.49
670.41	1926.73
670.76	1936.67
671.109	1894.87
671.459	1974.19
671.808	1978.93
672.157	1953.39
672.507	2010.12
672.856	1999.95
673.205	2028.42
673.554	2026.84
673.904	2034.75
674.253	2067.74
674.602	2074.75
674.951	2068.19
675.3	2050.12
675.649	2107.52
675.998	2126.5
676.346	2142.77
676.695	2161.07
677.044	2161.75
677.393	2208.53
677.741	2221.86
678.09	2197.68
678.438	2189.09
678.787	2224.12
679.135	2258.25
679.484	2263.9
679.832	2245.82
680.181	2279.26
680.529	2311.35
680.877	2285.36
681.225	2314.29
681.573	2375.76
681.922	2359.03
682.27	2382.08
682.618	2395.64
682.966	2464.79
683.314	2402.65
683.661	2419.6
684.009	2454.85
684.357	2452.82
684.705	2469.31
685.053	2477.67
685.4	2488.07
685.748	2517.9
686.095	2534.4
686.443	2531.23
686.79	2561.51
687.138	2600.61
687.485	2610.78
687.832	2637.22
688.18	2629.31
688.527	2682.42
688.874	2657.56
689.221	2669.76
689.568	2716.99
689.915	2698.91
690.262	2740.94
690.609	2729.19
690.956	2779.59
691.303	2782.98
691.65	2791.11
691.997	2866.14
692.344	2793.37
692.69	2862.75
693.037	2853.03
693.383	2869.98
693.73	2898.45
694.077	2884.44
694.423	2948.62
694.769	2922.86
695.116	2948.85
695.462	2936.87
695.808	2982.52
696.155	3011.9
696.501	2982.75
696.847	3021.84
697.193	3020.94
697.539	3037.66
697.885	3073.82
698.231	3074.04
698.577	3091.44
698.923	3122.86
699.269	3102.52
699.614	3125.34
699.96	3154.95
700.306	3174.61
700.651	3165.79
700.997	3169.18
701.342	3162.63
701.688	3214.83
702.033	3189.29
702.379	3268.39
702.724	3256.41
703.069	3268.39
703.415	3273.81
703.76	3293.92
704.105	3345.9
704.45	3330.31
704.795	3336.18
705.14	3365.79
705.485	3360.59
705.83	3355.39
706.175	3392.68
706.52	3411.44
706.865	3425.67
707.209	3432
707.554	3433.36
707.899	3456.63
708.243	3480.13
708.588	3441.72
708.932	3453.47
709.277	3469.29
709.621	3514.94
709.966	3519.68
710.31	3529.62
710.654	3525.11
710.998	3557.65
711.342	3578.44
711.687	3575.95
712.031	3577.99
712.375	3588.61
712.719	3578.89
713.063	3625.89
713.407	3641.94
713.75	3641.94
714.094	3627.48
714.438	3633.8
714.782	3645.78
715.125	3631.54
715.469	3654.14
715.812	3643.75
716.156	3697.08
716.499	3700.47
716.843	3713.57
717.186	3697.76
717.53	3744.99
717.873	3742.73
718.216	3785.21
718.559	3760.58
718.902	3730.3
719.246	3778.88
719.589	3794.93
719.932	3754.48
720.275	3780.69
720.617	3765.1
720.96	3771.43
721.303	3808.26
721.646	3823.18
721.989	3823.4
722.331	3838.09
722.674	3821.14
723.016	3775.95
723.359	3824.53
723.701	3866.79
724.044	3883.29
724.386	3848.94
724.729	3898.65
725.071	3853.46
725.413	3879.67
725.755	3867.47
726.097	3893.68
726.439	3895.94
726.782	3891.2
727.124	3914.25
727.465	3863.4
727.807	3888.03
728.149	3889.84
728.491	3951.08
728.833	3912.89
729.175	3909.05
729.516	3883.51
729.858	3954.47
730.199	3975.49
730.541	3913.34
730.882	3864.53
731.224	3892.55
731.565	3892.33
731.906	4007.35
732.248	3955.6
732.589	3930.97
732.93	3954.47
733.271	3983.4
733.612	3917.86
733.953	3973.45
734.294	3937.98
734.635	3942.95
734.976	3944.53
735.317	3949.95
735.658	3953.12
735.999	3950.86
736.339	3989.73
736.68	3946.11
737.021	3929.84
737.361	3950.86
737.702	3949.05
738.042	3977.52
738.383	3956.28
738.723	4003.06
739.063	3943.85
739.404	3968.94
739.744	3953.79
740.084	3960.12
740.424	3984.3
740.764	3943.85
741.104	3953.57
741.444	3907.02
741.784	3909.5
742.124	3970.97
742.464	3931.42
742.804	3930.29
743.143	3899.56
743.483	3917.41
743.823	3912.44
744.162	3938.43
744.502	3914.93
744.841	3916.96
745.181	3942.95
745.52	3955.15
745.86	3909.73
746.199	3926.68
746.538	3895.49
746.877	3934.59
747.216	3950.4
747.556	3918.77
747.895	3868.6
748.234	3880.35
748.573	3880.12
748.911	3874.93
749.25	3882.61
749.589	3850.29
749.928	3866.79
750.267	3902.95
750.605	3826.57
750.944	3820.69
751.283	3827.7
751.621	3853.23
751.96	3862.5
752.298	3821.59
752.636	3808.04
752.975	3839.67
753.313	3811.2
753.651	3855.49
753.989	3816.62
754.327	3788.6
754.666	3799.22
755.004	3774.36
755.342	3779.56
755.679	3793.12
756.017	3735.49
756.355	3753.35
756.693	3775.04
757.031	3786.79
757.368	3778.21
757.706	3722.61
758.044	3717.87
758.381	3734.37
758.719	3701.6
759.056	3729.39
759.394	3689.39
759.731	3674.48
760.068	3706.34
760.405	3665.89
760.743	3640.36
761.08	3702.28
761.417	3654.82
761.754	3642.62
762.091	3624.31
762.428	3631.54
762.765	3634.93
763.102	3644.2
763.438	3599.68
763.775	3609.17
764.112	3600.13
764.449	3553.35
764.785	3564.88
765.122	3547.7
765.458	3535.73
765.795	3526.01
766.131	3575.95
766.467	3534.37
766.804	3520.36
767.14	3511.55
767.476	3493.47
767.812	3504.77
768.148	3497.31
768.485	3501.6
768.821	3439.46
769.157	3497.54
769.492	3462.96
769.828	3429.97
770.164	3412.57
770.5	3428.38
770.836	3421.83
771.171	3385.45
771.507	3401.94
771.842	3396.07
772.178	3340.25
772.513	3360.14
772.849	3365.11
773.184	3361.04
773.519	3354.49
