Data from copper_heatsink_FLMS001491_014.txt Node
Date: Tue Feb 07 10:49:18 GMT 2017
User: dcchb
Spectrometer: FLMS00149
Trigger mode: 0
Integration Time (sec): 2.000000E-2
Scans to average: 10
Electric dark correction enabled: true
Nonlinearity correction enabled: false
Boxcar width: 0
XAxis mode: Wavelengths
Number of Pixels in Spectrum: 2048
>>>>>Begin Spectral Data<<<<<
341.393	-19.53
341.776	-19.53
342.16	-19.53
342.543	-70.61
342.927	-76.48
343.31	-61.34
343.693	-80.32
344.077	-78.51
344.46	-41.23
344.843	-54.79
345.226	-42.58
345.61	-37.39
345.993	-20.44
346.376	-2.36
346.759	13.01
347.142	24.76
347.525	43.97
347.908	56.85
348.291	76.74
348.674	86
349.057	117.64
349.44	131.2
349.823	126.68
350.206	164.19
350.588	202.83
350.971	228.6
351.354	252.78
351.737	262.04
352.119	278.54
352.502	269.95
352.884	283.96
353.267	313.34
353.65	300.68
354.032	311.53
354.414	316.73
354.797	337.52
355.179	328.25
355.562	357.86
355.944	338.65
356.326	342.94
356.709	338.88
357.091	362.83
357.473	362.15
357.855	367.12
358.238	359.21
358.62	349.27
359.002	363.51
359.384	363.96
359.766	381.81
360.148	358.76
360.53	359.89
360.912	367.35
361.294	339.55
361.676	349.27
362.057	341.59
362.439	344.3
362.821	354.92
363.203	349.5
363.584	356.5
363.966	348.82
364.348	360.8
364.729	352.66
365.111	350.17
365.493	329.16
365.874	339.1
366.256	341.36
366.637	342.94
367.019	347.24
367.4	320.34
367.781	322.83
368.163	329.84
368.544	344.98
368.925	324.86
369.306	335.26
369.688	349.5
370.069	339.55
370.45	331.64
370.831	324.64
371.212	342.27
371.593	354.02
371.974	332.55
372.355	329.61
372.736	341.59
373.117	366.67
373.498	333
373.879	349.72
374.26	344.75
374.641	333.23
375.021	352.21
375.402	332.1
375.783	371.64
376.163	372.09
376.544	350.4
376.925	364.86
377.305	377.07
377.686	371.42
378.066	370.06
378.447	359.44
378.827	367.8
379.208	357.41
379.588	363.28
379.968	366.67
380.349	367.12
380.729	358.76
381.109	381.13
381.489	386.11
381.87	353.11
382.25	350.17
382.63	390.17
383.01	350.4
383.39	363.96
383.77	393.11
384.15	378.65
384.53	370.06
384.91	383.85
385.29	366.9
385.67	391.3
386.049	388.37
386.429	373.9
386.809	394.92
387.189	397.63
387.568	393.11
387.948	381.59
388.328	388.37
388.707	399.66
389.087	406.67
389.466	396.73
389.846	393.56
390.225	391.98
390.605	398.76
390.984	381.81
391.363	403.05
391.743	421.36
392.122	394.69
392.501	405.99
392.881	403.73
393.26	397.4
393.639	407.57
394.018	403.51
394.397	417.97
394.776	433.11
395.155	450.06
395.534	416.84
395.913	415.94
396.292	422.26
396.671	431.3
397.05	444.41
397.429	451.19
397.808	438.99
398.186	433.11
398.565	426.33
398.944	445.31
399.323	428.36
399.701	438.99
400.08	434.24
400.458	429.49
400.837	434.92
401.215	454.58
401.594	439.66
401.972	446.67
402.351	456.16
402.729	448.48
403.107	457.52
403.486	455.03
403.864	450.28
404.242	455.03
404.62	451.19
404.999	449.15
405.377	455.48
405.755	462.71
406.133	482.6
406.511	484.41
406.889	477.18
407.267	488.48
407.645	492.77
408.023	488.93
408.401	487.35
408.779	495.93
409.156	500.23
409.534	501.13
409.912	504.97
410.29	505.65
410.667	503.62
411.045	512.66
411.422	511.07
411.8	495.03
412.178	487.57
412.555	500.45
412.933	546.1
413.31	511.75
413.687	515.59
414.065	534.8
414.442	542.26
414.819	537.29
415.197	541.81
415.574	512.88
415.951	551.98
416.328	559.43
416.705	549.72
417.082	548.14
417.46	577.97
417.837	554.69
418.214	548.14
418.591	553.56
418.967	584.97
419.344	579.77
419.721	590.62
420.098	592.88
420.475	579.09
420.852	584.52
421.228	598.3
421.605	594.46
421.982	588.13
422.358	582.48
422.735	592.65
423.111	599.66
423.488	608.92
423.864	622.71
424.241	604.41
424.617	623.16
424.994	627
425.37	644.18
425.746	624.52
426.123	622.71
426.499	617.29
426.875	653.9
427.251	643.05
427.627	653.9
428.003	658.41
428.379	653.67
428.756	639.21
429.132	663.61
429.507	651.18
429.883	675.59
430.259	667.91
430.635	681.01
431.011	704.52
431.387	668.13
431.763	705.65
432.138	716.04
432.514	689.83
432.89	714.68
433.265	739.09
433.641	726.66
434.016	735.7
434.392	752.2
434.767	751.29
435.143	752.88
435.518	763.27
435.894	739.32
436.269	779.09
436.644	782.48
437.02	777.51
437.395	773.44
437.77	790.16
438.145	764.85
438.52	815.92
438.895	783.16
439.271	801.24
439.646	805.98
440.021	841.23
440.395	821.8
440.77	836.04
441.145	829.26
441.52	835.59
441.895	833.1
442.27	844.85
442.645	842.82
443.019	844.4
443.394	859.09
443.769	846.21
444.143	850.73
444.518	887.11
444.892	876.94
445.267	884.17
445.641	891.4
446.016	892.53
446.39	899.31
446.764	903.38
447.139	886.88
447.513	897.28
447.887	923.72
448.262	914.91
448.636	898.63
449.01	917.62
449.384	940.67
449.758	958.29
450.132	948.8
450.506	973.21
450.88	963.49
451.254	944.06
451.628	975.02
452.002	991.29
452.376	989.25
452.75	997.39
453.123	989.25
453.497	1016.37
453.871	1030.16
454.244	1041.91
454.618	1014.79
454.992	1064.51
455.365	1041.91
455.739	1071.29
456.112	1068.35
456.486	1089.59
456.859	1089.59
457.232	1130.04
457.606	1119.42
457.979	1101.34
458.352	1134.79
458.725	1153.77
459.099	1161.23
459.472	1161.68
459.845	1167.33
460.218	1197.38
460.591	1174.11
460.964	1180.21
461.337	1233.09
461.71	1269.47
462.083	1264.73
462.456	1257.5
462.829	1276.03
463.201	1325.06
463.574	1316.93
463.947	1319.19
464.32	1330.71
464.692	1382.24
465.065	1367.77
465.438	1375.46
465.81	1415.91
466.183	1412.75
466.555	1443.25
466.928	1437.6
467.3	1461.78
467.672	1487.09
468.045	1518.96
468.417	1510.82
468.789	1513.31
469.161	1558.05
469.534	1583.59
469.906	1614.77
470.278	1621.1
470.65	1630.59
471.022	1648.45
471.394	1661.55
471.766	1719.86
472.138	1720.31
472.51	1741.1
472.882	1796.69
473.253	1779.97
473.625	1809.12
473.997	1844.6
474.369	1852.73
474.74	1906.74
475.112	1911.72
475.484	1935.44
475.855	1986.29
476.227	2004.82
476.598	2118.04
476.97	2101.54
477.341	2126.62
477.713	2168.88
478.084	2175.44
478.455	2253.18
478.827	2294.98
479.198	2318.26
479.569	2329.56
479.94	2400.52
480.311	2411.59
480.682	2479.38
481.053	2521.87
481.424	2536.33
481.795	2566.84
482.166	2650.68
482.537	2654.29
482.908	2727.06
483.279	2756.21
483.65	2807.06
484.021	2812.03
484.391	2864.46
484.762	2896.1
485.133	3012.7
485.503	2969.54
485.874	3047.28
486.244	3091.12
486.615	3170.89
486.985	3228.74
487.356	3256.31
487.726	3282.07
488.097	3328.4
488.467	3351
488.837	3406.14
489.207	3466.7
489.578	3506.25
489.948	3549.41
490.318	3612.91
490.688	3612.91
491.058	3711.67
491.428	3770.42
491.798	3800.93
492.168	3882.74
492.538	3862.62
492.908	3971.32
493.278	4026.91
493.648	3980.14
494.017	4077.31
494.387	4154.14
494.757	4181.26
495.126	4198.43
495.496	4234.14
495.866	4289.96
496.235	4301.93
496.605	4400.92
496.974	4404.53
497.344	4445.43
497.713	4449.28
498.082	4513.23
498.452	4589.84
498.821	4562.49
499.19	4633.9
499.559	4695.14
499.928	4727.01
500.298	4757.52
500.667	4808.36
501.036	4849.04
501.405	4891.07
501.774	4880.22
502.143	4956.38
502.512	4988.92
502.88	5025.76
503.249	5030.28
503.618	5150.05
503.987	5135.36
504.356	5197.05
504.724	5211.06
505.093	5240.22
505.462	5309.82
505.83	5326.77
506.199	5423.26
506.567	5492.41
506.936	5451.74
507.304	5543.26
507.672	5566.76
508.041	5588.45
508.409	5651.05
508.777	5752.74
509.145	5746.64
509.514	5773.08
509.882	5885.4
510.25	5888.79
510.618	5924.04
510.986	5993.42
511.354	6016.69
511.722	6098.05
512.09	6159.06
512.458	6168.78
512.826	6231.6
513.193	6255.1
513.561	6326.74
513.929	6381.65
514.297	6430.47
514.664	6468.88
515.032	6602.44
515.4	6574.42
515.767	6649.9
516.135	6671.14
516.502	6741.19
516.869	6774.64
517.237	6853.05
517.604	6874.3
517.972	6939.61
518.339	6999.27
518.706	7032.03
519.073	7095.31
519.44	7166.72
519.808	7243.55
520.175	7247.85
520.542	7337.79
520.909	7468.86
521.276	7484.22
521.643	7499.59
522.009	7649.42
522.376	7720.83
522.743	7770.32
523.11	7849.41
523.477	7949.3
523.843	7961.05
524.21	8055.28
524.577	8165.11
524.943	8213.92
525.31	8267.03
525.676	8320.36
526.043	8386.57
526.409	8547.7
526.776	8623.86
527.142	8590.18
527.508	8650.75
527.874	8741.37
528.241	8826.56
528.607	8865.43
528.973	9073.33
529.339	9050.51
529.705	9153.56
530.071	9227.46
530.437	9282.14
530.803	9308.58
531.169	9400.56
531.535	9424.96
531.901	9464.96
532.267	9588.58
532.632	9672.64
532.998	9703.37
533.364	9816.37
533.73	9844.39
534.095	9984.27
534.461	10010.03
534.826	10095.23
535.192	10147.2
535.557	10297.94
535.923	10271.27
536.288	10301.1
536.653	10457.93
537.019	10421.55
537.384	10471.72
537.749	10545.39
538.114	10611.6
538.479	10685.04
538.845	10786.51
539.21	10814.98
539.575	10895.89
539.94	11010.69
540.305	11079.38
540.67	11140.85
541.034	11204.35
541.399	11301.3
541.764	11402.99
542.129	11377.91
542.494	11493.16
542.858	11564.34
543.223	11636.88
543.587	11709.42
543.952	11778.35
544.316	11863.77
544.681	11869.42
545.045	12013.37
545.41	12088.85
545.774	12251.56
546.138	12271.89
546.503	12368.84
546.867	12402.51
547.231	12609.29
547.595	12573.36
547.959	12687.48
548.324	12772.45
548.688	12858.32
549.052	12967.02
549.416	12993.01
549.779	13138.99
550.143	13120.91
550.507	13385.54
550.871	13490.62
551.235	13535.82
551.599	13681.12
551.962	13781.91
552.326	13871.63
552.689	13989.59
553.053	14073.2
553.417	14138.74
553.78	14441.33
554.143	14355.68
554.507	14556.13
554.87	14663.02
555.234	14882.45
555.597	14812.84
555.96	15109.33
556.323	15103.68
556.686	15303.68
557.05	15500.74
557.413	15641.07
557.776	15795.64
558.139	16011.01
558.502	16060.27
558.865	16182.53
559.228	16378.23
559.59	16460.94
559.953	16559.24
560.316	16956.29
560.679	16933.47
561.041	17181.6
561.404	17330.97
561.767	17629.95
562.129	17636.5
562.492	17942.25
562.854	18016.38
563.217	18149.71
563.579	18271.51
563.941	18551.5
564.304	18675.79
564.666	18889.8
565.028	19151.49
565.39	19343.12
565.753	19529.11
566.115	19733.17
566.477	19962.54
566.839	20140.84
567.201	20289.31
567.563	20460.61
567.925	20602.07
568.287	20826.02
568.648	20923.42
569.01	21241.38
569.372	21510.75
569.734	21444.76
570.095	21731.53
570.457	21975.14
570.819	22167
571.18	22265.76
571.542	22583.94
571.903	22697.16
572.265	22953.87
572.626	23119.75
572.987	23244.26
573.349	23472.05
573.71	23687.19
574.071	23785.94
574.432	23995.43
574.794	24222.77
575.155	24410.78
575.516	24485.13
575.877	24585.24
576.238	24778.23
576.599	24999.47
576.96	25159.69
577.32	25244.44
577.681	25368.05
578.042	25581.38
578.403	25759
578.763	25803.06
579.124	26023.17
579.485	26203.96
579.845	26395.59
580.206	26388.59
580.566	26530.95
580.927	26647.11
581.287	26939.53
581.648	26854.56
582.008	27147.89
582.368	26996.25
582.728	27306.3
583.089	27219.3
583.449	27529.8
583.809	27346.07
584.169	27642.56
584.529	27662.45
584.889	27908.77
585.249	27796.01
585.609	27924.82
585.969	28129.33
586.329	28177.47
586.688	28271.93
587.048	28353.28
587.408	28457.68
587.768	28524.35
588.127	28581.07
588.487	28628.53
588.846	28842.31
589.206	28796.43
589.565	28795.98
589.925	29100.6
590.284	29058.35
590.643	29116.2
591.003	29236.65
591.362	29393.7
591.721	29385.34
592.08	29436.64
592.44	29565.9
592.799	29683.19
593.158	29691.55
593.517	29732.68
593.876	29901.49
594.235	29865.33
594.593	29948.49
594.952	30169.73
595.311	30148.71
595.67	30300.8
596.029	30405.88
596.387	30534.24
596.746	30504.64
597.104	30548.93
597.463	30563.39
597.822	30687.23
598.18	30708.02
598.538	30745.99
598.897	31062.59
599.255	30848.81
599.613	31354.78
599.972	31000.44
600.33	31267.78
600.688	31265.52
601.046	31515.91
601.404	31682.68
601.762	31609.01
602.12	31880.42
602.478	31837.48
602.836	31941.43
603.194	31773.08
603.552	31922
603.91	31865.5
604.268	32088.1
604.625	32057.36
604.983	32274.98
605.341	32233.86
605.698	32481.31
606.056	32618.25
606.413	32592.04
606.771	32786.61
607.128	32834.97
607.485	32702.77
607.843	32832.26
608.2	32958.13
608.557	33243.55
608.914	33130.56
609.272	33485.12
609.629	33444.9
609.986	33531.9
610.343	33565.8
610.7	33775.51
611.057	33766.02
611.414	33574.61
611.771	33831.78
612.127	34033.81
612.484	34052.11
612.841	34234.48
613.198	34164.65
613.554	34150.87
613.911	34411.43
614.267	34589.05
614.624	34652.32
614.98	34758.54
615.337	34805.31
615.693	34830.17
616.05	34869.27
616.406	35253.89
616.762	34979.32
617.118	34991.98
617.475	35069.49
617.831	35204.85
618.187	35443.71
618.543	35547.22
618.899	35534.33
619.255	35623.15
619.611	35515.13
619.967	35762.35
620.323	35797.15
620.678	35780.66
621.034	35708.57
621.39	35857.26
621.746	36046.64
622.101	36284.6
622.457	36105.84
622.812	36140.42
623.168	36335.89
623.523	36472.39
623.879	36601.88
624.234	36336.35
624.589	36517.36
624.945	36632.84
625.3	36562.1
625.655	36531.82
626.01	36716.45
626.365	36553.97
626.72	36766.39
627.075	36788.99
627.43	36764.58
627.785	36865.6
628.14	36898.37
628.495	36962.77
628.85	36959.38
629.205	36807.52
629.559	36967.74
629.914	36852.94
630.269	36991.92
630.623	36929.33
630.978	36749.9
631.332	37039.83
631.687	37126.61
632.041	37079.15
632.396	37139.94
632.75	37065.37
633.104	37261.07
633.459	36904.24
633.813	36887.52
634.167	37007.29
634.521	37072.37
634.875	37062.66
635.229	36991.47
635.583	36958.7
635.937	37130.22
636.291	37012.49
636.645	37185.14
636.999	37013.62
637.352	37265.36
637.706	36998.93
638.06	37213.84
638.413	37036.67
638.767	36925.03
639.121	37086.38
639.474	36914.41
639.828	36994.41
640.181	36966.84
640.534	36999.83
640.888	36915.31
641.241	36858.82
641.594	36975.43
641.947	37004.8
642.301	37095.42
642.654	36960.96
643.007	37221.52
643.36	37173.84
643.713	37128.19
644.066	37222.65
644.419	36995.54
644.771	36759.16
645.124	36144.26
645.477	36060.87
645.83	35976.36
646.182	36000.31
646.535	36097.71
646.888	36344.71
647.24	36190.81
647.593	36408.66
647.945	36454.76
648.298	36340.64
648.65	36357.36
649.002	36238.5
649.355	36307.65
649.707	36233.98
650.059	36208.89
650.411	36615.44
650.763	36660.41
651.115	37170.68
651.467	37075.54
651.819	37183.33
652.171	37165.7
652.523	36998.93
652.875	36966.16
653.227	36823.34
653.578	36998.25
653.93	37002.54
654.282	36907.18
654.633	37060.62
654.985	37131.35
655.337	37103.11
655.688	37106.95
656.039	37305.36
656.391	36874.64
656.742	37059.04
657.094	37142.88
657.445	37213.84
657.796	37017.46
658.147	37132.03
658.498	37245.7
658.849	37232.82
659.2	37084.58
659.551	37171.81
659.902	37351.24
660.253	37172.48
660.604	37238.02
660.955	37077.12
661.306	37206.83
661.656	37211.8
662.007	37138.59
662.358	37219.71
662.708	37214.29
663.059	37213.16
663.409	37053.62
663.76	37401.4
664.11	37379.03
664.461	37588.52
664.811	37597.78
665.161	37433.27
665.511	37304.68
665.862	37404.12
666.212	37601.4
666.562	37679.14
666.912	37569.53
667.262	37541.29
667.612	37492.25
667.962	37661.96
668.312	37611.34
668.662	37630.78
669.011	37625.58
669.361	37597.1
669.711	37597.56
670.06	37498.8
670.41	37593.71
670.76	37530.21
671.109	37649.31
671.459	37541.06
671.808	37475.53
672.157	37742.41
672.507	37588.29
672.856	37604.79
673.205	37646.37
673.554	37666.48
673.904	37707.84
674.253	37976.53
674.602	37825.35
674.951	37235.08
675.3	37147.17
675.649	37776.76
675.998	37797.78
676.346	37762.75
676.695	38001.84
677.044	37747.38
677.393	37808.4
677.741	37647.5
678.09	37698.57
678.438	37661.74
678.787	37821.28
679.135	37673.71
679.484	37600.27
679.832	37614.28
680.181	37484.79
680.529	37653.6
680.877	37520.5
681.225	37691.57
681.573	37928.4
681.922	37612.7
682.27	37517.78
682.618	37644.11
682.966	37367.51
683.314	37595.07
683.661	37465.13
684.009	37230.11
684.357	37292.03
684.705	37346.94
685.053	37317.79
685.4	37302.88
685.748	37069.66
686.095	37265.59
686.443	37075.76
686.79	37014.52
687.138	37107.17
687.485	37156.44
687.832	37075.99
688.18	37122.99
688.527	36970.91
688.874	36979.49
689.221	37016.78
689.568	36856.79
689.915	36710.57
690.262	36718.03
690.609	36662.67
690.956	36766.84
691.303	36587.41
691.65	36486.63
691.997	36554.19
692.344	36355.78
692.69	36253.86
693.037	36484.82
693.383	36131.15
693.73	36270.81
694.077	36007.32
694.423	36290.47
694.769	36111.72
695.116	36016.81
695.462	35994.43
695.808	35896.81
696.155	35960.31
696.501	35591.96
696.847	35757.6
697.193	35349.25
697.539	35579.98
697.885	35392.87
698.231	35252.99
698.577	35234.91
698.923	35310.61
699.269	35121.92
699.614	35032.88
699.96	35042.82
700.306	35062.48
700.651	34975.48
700.997	34991.52
701.342	34979.09
701.688	35007.12
702.033	34765.77
702.379	34863.62
702.724	34803.51
703.069	34785.43
703.415	34458.43
703.76	34426.11
704.105	34508.15
704.45	34451.88
704.795	34170.3
705.14	34136.63
705.485	34143.64
705.83	34117.87
706.175	34187.7
706.52	34121.94
706.865	33951.1
707.209	33902.29
707.554	33952.68
707.899	33982.96
708.243	33788.39
708.588	33837.88
708.932	33621.39
709.277	33669.52
709.621	33716.3
709.966	33535.97
710.31	33638.11
710.654	33236.77
710.998	33410.77
711.342	33348.63
711.687	33290.55
712.031	33267.05
712.375	33054.85
712.719	33191.34
713.063	33265.02
713.407	33336.43
713.75	33050.78
714.094	33215.3
714.438	33035.87
714.782	33044.23
715.125	33013.5
715.469	33091.69
715.812	32848.3
716.156	32765.59
716.499	32843.78
716.843	32906.15
717.186	32652.15
717.53	32935.08
717.873	32962.42
718.216	32841.52
718.559	32737.57
718.902	32535.77
719.246	32643.11
719.589	32507.97
719.932	32331.25
720.275	32471.14
720.617	32475.21
720.96	32426.17
721.303	32440.18
721.646	32346.17
721.989	32338.94
722.331	32508.65
722.674	32339.16
723.016	32455.77
723.359	32351.82
723.701	32340.52
724.044	32243.35
724.386	32127.87
724.729	32264.36
725.071	32189.34
725.413	32259.62
725.755	32117.02
726.097	31977.82
726.439	31816.47
726.782	31971.49
727.124	32051.94
727.465	31911.6
727.807	32005.16
728.149	31850.59
728.491	31795.68
728.833	31798.61
729.175	31754.32
729.516	31870.25
729.858	31734.89
730.199	31795
730.541	31724.94
730.882	31720.65
731.224	31799.29
731.565	31591.39
731.906	31743.93
732.248	31749.8
732.589	31616.47
732.93	31546.87
733.271	31635.68
733.612	31692.18
733.953	31651.72
734.294	31734.21
734.635	31563.82
734.976	31656.24
735.317	31403.6
735.658	31475.91
735.999	31569.92
736.339	31571.5
736.68	31551.16
737.021	31492.86
737.361	31399.75
737.702	31626.19
738.042	31374.22
738.383	31274.33
738.723	31360.66
739.063	31241.79
739.404	31306.87
739.744	31465.06
740.084	31199.31
740.424	31331.51
740.764	31153.21
741.104	31370.15
741.444	31143.04
741.784	31150.72
742.124	31157.5
742.464	31211.74
742.804	31065.52
743.143	30903.72
743.483	30940.56
743.823	30847.68
744.162	30851.75
744.502	31144.62
744.841	30958.18
745.181	30996.6
745.52	30989.59
745.86	30999.54
746.199	30766.78
746.538	30849.26
746.877	31030.95
747.216	30960.89
747.556	30977.17
747.895	30931.74
748.234	30802.71
748.573	30840.22
748.911	30772.43
749.25	30694.46
749.589	30616.27
749.928	30630.96
750.267	30740.56
750.605	30598.19
750.944	30547.35
751.283	30553.67
751.621	30677.51
751.96	30508.7
752.298	30339.22
752.636	30385.32
752.975	30277.07
753.313	30122.72
753.651	30331.53
753.989	30253.79
754.327	30128.15
754.666	30049.05
755.004	30082.27
755.342	30163.4
755.679	30126.11
756.017	29983.75
756.355	29905.78
756.693	29973.58
757.031	29949.17
757.368	29677.76
757.706	29690.42
