Data from copper_heatsink_FLMS001491_044.txt Node
Date: Tue Feb 07 10:50:00 GMT 2017
User: dcchb
Spectrometer: FLMS00149
Trigger mode: 0
Integration Time (sec): 2.000000E-2
Scans to average: 10
Electric dark correction enabled: true
Nonlinearity correction enabled: false
Boxcar width: 0
XAxis mode: Wavelengths
Number of Pixels in Spectrum: 2048
>>>>>Begin Spectral Data<<<<<
341.393	-36.78
341.776	-36.78
342.16	-36.78
342.543	-41.98
342.927	-60.73
343.31	-92.14
343.693	-85.36
344.077	-48.53
344.46	-63.22
344.843	-66.61
345.226	-26.16
345.61	-33.39
345.993	-10.79
346.376	-4.69
346.759	35.76
347.142	28.3
347.525	51.13
347.908	51.58
348.291	78.25
348.674	78.92
349.057	106.95
349.44	126.61
349.823	126.83
350.206	164.35
350.588	214.97
350.971	231.01
351.354	253.84
351.737	233.04
352.119	255.19
352.502	269.65
352.884	302.2
353.267	305.59
353.65	306.94
354.032	305.81
354.414	313.27
354.797	308.75
355.179	343.78
355.562	332.25
355.944	356.66
356.326	352.82
356.709	347.17
357.091	365.7
357.473	362.98
357.855	370.44
358.238	356.43
358.62	370.89
359.002	372.48
359.384	336.77
359.766	366.83
360.148	384
360.53	354.85
360.912	363.21
361.294	361.4
361.676	333.16
362.057	345.81
362.439	376.77
362.821	357.34
363.203	354.17
363.584	344.23
363.966	328.86
364.348	344.23
364.729	346.04
365.111	363.21
365.493	347.84
365.874	353.95
366.256	353.04
366.637	356.66
367.019	345.36
367.4	318.69
367.781	328.18
368.163	345.58
368.544	337.67
368.925	332.93
369.306	362.76
369.688	337.45
370.069	341.06
370.45	339.03
370.831	355.53
371.212	353.04
371.593	330.44
371.974	342.42
372.355	332.48
372.736	344.68
373.117	381.74
373.498	355.98
373.879	332.48
374.26	344.91
374.641	328.64
375.021	337.67
375.402	345.58
375.783	348.75
376.163	367.28
376.544	381.97
376.925	365.02
377.305	346.26
377.686	365.92
378.066	366.6
378.447	353.72
378.827	352.14
379.208	375.41
379.588	393.72
379.968	351.01
380.349	347.84
380.729	376.09
381.109	395.98
381.489	377.22
381.87	376.32
382.25	377.67
382.63	378.35
383.01	386.49
383.39	374.28
383.77	399.14
384.15	386.04
384.53	397.33
384.91	394.62
385.29	382.19
385.67	384.23
386.049	411.8
386.429	403.66
386.809	410.44
387.189	420.84
387.568	403.21
387.948	403.66
388.328	411.8
388.707	416.09
389.087	402.08
389.466	419.48
389.846	411.12
390.225	420.84
390.605	437.56
390.984	423.1
391.363	424
391.743	437.56
392.122	435.98
392.501	441.85
392.881	458.58
393.26	439.14
393.639	453.83
394.018	436.88
394.397	453.6
394.776	458.8
395.155	467.61
395.534	459.93
395.913	453.6
396.292	467.61
396.671	472.13
397.05	454.28
397.429	467.84
397.808	466.71
398.186	446.37
398.565	451.57
398.944	478.01
399.323	468.74
399.701	492.02
400.08	491.57
400.458	473.26
400.837	484.11
401.215	451.57
401.594	493.83
401.972	479.14
402.351	499.25
402.729	489.31
403.107	489.31
403.486	520.49
403.864	529.53
404.242	502.64
404.62	511.91
404.999	485.69
405.377	518.91
405.755	525.24
406.133	538.12
406.511	530.66
406.889	534.05
407.267	555.3
407.645	539.7
408.023	545.58
408.401	563.88
408.779	542.64
409.156	562.75
409.534	566.37
409.912	571.34
410.29	564.34
410.667	560.04
411.045	579.7
411.422	577.67
411.8	597.78
412.178	593.71
412.555	604.79
412.933	623.99
413.31	602.3
413.687	611.79
414.065	641.4
414.442	622.64
414.819	641.62
415.197	651.34
415.574	647.95
415.951	611.34
416.328	654.5
416.705	644.79
417.082	670.32
417.46	649.76
417.837	657.67
418.214	651.79
418.591	652.24
418.967	691.34
419.344	670.77
419.721	689.3
420.098	696.99
420.475	681.39
420.852	703.54
421.228	691.79
421.605	690.89
421.982	726.82
422.358	723.2
422.735	721.17
423.111	713.94
423.488	741.05
423.864	739.25
424.241	738.34
424.617	768.62
424.994	793.93
425.37	745.8
425.746	746.7
426.123	765.69
426.499	760.94
426.875	800.94
427.251	801.84
427.627	799.81
428.003	802.52
428.379	815.85
428.756	795.97
429.132	838.9
429.507	838
429.883	843.65
430.259	871.9
430.635	889.07
431.011	858.11
431.387	856.53
431.763	869.19
432.138	915.96
432.514	902.41
432.89	923.2
433.265	932.69
433.641	952.8
434.016	930.2
434.392	950.09
434.767	957.77
435.143	958.45
435.518	970.65
435.894	987.83
436.269	1006.13
436.644	974.72
437.02	1008.39
437.395	1010.65
437.77	1046.13
438.145	1069.41
438.52	1027.15
438.895	1059.69
439.271	1073.25
439.646	1050.2
440.021	1107.15
440.395	1112.12
440.77	1090.2
441.145	1087.49
441.52	1102.17
441.895	1103.76
442.27	1093.36
442.645	1100.14
443.019	1153.7
443.394	1162.06
443.769	1141.72
444.143	1162.51
444.518	1164.77
444.892	1179.91
445.267	1172.91
445.641	1160.03
446.016	1187.6
446.39	1222.85
446.764	1225.79
447.139	1193.02
447.513	1219.01
447.887	1234.15
448.262	1245.9
448.636	1244.54
449.01	1249.29
449.384	1268.72
449.758	1272.11
450.132	1296.52
450.506	1273.92
450.88	1296.75
451.254	1295.39
451.628	1280.25
452.002	1317.31
452.376	1370.42
452.75	1320.02
453.123	1363.18
453.497	1402.73
453.871	1395.27
454.244	1417.65
454.618	1457.19
454.992	1456.29
455.365	1434.37
455.739	1448.61
456.112	1486.57
456.486	1475.95
456.859	1500.58
457.232	1532.22
457.606	1506.01
457.979	1564.08
458.352	1563.86
458.725	1571.54
459.099	1586.91
459.472	1637.98
459.845	1640.92
460.218	1664.19
460.591	1681.14
460.964	1687.02
461.337	1715.72
461.71	1720.69
462.083	1783.06
462.456	1786.22
462.829	1796.62
463.201	1799.56
463.574	1831.19
463.947	1828.93
464.32	1878.2
464.692	1888.14
465.065	1921.59
465.438	1925.2
465.81	1956.16
466.183	1985.99
466.555	2002.94
466.928	2035.48
467.3	2038.87
467.672	2082.04
468.045	2117.97
468.417	2111.87
468.789	2126.55
469.161	2118.19
469.534	2186.89
469.906	2236.83
470.278	2246.78
470.65	2273.22
471.022	2306.21
471.394	2371.07
471.766	2363.38
472.138	2390.95
472.51	2430.5
472.882	2503.72
473.253	2506.88
473.625	2537.62
473.997	2589.37
474.369	2635.47
474.74	2596.37
475.112	2696.03
475.484	2722.02
475.855	2761.34
476.227	2785.97
476.598	2871.85
476.97	2904.39
477.341	2984.84
477.713	3009.02
478.084	3027.55
478.455	3172.85
478.827	3128.34
479.198	3215.34
479.569	3275.68
479.94	3351.83
480.311	3377.14
480.682	3433.64
481.053	3513.18
481.424	3586.4
481.795	3611.49
482.166	3624.82
482.537	3719.73
482.908	3802.22
483.279	3813.97
483.65	3886.06
484.021	3963.57
484.391	4042.66
484.762	4093.06
485.133	4111.13
485.503	4186.84
485.874	4265.71
486.244	4267.97
486.615	4400.62
486.985	4418.25
487.356	4493.5
487.726	4519.71
488.097	4669.31
488.467	4682.65
488.837	4810.78
489.207	4853.49
489.578	4926.25
489.948	4993.37
490.318	5081.28
490.688	5076.76
491.058	5220.48
491.428	5237.88
491.798	5349.75
492.168	5382.74
492.538	5477.65
492.908	5511.55
493.278	5557.88
493.648	5635.84
494.017	5698.66
494.387	5779.11
494.757	5847.81
495.126	5902.73
495.496	5927.81
495.866	5977.3
496.235	6048.26
496.605	6160.8
496.974	6208.48
497.344	6229.5
497.713	6284.86
498.082	6364.86
498.452	6491.41
498.821	6499.55
499.19	6582.93
499.559	6629.03
499.928	6659.99
500.298	6718.75
500.667	6786.32
501.036	6809.59
501.405	6914.22
501.774	7000.78
502.143	6987.67
502.512	7120.32
502.88	7122.81
503.249	7221.56
503.618	7215.91
503.987	7312.41
504.356	7374.55
504.724	7486.87
505.093	7509.46
505.462	7569.8
505.83	7607.54
506.199	7717.59
506.567	7809.57
506.936	7874.88
507.304	8000.75
507.672	8003.46
508.041	8094.53
508.409	8153.51
508.777	8209.33
509.145	8340.85
509.514	8330.23
509.882	8408.87
510.25	8489.1
510.618	8621.98
510.986	8576.78
511.354	8694.52
511.722	8784.01
512.09	8953.95
512.458	8921.4
512.826	8984.68
513.193	9075.3
513.561	9174.28
513.929	9372.69
514.297	9344.44
514.664	9457.43
515.032	9435.74
515.4	9577.66
515.767	9728.39
516.135	9748.73
516.502	9735.62
516.869	9936.07
517.237	9939.46
517.604	10041.6
517.972	10158.43
518.339	10281.14
518.706	10337.86
519.073	10378.54
519.44	10505.09
519.808	10628.93
520.175	10675.48
520.542	10899.43
520.909	10937.85
521.276	10967.45
521.643	11197.5
522.009	11211.97
522.376	11318.18
522.743	11507.55
523.11	11637.72
523.477	11691.73
523.843	11843.36
524.21	11988.89
524.577	12164.26
524.943	12241.54
525.31	12318.6
525.676	12363.35
526.043	12510.24
526.409	12613.28
526.776	12757.69
527.142	12832.94
527.508	12988.19
527.874	13114.97
528.241	13218.01
528.607	13264.34
528.973	13380.5
529.339	13504.11
529.705	13683.76
530.071	13751.56
530.437	13846.25
530.803	13998.11
531.169	14113.36
531.535	14080.14
531.901	14220.93
532.267	14299.12
532.632	14462.95
532.998	14589.73
533.364	14664.98
533.73	14833.11
534.095	14951.53
534.461	14933.22
534.826	15166.21
535.192	15280.78
535.557	15399.43
535.923	15474
536.288	15587.22
536.653	15798.74
537.019	15632.19
537.384	15866.08
537.749	16047.32
538.114	16045.51
538.479	16203.7
538.845	16314.66
539.21	16250.48
539.575	16427.65
539.94	16562.11
540.305	16700.41
540.67	16794.87
541.034	16858.6
541.399	16930.23
541.764	17115.31
542.129	17175.65
542.494	17289.09
542.858	17431.24
543.223	17509.2
543.587	17696.31
543.952	17722.75
544.316	17908.96
544.681	17891.11
545.045	18011.56
545.41	18306.69
545.774	18350.53
546.138	18359.8
546.503	18530.42
546.867	18666.68
547.231	18918.43
547.595	18950.52
547.959	19117.75
548.324	19169.72
548.688	19312.54
549.052	19473.22
549.416	19516.38
549.779	19697.39
550.143	19806.54
550.507	20120.43
550.871	20228.45
551.235	20130.83
551.599	20569.23
551.962	20636.58
552.326	20781.43
552.689	21036.57
553.053	21028.43
553.417	21210.12
553.78	21578.25
554.143	21481.98
554.507	21841.52
554.87	21974.17
555.234	22325.12
555.597	22291
555.96	22563.76
556.323	22704.77
556.686	22837.65
557.05	23174.59
557.413	23307.24
557.776	23507.24
558.139	23760.79
558.502	23979.54
558.865	24124.85
559.228	24466.31
559.59	24604.38
559.953	24804.6
560.316	25309.22
560.679	25403.91
561.041	25744.69
561.404	25913.95
561.767	26178.35
562.129	26347.84
562.492	26814.49
562.854	26945.11
563.217	27202.51
563.579	27482.72
563.941	27811.75
564.304	27955.25
564.666	28420.55
565.028	28487.9
565.39	28865.06
565.753	29242.68
566.115	29419.62
566.477	29810.35
566.839	29991.58
567.201	30466.37
567.563	30598.57
567.925	31012.8
568.287	31235.62
568.648	31420.02
569.01	31769.39
569.372	32190.17
569.734	32338.19
570.095	32788.8
570.457	33063.59
570.819	33247.54
571.18	33674.43
571.542	33860.86
571.903	34186.73
572.265	34506.72
572.626	34837.78
572.987	34948.06
573.349	35445.68
573.71	35842.96
574.071	36019
574.432	36285.66
574.794	36687.23
575.155	36854.91
575.516	37007.67
575.877	37479.3
576.238	37685.17
576.599	38065.5
576.96	38231.14
577.32	38420.97
577.681	38794.97
578.042	39103.66
578.403	39211.68
578.763	39546.36
579.124	39811.44
579.485	40189.51
579.845	40464.3
580.206	40712.21
580.566	40784.97
580.927	41049.82
581.287	41336.82
581.648	41311.29
582.008	41714.21
582.368	41866.98
582.728	42126.18
583.089	42366.85
583.449	42497.92
583.809	42679.16
584.169	43106.04
584.529	43030.34
584.889	43611.57
585.249	43469.87
585.609	43607.27
585.969	44045.9
586.329	44060.37
586.688	44201.38
587.048	44275.73
587.408	44240.7
587.768	44496.74
588.127	44696.96
588.487	44842.72
588.846	45395.47
589.206	45190.05
589.565	45560.89
589.925	45718.85
590.284	45702.58
590.643	46050.6
591.003	46199.29
591.362	46353.41
591.721	46372.17
592.08	46578.27
592.44	46884.47
592.799	46967.18
593.158	46987.07
593.517	47160.85
593.876	47482.88
594.235	47601.52
594.593	47714.06
594.952	47827.95
595.311	47979.59
595.67	48177.32
596.029	48323.08
596.387	48601.04
596.746	48675.84
597.104	48593.81
597.463	48861.82
597.822	49082.61
598.18	48964.87
598.538	49205.09
598.897	49428.59
599.255	49246.9
599.613	49974.79
599.972	49749.71
600.33	50091.17
600.688	49858.63
601.046	50311.95
601.404	50479.18
601.762	50502.01
602.12	50630.59
602.478	50850.02
602.836	50903.58
603.194	50918.49
603.552	51048.88
603.91	51046.85
604.268	51414.98
604.625	51329.55
604.983	51477.35
605.341	51487.29
605.698	51795.53
606.056	52035.07
606.413	52026.71
606.771	52219.25
607.128	52216.31
607.485	52338.79
607.843	52382.86
608.2	52689.07
608.557	52900.59
608.914	52903.75
609.272	53107.81
609.629	53223.52
609.986	53286.56
610.343	53217.64
610.7	53548.03
611.057	53557.29
611.414	53654.92
611.771	53856.49
612.127	53975.13
612.484	53975.36
612.841	54217.39
613.198	54195.47
613.554	54305.3
613.911	54508.68
614.267	54697.83
614.624	54559.98
614.98	54745.06
615.337	54921.55
615.693	54847.2
616.05	54979.18
616.406	55179.4
616.762	55177.36
617.118	55201.77
617.475	55346.85
617.831	55465.49
618.187	55500.74
618.543	55652.6
618.899	55809.89
619.255	55859.38
619.611	55889.21
619.967	56047.4
620.323	56102.76
620.678	56123.33
621.034	56133.27
621.39	56180.05
621.746	56174.4
622.101	56540.04
622.457	56389.99
622.812	56588.63
623.168	56747.26
623.523	56756.98
623.879	56843.08
624.234	56785
624.589	56848.73
624.945	56959.91
625.3	56977.09
625.655	57043.08
626.01	57148.38
626.365	57182.73
626.72	57201.04
627.075	57175.05
627.43	57309.74
627.785	57207.59
628.14	57288.95
628.495	57455.95
628.85	57460.92
629.205	57375.05
629.559	57575.72
629.914	57524.19
630.269	57569.16
630.623	57534.36
630.978	57540.69
631.332	57784.98
631.687	57855.48
632.041	57750.85
632.396	57898.42
632.75	57756.28
633.104	57921.92
633.459	57921.92
633.813	57883.96
634.167	57887.12
634.521	57936.61
634.875	58014.58
635.229	58046.67
635.583	57974.13
635.937	58015.03
636.291	58091.18
636.645	58099.32
636.999	57965.99
637.352	58144.74
637.706	58073.33
638.06	58221.8
638.413	58163.05
638.767	58102.94
639.121	58190.16
639.474	58093.44
639.828	58211.63
640.181	58307.9
640.534	58300.44
640.888	58277.39
641.241	58277.17
641.594	58348.35
641.947	58437.16
642.301	58387.22
642.654	58430.84
643.007	58405.98
643.36	58505.41
643.713	58471.97
644.066	58596.03
644.419	58498.63
644.771	58479.87
645.124	58387.22
645.477	58318.52
645.83	58159.66
646.182	58031.07
646.535	57885.09
646.888	58014.58
647.24	57855.94
647.593	58043.73
647.945	58011.64
648.298	57977.97
648.65	57833.11
649.002	57809.38
649.355	58031.75
649.707	57996.27
650.059	58244.4
650.411	58606.43
650.763	58643.26
651.115	58853.2
651.467	58900.88
651.819	58913.31
652.171	58865.18
652.523	58802.58
652.875	58884.16
653.227	58813.43
653.578	58996.47
653.93	58945.17
654.282	58935.23
654.633	58914.44
654.985	59006.87
655.337	58979.07
655.688	58973.42
656.039	59144.49
656.391	59003.02
656.742	59049.35
657.094	59057.71
657.445	59203.7
657.796	59118.95
658.147	59130.71
658.498	59197.6
658.849	59193.3
659.2	59110.82
659.551	59118.95
659.902	59281.21
660.253	59270.81
660.604	59299.29
660.955	59242.79
661.306	59379.51
661.656	59327.99
662.007	59400.08
662.358	59356.69
662.708	59439.85
663.059	59513.75
663.409	59322.34
663.76	59498.61
664.11	59481.2
664.461	59438.72
664.811	59577.02
665.161	59511.49
665.511	59516.91
665.862	59535.67
666.212	59727.75
666.562	59796.45
666.912	59775.89
667.262	59779.5
667.612	59811.37
667.962	59833.29
668.312	59837.35
668.662	60005.48
669.011	59947.86
669.361	59929.33
669.711	59953.06
670.06	60030.12
670.41	59955.54
670.76	60017.46
671.109	60090.45
671.459	60063.79
671.808	59915.09
672.157	60088.42
672.507	59927.07
672.856	59996.45
673.205	60087.74
673.554	60116.44
673.904	60116.89
674.253	60290.9
674.602	60260.17
674.951	59867.41
675.3	59772.72
675.649	60146.95
675.998	60217
676.346	60288.64
676.695	60412.48
677.044	60182.88
677.393	60305.59
677.741	60359.37
678.09	60230.56
678.438	60259.26
678.787	60345.14
679.135	60281.86
679.484	60168.42
679.832	60320.28
680.181	60089.32
680.529	60285.7
680.877	60289.54
681.225	60231.92
681.573	60430.56
681.922	60361.86
682.27	60314.18
682.618	60255.87
682.966	60179.27
683.314	60369.09
683.661	60224.01
684.009	60226.27
684.357	60173.84
684.705	60290.45
685.053	60307.62
685.4	60235.31
685.748	60100.17
686.095	60204.58
686.443	60113.28
686.79	60099.72
687.138	60150.11
687.485	60188.98
687.832	60146.05
688.18	60102.43
688.527	59988.31
688.874	60005.26
689.221	59909.89
689.568	59889.78
689.915	59915.09
690.262	60012.04
690.609	59864.47
690.956	59908.54
691.303	59868.76
691.65	59703.57
691.997	59853.62
692.344	59630.8
692.69	59676.91
693.037	59763.68
693.383	59604.59
693.73	59707.64
694.077	59524.59
694.423	59532.28
694.769	59493.18
695.116	59471.94
695.462	59492.73
695.808	59400.98
696.155	59462.22
696.501	59285.28
696.847	59296.8
697.193	59183.36
697.539	59316.46
697.885	59153.08
698.231	59053.64
698.577	59114.89
698.923	59145.39
699.269	58981.33
699.614	58929.13
699.96	58868.57
700.306	58922.12
700.651	58851.16
700.997	58829.47
701.342	58810.94
701.688	58768.91
702.033	58777.95
702.379	58769.58
702.724	58694.56
703.069	58775.46
703.415	58561.91
703.76	58526.43
704.105	58522.59
704.45	58587.44
704.795	58364.85
705.14	58371.63
705.485	58349.48
705.83	58202.59
706.175	58322.82
706.52	58259.54
706.865	58273.55
707.209	58262.71
707.554	58155.82
707.899	58262.25
708.243	58196.04
708.588	58130.96
708.932	57970.28
709.277	57987.91
709.621	57996.95
709.966	57893.68
710.31	58027.01
710.654	57725.54
710.998	57787.92
711.342	57791.31
711.687	57824.98
712.031	57758.54
712.375	57627.02
712.719	57687.35
713.063	57667.24
713.407	57742.49
713.75	57541.37
714.094	57554.02
714.438	57517.41
714.782	57602.84
715.125	57564.64
715.469	57561.71
715.812	57444.87
716.156	57302.28
716.499	57364.2
716.843	57351.32
717.186	57193.58
717.53	57427.25
717.873	57349.96
718.216	57246.01
718.559	57299.11
718.902	57162.85
719.246	57269.74
719.589	57122.4
719.932	57056.18
720.275	57113.13
720.617	57041.95
720.96	57029.07
721.303	57077.65
721.646	56980.25
721.989	56846.7
722.331	57119.23
722.674	56955.4
723.016	57029.29
723.359	56942.29
723.701	57040.82
724.044	56790.2
724.386	56886.92
724.729	56968.5
725.071	56738
725.413	56787.94
725.755	56748.17
726.097	56718.57
726.439	56630.66
726.782	56699.13
727.124	56815.51
727.465	56669.53
727.807	56702.75
728.149	56588.63
728.491	56565.57
728.833	56625.46
729.175	56500.72
729.516	56541.39
729.858	56467.5
730.199	56600.83
730.541	56512.24
730.882	56542.3
731.224	56548.4
731.565	56349.08
731.906	56497.55
732.248	56524.9
732.589	56365.13
732.93	56280.84
733.271	56288.29
733.612	56252.36
733.953	56231.12
734.294	56247.17
734.635	56192.93
734.976	56261.85
735.317	56219.82
735.658	56202.65
735.999	56109.09
736.339	56079.71
736.68	56231.8
737.021	56044.68
737.361	56041.52
737.702	56093.04
738.042	56038.36
738.383	56010.79
738.723	56080.62
739.063	55970.79
739.404	56120.39
739.744	56027.74
740.084	55928.53
740.424	56112.03
740.764	55844.46
741.104	56051.92
741.444	55907.96
741.784	55909.32
742.124	55901.41
742.464	55907.96
742.804	55871.13
743.143	55739.16
743.483	55797.69
743.823	55706.84
744.162	55663.68
744.502	55689.44
744.841	55626.16
745.181	55728.08
745.52	55648.08
745.86	55773.28
746.199	55712.94
746.538	55716.11
746.877	55780.28
747.216	55815.76
747.556	55647.41
747.895	55699.83
748.234	55422.33
748.573	55405.38
748.911	55452.61
749.25	55352.73
749.589	55234.99
749.928	55290.13
750.267	55371.26
750.605	55239.51
750.944	55290.13
751.283	55062.11
751.621	55264.37
751.96	55086.97
752.298	55086.52
752.636	55144.37
752.975	55028.21
753.313	55031.83
753.651	55079.29
753.989	54875
754.327	54851.95
754.666	54784.6
755.004	54772.63
755.342	54853.08
755.679	54738.5
756.017	54616.93
