Data from copper_heatsink_FLMS001491_021.txt Node
Date: Tue Feb 07 10:49:35 GMT 2017
User: dcchb
Spectrometer: FLMS00149
Trigger mode: 0
Integration Time (sec): 2.000000E-2
Scans to average: 10
Electric dark correction enabled: true
Nonlinearity correction enabled: false
Boxcar width: 0
XAxis mode: Wavelengths
Number of Pixels in Spectrum: 2048
>>>>>Begin Spectral Data<<<<<
341.393	-27.49
341.776	-27.49
342.16	-27.49
342.543	-68.61
342.927	-56.86
343.31	-81.95
343.693	-71.1
344.077	-60.25
344.46	-49.63
344.843	-56.18
345.226	-53.7
345.61	-26.81
345.993	-8.95
346.376	-15.06
346.759	24.94
347.142	7.99
347.525	42.34
347.908	72.4
348.291	80.99
348.674	93.42
349.057	101.55
349.44	110.82
349.823	142.68
350.206	170.48
350.588	216.35
350.971	253.41
351.354	253.86
351.737	247.76
352.119	279.4
352.502	309.68
352.884	292.96
353.267	289.12
353.65	297.03
354.032	305.61
354.414	326.4
354.797	324.14
355.179	349.45
355.562	343.58
355.944	364.59
356.326	350.58
356.709	377.93
357.091	359.17
357.473	358.04
357.855	368.21
358.238	353.75
358.62	355.33
359.002	364.37
359.384	360.98
359.766	372.05
360.148	351.71
360.53	356.69
360.912	353.97
361.294	374.09
361.676	359.4
362.057	367.76
362.439	374.09
362.821	360.75
363.203	356.91
363.584	348.78
363.966	343.8
364.348	353.52
364.729	364.37
365.111	360.53
365.493	349.68
365.874	344.03
366.256	359.4
366.637	354.65
367.019	348.78
367.4	331.38
367.781	346.97
368.163	362.34
368.544	343.35
368.925	353.07
369.306	367.31
369.688	354.88
370.069	355.1
370.45	379.28
370.831	359.62
371.212	343.8
371.593	340.64
371.974	334.31
372.355	365.72
372.736	358.49
373.117	345.84
373.498	356.01
373.879	365.27
374.26	366.4
374.641	351.71
375.021	357.36
375.402	334.09
375.783	388.1
376.163	404.37
376.544	383.13
376.925	378.83
377.305	368.89
377.686	392.16
378.066	352.62
378.447	370.24
378.827	380.19
379.208	393.29
379.588	377.7
379.968	384.71
380.349	370.47
380.729	396.91
381.109	380.19
381.489	371.15
381.87	407.31
382.25	386.74
382.63	400.07
383.01	435.33
383.39	400.98
383.77	398.72
384.15	409.11
384.53	409.34
384.91	425.84
385.29	414.54
385.67	434.88
386.049	418.83
386.429	441.88
386.809	417.02
387.189	432.16
387.568	446.85
387.948	409.11
388.328	450.02
388.707	434.42
389.087	426.74
389.466	454.54
389.846	475.1
390.225	460.86
390.605	462.45
390.984	457.7
391.363	442.33
391.743	457.47
392.122	470.81
392.501	483.01
392.881	488.21
393.26	501.09
393.639	504.7
394.018	501.31
394.397	499.51
394.776	500.86
395.155	488.21
395.534	496.34
395.913	483.01
396.292	509.9
396.671	499.96
397.05	490.92
397.429	520.52
397.808	508.77
398.186	530.01
398.565	544.7
398.944	510.81
399.323	530.24
399.701	515.1
400.08	556.68
400.458	550.35
400.837	580.18
401.215	549
401.594	564.36
401.972	552.16
402.351	573.85
402.729	573.63
403.107	542.44
403.486	586.06
403.864	579.73
404.242	560.52
404.62	600.07
404.999	610.92
405.377	597.13
405.755	597.58
406.133	602.1
406.511	621.54
406.889	604.36
407.267	644.14
407.645	627.86
408.023	642.33
408.401	669.45
408.779	647.75
409.156	660.18
409.534	645.72
409.912	647.07
410.29	675.55
410.667	672.84
411.045	681.2
411.422	680.29
411.8	684.59
412.178	711.03
412.555	725.72
412.933	713.06
413.31	725.26
413.687	741.53
414.065	761.19
414.442	735.88
414.819	780.86
415.197	751.48
415.574	776.34
415.951	815.66
416.328	788.99
416.705	758.26
417.082	781.31
417.46	829.44
417.837	814.07
418.214	809.1
418.591	840.97
418.967	832.38
419.344	837.58
419.721	852.94
420.098	827.41
420.475	844.58
420.852	873.73
421.228	882.1
421.605	880.97
421.982	886.62
422.358	889.55
422.735	894.98
423.111	886.16
423.488	905.82
423.864	934.3
424.241	956.67
424.617	936.33
424.994	961.19
425.37	956.22
425.746	960.51
426.123	952.83
426.499	1007.97
426.875	993.96
427.251	1000.28
427.627	1035.31
428.003	1031.47
428.379	1058.81
428.756	1061.75
429.132	1064.69
429.507	1061.53
429.883	1085.71
430.259	1106.04
430.635	1109.21
431.011	1119.83
431.387	1160.05
431.763	1155.99
432.138	1161.86
432.514	1170.45
432.89	1176.55
433.265	1195.99
433.641	1219.26
434.016	1224.01
434.392	1255.64
434.767	1300.84
435.143	1288.86
435.518	1284.34
435.894	1299.49
436.269	1315.53
436.644	1343.78
437.02	1344.68
437.395	1340.61
437.77	1362.53
438.145	1399.6
438.52	1420.16
438.895	1406.6
439.271	1415.19
439.646	1457.67
440.021	1481.63
440.395	1455.19
440.77	1472.81
441.145	1483.89
441.52	1501.97
441.895	1508.52
442.27	1494.06
442.645	1552.36
443.019	1552.59
443.394	1544
443.769	1559.37
444.143	1569.08
444.518	1598.46
444.892	1568.86
445.267	1609.76
445.641	1628.97
446.016	1632.13
446.39	1643.43
446.764	1670.32
447.139	1674.62
447.513	1673.71
447.887	1668.97
448.262	1676.65
448.636	1722.07
449.01	1732.02
449.384	1729.53
449.758	1745.58
450.132	1785.57
450.506	1799.36
450.88	1807.95
451.254	1806.59
451.628	1836.87
452.002	1840.94
452.376	1857.21
452.75	1917.77
453.123	1932.01
453.497	1963.65
453.871	1972.01
454.244	1987.15
454.618	2014.5
454.992	2036.19
455.365	2036.42
455.739	2091.1
456.112	2104.21
456.486	2139.69
456.859	2156.64
457.232	2225.11
457.606	2211.78
457.979	2251.1
458.352	2258.1
458.725	2277.09
459.099	2300.82
459.472	2366.58
459.845	2381.27
460.218	2401.6
460.591	2413.81
460.964	2425.56
461.337	2495.39
461.71	2527.93
462.083	2580.58
462.456	2585.1
462.829	2607.47
463.201	2658.77
463.574	2638.89
463.947	2701.03
464.32	2751.65
464.692	2784.19
465.065	2806.56
465.438	2880.46
465.81	2897.18
466.183	2921.82
466.555	3009.05
466.928	3038.2
467.3	3033.9
467.672	3050.17
468.045	3166.56
468.417	3139.66
468.789	3150.28
469.161	3190.28
469.534	3271.86
469.906	3362.71
470.278	3360.67
470.65	3446.32
471.022	3489.03
471.394	3521.57
471.766	3556.38
472.138	3614.23
472.51	3695.81
472.882	3734.68
473.253	3786.65
473.625	3852.86
473.997	3934.67
474.369	3931.96
474.74	3987.32
475.112	4105.51
475.484	4153.42
475.855	4182.8
476.227	4219.86
476.598	4363.13
476.97	4323.13
477.341	4483.58
477.713	4575.78
478.084	4594.54
478.455	4714.76
478.827	4755.89
479.198	4870.92
479.569	4860.75
479.94	5031.82
480.311	5095.32
480.682	5179.16
481.053	5355.88
481.424	5370.79
481.795	5447.63
482.166	5546.15
482.537	5663.66
482.908	5709.77
483.279	5820.27
483.65	5909.76
484.021	5989.53
484.391	6040.83
484.762	6088.74
485.133	6222.75
485.503	6270.65
485.874	6428.39
486.244	6466.36
486.615	6559.46
486.985	6648.95
487.356	6781.83
487.726	6811.43
488.097	6984.31
488.467	6963.97
488.837	7166
489.207	7246.22
489.578	7347.24
489.948	7431.98
490.318	7495.71
490.688	7586.55
491.058	7682.82
491.428	7785.19
491.798	7885.98
492.168	8028.12
492.538	8045.3
492.908	8094.56
493.278	8271.28
493.648	8239.42
494.017	8355.57
494.387	8471.95
494.757	8552.85
495.126	8682.57
495.496	8665.39
495.866	8702.23
496.235	8944.71
496.605	8925.27
496.974	8964.82
497.344	9026.74
497.713	9148.54
498.082	9151.03
498.452	9338.37
498.821	9425.83
499.19	9437.35
499.559	9479.61
499.928	9518.48
500.298	9545.37
500.667	9650.9
501.036	9660.85
501.405	9753.27
501.774	9867.85
502.143	10003.44
502.512	9947.62
502.88	10045.47
503.249	10115.52
503.618	10165.47
503.987	10266.93
504.356	10300.15
504.724	10370.21
505.093	10413.6
505.462	10442.3
505.83	10545.57
506.199	10677.54
506.567	10771.78
506.936	10746.02
507.304	10957.54
507.672	10998.21
508.041	11019.23
508.409	11162.96
508.777	11170.19
509.145	11256.51
509.514	11236.63
509.882	11354.59
510.25	11480.23
510.618	11502.83
510.986	11587.35
511.354	11717.52
511.722	11731.53
512.09	11906.44
512.458	11921.58
512.826	11980.11
513.193	12083.83
513.561	12176.04
513.929	12230.05
514.297	12357.95
514.664	12452.86
515.032	12561.56
515.4	12618.96
515.767	12662.12
516.135	12775.34
516.502	12715.68
516.869	13009.46
517.237	13006.97
517.604	12983.92
517.972	13115.9
518.339	13213.07
518.706	13290.36
519.073	13425.04
519.44	13493.29
519.808	13634.75
520.175	13642.89
520.542	13809.89
520.909	13948.42
521.276	13963.11
521.643	14102.09
522.009	14226.83
522.376	14303.44
522.743	14454.39
523.11	14573.26
523.477	14727.38
523.843	14774.61
524.21	14940.03
524.577	15081.04
524.943	15147.26
525.31	15218.67
525.676	15333.47
526.043	15471.77
526.409	15598.54
526.776	15802.83
527.142	15865.2
527.508	15883.28
527.874	15996.73
528.241	16085.76
528.607	16143.84
528.973	16389.03
529.339	16424.06
529.705	16470.16
530.071	16636.71
530.437	16692.3
530.803	16965.51
531.169	17017.94
531.535	17011.39
531.901	17092.06
532.267	17251.61
532.632	17395.79
532.998	17374.54
533.364	17606.85
533.73	17541.77
534.095	17663.12
534.461	17718.49
534.826	17850.01
535.192	17973.85
535.557	18077.12
535.923	18125.03
536.288	18242.99
536.653	18298.81
537.019	18291.36
537.384	18424.46
537.749	18538.58
538.114	18650.67
538.479	18682.98
538.845	18859.93
539.21	18812.7
539.575	18912.36
539.94	18929.98
540.305	19179.02
540.67	19242.52
541.034	19301.95
541.399	19409.52
541.764	19400.48
542.129	19525.9
542.494	19746.68
542.858	19887.7
543.223	19824.2
543.587	20000.01
543.952	20058.31
544.316	20040.24
544.681	20071.42
545.045	20289.49
545.41	20393.22
545.774	20561.35
546.138	20550.28
546.503	20666.89
546.867	20698.52
547.231	20998.85
547.595	21057.61
547.959	21130.6
548.324	21164.27
548.688	21129.47
549.052	21406.3
549.416	21377.83
549.779	21577.82
550.143	21694.43
550.507	21871.37
550.871	21985.72
551.235	22049
551.599	22305.03
551.962	22324.02
552.326	22571.92
552.689	22590
553.053	22658.47
553.417	22758.58
553.78	23227.72
554.143	23110.66
554.507	23195.41
554.87	23482.86
555.234	23785.22
555.597	23718.78
555.96	23882.62
556.323	24101.37
556.686	24162.39
557.05	24407.8
557.413	24530.06
557.776	24635.6
558.139	24949.49
558.502	25128.69
558.865	25250.49
559.228	25528.45
559.59	25623.82
559.953	25770.25
560.316	26206.18
560.679	26243.46
561.041	26417.24
561.404	26719.61
561.767	27063.55
562.129	27010.9
562.492	27497.21
562.854	27594.39
563.217	27672.13
563.579	28005.9
563.941	28219.46
564.304	28423.29
564.666	28634.81
565.028	28926.56
565.39	29242.71
565.753	29240.67
566.115	29520.66
566.477	29814.89
566.839	30124.04
567.201	30283.36
567.563	30626.17
567.925	30870.91
568.287	31113.39
568.648	31158.81
569.01	31521.97
569.372	31882.86
569.734	32006.02
570.095	32294.38
570.457	32644.2
570.819	32848.49
571.18	33035.83
571.542	33240.34
571.903	33589.48
572.265	33762.13
572.626	33948.12
572.987	34177.72
573.349	34604.15
573.71	34801.88
574.071	35030.58
574.432	35238.25
574.794	35510.56
575.155	35673.72
575.516	35796.43
575.877	36195.29
576.238	36358
576.599	36641.38
576.96	36866.01
577.32	36856.97
577.681	37206.34
578.042	37446.56
578.403	37702.6
578.763	37741.24
579.124	38144.17
579.485	38268.23
579.845	38697.37
580.206	38619.41
580.566	38864.83
580.927	39124.48
581.287	39368.77
581.648	39222.78
582.008	39575.32
582.368	39762.88
582.728	39959.94
583.089	40093.72
583.449	40197.67
583.809	40434.5
584.169	40451.22
584.529	40626.81
584.889	41057.76
585.249	40784.78
585.609	40893.25
585.969	41288.49
586.329	41445.55
586.688	41596.28
587.048	41520.8
587.408	41738.2
587.768	41867.91
588.127	42101.12
588.487	42123.5
588.846	42484.17
589.206	42228.35
589.565	42598.96
589.925	42907.43
590.284	42881.9
590.643	42897.26
591.003	43174.77
591.362	43374.99
591.721	43317.59
592.08	43582.44
592.44	43765.26
592.799	43798.93
593.158	43973.39
593.517	43982.66
593.876	44250.22
594.235	44132.48
594.593	44449.54
594.952	44511.23
595.311	44550.33
595.67	44675.29
596.029	45203.64
596.387	45176.3
596.746	45268.05
597.104	45424.88
597.463	45429.62
597.822	45648.15
598.18	45647.47
598.538	45689.96
598.897	46027.35
599.255	45838.2
599.613	46540.56
599.972	46344.4
600.33	46482.93
600.688	46564.51
601.046	46822.58
601.404	46926.99
601.762	46990.94
602.12	47312.51
602.478	47417.37
602.836	47482.68
603.194	47359.74
603.552	47653.07
603.91	47674.54
604.268	47792.95
604.625	47647.65
604.983	47899.39
605.341	47766.51
605.698	48154.98
606.056	48361.75
606.413	48380.06
606.771	48611.46
607.128	48740.72
607.485	48668.41
607.843	48802.42
608.2	49223.65
608.557	49290.77
608.914	49216.64
609.272	49447.37
609.629	49574.83
609.986	49888.26
610.343	49717.87
610.7	50202.38
611.057	50118.09
611.414	50159.67
611.771	50280.34
612.127	50467.46
612.484	50596.49
612.841	50726.89
613.198	50586.33
613.554	50771.18
613.911	51038.97
614.267	50984.51
614.624	51097.27
614.98	51276.93
615.337	51344.95
615.693	51417.49
616.05	51431.95
616.406	51687.99
616.762	51620.42
617.118	51670.36
617.475	51712.17
617.831	51915.33
618.187	52018.15
618.543	51989.23
618.899	52329.56
619.255	52323.23
619.611	52231.93
619.967	52456.33
620.323	52497.24
620.678	52563.45
621.034	52524.58
621.39	52619.72
621.746	52657.68
622.101	53012.7
622.457	52803.22
622.812	52968.64
623.168	53065.36
623.523	53058.12
623.879	53300.6
624.234	53127.95
624.589	53306.03
624.945	53373.6
625.3	53397.55
625.655	53463.99
626.01	53411.11
626.365	53529.3
626.72	53533.14
627.075	53582.18
627.43	53629.64
627.785	53666.47
628.14	53670.31
628.495	53883.87
628.85	53814.94
629.205	53743.53
629.559	53927.25
629.914	53707.37
630.269	53840.7
630.623	53811.33
630.978	53833.25
631.332	53932.45
631.687	54120.7
632.041	54025.33
632.396	54147.36
632.75	54056.97
633.104	54107.59
633.459	54030.3
633.813	54040.02
634.167	54103.07
634.521	54157.53
634.875	54234.59
635.229	54125.89
635.583	54043.64
635.937	54189.62
636.291	54087.25
636.645	54171.32
636.999	54196.4
637.352	54242.05
637.706	54113.69
638.06	54235.27
638.413	54250.86
638.767	54175.84
639.121	54285.44
639.474	54156.85
639.828	54183.74
640.181	54269.84
640.534	54289.05
640.888	54181.48
641.241	54134.03
641.594	54247.25
641.947	54315.27
642.301	54226
642.654	54414.02
643.007	54328.6
643.36	54367.69
643.713	54307.81
644.066	54485.88
644.419	54346.68
644.771	54280.92
645.124	54167.25
645.477	54050.19
645.83	53934.26
646.182	53781.72
646.535	53680.48
646.888	53616.08
647.24	53505.34
647.593	53752.8
647.945	53599.58
648.298	53554.38
648.65	53477.77
649.002	53545.8
649.355	53704.44
649.707	53742.17
650.059	53921.38
650.411	54378.54
650.763	54328.6
651.115	54680.68
651.467	54548.93
651.819	54541.25
652.171	54447.01
652.523	54567.24
652.875	54611.76
653.227	54498.76
653.578	54702.15
653.93	54564.75
654.282	54542.15
654.633	54504.64
654.985	54666.22
655.337	54604.98
655.688	54564.98
656.039	54763.39
656.391	54522.94
656.742	54718.42
657.094	54675.03
657.445	54803.39
657.796	54628.03
658.147	54634.58
658.498	54700.12
658.849	54778.08
659.2	54758.19
659.551	54811.75
659.902	54841.35
660.253	54836.16
660.604	54905.99
660.955	54747.12
661.306	54931.07
661.656	54885.2
662.007	54963.39
662.358	54889.26
662.708	54976.27
663.059	54978.3
663.409	54860.56
663.76	55043.38
664.11	55007.45
664.461	55106.43
664.811	55067.11
665.161	55117.73
665.511	54997.28
665.862	55085.64
666.212	55200.89
666.562	55202.02
666.912	55179.2
667.262	55168.13
667.612	55266.2
667.962	55313.88
668.312	55244.73
668.662	55299.42
669.011	55260.78
669.361	55255.36
669.711	55309.36
670.06	55349.59
670.41	55307.11
670.76	55427.1
671.109	55515.91
671.459	55486.08
671.808	55326.99
672.157	55299.65
672.507	55229.82
672.856	55380.1
673.205	55447.67
673.554	55515.24
673.904	55469.13
674.253	55582.58
674.602	55543.71
674.951	55202.25
675.3	55082.25
675.649	55580.77
675.998	55487.44
676.346	55597.72
676.695	55722.91
677.044	55409.25
677.393	55605.18
677.741	55588.23
678.09	55635.68
678.438	55516.37
678.787	55606.08
679.135	55555.01
679.484	55489.7
679.832	55654.67
680.181	55449.25
680.529	55561.56
680.877	55460.77
681.225	55529.92
681.573	55691.5
681.922	55461.23
682.27	55482.24
682.618	55518.62
682.966	55356.6
683.314	55583.03
683.661	55491.28
684.009	55491.06
684.357	55378.52
684.705	55418.97
685.053	55448.12
685.4	55424.84
685.748	55301
686.095	55317.95
686.443	55214.45
686.79	55147.11
687.138	55295.58
687.485	55284.96
687.832	55192.98
688.18	55295.58
688.527	55116.15
688.874	55169.71
689.221	55071.18
689.568	55013.1
689.915	55045.42
690.262	55113.21
690.609	55001.12
690.956	54846.33
691.303	54925.19
691.65	54734.01
691.997	54767.01
692.344	54620.34
692.69	54722.94
693.037	54712.77
693.383	54523.17
693.73	54676.39
694.077	54483.62
694.423	54495.83
694.769	54490.86
695.116	54467.58
695.462	54415.83
695.808	54389.39
696.155	54367.47
696.501	54196.17
696.847	54183.07
697.193	54030.53
697.539	54127.25
697.885	54007.48
698.231	53888.84
698.577	54009.06
698.923	53970.42
699.269	53779.69
699.614	53689.52
699.96	53735.62
700.306	53714.83
700.651	53577.21
700.997	53619.69
701.342	53567.26
701.688	53536.08
702.033	53441.84
702.379	53466.7
702.724	53341.06
703.069	53421.28
703.415	53114.17
703.76	53162.08
704.105	53226.03
704.45	53080.72
704.795	53063.1
705.14	52988.97
705.485	52911.24
705.83	52882.31
706.175	52971.35
706.52	52802.09
706.865	52720.05
707.209	52712.6
707.554	52597.57
707.899	52806.38
708.243	52626.95
708.588	52639.6
708.932	52453.85
709.277	52455.88
709.621	52628.31
709.966	52395.54
710.31	52393.74
710.654	52171.82
710.998	52224.02
711.342	52348.31
711.687	52195.55
712.031	52160.3
712.375	51989.45
712.719	52085.04
713.063	52090.69
713.407	52191.48
713.75	52050.02
714.094	52002.79
714.438	51944.71
714.782	52003.24
715.125	51926.85
715.469	52003.92
715.812	51843.69
716.156	51669.01
716.499	51679.4
716.843	51770.02
717.186	51495
717.53	51725.05
717.873	51770.47
718.216	51670.36
718.559	51622.68
718.902	51435.12
719.246	51621.78
719.589	51539.75
719.932	51223.82
720.275	51392.63
720.617	51355.34
720.96	51256.36
721.303	51382.69
721.646	51319.87
721.989	51241.45
722.331	51251.17
722.674	51170.94
723.016	51188.12
723.359	51316.93
723.701	51281
724.044	51027.22
724.386	50865.87
724.729	51109.48
725.071	51024.05
725.413	51042.58
725.755	51096.82
726.097	50953.32
726.439	50808.47
726.782	50931.17
727.124	51129.59
727.465	50723.72
727.807	50819.31
728.149	50754.23
728.491	50638.98
728.833	50813.89
729.175	50694.8
729.516	50606.44
729.858	50734.8
730.199	50739.09
730.541	50593.78
730.882	50607.12
731.224	50717.85
731.565	50448.7
731.906	50418.42
732.248	50573.67
732.589	50553.56
732.93	50525.99
733.271	50434.69
733.612	50472.43
733.953	50455.93
734.294	50353.56
734.635	50236.73
734.976	50451.64
735.317	50308.37
735.658	50326.45
735.999	50265.88
736.339	50225.88
736.68	50342.72
737.021	50240.35
737.361	50026.11
737.702	50259.33
738.042	50118.31
738.383	50165.09
738.723	50281.47
739.063	50102.04
739.404	50457.06
739.744	50224.53
740.084	50166.68
740.424	50091.65
740.764	50015.94
741.104	50131.65
741.444	50092.1
741.784	49831.09
742.124	50102.72
742.464	50005.55
742.804	49900.47
743.143	49897.08
743.483	49902.73
743.823	49775.5
744.162	49727.82
744.502	50010.52
744.841	49855.72
745.181	49916.06
745.52	49730.53
745.86	49682.39
746.199	49824.99
746.538	49764.43
746.877	49813.24
747.216	49793.35
747.556	49645.11
747.895	49634.94
748.234	49509.74
748.573	49517.43
748.911	49500.03
749.25	49512.68
749.589	49391.1
749.928	49313.59
750.267	49423.87
750.605	49292.12
750.944	49236.3
751.283	49289.64
751.621	49431.1
751.96	49138.68
752.298	49164.89
752.636	49168.51
752.975	49040.6
753.313	49063.2
753.651	49201.5
753.989	49014.62
754.327	48941.62
754.666	48908.4
755.004	48836.54
