Data from copper_heatsink_FLMS001491_005.txt Node
Date: Tue Feb 07 10:49:03 GMT 2017
User: dcchb
Spectrometer: FLMS00149
Trigger mode: 0
Integration Time (sec): 2.000000E-2
Scans to average: 10
Electric dark correction enabled: true
Nonlinearity correction enabled: false
Boxcar width: 0
XAxis mode: Wavelengths
Number of Pixels in Spectrum: 2048
>>>>>Begin Spectral Data<<<<<
341.393	-13.5
341.776	-13.5
342.16	-13.5
342.543	-48.3
342.927	-42.2
343.31	-81.98
343.693	-67.06
344.077	-67.29
344.46	-61.41
344.843	-45.82
345.226	-42.88
345.61	-19.6
345.993	-15.08
346.376	-8.53
346.759	9.55
347.142	12.71
347.525	58.36
347.908	58.13
348.291	87.51
348.674	78.92
349.057	104.46
349.44	120.51
349.823	140.39
350.206	178.36
350.588	234.4
350.971	252.25
351.354	264.68
351.737	282.76
352.119	306.72
352.502	302.2
352.884	292.7
353.267	322.31
353.65	328.64
354.032	345.13
354.414	353.49
354.797	344
355.179	379.03
355.562	370.44
355.944	368.86
356.326	357.79
356.709	367.73
357.091	393.04
357.473	390.33
357.855	399.14
358.238	378.8
358.62	401.18
359.002	381.06
359.384	387.16
359.766	396.88
360.148	380.61
360.53	371.35
360.912	395.53
361.294	392.81
361.676	372.7
362.057	401.18
362.439	381.97
362.821	369.76
363.203	375.19
363.584	380.16
363.966	395.75
364.348	382.87
364.729	389.2
365.111	374.74
365.493	369.09
365.874	393.27
366.256	383.1
366.637	391.68
367.019	391.01
367.4	384.23
367.781	384.91
368.163	385.81
368.544	395.07
368.925	363.89
369.306	387.84
369.688	387.84
370.069	377.45
370.45	398.46
370.831	390.55
371.212	374.51
371.593	388.97
371.974	368.41
372.355	389.42
372.736	396.88
373.117	373.38
373.498	386.71
373.879	375.41
374.26	387.39
374.641	413.38
375.021	384.23
375.402	418.58
375.783	388.07
376.163	403.66
376.544	389.88
376.925	386.94
377.305	398.46
377.686	414.28
378.066	396.43
378.447	397.33
378.827	429.65
379.208	409.99
379.588	398.92
379.968	407.28
380.349	409.54
380.729	436.66
381.109	426.94
381.489	426.26
381.87	439.82
382.25	420.61
382.63	417.67
383.01	430.33
383.39	449.08
383.77	438.92
384.15	442.08
384.53	436.66
384.91	443.66
385.29	450.89
385.67	449.08
386.049	457.45
386.429	469.2
386.809	462.64
387.189	454.28
387.568	456.54
387.948	454.51
388.328	464.45
388.707	493.15
389.087	474.85
389.466	487.95
389.846	460.61
390.225	477.78
390.605	488.18
390.984	476.43
391.363	496.77
391.743	504
392.122	489.08
392.501	495.41
392.881	511
393.26	537.22
393.639	524.11
394.018	539.93
394.397	517.78
394.776	528.18
395.155	528.4
395.534	531.12
395.913	537.44
396.292	527.05
396.671	518.69
397.05	537.9
397.429	527.5
397.808	513.04
398.186	537.44
398.565	538.12
398.944	530.44
399.323	560.49
399.701	546.93
400.08	535.18
400.458	536.54
400.837	553.26
401.215	548.06
401.594	571.11
401.972	571.11
402.351	581.28
402.729	584
403.107	601.62
403.486	607.72
403.864	607.72
404.242	605.92
404.62	595.3
404.999	603.66
405.377	595.75
405.755	616.09
406.133	600.04
406.511	617.89
406.889	626.25
407.267	623.09
407.645	626.48
408.023	623.54
408.401	640.72
408.779	640.49
409.156	638.23
409.534	659.25
409.912	651.56
410.29	688.17
410.667	671
411.045	672.81
411.422	671.9
411.8	697.21
412.178	716.2
412.555	715.74
412.933	721.62
413.31	734.05
413.687	732.92
414.065	727.72
414.442	723.2
414.819	725.91
415.197	750.09
415.574	765.23
415.951	757.1
416.328	780.6
416.705	749.42
417.082	781.5
417.46	789.41
417.837	789.19
418.214	785.35
418.591	802.97
418.967	778.34
419.344	789.19
419.721	812.24
420.098	787.83
420.475	826.7
420.852	843.88
421.228	831.67
421.605	844.1
421.982	838
422.358	830.09
422.735	854.72
423.111	851.79
423.488	869.41
423.864	848.4
424.241	882.75
424.617	864.44
424.994	892.24
425.37	892.69
425.746	905.12
426.123	906.25
426.499	916.42
426.875	914.83
427.251	931.11
427.627	928.62
428.003	962.52
428.379	955.96
428.756	972.69
429.132	967.71
429.507	969.52
429.883	981.05
430.259	1013.36
430.635	1005.45
431.011	1025.79
431.387	1025.34
431.763	1045.45
432.138	1036.41
432.514	1076.41
432.89	1029.63
433.265	1088.84
433.641	1098.33
434.016	1094.72
434.392	1123.64
434.767	1108.95
435.143	1128.39
435.518	1157.54
435.894	1161.16
436.269	1168.16
436.644	1182.4
437.02	1177.2
437.395	1191.66
437.77	1171.1
438.145	1212
438.52	1212.68
438.895	1223.3
439.271	1225.79
439.646	1248.61
440.021	1283.86
440.395	1266.24
440.77	1261.94
441.145	1251.55
441.52	1290.87
441.895	1293.81
442.27	1288.16
442.645	1322.06
443.019	1334.94
443.394	1322.73
443.769	1325.67
444.143	1320.47
444.518	1347.37
444.892	1341.04
445.267	1348.5
445.641	1362.73
446.016	1374.94
446.39	1398.44
446.764	1376.07
447.139	1368.83
447.513	1402.28
447.887	1412.22
448.262	1395.73
448.636	1402.73
449.01	1445.22
449.384	1414.93
449.758	1465.55
450.132	1450.64
450.506	1482.96
450.88	1500.13
451.254	1474.82
451.628	1515.27
452.002	1531.32
452.376	1530.86
452.75	1500.81
453.123	1536.74
453.497	1588.26
453.871	1586
454.244	1601.82
454.618	1630.52
454.992	1636.85
455.365	1630.97
455.739	1666.68
456.112	1675.49
456.486	1695.15
456.859	1731.08
457.232	1746.9
457.606	1751.65
457.979	1779.44
458.352	1811.08
458.725	1795.04
459.099	1839.33
459.472	1877.75
459.845	1882.27
460.218	1892.44
460.591	1885.66
460.964	1890.18
461.337	1944.41
461.71	1975.6
462.083	1992.55
462.456	1987.8
462.829	2016.5
463.201	2073.45
463.574	2082.04
463.947	2087.23
464.32	2137.63
464.692	2139.66
465.065	2142.6
465.438	2181.24
465.81	2204.29
466.183	2205.65
466.555	2274.35
466.928	2310.05
467.3	2284.52
467.672	2322.93
468.045	2353.44
468.417	2379.43
468.789	2396.6
469.161	2450.84
469.534	2479.99
469.906	2461.01
470.278	2544.4
470.65	2521.57
471.022	2603.6
471.394	2610.61
471.766	2639.31
472.138	2632.53
472.51	2727.67
472.882	2766.31
473.253	2770.83
473.625	2835.01
473.997	2864.61
474.369	2924.05
474.74	2933.76
475.112	2952.3
475.484	3027.1
475.855	3066.42
476.227	3085.17
476.598	3176.47
476.97	3181.44
477.341	3276.13
477.713	3288.78
478.084	3310.93
478.455	3418.27
478.827	3427.76
479.198	3516.57
479.569	3532.84
479.94	3620.07
480.311	3652.39
480.682	3746.4
481.053	3772.16
481.424	3836.79
481.795	3894.42
482.166	3903.46
482.537	3995.43
482.908	4051.7
483.279	4110.23
483.65	4164.92
484.021	4242.88
484.391	4293.73
484.762	4303.45
485.133	4371.24
485.503	4433.61
485.874	4512.71
486.244	4514.51
486.615	4599.48
486.985	4647.39
487.356	4739.82
487.726	4774.85
488.097	4863.88
488.467	4895.07
488.837	5031.56
489.207	5022.98
489.578	5117.21
489.948	5139.13
490.318	5266.58
490.688	5273.59
491.058	5350.88
491.428	5383.19
491.798	5447.6
492.168	5555.16
492.538	5550.65
492.908	5650.76
493.278	5670.42
493.648	5675.61
494.017	5801.94
494.387	5806.91
494.757	5821.37
495.126	5922.16
495.496	5975.72
495.866	6026.11
496.235	6042.84
496.605	6123.06
496.974	6136.84
497.344	6233.56
497.713	6244.19
498.082	6305.88
498.452	6304.98
498.821	6405.76
499.19	6391.07
499.559	6529.15
499.928	6462.71
500.298	6557.17
500.667	6599.43
501.036	6618.41
501.405	6717.62
501.774	6723.27
502.143	6787.9
502.512	6853.21
502.88	6842.59
503.249	6880.33
503.618	7022.92
503.987	7004.17
504.356	7016.37
504.724	7081.9
505.093	7156.93
505.462	7172.3
505.83	7186.31
506.199	7221.56
506.567	7309.24
506.936	7365.51
507.304	7423.82
507.672	7507.66
508.041	7546.52
508.409	7593.3
508.777	7615.45
509.145	7671.04
509.514	7757.14
509.882	7768.89
510.25	7856.57
510.618	7923.46
510.986	7985.84
511.354	8051.6
511.722	8132.05
512.09	8192.16
512.458	8155.32
512.826	8200.74
513.193	8290.91
513.561	8358.71
513.929	8413.85
514.297	8491.13
514.664	8544.01
515.032	8604.35
515.4	8730.9
515.767	8733.84
516.135	8829.88
516.502	8802.08
516.869	8970.89
517.237	9013.83
517.604	8955.98
517.972	9158.01
518.339	9175.18
518.706	9165.01
519.073	9219.25
519.44	9341.51
519.808	9474.84
520.175	9510.54
520.542	9656.98
520.909	9589.41
521.276	9679.58
521.643	9819.91
522.009	9868.95
522.376	9926.58
522.743	10045.44
523.11	10113.01
523.477	10297.41
523.843	10312.55
524.21	10455.83
524.577	10470.52
524.943	10637.29
525.31	10616.73
525.676	10765.2
526.043	10871.64
526.409	10846.78
526.776	11013.33
527.142	11111.85
527.508	11167.22
527.874	11246.99
528.241	11295.8
528.607	11356.59
528.973	11512.3
529.339	11553.2
529.705	11669.58
530.071	11798.84
530.437	11811.5
530.803	11916.13
531.169	11984.83
531.535	12043.81
531.901	12139.4
532.267	12173.97
532.632	12247.87
532.998	12405.83
533.364	12470.69
533.73	12491.48
534.095	12612.38
534.461	12684.02
534.826	12719.27
535.192	12884.46
535.557	13014.86
535.923	13004.91
536.288	13057.79
536.653	13186.6
537.019	13201.97
537.384	13314.73
537.749	13410.55
538.114	13440.61
538.479	13485.13
538.845	13559.25
539.21	13578.23
539.575	13785
539.94	13749.3
540.305	13886.02
540.67	13973.7
541.034	14105.22
541.399	14295.95
541.764	14249.17
542.129	14281.26
542.494	14347.25
542.858	14402.84
543.223	14422.73
543.587	14733.23
543.952	14633.34
544.316	14794.47
544.681	14860.23
545.045	14984.97
545.41	15124.86
545.774	15146.55
546.138	15244.4
546.503	15372.76
546.867	15290.05
547.231	15705.63
547.595	15635.58
547.959	15746.31
548.324	15869.02
548.688	15897.27
549.052	16076.7
549.416	16070.59
549.779	16178.84
550.143	16374.99
550.507	16491.15
550.871	16614.31
551.235	16670.8
551.599	16909.44
551.962	16959.16
552.326	17049.33
552.689	17251.58
553.053	17295.87
553.417	17398.02
553.78	17718.69
554.143	17747.84
554.507	17806.37
554.87	18020.6
555.234	18321.61
555.597	18313.93
555.96	18397.54
556.323	18611.77
556.686	18800.92
557.05	18981.25
557.413	19148.48
557.776	19308.02
558.139	19507.34
558.502	19673.89
558.865	19794.56
559.228	20056.7
559.59	20211.73
559.953	20394.1
560.316	20631.6
560.679	20825.27
561.041	21083.34
561.404	21281.53
561.767	21493.05
562.129	21538.02
562.492	21849.2
562.854	22016.2
563.217	22228.85
563.579	22445.57
563.941	22716.3
564.304	22944.09
564.666	23144.08
565.028	23381.81
565.39	23655.71
565.753	23914.91
566.115	24071.74
566.477	24512.18
566.839	24663.59
567.201	25023.81
567.563	25087.31
567.925	25422.44
568.287	25696.1
568.648	25929.54
569.01	26096.55
569.372	26479.36
569.734	26588.06
570.095	27061.04
570.457	27238.66
570.819	27452.22
571.18	27604.53
571.542	27967.46
571.903	28288.58
572.265	28507.56
572.626	28696.03
572.987	28933.76
573.349	29276.8
573.71	29664.14
574.071	29859.38
574.432	30038.59
574.794	30373.27
575.155	30603.77
575.516	30663.43
575.877	30909.07
576.238	31185.9
576.599	31617.98
576.96	31740.46
577.32	31966.22
577.681	32335.03
578.042	32582.7
578.403	32699.76
578.763	32960.55
579.124	33123.03
579.485	33453.87
579.845	33668.55
580.206	33872.61
580.566	34078.26
580.927	34261.08
581.287	34687.96
581.648	34713.27
582.008	35125.46
582.368	35130.21
582.728	35352.8
583.089	35465.79
583.449	35654.49
583.809	35881.82
584.169	36023.52
584.529	36141.48
584.889	36635.7
585.249	36477.52
585.609	36583.73
585.969	37048.35
586.329	37084.28
586.688	37568.79
587.048	37449.24
587.408	37638.61
587.768	37875.9
588.127	37944.6
588.487	37950.02
588.846	38404.02
589.206	38292.83
589.565	38592.04
589.925	38900.5
590.284	38942.08
590.643	39053.94
591.003	39320.15
591.362	39720.59
591.721	39780.93
592.08	39897.76
592.44	40079.68
592.799	40191.09
593.158	40278.09
593.517	40514.02
593.876	40731.64
594.235	40687.12
594.593	40950.17
594.952	41140.67
595.311	41316.71
595.67	41413.43
596.029	41741.33
596.387	41842.12
596.746	42005.05
597.104	42020.42
597.463	42197.59
597.822	42476
598.18	42616.56
598.538	42698.59
598.897	43060.85
599.255	42830.34
599.613	43461.74
599.972	43407.73
600.33	43661.96
600.688	43588.74
601.046	43826.02
601.404	44266.92
601.762	44095.62
602.12	44545.78
602.478	44601.37
602.836	44823.28
603.194	44706.23
603.552	44864.41
603.91	44885.66
604.268	45236.16
604.625	45409.03
604.983	45649.25
605.341	45547.11
605.698	45993.42
606.056	46157.03
606.413	46256.69
606.771	46433.64
607.128	46677.7
607.485	46571.26
607.843	46781.88
608.2	46998.14
608.557	47302.77
608.914	47260.06
609.272	47382.54
609.629	47752.7
609.986	47863.88
610.343	47747.95
610.7	48252.8
611.057	48379.35
611.414	48416.86
611.771	48549.74
612.127	48803.07
612.484	48849.39
612.841	49017.75
613.198	48903.63
613.554	49058.2
613.911	49400.57
614.267	49517.4
614.624	49549.94
614.98	49662.03
615.337	50010.94
615.693	50080.32
616.05	50206.65
616.406	50351.5
616.762	50334.1
617.118	50478.5
617.475	50503.36
617.831	50697.93
618.187	50877.59
618.543	50960.75
618.899	51167.75
619.255	51112.38
619.611	51252.49
619.967	51447.07
620.323	51653.84
620.678	51645.93
621.034	51629.21
621.39	51682.31
621.746	51758.7
622.101	52296.99
622.457	52056.09
622.812	52186.03
623.168	52324.1
623.523	52331.11
623.879	52585.34
624.234	52376.31
624.589	52630.31
624.945	52577.43
625.3	52776.52
625.655	52826.24
626.01	52819.01
626.365	53071.66
626.72	52975.61
627.075	53076.4
627.43	53230.52
627.785	53130.86
628.14	53320.24
628.495	53321.37
628.85	53359.56
629.205	53317.07
629.559	53482.27
629.914	53431.19
630.269	53560.23
630.623	53572.66
630.978	53515.03
631.332	53686.55
631.687	53792.77
632.041	53699.66
632.396	53865.31
632.75	53771.98
633.104	53929.71
633.459	53855.59
633.813	53850.17
634.167	53882.93
634.521	54073.44
634.875	54044.51
635.229	54044.96
635.583	54059.88
635.937	54008.35
636.291	54089.03
636.645	54107.11
636.999	54147.33
637.352	54277.95
637.706	54135.81
638.06	54255.35
638.413	54248.57
638.767	54329.25
639.121	54407.44
639.474	54244.96
639.828	54372.19
640.181	54475.69
640.534	54527.89
640.888	54448.79
641.241	54421.9
641.594	54564.05
641.947	54606.76
642.301	54490.38
642.654	54628.68
643.007	54630.71
643.36	54655.34
643.713	54762.01
644.066	54872.96
644.419	54604.04
644.771	54313.43
645.124	54081.8
645.477	54085.64
645.83	53985.53
646.182	53999.54
646.535	54021.23
646.888	54271.85
647.24	54199.76
647.593	54492.63
647.945	54348.46
648.298	54387.33
648.65	54438.17
649.002	54388.23
649.355	54542.35
649.707	54368.57
650.059	54407.89
650.411	54849.24
650.763	54924.71
651.115	55225.27
651.467	55260.07
651.819	55226.18
652.171	55242.67
652.523	55311.37
652.875	55112.51
653.227	55137.59
653.578	55343.01
653.93	55285.38
654.282	55217.81
654.633	55283.35
654.985	55375.78
655.337	55432.72
655.688	55496.22
656.039	55619.84
656.391	55373.74
656.742	55465.26
657.094	55560.63
657.445	55667.29
657.796	55612.83
658.147	55617.58
658.498	55644.02
658.849	55748.87
659.2	55706.16
659.551	55733.28
659.902	55705.03
660.253	55746.61
660.604	55779.15
660.955	55722.66
661.306	55866.16
661.656	55853.73
662.007	55930.11
662.358	55919.94
662.708	55917.68
663.059	55945.48
663.409	55811.02
663.76	56106.6
664.11	56141.18
664.461	56189.99
664.811	56258.01
665.161	56197.22
665.511	56113.61
665.862	56204.23
666.212	56345.92
666.562	56319.48
666.912	56408.52
667.262	56401.51
667.612	56434.73
667.962	56500.49
668.312	56412.36
668.662	56592.01
669.011	56528.06
669.361	56574.84
669.711	56545.91
670.06	56618.23
670.41	56529.87
670.76	56623.2
671.109	56672.92
671.459	56611.45
671.808	56637.66
672.157	56737.32
672.507	56567.16
672.856	56570.32
673.205	56629.98
673.554	56840.14
673.904	56699.58
674.253	56875.62
674.602	56801.73
674.951	56460.94
675.3	56389.53
675.649	56790.65
675.998	56885.34
676.346	56987.94
676.695	57030.42
677.044	56874.72
677.393	56949.07
677.741	56982.29
678.09	56924.89
678.438	56868.17
678.787	56970.31
679.135	56993.13
679.484	56878.11
679.832	56953.81
680.181	56793.59
680.529	56896.19
680.877	56880.59
681.225	56912.01
681.573	57144.32
681.922	57025.68
682.27	56923.76
682.618	57027.26
682.966	56971.44
683.314	57044.21
683.661	56984.32
684.009	56879.92
684.357	56837.66
684.705	56878.33
685.053	56954.04
685.4	56913.14
685.748	56859.13
686.095	56903.42
686.443	56937.54
686.79	56864.55
687.138	56952.23
687.485	56815.06
687.832	56815.06
688.18	56868.62
688.527	56739.36
688.874	56834.27
689.221	56707.27
689.568	56714.5
689.915	56629.08
690.262	56628.62
690.609	56653.03
690.956	56535.75
691.303	56548.17
691.65	56489.64
691.997	56576.2
692.344	56434.05
692.69	56444.22
693.037	56476.31
693.383	56234.74
693.73	56402.64
694.077	56300.95
694.423	56320.38
694.769	56209.2
695.116	56188.86
695.462	56136.21
695.808	56126.49
696.155	56178.24
696.501	55933.73
696.847	55968.3
697.193	55844.01
697.539	55933.95
697.885	55761.3
698.231	55632.49
698.577	55733.05
698.923	55792.94
699.269	55673.39
699.614	55550.46
699.96	55560.4
700.306	55630.01
700.651	55512.72
700.997	55498.26
701.342	55561.53
701.688	55521.31
702.033	55427.53
702.379	55393.85
702.724	55386.17
703.069	55522.44
703.415	55235.21
703.76	55264.37
704.105	55208.1
704.45	55259.62
704.795	55060.98
705.14	55074.09
705.485	55092.85
705.83	55072.05
706.175	54987.31
706.52	55025.5
706.865	54901.44
707.209	54879.52
707.554	54789.35
707.899	54897.14
708.243	54745.51
708.588	54763.59
708.932	54691.73
709.277	54716.36
709.621	54750.93
709.966	54610.6
710.31	54805.85
710.654	54423.03
710.998	54442.47
711.342	54595.91
711.687	54453.09
712.031	54388.23
712.375	54390.04
712.719	54401.11
713.063	54366.54
713.407	54475.23
713.75	54270.72
714.094	54305.52
714.438	54216.26
714.782	54330.61
715.125	54164.28
715.469	54282.7
715.812	54089.71
716.156	54037.51
716.499	54138.97
716.843	54129.93
717.186	54011.74
717.53	54246.54
717.873	54080.44
718.216	54008.81
718.559	53980.11
718.902	53795.03
719.246	53983.04
719.589	53938.53
719.932	53871.41
720.275	53714.8
720.617	53732.88
720.96	53786.44
721.303	53793.67
721.646	53891.52
721.989	53611.75
722.331	53737.63
722.674	53683.39
723.016	53698.53
723.359	53514.58
723.701	53705.09
724.044	53501.47
724.386	53438.2
724.729	53563.39
725.071	53553.9
725.413	53502.6
725.755	53547.8
726.097	53398.2
726.439	53245.44
726.782	53299.9
727.124	53466.22
727.465	53366.79
727.807	53326.34
728.149	53347.81
728.491	53307.58
728.833	53340.8
729.175	53263.74
729.516	53200.24
729.858	53163.4
730.199	53209.28
730.541	53255.15
730.882	53133.8
731.224	53223.97
731.565	53098.32
731.906	53156.17
732.248	53279.33
732.589	53055.84
732.93	53008.61
733.271	53133.35
733.612	53072.33
733.953	53112.33
734.294	52989.17
734.635	52985.56
734.976	53100.81
735.317	52849.97
735.658	52920.25
735.999	53017.87
736.339	52968.61
736.68	53113.69
737.021	52910.98
737.361	52857.65
737.702	53044.76
738.042	52852.68
738.383	52830.98
738.723	52937.2
739.063	52808.16
739.404	52803.87
739.744	52823.3
740.084	52692
740.424	52772.23
740.764	52679.35
741.104	52783.98
741.444	52572.91
741.784	52621.05
742.124	52730.42
742.464	52524.55
742.804	52541.5
743.143	52535.85
743.483	52480.71
743.823	52369.98
744.162	52433.93
744.502	52495.17
744.841	52337.44
745.181	52525.46
745.52	52462.86
745.86	52535.62
746.199	52351.67
746.538	52326.59
746.877	52329.53
747.216	52466.47
747.556	52237.33
747.895	52431.22
748.234	52292.69
748.573	52223.54
748.911	52213.37
749.25	52204.79
749.589	52138.57
749.928	52201.62
750.267	52329.53
750.605	52119.59
750.944	52052.93
751.283	51975.86
751.621	52101.51
751.96	51858.58
752.298	51911.46
752.636	51803.67
752.975	51684.8
753.313	51508.98
753.651	51774.29
753.989	51513.96
754.327	51556.67
754.666	51429.21
755.004	51514.86
755.342	51524.58
755.679	51496.33
756.017	51271.25
756.355	51467.63
