Data from copper_heatsink_FLMS001491_083.txt Node
Date: Tue Feb 07 10:50:42 GMT 2017
User: dcchb
Spectrometer: FLMS00149
Trigger mode: 0
Integration Time (sec): 2.000000E-2
Scans to average: 10
Electric dark correction enabled: true
Nonlinearity correction enabled: false
Boxcar width: 0
XAxis mode: Wavelengths
Number of Pixels in Spectrum: 2048
>>>>>Begin Spectral Data<<<<<
341.393	-2.68
341.776	-2.68
342.16	-2.68
342.543	-77.71
342.927	-47.88
343.31	-75.45
343.693	-70.7
344.077	-63.7
344.46	-50.14
344.843	-47.88
345.226	-43.13
345.61	-25.51
345.993	-22.8
346.376	-9.01
346.759	10.65
347.142	38.9
347.525	24.43
347.908	60.37
348.291	66.47
348.674	91.55
349.057	115.96
349.44	96.07
349.823	125.67
350.206	177.42
350.588	212.45
350.971	237.76
351.354	250.19
351.737	261.04
352.119	264.2
352.502	286.57
352.884	283.86
353.267	296.29
353.65	332
354.032	333.8
354.414	340.13
354.797	319.79
355.179	352.11
355.562	350.53
355.944	333.13
356.326	348.95
356.709	375.16
357.091	346.01
357.473	339.91
357.855	346.91
358.238	360.92
358.62	349.85
359.002	367.25
359.384	362.96
359.766	369.74
360.148	367.7
360.53	372.67
360.912	343.75
361.294	369.06
361.676	344.43
362.057	348.72
362.439	342.39
362.821	347.14
363.203	344.88
363.584	347.82
363.966	339.45
364.348	338.32
364.729	350.3
365.111	358.66
365.493	355.5
365.874	329.51
366.256	345.56
366.637	345.78
367.019	330.87
367.4	359.34
367.781	366.8
368.163	348.49
368.544	339.91
368.925	346.91
369.306	334.71
369.688	343.07
370.069	337.42
370.45	344.88
370.831	338.55
371.212	324.99
371.593	354.6
371.974	346.69
372.355	329.51
372.736	337.87
373.117	357.76
373.498	360.92
373.879	339
374.26	353.47
374.641	341.26
375.021	367.25
375.402	329.06
375.783	345.1
376.163	362.28
376.544	350.75
376.925	356.63
377.305	372
377.686	370.41
378.066	372
378.447	387.36
378.827	379.91
379.208	362.05
379.588	369.51
379.968	372.22
380.349	357.53
380.729	364.31
381.109	351.21
381.489	376.29
381.87	376.29
382.25	380.81
382.63	364.99
383.01	382.17
383.39	369.96
383.77	369.28
384.15	394.37
384.53	384.2
384.91	388.72
385.29	381.26
385.67	405.22
386.049	392.56
386.429	395.5
386.809	391.88
387.189	401.83
387.568	423.52
387.948	393.92
388.328	427.14
388.707	389.17
389.087	423.75
389.466	415.16
389.846	440.92
390.225	423.75
390.605	424.2
390.984	406.8
391.363	425.33
391.743	411.32
392.122	449.51
392.501	450.64
392.881	435.05
393.26	451.99
393.639	441.15
394.018	438.66
394.397	437.76
394.776	466.23
395.155	444.54
395.534	454.03
395.913	444.76
396.292	464.87
396.671	483.18
397.05	472.33
397.429	458.32
397.808	487.47
398.186	482.5
398.565	452.45
398.944	474.59
399.323	475.72
399.701	477.53
400.08	461.71
400.458	483.86
400.837	487.7
401.215	502.39
401.594	506.91
401.972	480.47
402.351	480.92
402.729	481.6
403.107	519.11
403.486	502.16
403.864	526.12
404.242	529.51
404.62	517.08
404.999	528.6
405.377	519.34
405.755	513.24
406.133	532.67
406.511	510.07
406.889	548.26
407.267	527.7
407.645	550.07
408.023	551.65
408.401	556.62
408.779	560.47
409.156	563.86
409.534	557.75
409.912	560.92
410.29	570.86
410.667	571.99
411.045	561.37
411.422	587.81
411.8	553.23
412.178	602.72
412.555	627.36
412.933	609.73
413.31	600.01
413.687	610.41
414.065	609.96
414.442	609.28
414.819	634.36
415.197	627.58
415.574	639.56
415.951	636.17
416.328	651.99
416.705	632.33
417.082	673
417.46	681.59
417.837	661.93
418.214	668.49
418.591	671.87
418.967	681.37
419.344	689.28
419.721	675.04
420.098	698.09
420.475	683.63
420.852	701.7
421.228	701.03
421.605	730.86
421.982	718.43
422.358	717.52
422.735	719.78
423.111	702.38
423.488	721.82
423.864	723.17
424.241	737.18
424.617	757.52
424.994	756.17
425.37	746.9
425.746	749.61
426.123	783.96
426.499	775.6
426.875	776.28
427.251	779.22
427.627	808.14
428.003	789.16
428.379	781.02
428.756	811.08
429.132	850.18
429.507	838.2
429.883	813.79
430.259	839.78
430.635	854.47
431.011	876.16
431.387	875.71
431.763	877.07
432.138	876.62
432.514	875.03
432.89	895.37
433.265	916.61
433.641	947.12
434.016	934.47
434.392	940.79
434.767	947.57
435.143	943.73
435.518	963.84
435.894	961.81
436.269	984.18
436.644	990.28
437.02	993.22
437.395	974.01
437.77	999.55
438.145	1018.31
438.52	1040.9
438.895	1020.11
439.271	1038.65
439.646	1060.11
440.021	1071.64
440.395	1068.47
440.77	1069.6
441.145	1089.04
441.52	1086.33
441.895	1066.44
442.27	1097.63
442.645	1098.53
443.019	1110.96
443.394	1089.94
443.769	1138.53
444.143	1103.95
444.518	1121.58
444.892	1128.36
445.267	1146.44
445.641	1145.53
446.016	1166.78
446.39	1157.29
446.764	1194.57
447.139	1188.02
447.513	1187.34
447.887	1177.62
448.262	1193.67
448.636	1186.44
449.01	1201.8
449.384	1214.69
449.758	1235.93
450.132	1226.21
450.506	1242.03
450.88	1246.1
451.254	1242.26
451.628	1297.62
452.002	1268.92
452.376	1304.63
452.75	1286.32
453.123	1330.84
453.497	1340.56
453.871	1313.44
454.244	1372.2
454.618	1361.8
454.992	1379.65
455.365	1365.87
455.739	1432.53
456.112	1433.89
456.486	1442.02
456.859	1461.23
457.232	1468.24
457.606	1489.48
457.979	1492.64
458.352	1515.02
458.725	1532.42
459.099	1522.47
459.472	1564.51
459.845	1591.85
460.218	1615.58
460.591	1581.91
460.964	1618.97
461.337	1646.54
461.71	1682.47
462.083	1707.1
462.456	1723.15
462.829	1708.01
463.201	1739.87
463.574	1722.47
463.947	1776.48
464.32	1794.78
464.692	1797.72
465.065	1809.02
465.438	1842.69
465.81	1857.61
466.183	1881.33
466.555	1898.51
466.928	1941.22
467.3	1929.92
467.672	1979.41
468.045	2043.59
468.417	2013.08
468.789	2034.55
469.161	2055.57
469.534	2068
469.906	2158.84
470.278	2148.22
470.65	2174.21
471.022	2203.59
471.394	2216.24
471.766	2260.53
472.138	2280.87
472.51	2340.53
472.882	2380.3
473.253	2364.71
473.625	2385.95
473.997	2434.09
474.369	2443.81
474.74	2496.46
475.112	2544.59
475.484	2592.28
475.855	2607.87
476.227	2640.64
476.598	2757.47
476.97	2726.28
477.341	2784.36
477.713	2813.29
478.084	2855.55
478.455	2927.86
478.827	2945.04
479.198	3029.1
479.569	3011.25
479.94	3080.17
480.311	3116.33
480.682	3196.33
481.053	3283.56
481.424	3329.43
481.795	3333.05
482.166	3369.88
482.537	3451.69
482.908	3511.57
483.279	3532.82
483.65	3572.59
484.021	3668.86
484.391	3651.68
484.762	3721.29
485.133	3779.36
485.503	3799.25
485.874	3877.67
486.244	3955.63
486.615	4001.05
486.985	4046.7
487.356	4151.78
487.726	4153.82
488.097	4229.07
488.467	4295.51
488.837	4373.02
489.207	4404.43
489.578	4480.59
489.948	4499.57
490.318	4566.24
490.688	4580.92
491.058	4648.95
491.428	4714.71
491.798	4767.59
492.168	4873.57
492.538	4882.16
492.908	4930.52
493.278	4962.38
493.648	5001.7
494.017	5061.14
494.387	5105.43
494.757	5164.41
495.126	5247.8
495.496	5307.01
495.866	5299.78
496.235	5347.91
496.605	5404.18
496.974	5461.58
497.344	5472.88
497.713	5546.78
498.082	5597.17
498.452	5628.81
498.821	5671.74
499.19	5709.03
499.559	5782.7
499.928	5783.83
500.298	5797.39
500.667	5938.18
501.036	5903.83
501.405	5966.65
501.774	5967.1
502.143	6042.81
502.512	6063.82
502.88	6171.62
503.249	6164.84
503.618	6200.54
503.987	6231.95
504.356	6294.33
504.724	6356.47
505.093	6397.15
505.462	6450.71
505.83	6487.77
506.199	6496.13
506.567	6619.52
506.936	6636.46
507.304	6704.26
507.672	6763.92
508.041	6776.35
508.409	6873.29
508.777	6885.72
509.145	6993.06
509.514	6992.61
509.882	7123.46
510.25	7120.07
510.618	7164.13
510.986	7197.35
511.354	7276.22
511.722	7328.88
512.09	7382.66
512.458	7408.87
512.826	7427.63
513.193	7539.04
513.561	7563.67
513.929	7679.6
514.297	7741.75
514.664	7788.98
515.032	7852.48
515.4	7906.04
515.767	7968.41
516.135	7991.91
516.502	8017.9
516.869	8189.87
517.237	8159.59
517.604	8159.81
517.972	8375.85
518.339	8341.5
518.706	8382.86
519.073	8511.67
519.44	8578.56
519.808	8595.73
520.175	8671.44
520.542	8760.7
520.909	8902.17
521.276	8849.51
521.643	8938.32
522.009	9044.99
522.376	9206.34
522.743	9201.82
523.11	9323.4
523.477	9354.58
523.843	9444.75
524.21	9616.27
524.577	9680.45
524.943	9694.24
525.31	9799.09
525.676	9894.01
526.043	9970.61
526.409	10038.41
526.776	10110.27
527.142	10200.21
527.508	10296.03
527.874	10380.77
528.241	10430.71
528.607	10560.65
528.973	10656.47
529.339	10689.92
529.705	10764.49
530.071	10895.56
530.437	10936.92
530.803	11032.51
531.169	11111.6
531.535	11067.31
531.901	11178.27
532.267	11322.67
532.632	11399.05
532.998	11452.38
533.364	11429.56
533.73	11524.92
534.095	11698.03
534.461	11739.15
534.826	11903.22
535.192	11847.85
535.557	11991.58
535.923	12097.11
536.288	12107.28
536.653	12206.49
537.019	12213.49
537.384	12370.1
537.749	12355.86
538.114	12496.87
538.479	12450.55
538.845	12535.74
539.21	12614.39
539.575	12713.14
539.94	12808.96
540.305	12872.91
540.67	12913.14
541.034	12985.68
541.399	13099.12
541.764	13215.27
542.129	13262.73
542.494	13248.95
542.858	13396.74
543.223	13452.1
543.587	13608.48
543.952	13628.6
544.316	13713.11
544.681	13786.56
545.045	13846.67
545.41	13934.35
545.774	14018.42
546.138	14139.77
546.503	14191.75
546.867	14186.77
547.231	14466.54
547.595	14479.2
547.959	14544.96
548.324	14587.22
548.688	14762.8
549.052	14856.59
549.416	14869.47
549.779	15090.93
550.143	15049.58
550.507	15260.87
550.871	15353.07
551.235	15363.69
551.599	15632.39
551.962	15693.63
552.326	15783.34
552.689	15922.32
553.053	15978.14
553.417	16084.8
553.78	16355.3
554.143	16197.79
554.507	16470.78
554.87	16618.12
555.234	16916.65
555.597	16841.62
555.96	16998.68
556.323	17136.3
556.686	17354.37
557.05	17516.63
557.413	17654.03
557.776	17687.25
558.139	17965.66
558.502	18042.49
558.865	18196.61
559.228	18336.27
559.59	18483.16
559.953	18666.88
560.316	18927.67
560.679	18997.27
561.041	19159.98
561.404	19470.25
561.767	19612.62
562.129	19632.96
562.492	20039.28
562.854	20151.14
563.217	20181.42
563.579	20385.71
563.941	20621.41
564.304	20779.59
564.666	20933.04
565.028	21197.66
565.39	21354.72
565.753	21680.14
566.115	21829.74
566.477	22073.35
566.839	22234.92
567.201	22466.33
567.563	22554.92
567.925	22911.74
568.287	22978.18
568.648	23151.28
569.01	23429.47
569.372	23732.51
569.734	23884.37
570.095	23969.34
570.457	24363.23
570.819	24486.39
571.18	24559.61
571.542	24838.92
571.903	25046.83
572.265	25263.77
572.626	25532.01
572.987	25721.84
573.349	25868.95
573.71	26094.71
574.071	26212.9
574.432	26467.58
574.794	26788.25
575.155	26784.18
575.516	26890.85
575.877	27200.44
576.238	27383.04
576.599	27540.32
576.96	27723.37
577.32	27853.31
577.681	28189.12
578.042	28323.58
578.403	28419.39
578.763	28544.81
579.124	28815.54
579.485	28963.11
579.845	29117
580.206	29263.44
580.566	29363.1
580.927	29442.19
581.287	29728.51
581.648	29669.76
582.008	30102.51
582.368	30133.7
582.728	30228.16
583.089	30260.93
583.449	30415.27
583.809	30683.97
584.169	30717.86
584.529	30895.04
584.889	31186.1
585.249	31073.34
585.609	31111.75
585.969	31494.79
586.329	31391.07
586.688	31517.39
587.048	31566.88
587.408	31619.54
587.768	31859.08
588.127	31930.04
588.487	31902.01
588.846	32261.1
589.206	32077.38
589.565	32196.02
589.925	32474.65
590.284	32506.97
590.643	32699.06
591.003	32845.49
591.362	32969.1
591.721	32962.55
592.08	33082.1
592.44	33311.47
592.799	33338.81
593.158	33306.5
593.517	33353.95
593.876	33498.81
594.235	33614.51
594.593	33919.36
594.952	33881.4
595.311	34012.92
595.67	34076.87
596.029	34372.23
596.387	34334.04
596.746	34538.56
597.104	34473.25
597.463	34470.76
597.822	34738.78
598.18	34753.24
598.538	34816.29
598.897	35045.21
599.255	34942.61
599.613	35460.34
599.972	35375.14
600.33	35430.28
600.688	35375.6
601.046	35728.58
601.404	35993.66
601.762	35773.55
602.12	36226.65
602.478	36286.08
602.836	36288.57
603.194	36217.61
603.552	36439.97
603.91	36340.77
604.268	36738.72
604.625	36666.86
604.983	36831.38
605.341	36822.79
605.698	36986.17
606.056	37201.08
606.413	37170.35
606.771	37433.62
607.128	37530.34
607.485	37356.33
607.843	37525.37
608.2	37866.15
608.557	38128.52
608.914	37838.13
609.272	38092.81
609.629	38401.05
609.986	38513.37
610.343	38500.71
610.7	38789.74
611.057	38713.59
611.414	38801.95
611.771	38732.8
612.127	39132.11
612.484	39225.21
612.841	39394.92
613.198	39251.88
613.554	39498.42
613.911	39690.28
614.267	39629.72
614.624	39774.8
614.98	40006.43
615.337	40258.63
615.693	40161.68
616.05	40172.08
616.406	40523.48
616.762	40472.18
617.118	40515.8
617.475	40570.71
617.831	40681.9
618.187	40818.16
618.543	40949.91
618.899	41051.15
619.255	41197.82
619.611	41081.89
619.967	41438.49
620.323	41590.12
620.678	41612.04
621.034	41510.8
621.39	41425.15
621.746	41696.33
622.101	42053.16
622.457	41928.64
622.812	41944.46
623.168	42139.26
623.523	42129.09
623.879	42363.43
624.234	42214.96
624.589	42406.14
624.945	42449.76
625.3	42323.66
625.655	42440.49
626.01	42562.52
626.365	42574.73
626.72	42650.21
627.075	42708.06
627.43	42749.19
627.785	42570.66
628.14	42891.56
628.495	43004.55
628.85	42911.44
629.205	42760.49
629.559	43164.32
629.914	42967.49
630.269	43172.68
630.623	43035.73
630.978	43073.02
631.332	43242.51
631.687	43323.63
632.041	43260.13
632.396	43421.26
632.75	43225.56
633.104	43369.06
633.459	43179.46
633.813	43261.94
634.167	43416.97
634.521	43166.35
634.875	43327.25
635.229	43269.4
635.583	43206.12
635.937	43338.55
636.291	43394.14
636.645	43474.59
636.999	43387.81
637.352	43606.34
637.706	43462.39
638.06	43574.02
638.413	43500.13
638.767	43477.53
639.121	43586.45
639.474	43316.86
639.828	43520.69
640.181	43667.35
640.534	43519.34
640.888	43480.47
641.241	43444.76
641.594	43652.89
641.947	43658.99
642.301	43484.99
642.654	43565.21
643.007	43694.02
643.36	43723.17
643.713	43756.62
644.066	44002.04
644.419	43565.89
644.771	43431.2
645.124	43278.66
645.477	43215.62
645.83	42915.06
646.182	42798.9
646.535	42758
646.888	42919.35
647.24	42550.55
647.593	42917.09
647.945	42863.99
648.298	42713.93
648.65	42625.8
649.002	42397.33
649.355	42784.67
649.707	42872.12
650.059	43020.37
650.411	43560.01
650.763	43553.91
651.115	43990.74
651.467	43934.01
651.819	44041.13
652.171	43847.46
652.523	43934.69
652.875	44095.82
653.227	43930.62
653.578	44179.66
653.93	44156.38
654.282	43926.33
654.633	43983.28
654.985	44021.7
655.337	44088.81
655.688	44076.38
656.039	44349.37
656.391	44046.1
656.742	44215.14
657.094	44146.44
657.445	44458.07
657.796	44274.34
658.147	44213.78
658.498	44279.77
658.849	44221.69
659.2	44420.78
659.551	44396.6
659.902	44552.08
660.253	44348.01
660.604	44554.34
660.955	44383.95
661.306	44523.6
661.656	44477.05
662.007	44573.09
662.358	44608.8
662.708	44566.54
663.059	44656.26
663.409	44423.72
663.76	44718.85
664.11	44865.52
664.461	44827.32
664.811	44871.62
665.161	44832.97
665.511	44715.69
665.862	44966.53
666.212	44995.23
666.562	45082.91
666.912	44958.85
667.262	45058.5
667.612	45034.78
667.962	45068.67
668.312	45099.86
668.662	45444.71
669.011	45229.35
669.361	45252.17
669.711	45239.74
670.06	45096.02
670.41	45234.55
670.76	45300.98
671.109	45455.33
671.459	45465.95
671.808	45315.45
672.157	45556.8
672.507	45318.61
672.856	45202
673.205	45502.56
673.554	45448.32
673.904	45279.29
674.253	45625.72
674.602	45539.62
674.951	44999.97
675.3	45004.72
675.649	45602.45
675.998	45587.76
676.346	45728.54
676.695	45911.82
677.044	45466.4
677.393	45708.88
677.741	45733.52
678.09	45680.18
678.438	45697.58
678.787	45806.73
679.135	45719.05
679.484	45558.15
679.832	45718.37
680.181	45558.15
680.529	45809.45
680.877	45635.89
681.225	45617.81
681.573	45866.84
681.922	45707.98
682.27	45550.47
682.618	45667.98
682.966	45631.37
683.314	45796.79
683.661	45536.23
684.009	45414.65
684.357	45492.84
684.705	45510.47
685.053	45425.5
685.4	45616.68
685.748	45307.76
686.095	45500.75
686.443	45262.57
686.79	45324.49
687.138	45554.31
687.485	45426.4
687.832	45253.98
688.18	45343.02
688.527	45104.6
688.874	45183.92
689.221	45097.15
689.568	44982.57
689.915	44903.25
690.262	45052.85
690.609	44879.07
690.956	44916.36
691.303	44923.37
691.65	44753.43
691.997	44758.85
692.344	44644.28
692.69	44851.28
693.037	44691.73
693.383	44351.18
693.73	44587.1
694.077	44269.37
694.423	44317.06
694.769	44304.17
695.116	44226.44
695.462	44275.47
695.808	44161.35
696.155	44236.61
696.501	43964.07
696.847	43975.37
697.193	43669.84
697.539	43771.08
697.885	43795.49
698.231	43625.1
698.577	43597.53
698.923	43526.34
699.269	43419.9
699.614	43369.06
699.96	43348.27
700.306	43571.99
700.651	43227.59
700.997	43213.58
701.342	43137.2
701.688	43128.16
702.033	42916.64
702.379	43185.79
702.724	43095.84
703.069	43047.48
703.415	42645.23
703.76	42738.57
704.105	42727.04
704.45	42800.48
704.795	42478.91
705.14	42484.33
705.485	42491.11
705.83	42495.18
706.175	42478.91
706.52	42474.17
706.865	42401.17
707.209	42288.86
707.554	42167.96
707.899	42374.28
708.243	42124.57
708.588	42153.95
708.932	41937.91
709.277	41913.5
709.621	41935.65
709.966	41819.72
710.31	41911.47
710.654	41553.51
710.998	41733.62
711.342	41735.2
711.687	41820.4
712.031	41642.1
712.375	41553.96
712.719	41832.15
713.063	41544.02
713.407	41579.5
713.75	41557.81
714.094	41414.31
714.438	41292.95
714.782	41451.82
715.125	41217.7
715.469	41484.36
715.812	41309
716.156	41061.1
716.499	41089.8
716.843	41243.69
717.186	40958.95
717.53	41112.39
717.873	41269.23
718.216	41211.37
718.559	41030.14
718.902	40833.3
719.246	40876.02
719.589	40918.05
719.932	40779.52
720.275	40919.63
720.617	40861.78
720.96	40691.61
721.303	40841.89
721.646	40935
721.989	40797.15
722.331	40998.05
722.674	40805.73
723.016	40893.19
723.359	40763.25
723.701	40798.28
724.044	40514.67
724.386	40574.55
724.729	40719.41
725.071	40450.94
725.413	40446.65
725.755	40457.5
726.097	40224.51
726.439	40263.6
726.782	40306.77
727.124	40410.72
727.465	40388.57
727.807	40338.18
728.149	40192.19
728.491	40242.81
728.833	40097.51
729.175	40003.5
729.516	40029.94
729.858	40107.67
730.199	40185.64
730.541	40076.94
730.882	40085.98
731.224	40152.87
731.565	40051.18
731.906	40133.44
732.248	40132.08
732.589	40017.96
732.93	39904.97
733.271	40011.41
733.612	39937.96
733.953	40006.21
734.294	39961.69
734.635	39962.82
734.976	40043.5
735.317	39783.61
735.658	39708.59
735.999	39759.66
736.339	39764.63
736.68	39849.6
737.021	39796.95
737.361	39746.1
737.702	39711.53
738.042	39753.11
738.383	39663.62
738.723	39721.24
739.063	39681.24
739.404	39867.45
739.744	39581.36
740.084	39625.43
740.424	39677.86
740.764	39559.67
741.104	39866.55
741.444	39535.71
741.784	39408.26
742.124	39594.47
742.464	39581.59
742.804	39510.4
743.143	39598.31
743.483	39641.47
743.823	39312.89
744.162	39348.6
744.502	39507.01
744.841	39321.48
745.181	39464.98
745.52	39278.09
745.86	39470.4
746.199	39444.19
746.538	39476.96
746.877	39523.96
747.216	39408.03
747.556	39206
747.895	39179.34
748.234	39124.88
748.573	39125.1
748.911	39199.68
749.25	39222.5
749.589	39102.28
749.928	39177.98
750.267	39212.1
750.605	38991.77
750.944	39091.2
751.283	39064.76
751.621	39016.63
751.96	38818.22
752.298	38883.98
752.636	38864.32
752.975	38519.02
753.313	38534.38
753.651	38787.71
753.989	38484.44
754.327	38509.07
754.666	38461.39
755.004	38545.68
755.342	38602.18
755.679	38434.05
756.017	38145.47
756.355	38353.37
756.693	38131
757.031	38261.85
