Data from copper_heatsink_FLMS001491_045.txt Node
Date: Tue Feb 07 10:50:01 GMT 2017
User: dcchb
Spectrometer: FLMS00149
Trigger mode: 0
Integration Time (sec): 2.000000E-2
Scans to average: 10
Electric dark correction enabled: true
Nonlinearity correction enabled: false
Boxcar width: 0
XAxis mode: Wavelengths
Number of Pixels in Spectrum: 2048
>>>>>Begin Spectral Data<<<<<
341.393	-9.41
341.776	-9.41
342.16	-9.41
342.543	-45.11
342.927	-74.72
343.31	-50.76
343.693	-70.87
344.077	-57.77
344.46	-64.32
344.843	-43.53
345.226	-65.68
345.61	-47.15
345.993	-22.51
346.376	-1.05
346.759	-1.72
347.142	39.63
347.525	53.64
347.908	66.07
348.291	86.86
348.674	82.57
349.057	96.58
349.44	127.99
349.823	145.84
350.206	157.59
350.588	214.54
350.971	219.06
351.354	250.47
351.737	261.09
352.119	280.98
352.502	271.72
352.884	299.51
353.267	305.61
353.65	311.04
354.032	316.23
354.414	336.35
354.797	342
355.179	345.39
355.562	343.13
355.944	373.63
356.326	354.65
356.709	337.7
357.091	365.95
357.473	351.71
357.855	365.95
358.238	354.65
358.62	364.14
359.002	374.31
359.384	363.69
359.766	361.21
360.148	362.34
360.53	362.34
360.912	373.63
361.294	369.11
361.676	354.88
362.057	348.78
362.439	357.82
362.821	349.23
363.203	336.8
363.584	337.25
363.966	340.64
364.348	354.2
364.729	359.85
365.111	345.16
365.493	327.08
365.874	342.22
366.256	338.15
366.637	342
367.019	355.33
367.4	348.55
367.781	346.52
368.163	357.14
368.544	341.77
368.925	333.86
369.306	342.67
369.688	349.23
370.069	344.03
370.45	342.45
370.831	338.83
371.212	358.04
371.593	345.84
371.974	339.51
372.355	331.15
372.736	340.87
373.117	336.12
373.498	343.35
373.879	367.31
374.26	358.27
374.641	347.19
375.021	329.79
375.402	382.67
375.783	338.83
376.163	366.85
376.544	384.03
376.925	373.63
377.305	365.5
377.686	362.34
378.066	374.76
378.447	367.53
378.827	381.54
379.208	379.06
379.588	386.29
379.968	372.05
380.349	386.97
380.729	355.78
381.109	373.63
381.489	385.61
381.87	366.4
382.25	388.32
382.63	388.55
383.01	396.91
383.39	401.2
383.77	379.06
384.15	378.38
384.53	395.33
384.91	377.7
385.29	385.39
385.67	417.02
386.049	385.39
386.429	402.79
386.809	416.8
387.189	396.01
387.568	399.17
387.948	423.12
388.328	393.52
388.707	402.33
389.087	424.03
389.466	429
389.846	417.47
390.225	410.47
390.605	401.88
390.984	432.16
391.363	437.14
391.743	413.63
392.122	428.32
392.501	460.86
392.881	440.53
393.26	428.32
393.639	433.52
394.018	414.76
394.397	447.76
394.776	453.41
395.155	445.72
395.534	453.41
395.913	432.84
396.292	449.11
396.671	469.68
397.05	462.22
397.429	437.36
397.808	459.28
398.186	465.16
398.565	482.11
398.944	469
399.323	477.81
399.701	480.75
400.08	485.27
400.458	471.03
400.837	495.44
401.215	490.02
401.594	492.05
401.972	480.07
402.351	492.05
402.729	511.03
403.107	497.47
403.486	491.82
403.864	490.02
404.242	490.47
404.62	510.35
404.999	499.73
405.377	523.23
405.755	528.66
406.133	509.22
406.511	507.19
406.889	544.93
407.267	553.74
407.645	533.63
408.023	538.15
408.401	536.79
408.779	551.26
409.156	565.49
409.534	560.97
409.912	581.31
410.29	563.01
410.667	566.85
411.045	574.76
411.422	579.96
411.8	583.57
412.178	583.12
412.555	595.32
412.933	610.92
413.31	615.21
413.687	617.92
414.065	614.31
414.442	619.5
414.819	626.51
415.197	632.61
415.574	635.1
415.951	648.2
416.328	638.94
416.705	653.63
417.082	678.71
417.46	656.79
417.837	647.3
418.214	684.36
418.591	669.9
418.967	674.64
419.344	711.03
419.721	663.12
420.098	709.9
420.475	697.92
420.852	702.67
421.228	704.25
421.605	714.87
421.982	722.1
422.358	727.75
422.735	747.64
423.111	732.49
423.488	721.87
423.864	747.64
424.241	762.32
424.617	750.57
424.994	764.13
425.37	741.31
425.746	755.32
426.123	746.96
426.499	758.48
426.875	799.39
427.251	795.54
427.627	791.25
428.003	793.96
428.379	819.27
428.756	821.08
429.132	809.55
429.507	813.62
429.883	838.93
430.259	845.94
430.635	881.19
431.011	869.67
431.387	877.58
431.763	903.34
432.138	865.37
432.514	925.03
432.89	927.07
433.265	922.55
433.641	945.14
434.016	943.79
434.392	959.83
434.767	957.12
435.143	959.16
435.518	979.49
435.894	991.25
436.269	1016.33
436.644	996.22
437.02	1018.14
437.395	1007.97
437.77	1039.61
438.145	1045.93
438.52	1068.53
438.895	1053.16
439.271	1047.06
439.646	1095.42
440.021	1090.9
440.395	1081.19
440.77	1092.26
441.145	1092.49
441.52	1113.73
441.895	1105.59
442.27	1149.21
442.645	1121.86
443.019	1156.66
443.394	1123.45
443.769	1151.69
444.143	1155.31
444.518	1164.35
444.892	1138.36
445.267	1195.53
445.641	1190.11
446.016	1182.65
446.39	1191.01
446.764	1201.18
447.139	1193.5
447.513	1195.53
447.887	1219.49
448.262	1231.24
448.636	1249.32
449.01	1259.94
449.384	1267.85
449.758	1238.24
450.132	1273.27
450.506	1302.65
450.88	1309.65
451.254	1305.59
451.628	1327.73
452.002	1333.16
452.376	1308.3
452.75	1331.58
453.123	1366.83
453.497	1385.59
453.871	1383.33
454.244	1448.86
454.618	1410.9
454.992	1457.67
455.365	1423.55
455.739	1467.39
456.112	1499.25
456.486	1495.64
456.859	1504
457.232	1535.41
457.606	1528.41
457.979	1552.59
458.352	1578.35
458.725	1602.98
459.099	1618.35
459.472	1615.41
459.845	1630.32
460.218	1665.35
460.591	1657.22
460.964	1700.83
461.337	1730.66
461.71	1733.6
462.083	1770.43
462.456	1751.9
462.829	1753.94
463.201	1804.78
463.574	1809.08
463.947	1842.07
464.32	1874.61
464.692	1908.28
465.065	1918.45
465.438	1924.33
465.81	1973.82
466.183	1973.82
466.555	2027.83
466.928	2033.25
467.3	2029.86
467.672	2048.17
468.045	2093.14
468.417	2106.92
468.789	2120.71
469.161	2159.8
469.534	2198.9
469.906	2273.25
470.278	2246.58
470.65	2278.22
471.022	2334.26
471.394	2368.16
471.766	2369.29
472.138	2418.33
472.51	2468.27
472.882	2458.78
473.253	2515.95
473.625	2556.63
473.997	2569.28
474.369	2605.67
474.74	2628.49
475.112	2697.41
475.484	2724.31
475.855	2770.86
476.227	2815.38
476.598	2913.91
476.97	2911.19
477.341	2999.33
477.713	3013.34
478.084	3004.75
478.455	3122.94
478.827	3130.4
479.198	3238.64
479.569	3272.99
479.94	3368.13
480.311	3334.91
480.682	3437.28
481.053	3493.55
481.424	3591.18
481.795	3621.23
482.166	3675.47
482.537	3698.52
482.908	3772.41
483.279	3826.42
483.65	3932.64
484.021	3978.51
484.391	4022.8
484.762	4062.35
485.133	4108.9
485.503	4191.39
485.874	4255.57
486.244	4273.64
486.615	4392.29
486.985	4484.71
487.356	4533.75
487.726	4560.19
488.097	4687.65
488.467	4718.38
488.837	4767.87
489.207	4849.22
489.578	4962.89
489.948	4957.47
490.318	5083.34
490.688	5107.3
491.058	5187.74
491.428	5278.82
491.798	5304.13
492.168	5440.62
492.538	5436.78
492.908	5507.51
493.278	5622.99
493.648	5646.72
494.017	5669.09
494.387	5761.29
494.757	5864.79
495.126	5923.77
495.496	5914.96
495.866	6040.15
496.235	6099.59
496.605	6173.03
496.974	6182.52
497.344	6267.49
497.713	6323.76
498.082	6407.15
498.452	6418.67
498.821	6484.89
499.19	6509.29
499.559	6632.23
499.928	6681.49
500.298	6736.18
500.667	6764.2
501.036	6816.85
501.405	6912.45
501.774	6948.6
502.143	7008.71
502.512	7043.74
502.88	7138.43
503.249	7194.47
503.618	7217.75
503.987	7350.63
504.356	7307.24
504.724	7452.32
505.093	7484.41
505.462	7548.36
505.83	7537.51
506.199	7681.92
506.567	7777.51
506.936	7807.79
507.304	7930.5
507.672	8031.96
508.041	8105.41
508.409	8085.97
508.777	8240.55
509.145	8277.38
509.514	8298.4
509.882	8393.76
510.25	8464.95
510.618	8568.9
510.986	8589.01
511.354	8721.89
511.722	8847.54
512.09	8838.72
512.458	8911.04
512.826	9016.12
513.193	9069.45
513.561	9189.45
513.929	9280.74
514.297	9379.95
514.664	9401.19
515.032	9490.68
515.4	9619.94
515.767	9667.4
516.135	9804.12
516.502	9691.36
516.869	9871.92
517.237	9988.97
517.604	10042.08
517.972	10201.17
518.339	10291.57
518.706	10282.75
519.073	10442.52
519.44	10491.11
519.808	10594.16
520.175	10640.26
520.542	10821.04
520.909	10965.9
521.276	10962.06
521.643	11132.22
522.009	11259.9
522.376	11299
522.743	11474.13
523.11	11598.88
523.477	11698.99
523.843	11781.7
524.21	11943.27
524.577	12098.52
524.943	12120.44
525.31	12243.6
525.676	12302.81
526.043	12522.24
526.409	12566.99
526.776	12764.49
527.142	12837.94
527.508	12985.05
527.874	13063.92
528.241	13236.35
528.607	13153.86
528.973	13386.85
529.339	13413.29
529.705	13676.11
530.071	13798.14
530.437	13861.87
530.803	13972.6
531.169	14038.81
531.535	14070.45
531.901	14279.48
532.267	14351.57
532.632	14488.07
532.998	14576.42
533.364	14644.67
533.73	14786.36
534.095	15003.76
534.461	15050.99
534.826	15075.39
535.192	15274.71
535.557	15405.56
535.923	15382.73
536.288	15529.62
536.653	15652.1
537.019	15671.09
537.384	15781.82
537.749	15902.94
538.114	16148.59
538.479	16158.3
538.845	16272.88
539.21	16251.41
539.575	16417.28
539.94	16472.65
540.305	16692.3
540.67	16738.4
541.034	16815.69
541.399	16908.57
541.764	17119.86
542.129	17135.91
542.494	17321.44
542.858	17401.66
543.223	17622.22
543.587	17690.92
543.952	17806.85
544.316	17879.16
544.681	17858.15
545.045	18083.45
545.41	18224.92
545.774	18265.14
546.138	18340.39
546.503	18519.15
546.867	18619.26
547.231	18865.13
547.595	18863.09
547.959	19003.65
548.324	19166.13
548.688	19337.88
549.052	19366.13
549.416	19590.53
549.779	19674.82
550.143	19775.84
550.507	19980.12
550.871	20159.1
551.235	20159.78
551.599	20486.33
551.962	20736.26
552.326	20812.64
552.689	20975.13
553.053	21019.42
553.417	21238.17
553.78	21512.29
554.143	21614.43
554.507	21861.43
554.87	21939.85
555.234	22374.86
555.597	22348.65
555.96	22540.06
556.323	22788.86
556.686	22858.24
557.05	23134.62
557.413	23333.48
557.776	23544.32
558.139	23766.24
558.502	23945.9
558.865	24177.53
559.228	24496.62
559.59	24600.34
559.953	24805.08
560.316	25266.77
560.679	25296.59
561.041	25671.73
561.404	25838.05
561.767	26212.28
562.129	26307.19
562.492	26890.9
562.854	26867.85
563.217	27102.2
563.579	27575.18
563.941	27750.54
564.304	27939.46
564.666	28324.76
565.028	28452.22
565.39	28823.51
565.753	28992.54
566.115	29366.09
566.477	29681.79
566.839	29943.93
567.201	30376.01
567.563	30637.25
567.925	30934.41
568.287	31091.47
568.648	31244.91
569.01	31823.43
569.372	32212.8
569.734	32147.71
570.095	32728.94
570.457	33060.46
570.819	33297.74
571.18	33490.5
571.542	34013.88
571.903	34209.58
572.265	34415.45
572.626	34810.02
572.987	34923.91
573.349	35388.76
573.71	35685.93
574.071	36022.87
574.432	36287.72
574.794	36713.92
575.155	36811.77
575.516	37052.9
575.877	37388.03
576.238	37658.53
576.599	37938.07
576.96	38159.31
577.32	38395.69
577.681	38799.06
578.042	38955.44
578.403	39242.44
578.763	39555.65
579.124	39907.06
579.485	40124.68
579.845	40333.04
580.206	40495.29
580.566	40833.81
580.927	40988.84
581.287	41389.73
581.648	41281.94
582.008	41794.24
582.368	41718.08
582.728	42066.32
583.089	42244.4
583.449	42365.3
583.809	42639.42
584.169	42877.6
584.529	43156.01
584.889	43565.04
585.249	43426.51
585.609	43431.03
585.969	43894.98
586.329	43950.57
586.688	44135.65
587.048	44189.21
587.408	44340.84
587.768	44570.89
588.127	44708.06
588.487	44853.82
588.846	45294.04
589.206	45166.58
589.565	45431.21
589.925	45673.69
590.284	45680.69
590.643	45903.06
591.003	46050.17
591.362	46375.14
591.721	46348.47
592.08	46555.47
592.44	46769.93
592.799	46869.13
593.158	46952.97
593.517	47134.21
593.876	47458.5
594.235	47416.24
594.593	47545.28
594.952	47890.12
595.311	47973.96
595.67	48039.27
596.029	48385.48
596.387	48530.56
596.746	48652.59
597.104	48648.75
597.463	48805.58
597.822	48978.01
598.18	48891.45
598.538	48986.59
598.897	49444.89
599.255	49181.16
599.613	49952.22
599.972	49766.69
600.33	50000.13
600.688	49884.2
601.046	50230.18
601.404	50342.94
601.762	50380.91
602.12	50636.72
602.478	50762.59
602.836	50911.97
603.194	50858.63
603.552	50981.57
603.91	51003.26
604.268	51393.08
604.625	51375.23
604.983	51436.47
605.341	51375.01
605.698	51735.45
606.056	51885.95
606.413	52028.1
606.771	52218.6
607.128	52261.99
607.485	52180.41
607.843	52366.84
608.2	52744.23
608.557	52836.66
608.914	52745.36
609.272	53005.24
609.629	53223.77
609.986	53290.43
610.343	53235.75
610.7	53509.41
611.057	53575.4
611.414	53634.83
611.771	53737.2
612.127	53919.12
612.484	53995.28
612.841	54146.46
613.198	54119.57
613.554	54274.14
613.911	54475.04
614.267	54581.93
614.624	54621.7
614.98	54682.26
615.337	54906.89
615.693	54995.47
616.05	55015.81
616.406	55249.48
616.762	55147.56
617.118	55215.81
617.475	55278.63
617.831	55404.96
618.187	55538.74
618.543	55591.62
618.899	55726.98
619.255	55867.77
619.611	55940.08
619.967	56086.75
620.323	56111.6
620.678	56061.89
621.034	56148.66
621.39	56254.65
621.746	56171.04
622.101	56537.13
622.457	56367.19
622.812	56498.94
623.168	56690.8
623.523	56660.97
623.879	56891.92
624.234	56774.41
624.589	56895.76
624.945	56962.2
625.3	57004.69
625.655	56927.4
626.01	57098.7
626.365	57117.68
626.72	57136.21
627.075	57252.14
627.43	57278.35
627.785	57299.6
628.14	57343.21
628.495	57491
628.85	57382.76
629.205	57375.3
629.559	57642.41
629.914	57565.12
630.269	57551.79
630.623	57589.98
630.978	57576.2
631.332	57718.57
631.687	57867.94
632.041	57823.88
632.396	57806.47
632.75	57821.84
633.104	57949.75
633.459	57840.15
633.813	57833.37
634.167	57953.59
634.521	57937.32
634.875	58055.06
635.229	58028.84
635.583	57897.32
635.937	58020.25
636.291	57982.74
636.645	58105.9
636.999	58062.51
637.352	58166.01
637.706	58037.88
638.06	58139.12
638.413	58116.3
638.767	58105.22
639.121	58200.36
639.474	58109.97
639.828	58191.78
640.181	58289.17
640.534	58335.95
640.888	58183.87
641.241	58185.67
641.594	58407.14
641.947	58446.01
642.301	58317.87
642.654	58423.86
643.007	58374.14
643.36	58469.06
643.713	58462.95
644.066	58517.19
644.419	58571.2
644.771	58471.32
645.124	58349.74
645.477	58294.6
645.83	58142.74
646.182	58019.58
646.535	57939.13
646.888	57933.48
647.24	57857.77
647.593	57965.57
647.945	57959.69
648.298	57854.16
648.65	57816.87
649.002	57787.72
649.355	57939.8
649.707	58006.02
650.059	58270.19
650.411	58599.45
650.763	58646.9
651.115	58887.12
651.467	58879.89
651.819	58812.1
652.171	58857.52
652.523	58807.13
652.875	58874.47
653.227	58856.16
653.578	58965.99
653.93	58953.11
654.282	58862.27
654.633	58901.81
654.985	58977.74
655.337	58926.9
655.688	58905.88
656.039	59090.28
656.391	58921.7
656.742	59019.55
657.094	59071.07
657.445	59152.88
657.796	59133.45
658.147	59165.99
658.498	59096.61
658.849	59199.66
659.2	59141.58
659.551	59037.18
659.902	59280.79
660.253	59225.87
660.604	59287.79
660.955	59195.59
661.306	59332.31
661.656	59291.41
662.007	59327.34
662.358	59395.81
662.708	59433.55
663.059	59412.53
663.409	59331.18
663.76	59483.04
664.11	59441.23
664.461	59535.69
664.811	59565.52
665.161	59511.29
665.511	59482.14
665.862	59561.68
666.212	59651.85
666.562	59810.04
666.912	59723.49
667.262	59721
667.612	59771.62
667.962	59807.78
668.312	59817.27
668.662	59977.26
669.011	59889.58
669.361	59901.56
669.711	59973.2
670.06	59967.32
670.41	59976.81
670.76	59962.8
671.109	59975.23
671.459	60030.14
671.808	59989.02
672.157	60027.88
672.507	59941.56
672.856	59984.27
673.205	59996.7
673.554	60198.73
673.904	60188.56
674.253	60327.09
674.602	60227.88
674.951	59828.34
675.3	59767.78
675.649	60256.13
675.998	60153.76
676.346	60234.66
676.695	60335
677.044	60164.83
677.393	60243.25
677.741	60321.89
678.09	60236.69
678.438	60216.58
678.787	60272.85
679.135	60286.18
679.484	60128.45
679.832	60276.92
680.181	60109.92
680.529	60276.01
680.877	60302
681.225	60250.93
681.573	60415.45
681.922	60286.64
682.27	60225.39
682.618	60269.01
682.966	60225.85
683.314	60276.92
683.661	60226.07
684.009	60112.18
684.357	60207.32
684.705	60193.76
685.053	60299.29
685.4	60235.11
685.748	60076.47
686.095	60159.18
686.443	60046.42
686.79	60086.64
687.138	60170.48
687.485	60175.9
687.832	60039.41
688.18	60085.28
688.527	59956.47
688.874	59998.73
689.221	59937.04
689.568	59864.95
689.915	59887.78
690.262	59984.27
690.609	59877.83
690.956	59900.2
691.303	59899.3
691.65	59762.13
691.997	59829.25
692.344	59630.61
692.69	59676.48
693.037	59777.95
693.383	59563.72
693.73	59679.19
694.077	59509.93
694.423	59467
694.769	59454.11
695.116	59477.84
695.462	59430.84
695.808	59382.03
696.155	59495.47
696.501	59297.73
696.847	59273.33
697.193	59212.99
697.539	59251.86
697.885	59109.49
698.231	59091.41
698.577	59100.9
698.923	59041.47
699.269	58914.02
699.614	58849.84
699.96	58885.32
700.306	58898.88
700.651	58853.23
700.997	58832.66
701.342	58796.96
701.688	58759.9
702.033	58743.17
702.379	58742.27
702.724	58741.37
703.069	58815.94
703.415	58543.18
703.76	58540.24
704.105	58514.7
704.45	58568.49
704.795	58416.85
705.14	58352.9
705.485	58327.14
705.83	58241.04
706.175	58304.77
706.52	58266.58
706.865	58245.33
707.209	58172.11
707.554	58200.14
707.899	58270.64
708.243	58112.46
708.588	58140.48
708.932	57915.4
709.277	57911.33
709.621	58017.32
709.966	57860.94
710.31	57954.49
710.654	57712.69
710.998	57712.92
711.342	57821.62
711.687	57752.69
712.031	57751.56
712.375	57620.94
712.719	57660.26
713.063	57664.33
713.407	57749.75
713.75	57569.19
714.094	57562.64
714.438	57477.44
714.782	57587.72
715.125	57479.03
715.469	57625.91
715.812	57449.2
716.156	57281.06
716.499	57409.87
716.843	57375.98
717.186	57145.25
717.53	57343.21
717.873	57359.03
718.216	57352.93
718.559	57259.14
718.902	57168.53
719.246	57199.94
719.589	57139.37
719.932	57097.11
720.275	57049.43
720.617	57027.06
720.96	57098.92
721.303	56968.98
721.646	57003.56
721.989	56885.37
722.331	57046.49
722.674	56947.51
723.016	56946.38
723.359	56991.13
723.701	56958.36
724.044	56859.38
724.386	56821.42
724.729	56926.5
725.071	56764.69
725.413	56726.28
725.755	56738.48
726.097	56706.16
726.439	56634.53
726.782	56652.61
727.124	56815.09
727.465	56612.16
727.807	56679.95
728.149	56589.33
728.491	56596.79
728.833	56590.46
729.175	56548.88
729.516	56542.33
729.858	56493.97
730.199	56605.83
730.541	56561.08
730.882	56451.03
731.224	56571.48
731.565	56362.9
731.906	56531.48
732.248	56474.98
732.589	56288.32
732.93	56199.74
733.271	56287.64
733.612	56239.06
733.953	56312.5
734.294	56257.81
734.635	56227.53
734.976	56261.66
735.317	56167.2
735.658	56196.57
735.999	56047.2
736.339	56098.27
736.68	56213.3
737.021	56118.38
737.361	56009.91
737.702	56138.5
738.042	56036.13
738.383	55941.44
738.723	55924.26
739.063	55989.57
739.404	56084.26
739.744	56032.96
740.084	56010.59
740.424	56022.34
740.764	55834.1
741.104	55996.58
741.444	55915
741.784	55818.5
742.124	55966.52
742.464	55920.42
742.804	55736.02
743.143	55684.5
743.483	55751.84
743.823	55653.76
744.162	55736.7
744.502	55699.41
744.841	55590.04
745.181	55654.67
745.52	55587.55
745.86	55746.42
746.199	55700.09
746.538	55741.67
746.877	55711.84
747.216	55778.05
747.556	55637.49
747.895	55547.32
748.234	55439.31
748.573	55364.73
748.911	55399.31
749.25	55353.66
749.589	55213.55
749.928	55225.98
750.267	55257.84
750.605	55161.35
750.944	55216.49
751.283	55178.97
751.621	55168.35
751.96	55034.34
752.298	55037.06
752.636	55171.52
752.975	54991.18
753.313	54990.05
753.651	55131.29
753.989	54899.66
754.327	54821.24
754.666	54660.79
755.004	54749.83
755.342	54783.96
755.679	54685.2
756.017	54550.51
756.355	54706.44
