Data from copper_heatsink_FLMS001491_011.txt Node
Date: Tue Feb 07 10:49:17 GMT 2017
User: dcchb
Spectrometer: FLMS00149
Trigger mode: 0
Integration Time (sec): 2.000000E-2
Scans to average: 10
Electric dark correction enabled: true
Nonlinearity correction enabled: false
Boxcar width: 0
XAxis mode: Wavelengths
Number of Pixels in Spectrum: 2048
>>>>>Begin Spectral Data<<<<<
341.393	-9.69
341.776	-9.69
342.16	-9.69
342.543	-65.73
342.927	-66.41
343.31	-64.83
343.693	-54.89
344.077	-75.22
344.46	-40.65
344.843	-51.95
345.226	-57.82
345.61	-39.52
345.993	-8.79
346.376	-0.42
346.759	9.29
347.142	14.27
347.525	36.19
347.908	45.68
348.291	78.22
348.674	88.84
349.057	121.61
349.44	123.87
349.823	133.36
350.206	178.1
350.588	209.51
350.971	244.09
351.354	246.8
351.737	248.84
352.119	272.11
352.502	264.2
352.884	286.35
353.267	308.95
353.65	318.44
354.032	336.52
354.414	335.16
354.797	321.38
355.179	323.64
355.562	352.11
355.944	349.85
356.326	330.64
356.709	370.87
357.091	336.06
357.473	343.07
357.855	367.93
358.238	349.17
358.62	356.63
359.002	381.26
359.384	362.05
359.766	348.95
360.148	357.53
360.53	370.64
360.912	330.64
361.294	366.12
361.676	337.42
362.057	349.85
362.439	341.71
362.821	347.59
363.203	339.23
363.584	352.79
363.966	362.28
364.348	361.6
364.729	334.71
365.111	344.65
365.493	352.79
365.874	354.6
366.256	328.83
366.637	335.39
367.019	345.33
367.4	338.78
367.781	344.2
368.163	345.33
368.544	338.78
368.925	328.61
369.306	333.8
369.688	355.73
370.069	337.87
370.45	336.97
370.831	364.76
371.212	356.4
371.593	357.31
371.974	345.56
372.355	355.95
372.736	345.1
373.117	370.64
373.498	333.13
373.879	330.19
374.26	337.19
374.641	342.17
375.021	339.23
375.402	346.01
375.783	361.15
376.163	357.76
376.544	354.37
376.925	348.95
377.305	360.47
377.686	346.46
378.066	353.69
378.447	355.95
378.827	352.11
379.208	367.93
379.588	378.78
379.968	330.87
380.349	360.02
380.729	359.34
381.109	356.18
381.489	371.77
381.87	383.97
382.25	382.84
382.63	382.39
383.01	361.6
383.39	386.46
383.77	388.94
384.15	398.66
384.53	391.88
384.91	374.93
385.29	381.04
385.67	377.42
386.049	368.61
386.429	374.03
386.809	364.76
387.189	359.11
387.568	388.04
387.948	407.02
388.328	403.63
388.707	390.75
389.087	400.47
389.466	409.51
389.846	380.13
390.225	388.49
390.605	406.35
390.984	395.72
391.363	410.19
391.743	400.02
392.122	422.39
392.501	411.77
392.881	421.71
393.26	428.04
393.639	422.62
394.018	404.54
394.397	435.27
394.776	420.58
395.155	428.04
395.534	420.81
395.913	434.37
396.292	471.65
396.671	427.81
397.05	420.36
397.429	440.92
397.808	422.16
398.186	445.44
398.565	431.43
398.944	432.56
399.323	440.47
399.701	433.92
400.08	441.6
400.458	434.82
400.837	454.93
401.215	442.95
401.594	434.59
401.972	447.47
402.351	438.89
402.729	441.15
403.107	447.25
403.486	482.28
403.864	454.25
404.242	434.14
404.62	459.45
404.999	467.59
405.377	486.34
405.755	457.87
406.133	471.2
406.511	500.58
406.889	478.66
407.267	481.37
407.645	510.3
408.023	499.68
408.401	493.12
408.779	498.32
409.156	487.02
409.534	502.61
409.912	491.09
410.29	525.44
410.667	504.87
411.045	518.66
411.422	492.9
411.8	495.83
412.178	492.67
412.555	528.38
412.933	521.37
413.31	529.51
413.687	519.56
414.065	520.47
414.442	523.4
414.819	551.2
415.197	527.92
415.574	553.46
415.951	562.95
416.328	547.58
416.705	557.75
417.082	563.86
417.46	559.56
417.837	560.01
418.214	542.39
418.591	564.08
418.967	543.29
419.344	577.64
419.721	573.12
420.098	577.64
420.475	585.1
420.852	574.7
421.228	587.36
421.605	590.52
421.982	595.49
422.358	601.14
422.735	609.96
423.111	583.97
423.488	615.83
423.864	612.67
424.241	602.95
424.617	621.25
424.994	620.35
425.37	614.25
425.746	628.03
426.123	654.47
426.499	631.2
426.875	657.19
427.251	656.28
427.627	659.9
428.003	654.47
428.379	657.19
428.756	663.74
429.132	670.07
429.507	676.85
429.883	658.54
430.259	682.5
430.635	674.13
431.011	682.95
431.387	712.1
431.763	717.98
432.138	710.97
432.514	723.17
432.89	699.22
433.265	740.8
433.641	743.06
434.016	731.31
434.392	737.86
434.767	747.35
435.143	750.52
435.518	756.17
435.894	764.08
436.269	770.63
436.644	779.22
437.02	764.53
437.395	761.82
437.77	788.93
438.145	815.15
438.52	790.74
438.895	807.69
439.271	805.88
439.646	804.3
440.021	819.89
440.395	801.82
440.77	832.77
441.145	849.05
441.52	817.18
441.895	828.48
442.27	836.62
442.645	860.8
443.019	864.41
443.394	834.13
443.769	868.48
444.143	878.65
444.518	860.34
444.892	898.99
445.267	874.13
445.641	896.95
446.016	905.99
446.39	890.4
446.764	908.93
447.139	907.35
447.513	912.77
447.887	889.95
448.262	909.83
448.636	921.13
449.01	922.94
449.384	924.98
449.758	949.61
450.132	939.44
450.506	923.17
450.88	952.09
451.254	977.4
451.628	971.53
452.002	966.78
452.376	986.89
452.75	985.77
453.123	982.38
453.497	993.9
453.871	1006.56
454.244	1032.54
454.618	1044.07
454.992	1046.1
455.365	1056.27
455.739	1068.7
456.112	1091.98
456.486	1075.48
456.859	1095.37
457.232	1098.76
457.606	1090.4
457.979	1132.65
458.352	1120.68
458.725	1164.74
459.099	1169.49
459.472	1189.6
459.845	1215.82
460.218	1178.98
460.591	1200
460.964	1217.4
461.337	1261.24
461.71	1248.58
462.083	1275.47
462.456	1260.56
462.829	1293.1
463.201	1293.33
463.574	1282.93
463.947	1327.68
464.32	1330.84
464.692	1370.16
465.065	1391.18
465.438	1388.47
465.81	1400.22
466.183	1397.73
466.555	1464.17
466.928	1460.1
467.3	1455.58
467.672	1501.23
468.045	1515.02
468.417	1502.81
468.789	1504.62
469.161	1563.6
469.534	1588.69
469.906	1611.06
470.278	1617.84
470.65	1639.08
471.022	1647.22
471.394	1678.85
471.766	1724.95
472.138	1723.6
472.51	1776.7
472.882	1790.72
473.253	1789.59
473.625	1837.04
473.997	1838.4
474.369	1885.4
474.74	1902.13
475.112	1931.95
475.484	1965.17
475.855	1984.16
476.227	2044.49
476.598	2083.82
476.97	2101.44
477.341	2091.05
477.713	2206.52
478.084	2142.12
478.455	2236.35
478.827	2233.87
479.198	2319.52
479.569	2326.75
479.94	2405.39
480.311	2396.35
480.682	2469.79
481.053	2508.21
481.424	2561.32
481.795	2579.62
482.166	2586.4
482.537	2627.3
482.908	2739.39
483.279	2765.61
483.65	2765.83
484.021	2837.24
484.391	2890.35
484.762	2879.27
485.133	2967.86
485.503	2994.75
485.874	3060.96
486.244	3075.2
486.615	3144.58
486.985	3177.12
487.356	3267.96
487.726	3260.06
488.097	3334.86
488.467	3336.44
488.837	3415.31
489.207	3475.42
489.578	3503.66
489.948	3560.16
490.318	3648.75
490.688	3625.7
491.058	3703.66
491.428	3736.65
491.798	3769.19
492.168	3871.34
492.538	3895.97
492.908	3951.56
493.278	3986.82
493.648	4027.94
494.017	4072.24
494.387	4113.59
494.757	4152.91
495.126	4174.38
495.496	4210.76
495.866	4277.2
496.235	4347.03
496.605	4368.05
496.974	4418.67
497.344	4434.71
497.713	4453.7
498.082	4553.81
498.452	4576.41
498.821	4587.48
499.19	4624.77
499.559	4668.15
499.928	4744.99
500.298	4813.01
500.667	4808.72
501.036	4788.38
501.405	4874.7
501.774	4864.08
502.143	4960.8
502.512	4954.7
502.88	5026.56
503.249	5048.48
503.618	5055.71
503.987	5120.8
504.356	5187.69
504.724	5206.22
505.093	5273.56
505.462	5276.27
505.83	5327.12
506.199	5398.3
506.567	5491.18
506.936	5483.27
507.304	5507.68
507.672	5537.51
508.041	5617.28
508.409	5634
508.777	5697.96
509.145	5776.15
509.514	5770.05
509.882	5865.41
510.25	5872.19
510.618	5906.31
510.986	5942.24
511.354	6012.98
511.722	6100.88
512.09	6147.89
512.458	6116.93
512.826	6184.72
513.193	6219.07
513.561	6254.33
513.929	6333.65
514.297	6435.57
514.664	6467.88
515.032	6492.74
515.4	6626.75
515.767	6670.36
516.135	6748.55
516.502	6635.56
516.869	6813.41
517.237	6836.23
517.604	6897.93
517.972	7017.02
518.339	7034.65
518.706	7026.96
519.073	7065.15
519.44	7157.58
519.808	7227.18
520.175	7252.27
520.542	7361.19
520.909	7405.26
521.276	7496.55
521.643	7562.77
522.009	7597.34
522.376	7701.97
522.743	7728.86
523.11	7838.92
523.477	7932.93
523.843	8000.72
524.21	8036.43
524.577	8181.28
524.943	8212.47
525.31	8246.59
525.676	8348.96
526.043	8405.91
526.409	8469.86
526.776	8565.45
527.142	8618.33
527.508	8698.1
527.874	8703.98
528.241	8840.47
528.607	8868.72
528.973	8975.16
529.339	9053.58
529.705	9115.72
530.071	9212.89
530.437	9264.19
530.803	9405.2
531.169	9424.19
531.535	9428.93
531.901	9468.48
532.267	9573.56
532.632	9690.39
532.998	9690.39
533.364	9874.57
533.73	9902.59
534.095	9954.57
534.461	10019.2
534.826	10047.67
535.192	10109.59
535.557	10265.52
535.923	10233.21
536.288	10293.32
536.653	10460.54
537.019	10456.25
537.384	10493.99
537.749	10610.6
538.114	10634.32
538.479	10713.42
538.845	10800.87
539.21	10819.86
539.575	10904.83
539.94	10854.88
540.305	11055.33
540.67	11057.59
541.034	11250.81
541.399	11300.52
541.764	11290.35
542.129	11360.86
542.494	11507.52
542.858	11594.75
543.223	11584.81
543.587	11723.56
543.952	11674.07
544.316	11841.3
544.681	11822.32
545.045	11935.31
545.41	11997.9
545.774	12161.06
546.138	12245.13
546.503	12388.63
546.867	12355.86
547.231	12547.27
547.595	12634.5
547.959	12593.37
548.324	12693.93
548.688	12748.62
549.052	12938.45
549.416	13044.88
549.779	13181.15
550.143	13213.01
550.507	13380.92
550.871	13480.13
551.235	13464.76
551.599	13603.74
551.962	13775.26
552.326	13921.7
552.689	14008.93
553.053	14018.19
553.417	14185.64
553.78	14346.09
554.143	14421.12
554.507	14507.9
554.87	14684.39
555.234	14866.76
555.597	14865.63
555.96	14964.38
556.323	15170.02
556.686	15218.39
557.05	15466.06
557.413	15574.08
557.776	15722.1
558.139	15915.77
558.502	16053.17
558.865	16123.22
559.228	16271.69
559.59	16412.25
559.953	16575.86
560.316	16911.67
560.679	16971.56
561.041	17033.48
561.404	17429.63
561.767	17511.43
562.129	17677.53
562.492	17882.5
562.854	17982.15
563.217	18185.76
563.579	18249.72
563.941	18624.85
564.304	18691.97
564.666	18975.57
565.028	19165.63
565.39	19247.88
565.753	19466.86
566.115	19707.98
566.477	19833.18
566.839	20031.82
567.201	20278.59
567.563	20418.25
567.925	20598.13
568.287	20728.97
568.648	20952.02
569.01	21096.65
569.372	21499.12
569.734	21609.18
570.095	21792.45
570.457	22056.4
570.819	22123.51
571.18	22293.45
571.542	22611.64
571.903	22658.42
572.265	22874.46
572.626	23038.97
572.987	23267.44
573.349	23457.04
573.71	23598.05
574.071	23810.48
574.432	24002.11
574.794	24266.51
575.155	24357.58
575.516	24439.84
575.877	24534.07
576.238	24780.17
576.599	25004.57
576.96	25060.61
577.32	25216.09
577.681	25410.43
578.042	25614.95
578.403	25589.86
578.763	25722.74
579.124	26017.2
579.485	26209.73
579.845	26311.43
580.206	26363.85
580.566	26490.41
580.927	26629.16
581.287	26825.54
581.648	26830.06
582.008	27108.69
582.368	27069.15
582.728	27196.15
583.089	27374
583.449	27314.34
583.809	27565.41
584.169	27536.93
584.529	27593.65
584.889	27888.56
585.249	27817.38
585.609	27831.61
585.969	28079.97
586.329	28189.12
586.688	28190.02
587.048	28389.34
587.408	28270.7
587.768	28485.83
588.127	28526.28
588.487	28580.07
588.846	28863.9
589.206	28684.7
589.565	28832.49
589.925	28962.43
590.284	29012.15
590.643	29102.54
591.003	29158.13
591.362	29358.58
591.721	29454.17
592.08	29415.07
592.44	29596.99
592.799	29584.79
593.158	29583.66
593.517	29714.73
593.876	29975.51
594.235	29830.43
594.593	30013.25
594.952	30113.81
595.311	30168.5
595.67	30159.46
596.029	30420.47
596.387	30447.82
596.746	30642.61
597.104	30570.75
597.463	30486.23
597.822	30676.74
598.18	30693.23
598.538	30714.93
598.897	31100.23
599.255	30844.64
599.613	31307.23
599.972	31086.89
600.33	31331.41
600.688	31357.85
601.046	31431.52
601.404	31579.99
601.762	31594.45
602.12	31717.61
602.478	31831.28
602.836	31901.56
603.194	31709.03
603.552	31918.06
603.91	31862.92
604.268	32090.48
604.625	32057.04
604.983	32233.98
605.341	32155.11
605.698	32460.87
606.056	32506.29
606.413	32563.24
606.771	32579.51
607.128	32767.08
607.485	32735.21
607.843	32831.93
608.2	33147.18
608.557	33183.34
608.914	33142.43
609.272	33365.48
609.629	33366.16
609.986	33609.09
610.343	33440.05
610.7	33784.22
611.057	33670.1
611.414	33839.59
611.771	33846.14
612.127	34001.39
612.484	33964.11
612.841	34174.5
613.198	34096.31
613.554	34243.42
613.911	34394.38
614.267	34442.51
614.624	34491.55
614.98	34531.1
615.337	34675.05
615.693	34792.56
616.05	34960.01
616.406	35060.58
616.762	35075.26
617.118	35063.06
617.475	35076.85
617.831	35314.13
618.187	35195.94
618.543	35275.94
618.899	35609.94
619.255	35531.3
619.611	35517.29
619.967	35682.25
620.323	35952.76
620.678	35679.77
621.034	35616.27
621.39	35713.89
621.746	35826.66
622.101	36422.57
622.457	36021.68
622.812	36174.67
623.168	36276.81
623.523	36442.46
623.879	36381.44
624.234	36310.03
624.589	36433.65
624.945	36497.6
625.3	36647.2
625.655	36501.89
626.01	36757.03
626.365	36757.71
626.72	36619.86
627.075	36704.15
627.43	36699.63
627.785	36751.6
628.14	36967.42
628.495	36950.7
628.85	36865.05
629.205	36712.51
629.559	37057.13
629.914	36759.29
630.269	36870.47
630.623	36842.9
630.978	36811.04
631.332	36964.48
631.687	37144.59
632.041	37004.03
632.396	37170.35
632.75	36922.45
633.104	37144.36
633.459	36996.57
633.813	36912.05
634.167	36932.16
634.521	37108.66
634.875	37092.39
635.229	37000.41
635.583	36915.44
635.937	36994.08
636.291	36999.96
636.645	36958.15
636.999	36936.46
637.352	37112.05
637.706	36811.72
638.06	37215.55
638.413	37075.21
638.767	36882.9
639.121	37037.25
639.474	36998.6
639.828	37059.84
640.181	37032.05
640.534	37009.45
640.888	36960.19
641.241	36744.15
641.594	36962.22
641.947	37008.55
642.301	36836.57
642.654	36988.43
643.007	37006.06
643.36	37169.45
643.713	37079.96
644.066	37220.74
644.419	36868.44
644.771	36589.57
645.124	36103.49
645.477	36211.05
645.83	35935.58
646.182	35861.01
646.535	36054.45
646.888	36267.32
647.24	36108.23
647.593	36300.32
647.945	36451.27
648.298	36263.93
648.65	36288.11
649.002	36184.84
649.355	36294.44
649.707	36124.28
650.059	36233.43
650.411	36635.9
650.763	36649.23
651.115	37152.27
651.467	37060.52
651.819	37087.41
652.171	37131.26
652.523	36997.47
652.875	36919.28
653.227	36873.86
653.578	37002.45
653.93	36978.26
654.282	36937.59
654.633	36958.6
654.985	37214.87
655.337	37155.66
655.688	37015.1
656.039	37171.71
656.391	36886.74
656.742	37010.81
657.094	37110.24
657.445	37089.9
657.796	37213.29
658.147	37175.77
658.498	37136.9
658.849	37189.56
659.2	37242.21
659.551	37093.52
659.902	37283.34
660.253	37050.58
660.604	37293.06
660.955	36982.78
661.306	37136.23
661.656	37110.24
662.007	37213.06
662.358	37279.05
662.708	37220.07
663.059	37119.73
663.409	37036.34
663.76	37431.13
664.11	37368.99
664.461	37557.23
664.811	37366.73
665.161	37485.37
665.511	37174.64
665.862	37307.07
666.212	37589.55
666.562	37595.65
666.912	37564.24
667.262	37464.81
667.612	37465.94
667.962	37601.75
668.312	37477.69
668.662	37750
669.011	37512.04
669.361	37688.3
669.711	37564.46
670.06	37554.75
670.41	37468.42
670.76	37514.75
671.109	37804.68
671.459	37783.44
671.808	37566.72
672.157	37681.98
672.507	37594.75
672.856	37521.08
673.205	37760.17
673.554	37747.28
673.904	37644.91
674.253	37977.56
674.602	37708.87
674.951	37213.97
675.3	37238.82
675.649	37818.24
675.998	37733.95
676.346	37768.3
676.695	37936.88
677.044	37735.53
677.393	37722.65
677.741	37852.37
678.09	37822.54
678.438	37695.31
678.787	37717.45
679.135	37755.87
679.484	37552.49
679.832	37677
680.181	37506.16
680.529	37704.8
680.877	37515.88
681.225	37548.65
681.573	37722.88
681.922	37568.76
682.27	37501.87
682.618	37680.17
682.966	37605.14
683.314	37533.96
683.661	37421.19
684.009	37177.58
684.357	37267.52
684.705	37356.56
685.053	37274.08
685.4	37132.61
685.748	37077.7
686.095	37121.99
686.443	37098.04
686.79	37062.78
687.138	37078.38
687.485	37007.19
687.832	37098.49
688.18	37153.85
688.527	36957.93
688.874	36973.97
689.221	36828.44
689.568	36656.24
689.915	36657.82
690.262	36754.99
690.609	36747.31
690.956	36709.57
691.303	36706.86
691.65	36402.69
691.997	36561.55
692.344	36240.43
692.69	36283.14
693.037	36377.15
693.383	36092.64
693.73	36310.71
694.077	35999.31
694.423	36244.05
694.769	36072.53
695.116	36007.22
695.462	36043.37
695.808	35762.7
696.155	35820.1
696.501	35550.96
696.847	35708.92
697.193	35397.74
697.539	35473.67
697.885	35322.26
698.231	35201.14
698.577	35343.51
698.923	35286.11
699.269	35043.85
699.614	35034.36
699.96	34995.72
700.306	35111.2
700.651	35147.58
700.997	35111.87
701.342	34871.43
701.688	34865.55
702.033	34774.71
702.379	34742.17
702.724	34586.01
703.069	34817.64
703.415	34385.79
703.76	34461.5
704.105	34590.53
704.45	34359.35
704.795	34210.43
705.14	34179.02
705.485	34167.94
705.83	34158.23
706.175	34187.6
706.52	33946.25
706.865	33955.75
707.209	33908.29
707.554	33792.81
707.899	33935.86
708.243	33829.42
708.588	33795.75
708.932	33623.32
709.277	33615.87
709.621	33688.63
709.966	33383.11
710.31	33656.77
710.654	33222.66
710.998	33397.34
711.342	33408.64
711.687	33202.55
712.031	33260.85
712.375	33136.11
712.719	33189.44
713.063	33247.29
713.407	33409.09
713.75	33182.43
714.094	33224.24
714.438	33109.21
714.782	33171.13
715.125	32998.71
715.469	33060.4
715.812	32893.85
716.156	32712.16
716.499	32734.31
716.843	32887.98
717.186	32740.41
717.53	32919.61
717.873	32940.41
718.216	32876.9
718.559	32788.09
718.902	32562.34
719.246	32652.05
719.589	32617.48
719.932	32450.25
720.275	32463.81
720.617	32423.13
720.96	32419.51
721.303	32492.51
721.646	32327.31
721.989	32262.91
722.331	32434.88
722.674	32326.41
723.016	32235.56
723.359	32262.91
723.701	32337.71
724.044	32199.18
724.386	32016.81
724.729	32262.91
725.071	32184.94
725.413	32056.13
725.755	32118.51
726.097	31941.34
726.439	31729.59
726.782	31759.42
727.124	32092.52
727.465	31946.31
727.807	31916.25
728.149	31723.94
728.491	31741.57
728.833	31889.13
729.175	31749.7
729.516	31732.75
729.858	31761.23
730.199	31708.57
730.541	31612.08
730.882	31639.2
731.224	31809.81
731.565	31530.72
731.906	31680.33
732.248	31665.86
732.589	31526.2
732.93	31462.25
733.271	31579.99
733.612	31568.46
733.953	31608.01
734.294	31496.38
734.635	31626.54
734.976	31566.43
735.317	31445.98
735.658	31513.55
735.999	31464.06
736.339	31484.4
736.68	31606.43
737.021	31399.65
737.361	31435.59
737.702	31396.72
738.042	31376.83
738.383	31161.69
738.723	31329.37
739.063	31216.83
739.404	31222.71
739.744	31263.16
740.084	31229.04
740.424	31207.57
740.764	31158.08
741.104	31323.72
741.444	31179.55
741.784	31062.71
742.124	31240.56
742.464	31091.19
742.804	30987.91
743.143	31016.16
743.483	30897.52
743.823	30862.49
744.162	30920.12
744.502	30983.39
744.841	30855.26
745.181	30882.83
745.52	30897.52
745.86	31116.95
746.199	30847.58
746.538	30767.13
746.877	30899.1
747.216	30967.58
747.556	30858.88
747.895	30831.99
748.234	30701.82
748.573	30770.07
748.911	30753.57
749.25	30652.33
749.589	30603.52
749.928	30611.43
750.267	30719.45
750.605	30586.57
750.944	30586.12
751.283	30470.87
751.621	30524.2
751.96	30325.11
752.298	30279.01
752.636	30355.16
752.975	30217.54
753.313	30114.94
753.651	30287.14
753.989	30069.97
754.327	30222.96
754.666	30022.97
755.004	30017.32
755.342	30182.51
755.679	30053.02
756.017	29881.05
756.355	29980.48
756.693	29897.32
757.031	29829.53
757.368	29694.39
757.706	29649.19
