Data from copper_heatsink_FLMS001491_032.txt Node
Date: Tue Feb 07 10:49:49 GMT 2017
User: dcchb
Spectrometer: FLMS00149
Trigger mode: 0
Integration Time (sec): 2.000000E-2
Scans to average: 10
Electric dark correction enabled: true
Nonlinearity correction enabled: false
Boxcar width: 0
XAxis mode: Wavelengths
Number of Pixels in Spectrum: 2048
>>>>>Begin Spectral Data<<<<<
341.393	-1.72
341.776	-1.72
342.16	-1.72
342.543	-80.59
342.927	-62.51
343.31	-72.91
343.693	-58.9
344.077	-76.3
344.46	-67.48
344.843	-51.89
345.226	-32.46
345.61	-41.27
345.993	-23.42
346.376	-2.18
346.759	9.35
347.142	18.84
347.525	39.86
347.908	65.85
348.291	76.92
348.674	94.32
349.057	121.66
349.44	143.81
349.823	125.28
350.206	165.28
350.588	203.24
350.971	223.58
351.354	228.33
351.737	254.54
352.119	262.22
352.502	269.23
352.884	293.41
353.267	272.85
353.65	293.86
354.032	309.68
354.414	329.57
354.797	313.3
355.179	339.06
355.562	333.41
355.944	344.48
356.326	355.78
356.709	355.56
357.091	349.68
357.473	347.42
357.855	363.01
358.238	379.96
358.62	371.37
359.002	361.43
359.384	351.49
359.766	352.39
360.148	346.97
360.53	357.36
360.912	350.13
361.294	352.62
361.676	349.68
362.057	340.64
362.439	338.61
362.821	365.05
363.203	337.25
363.584	349.91
363.966	360.53
364.348	336.35
364.729	337.25
365.111	319.62
365.493	335.22
365.874	349.68
366.256	329.79
366.637	337.7
367.019	330.47
367.4	328.89
367.781	347.19
368.163	334.09
368.544	324.6
368.925	329.12
369.306	335.44
369.688	338.38
370.069	319.17
370.45	360.75
370.831	337.7
371.212	341.32
371.593	334.31
371.974	325.95
372.355	323.69
372.736	335.9
373.117	339.51
373.498	350.58
373.879	360.98
374.26	349.23
374.641	330.7
375.021	326.18
375.402	333.86
375.783	353.52
376.163	357.59
376.544	355.33
376.925	340.64
377.305	374.76
377.686	350.81
378.066	351.94
378.447	367.53
378.827	345.39
379.208	349.23
379.588	372.96
379.968	351.49
380.349	371.6
380.729	366.63
381.109	372.73
381.489	368.44
381.87	385.84
382.25	371.37
382.63	379.96
383.01	368.44
383.39	365.72
383.77	387.42
384.15	378.15
384.53	402.11
384.91	375.44
385.29	382.67
385.67	399.62
386.049	388.32
386.429	377.93
386.809	375.22
387.189	391.03
387.568	405.5
387.948	397.81
388.328	406.18
388.707	379.96
389.087	380.19
389.466	420.86
389.846	404.59
390.225	420.64
390.605	410.02
390.984	404.37
391.363	431.49
391.743	420.64
392.122	407.08
392.501	427.87
392.881	400.75
393.26	401.66
393.639	428.55
394.018	428.32
394.397	410.24
394.776	426.06
395.155	435.78
395.534	455.21
395.913	437.59
396.292	421.77
396.671	435.55
397.05	436.91
397.429	443.46
397.808	423.8
398.186	461.32
398.565	444.14
398.944	445.72
399.323	465.38
399.701	463.35
400.08	453.18
400.458	434.42
400.837	438.49
401.215	470.13
401.594	468.32
401.972	451.37
402.351	451.15
402.729	478.72
403.107	455.44
403.486	482.56
403.864	484.37
404.242	478.49
404.62	473.29
404.999	508.32
405.377	475.33
405.755	505.83
406.133	471.94
406.511	494.54
406.889	516.91
407.267	533.18
407.645	517.13
408.023	492.05
408.401	519.17
408.779	512.84
409.156	507.64
409.534	528.66
409.912	514.42
410.29	543.12
410.667	537.92
411.045	549.22
411.422	556
411.8	547.19
412.178	531.82
412.555	544.25
412.933	566.62
413.31	567.3
413.687	560.52
414.065	562.33
414.442	574.31
414.819	577.02
415.197	571.6
415.574	586.96
415.951	607.53
416.328	603.46
416.705	600.29
417.082	589.67
417.46	621.76
417.837	630.12
418.214	590.13
418.591	637.13
418.967	616.79
419.344	621.99
419.721	629.9
420.098	629.45
420.475	616.34
420.852	640.97
421.228	618.37
421.605	644.81
421.982	645.94
422.358	633.51
422.735	669.67
423.111	665.6
423.488	666.51
423.864	659.95
424.241	667.41
424.617	686.39
424.994	678.26
425.37	679.16
425.746	683.68
426.123	703.34
426.499	683
426.875	694.3
427.251	711.25
427.627	745.6
428.003	716.9
428.379	735.88
428.756	727.07
429.132	723
429.507	737.47
429.883	754.42
430.259	748.09
430.635	779.95
431.011	768.43
431.387	775.88
431.763	775.21
432.138	796.67
432.514	808.2
432.89	780.18
433.265	831.48
433.641	814.98
434.016	810.46
434.392	852.72
434.767	863.11
435.143	856.33
435.518	843.23
435.894	834.19
436.269	875.99
436.644	877.58
437.02	896.33
437.395	896.11
437.77	890.68
438.145	895.65
438.52	912.83
438.895	891.81
439.271	922.55
439.646	920.06
440.021	942.66
440.395	928.2
440.77	948.08
441.145	969.1
441.52	960.96
441.895	938.37
442.27	982.66
442.645	960.51
443.019	984.69
443.394	965.71
443.769	991.25
444.143	970.45
444.518	1010
444.892	996.22
445.267	1019.04
445.641	1036.67
446.016	1036.44
446.39	1037.12
446.764	1023.33
447.139	1029.44
447.513	1054.29
447.887	1058.59
448.262	1045.71
448.636	1057.01
449.01	1084.8
449.384	1076.44
449.758	1084.12
450.132	1089.55
450.506	1104.24
450.88	1114.63
451.254	1109.89
451.628	1141.52
452.002	1097.46
452.376	1122.99
452.75	1152.14
453.123	1152.6
453.497	1182.65
453.871	1163.9
454.244	1194.63
454.618	1207.28
454.992	1214.74
455.365	1230.56
455.739	1254.29
456.112	1251.13
456.486	1292.25
456.859	1281.41
457.232	1290.9
457.606	1288.19
457.979	1313.95
458.352	1334.06
458.725	1362.53
459.099	1345.36
459.472	1368.18
459.845	1376.09
460.218	1402.53
460.591	1403.89
460.964	1389.2
461.337	1439.59
461.71	1458.58
462.083	1476.66
462.456	1496.54
462.829	1485.02
463.201	1521.17
463.574	1503.55
463.947	1543.55
464.32	1574.96
464.692	1562.76
465.065	1598.23
465.438	1602.3
465.81	1629.87
466.183	1637.56
466.555	1690.21
466.928	1697.44
467.3	1690.21
467.672	1719.59
468.045	1766.37
468.417	1760.26
468.789	1776.31
469.161	1791.22
469.534	1828.29
469.906	1884.78
470.278	1886.81
470.65	1906.48
471.022	1905.8
471.394	1951.9
471.766	2010.65
472.138	2009.3
472.51	2018.56
472.882	2055.17
473.253	2137.88
473.625	2124.1
473.997	2146.24
474.369	2202.51
474.74	2196.41
475.112	2205.45
475.484	2244.32
475.855	2321.83
476.227	2299.46
476.598	2368.38
476.97	2407.48
477.341	2425.78
477.713	2488.38
478.084	2504.43
478.455	2553.46
478.827	2602.95
479.198	2627.59
479.569	2666.23
479.94	2743.29
480.311	2786.45
480.682	2843.63
481.053	2857.18
481.424	2929.95
481.795	2920.46
482.166	2971.08
482.537	3026.9
482.908	3101.47
483.279	3171.07
483.65	3195.71
484.021	3249.04
484.391	3278.19
484.762	3316.38
485.133	3354.8
485.503	3429.37
485.874	3442.03
486.244	3528.81
486.615	3557.73
486.985	3635.92
487.356	3671.17
487.726	3710.04
488.097	3766.99
488.467	3847.44
488.837	3916.59
489.207	3954.78
489.578	4006.08
489.948	4093.08
490.318	4080.43
490.688	4162.91
491.058	4229.8
491.428	4294.89
491.798	4299.41
492.168	4394.77
492.538	4451.95
492.908	4486.29
493.278	4589.34
493.648	4608.1
494.017	4670.7
494.387	4655.33
494.757	4763.8
495.126	4770.58
495.496	4804.03
495.866	4898.94
496.235	4932.38
496.605	4987.52
496.974	5077.47
497.344	5091.25
497.713	5106.84
498.082	5171.25
498.452	5238.37
498.821	5247.4
499.19	5296.44
499.559	5337.57
499.928	5387.51
500.298	5407.85
500.667	5523.33
501.036	5490.79
501.405	5587.96
501.774	5640.39
502.143	5700.73
502.512	5697.56
502.88	5773.27
503.249	5809.65
503.618	5886.03
503.987	5909.53
504.356	5918.57
504.724	6042.86
505.093	6069.08
505.462	6059.81
505.83	6150.88
506.199	6245.57
506.567	6283.54
506.936	6279.69
507.304	6402.18
507.672	6421.38
508.041	6415.28
508.409	6463.42
508.777	6570.76
509.145	6650.53
509.514	6644.66
509.882	6719.46
510.25	6765.78
510.618	6840.36
510.986	6872.22
511.354	6932.78
511.722	7023.18
512.09	7158.54
512.458	7109.95
512.826	7202.61
513.193	7211.65
513.561	7284.19
513.929	7347.24
514.297	7445.99
514.664	7549.26
515.032	7546.1
515.4	7618.64
515.767	7717.4
516.135	7801.01
516.502	7743.84
516.869	7919.2
517.237	7939.09
517.604	7958.29
517.972	8115.13
518.339	8123.26
518.706	8269.25
519.073	8314.44
519.44	8378.85
519.808	8519.41
520.175	8449.81
520.542	8611.84
520.909	8680.08
521.276	8765.28
521.643	8835.78
522.009	8945.39
522.376	9005.27
522.743	9106.51
523.11	9208.88
523.477	9251.82
523.843	9332.27
524.21	9442.55
524.577	9555.09
524.943	9576.56
525.31	9685.93
525.676	9797.57
526.043	9881.18
526.409	9970.22
526.776	10084.34
527.142	10159.37
527.508	10167.28
527.874	10240.95
528.241	10385.57
528.607	10469.64
528.973	10565
529.339	10548.51
529.705	10680.26
530.071	10787.15
530.437	10958.89
530.803	11005.45
531.169	11056.07
531.535	11115.5
531.901	11180.58
532.267	11295.15
532.632	11321.82
532.998	11428.71
533.364	11524.98
533.73	11565.2
534.095	11687.46
534.461	11760.23
534.826	11759.55
535.192	11951.18
535.557	12085.64
535.923	12066.89
536.288	12161.8
536.653	12234.34
537.019	12319.76
537.384	12363.38
537.749	12466.65
538.114	12540.55
538.479	12599.08
538.845	12648.11
539.21	12671.39
539.575	12896.24
539.94	12895.34
540.305	13011.72
540.67	13034.54
541.034	13140.98
541.399	13166.97
541.764	13244.71
542.129	13394.31
542.494	13412.84
542.858	13563.57
543.223	13594.53
543.587	13795.88
543.952	13784.13
544.316	13908.42
544.681	13923.33
545.045	14026.16
545.41	14165.59
545.774	14185.02
546.138	14315.41
546.503	14472.7
546.867	14464.56
547.231	14687.83
547.595	14686.48
547.959	14804.67
548.324	14835.85
548.688	14944.32
549.052	15037.2
549.416	15161.49
549.779	15207.82
550.143	15369.4
550.507	15541.37
550.871	15649.16
551.235	15696.4
551.599	15791.08
551.962	15901.59
552.326	16121.47
552.689	16183.61
553.053	16168.02
553.417	16252.76
553.78	16642.81
554.143	16751.28
554.507	16763.26
554.87	16977.94
555.234	17252.06
555.597	17218.62
555.96	17346.3
556.323	17443.02
556.686	17662.22
557.05	17806.85
557.413	17956.9
557.776	18147.86
558.139	18257.68
558.502	18460.39
558.865	18581.97
559.228	18878.91
559.59	19001.85
559.953	19105.8
560.316	19442.51
560.679	19546.46
561.041	19697.87
561.404	19907.13
561.767	20203.85
562.129	20213.56
562.492	20470.28
562.854	20590.96
563.217	20752.08
563.579	20990.04
563.941	21340.54
564.304	21546.86
564.666	21731.72
565.028	21832.28
565.39	22135.55
565.753	22303
566.115	22587.74
566.477	22879.48
566.839	22994.51
567.201	23300.04
567.563	23421.39
567.925	23697.54
568.287	23881.49
568.648	24163.97
569.01	24442.38
569.372	24673.33
569.734	24707.01
570.095	25091.4
570.457	25287.56
570.819	25403.03
571.18	25672.4
571.542	25982.68
571.903	26108.1
572.265	26531.59
572.626	26690.46
572.987	26779.95
573.349	27130.9
573.71	27461.51
574.071	27591
574.432	27750.77
574.794	28171.1
575.155	28270.08
575.516	28374.93
575.877	28591.65
576.238	28904.86
576.599	29176.72
576.96	29240.45
577.32	29449.71
577.681	29762.24
578.042	29931.5
578.403	30143.92
578.763	30371.72
579.124	30554.99
579.485	30740.97
579.845	30995.88
580.206	31139.15
580.566	31253.5
580.927	31481.52
581.287	31649.87
581.648	31648.97
582.008	31915.4
582.368	32260.71
582.728	32401.94
583.089	32371.44
583.449	32477.42
583.809	32783.63
584.169	32921.93
584.529	32964.19
584.889	33413.67
585.249	33300.68
585.609	33388.36
585.969	33769.59
586.329	33694.57
586.688	33850.27
587.048	34058.62
587.408	34141.11
587.768	34264.04
588.127	34302.69
588.487	34569.57
588.846	34702.22
589.206	34685.73
589.565	34832.62
589.925	35151.7
590.284	35179.5
590.643	35304.02
591.003	35523.67
591.362	35556.89
591.721	35734.51
592.08	35919.14
592.44	36088.18
592.799	36123.43
593.158	36219.25
593.517	36313.48
593.876	36412.01
594.235	36511.44
594.593	36668.05
594.952	36761.38
595.311	36897.65
595.67	37074.14
596.029	37271.87
596.387	37397.97
596.746	37628.25
597.104	37683.39
597.463	37844.06
597.822	38003.38
598.18	37854.68
598.538	38045.19
598.897	38436.59
599.255	38183.04
599.613	38782.57
599.972	38517.49
600.33	38797.48
600.688	38839.06
601.046	39127.64
601.404	39243.12
601.762	39219.62
602.12	39483.57
602.478	39686.05
602.836	39737.8
603.194	39679.72
603.552	39964.46
603.91	39945.48
604.268	40244
604.625	40109.31
604.983	40435.41
605.341	40346.14
605.698	40700.94
606.056	40726.25
606.413	40878.56
606.771	41127.36
607.128	41342.05
607.485	41258.89
607.843	41343.18
608.2	41724.86
608.557	41887.34
608.914	41760.34
609.272	42064.97
609.629	42146.77
609.986	42376.6
610.343	42271.06
610.7	42639.19
611.057	42831.95
611.414	42732.07
611.771	42800.54
612.127	43214.99
612.484	43352.84
612.841	43476.46
613.198	43380.19
613.554	43537.92
613.911	43812.49
614.267	43924.81
614.624	43876.67
614.98	43985.59
615.337	44319.6
615.693	44447.05
616.05	44388.07
616.406	44791
616.762	44753.71
617.118	44750.77
617.475	45009.52
617.831	45099.69
618.187	44986.47
618.543	45134.04
618.899	45571.09
619.255	45587.59
619.611	45551.88
619.967	45785.32
620.323	45794.81
620.678	45953
621.034	45797.52
621.39	45870.29
621.746	45945.32
622.101	46450.84
622.457	46183.5
622.812	46377.62
623.168	46485.87
623.523	46618.97
623.879	46774.22
624.234	46561.12
624.589	46817.61
624.945	46633.66
625.3	46913.43
625.655	46875.91
626.01	46903.48
626.365	47041.79
626.72	47094.89
627.075	47138.73
627.43	47197.71
627.785	47263.93
628.14	47401.55
628.495	47500.98
628.85	47475.45
629.205	47400.87
629.559	47711.82
629.914	47556.12
630.269	47635.44
630.623	47533.07
630.978	47582.79
631.332	47911.82
631.687	47927.19
632.041	47707.53
632.396	47928.54
632.75	47804.03
633.104	47891.93
633.459	47785.95
633.813	47849.67
634.167	47817.58
634.521	48002.66
634.875	48154.07
635.229	47946.85
635.583	47822.1
635.937	47924.02
636.291	47965.38
636.645	48052.61
636.999	47958.37
637.352	48142.32
637.706	48031.59
638.06	48259.61
638.413	48292.83
638.767	48088.76
639.121	48289.66
639.474	47988.88
639.828	48043.57
640.181	48144.81
640.534	48119.72
640.888	47967.19
641.241	48119.72
641.594	48191.81
641.947	48301.41
642.301	48211.47
642.654	48205.6
643.007	48275.43
643.36	48201.98
643.713	48276.33
644.066	48415.99
644.419	48180.96
644.771	47968.54
645.124	47675.89
645.477	47537.14
645.83	47323.36
646.182	47446.97
646.535	47489.68
646.888	47478.38
647.24	47485.16
647.593	47741.65
647.945	47661.88
648.298	47575.56
648.65	47532.85
649.002	47357.71
649.355	47571.49
649.707	47402
650.059	47526.97
650.411	48151.81
650.763	48068.2
651.115	48550.67
651.467	48470.9
651.819	48537.57
652.171	48491.69
652.523	48471.58
652.875	48424.35
653.227	48320.4
653.578	48730.33
653.93	48562.65
654.282	48528.98
654.633	48376.67
654.985	48639.94
655.337	48648.52
655.688	48601.74
656.039	48790.21
656.391	48353.16
656.742	48666.83
657.094	48660.95
657.445	48927.39
657.796	48682.87
658.147	48894.17
658.498	48821.85
658.849	48933.94
659.2	48838.57
659.551	48818.46
659.902	48992.47
660.253	48841.96
660.604	48965.35
660.955	48851.68
661.306	49038.12
661.656	49037.89
662.007	48936.88
662.358	49057.1
662.708	48953.83
663.059	48987.5
663.409	48800.16
663.76	49244.21
664.11	49211.22
664.461	49126.93
664.811	49102.07
665.161	49133.48
665.511	49069.75
665.862	49127.38
666.212	49304.33
666.562	49164.67
666.912	49161.73
667.262	49151.56
667.612	49311.56
667.962	49401.95
668.312	49216.87
668.662	49568.27
669.011	49458.67
669.361	49484.66
669.711	49488.73
670.06	49429.75
670.41	49337.09
670.76	49403.98
671.109	49561.49
671.459	49466.13
671.808	49490.31
672.157	49674.26
672.507	49439.46
672.856	49535.51
673.205	49619.35
673.554	49769.17
673.904	49548.16
674.253	49705.44
674.602	49626.8
674.951	49126.48
675.3	48893.71
675.649	49472
675.998	49555.62
676.346	49668.38
676.695	49906.8
677.044	49580.02
677.393	49608.27
677.741	49732.56
678.09	49742.73
678.438	49498.22
678.787	49777.53
679.135	49775.73
679.484	49449.63
679.832	49684.88
680.181	49543.19
680.529	49693.24
680.877	49464.32
681.225	49477.43
681.573	49747.93
681.922	49401.05
682.27	49400.82
682.618	49547.71
682.966	49467.26
683.314	49579.12
683.661	49363.53
684.009	49244.89
684.357	49138.68
684.705	49199.7
685.053	49356.98
685.4	49251.9
685.748	49003.54
686.095	49234.72
686.443	49005.12
686.79	49022.52
687.138	49062.52
687.485	49258
687.832	49007.38
688.18	49038.8
688.527	48833.15
688.874	48856.88
689.221	48844.45
689.568	48774.85
689.915	48677.45
690.262	48801.06
690.609	48724
690.956	48580.73
691.303	48467.28
691.65	48405.59
691.997	48429.77
692.344	48128.31
692.69	48130.34
693.037	48259.83
693.383	47947.3
693.73	48144.58
694.077	47909.33
694.423	47926.06
694.769	47977.13
695.116	47892.38
695.462	47858.04
695.808	47725.61
696.155	47778.26
696.501	47530.13
696.847	47506.18
697.193	47310.48
697.539	47507.99
697.885	47202.01
698.231	47190.03
698.577	47257.6
698.923	47127.21
699.269	46942.35
699.614	46809.25
699.96	46907.78
700.306	46866.65
700.651	46692.64
700.997	46715.92
701.342	46562.25
701.688	46519.77
702.033	46409.71
702.379	46357.06
702.724	46300.56
703.069	46403.16
703.415	45952.55
703.76	45840.91
704.105	46075.94
704.45	45958.42
704.795	45769.28
705.14	45657.19
705.485	45579.45
705.83	45440.47
706.175	45646.79
706.52	45660.58
706.865	45571.77
707.209	45546.01
707.554	45237.09
707.899	45497.87
708.243	45075.06
708.588	45115.51
708.932	44986.25
709.277	44918.45
709.621	44905.8
709.966	44638.91
710.31	44810.66
710.654	44612.92
710.998	44605.92
711.342	44694.05
711.687	44740.6
712.031	44527.28
712.375	44453.38
712.719	44531.12
713.063	44435.3
713.407	44507.62
713.75	44358.24
714.094	44321.41
714.438	44159.6
714.782	44278.24
715.125	43950.57
715.469	44023.56
715.812	43849.78
716.156	43774.75
716.499	43711.48
716.843	43840.51
717.186	43628.32
717.53	43833.28
717.873	43972.04
718.216	43681.2
718.559	43605.72
718.902	43292.51
719.246	43513.74
719.589	43289.79
719.932	43122.34
720.275	43266.07
720.617	43221.77
720.96	43206.63
721.303	43349.23
721.646	43362.56
721.989	43019.07
722.331	43294.77
722.674	43123.24
723.016	43171.38
723.359	42943.59
723.701	43024.04
724.044	42793.31
724.386	42621.11
724.729	42798.06
725.071	42621.11
725.413	42751.95
725.755	42694.56
726.097	42523.49
726.439	42448.91
726.782	42566.42
727.124	42758.28
727.465	42477.39
727.807	42601
728.149	42457.95
728.491	42465.63
728.833	42573.88
729.175	42167.34
729.516	42126.89
729.858	42106.77
730.199	42336.82
730.541	42092.99
730.882	42108.36
731.224	41938.64
731.565	41726.22
731.906	41998.75
732.248	42038.3
732.589	41930.73
732.93	41705.88
733.271	41799.21
733.612	41911.3
733.953	41950.39
734.294	41874.46
734.635	41624.53
734.976	41686.67
735.317	41644.87
735.658	41472.21
735.999	41495.04
736.339	41472.89
736.68	41442.61
737.021	41495.72
737.361	41278.77
737.702	41314.25
738.042	41137.99
738.383	41216.85
738.723	41281.71
739.063	41184.76
739.404	41288.26
739.744	41151.77
740.084	41182.5
740.424	41090.98
740.764	41067.03
741.104	41110.87
741.444	40863.64
741.784	40859.8
742.124	41068.16
742.464	40778.9
742.804	40908.84
743.143	40886.69
743.483	40724.89
743.823	40656.42
744.162	40696.64
744.502	40850.76
744.841	40588.62
745.181	40843.76
745.52	40585.01
745.86	40585.23
746.199	40611.9
746.538	40466.59
746.877	40603.76
747.216	40477.89
747.556	40528.74
747.895	40401.96
748.234	40157.9
748.573	40016.43
748.911	40192.02
749.25	40123.1
749.589	40091.01
749.928	40065.25
750.267	40094.62
750.605	39909.77
750.944	39779.15
751.283	39841.07
751.621	40009.2
751.96	39851.92
752.298	39699.38
752.636	39756.55
752.975	39502.77
753.313	39369.67
753.651	39535.77
753.989	39391.14
754.327	39345.94
754.666	39072.73
755.004	39125.61
755.342	39243.12
755.679	39195.89
756.017	38969.68
756.355	39141.43
756.693	38979.85
757.031	38938.27
757.368	38674.1
