Data from copper_heatsink_FLMS001491_065.txt Node
Date: Tue Feb 07 10:50:22 GMT 2017
User: dcchb
Spectrometer: FLMS00149
Trigger mode: 0
Integration Time (sec): 2.000000E-2
Scans to average: 10
Electric dark correction enabled: true
Nonlinearity correction enabled: false
Boxcar width: 0
XAxis mode: Wavelengths
Number of Pixels in Spectrum: 2048
>>>>>Begin Spectral Data<<<<<
341.393	-14.08
341.776	-14.08
342.16	-14.08
342.543	-52.05
342.927	-61.54
343.31	-75.77
343.693	-80.07
344.077	-55.44
344.46	-57.47
344.843	-61.31
345.226	-15.66
345.61	-33.06
345.993	-14.53
346.376	-14.76
346.759	6.71
347.142	30.44
347.525	51.68
347.908	38.57
348.291	69.76
348.674	91.9
349.057	119.02
349.44	109.76
349.823	137.78
350.206	162.41
350.588	194.95
350.971	213.03
351.354	218.23
351.737	242.18
352.119	239.7
352.502	262.52
352.884	258.91
353.267	271.11
353.65	297.1
354.032	305.68
354.414	308.17
354.797	287.61
355.179	351.78
355.562	321.28
355.944	312.92
356.326	322.18
356.709	317.89
357.091	331.9
357.473	323.31
357.855	320.82
358.238	328.06
358.62	343.65
359.002	335.29
359.384	335.29
359.766	337.1
360.148	329.41
360.53	327.83
360.912	352.69
361.294	327.83
361.676	323.99
362.057	344.78
362.439	313.59
362.821	311.11
363.203	331.45
363.584	307.49
363.966	292.58
364.348	341.39
364.729	318.57
365.111	343.42
365.493	330.54
365.874	328.96
366.256	303.65
366.637	313.59
367.019	334.16
367.4	319.24
367.781	303.88
368.163	317.66
368.544	328.73
368.925	323.08
369.306	307.72
369.688	308.62
370.069	321.28
370.45	301.84
370.831	324.89
371.212	303.2
371.593	322.18
371.974	313.59
372.355	287.15
372.736	302.52
373.117	317.21
373.498	308.17
373.879	324.67
374.26	304.33
374.641	323.31
375.021	311.33
375.402	316.31
375.783	323.99
376.163	323.99
376.544	351.11
376.925	330.99
377.305	321.28
377.686	331.9
378.066	334.84
378.447	318.79
378.827	337.77
379.208	338.68
379.588	328.28
379.968	327.83
380.349	334.61
380.729	343.42
381.109	332.12
381.489	321.5
381.87	330.32
382.25	335.51
382.63	338.9
383.01	341.16
383.39	348.39
383.77	337.1
384.15	348.85
384.53	352.24
384.91	339.58
385.29	349.75
385.67	332.8
386.049	342.97
386.429	342.52
386.809	352.91
387.189	355.85
387.568	341.62
387.948	341.39
388.328	353.14
388.707	338.23
389.087	361.95
389.466	364.21
389.846	354.04
390.225	356.3
390.605	359.24
390.984	365.12
391.363	360.82
391.743	364.67
392.122	362.18
392.501	373.48
392.881	369.19
393.26	343.42
393.639	369.41
394.018	347.26
394.397	364.67
394.776	415.96
395.155	365.57
395.534	369.19
395.913	367.15
396.292	362.86
396.671	384.33
397.05	398.56
397.429	375.06
397.808	380.94
398.186	390.65
398.565	387.26
398.944	412.8
399.323	390.43
399.701	378
400.08	392.01
400.458	364.67
400.837	379.35
401.215	401.05
401.594	415.29
401.972	398.34
402.351	371.9
402.729	410.09
403.107	391.11
403.486	399.47
403.864	406.92
404.242	396.98
404.62	404.21
404.999	405.79
405.377	402.63
405.755	411.9
406.133	411.22
406.511	403.99
406.889	420.48
407.267	390.43
407.645	400.37
408.023	419.81
408.401	427.71
408.779	415.51
409.156	439.47
409.534	431.33
409.912	414.16
410.29	417.77
410.667	427.04
411.045	433.82
411.422	418.68
411.8	430.43
412.178	429.97
412.555	444.44
412.933	450.99
413.31	434.27
413.687	448.28
414.065	456.64
414.442	445.79
414.819	453.93
415.197	468.84
415.574	454.38
415.951	460.26
416.328	470.88
416.705	469.97
417.082	469.97
417.46	469.07
417.837	494.15
418.214	483.31
418.591	470.65
418.967	472.69
419.344	460.48
419.721	486.02
420.098	454.15
420.475	454.61
420.852	490.09
421.228	479.01
421.605	498
421.982	505.23
422.358	491.67
422.735	512.91
423.111	494.83
423.488	513.14
423.864	486.02
424.241	488.28
424.617	492.57
424.994	505.68
425.37	515.17
425.746	522.18
426.123	513.36
426.499	501.16
426.875	520.14
427.251	526.92
427.627	518.33
428.003	532.12
428.379	538.9
428.756	536.64
429.132	554.27
429.507	557.43
429.883	546.13
430.259	550.42
430.635	579.12
431.011	556.98
431.387	589.97
431.763	570.31
432.138	581.61
432.514	562.17
432.89	574.38
433.265	585.22
433.641	582.51
434.016	566.69
434.392	592.68
434.767	611.66
435.143	590.2
435.518	585
435.894	613.92
436.269	602.85
436.644	600.59
437.02	606.47
437.395	622.96
437.77	616.64
438.145	622.06
438.52	652.12
438.895	623.87
439.271	633.81
439.646	652.57
440.021	661.15
440.395	645.79
440.77	618.67
441.145	644.66
441.52	651.89
441.895	622.51
442.27	654.6
442.645	668.39
443.019	681.95
443.394	656.86
443.769	642.4
444.143	655.96
444.518	689.85
444.892	657.99
445.267	663.41
445.641	684.21
446.016	691.44
446.39	701.38
446.764	715.39
447.139	695.73
447.513	699.8
447.887	707.03
448.262	699.57
448.636	713.58
449.01	716.07
449.384	696.86
449.758	699.12
450.132	725.33
450.506	726.92
450.88	727.14
451.254	738.89
451.628	718.78
452.002	756.97
452.376	731.66
452.75	741.83
453.123	769.17
453.497	767.82
453.871	744.77
454.244	779.34
454.618	778.89
454.992	770.76
455.365	778.67
455.739	803.52
456.112	799.46
456.486	814.82
456.859	828.38
457.232	842.62
457.606	832.68
457.979	823.18
458.352	839.23
458.725	875.84
459.099	859.79
459.472	860.25
459.845	854.37
460.218	866.12
460.591	898.21
460.964	899.57
461.337	903.18
461.71	926.23
462.083	923.29
462.456	943.63
462.829	928.27
463.201	938.66
463.574	921.94
463.947	940.47
464.32	971.2
464.692	979.56
465.065	963.75
465.438	1008.72
465.81	990.64
466.183	995.61
466.555	988.83
466.928	1032.22
467.3	1026.12
467.672	1061.14
468.045	1040.35
468.417	1073.12
468.789	1075.38
469.161	1084.87
469.534	1082.61
469.906	1111.09
470.278	1119
470.65	1129.39
471.022	1119.9
471.394	1173.01
471.766	1145.44
472.138	1177.07
472.51	1184.76
472.882	1192.67
473.253	1227.92
473.625	1225.43
473.997	1269.05
474.369	1290.29
474.74	1287.81
475.112	1295.94
475.484	1283.96
475.855	1327.13
476.227	1339.33
476.598	1380.91
476.97	1398.76
477.341	1419.55
477.713	1427.46
478.084	1445.09
478.455	1465.65
478.827	1476.95
479.198	1514.01
479.569	1533.45
479.94	1561.02
480.311	1596.27
480.682	1591.07
481.053	1638.76
481.424	1635.59
481.795	1670.62
482.166	1676.95
482.537	1703.16
482.908	1707.68
483.279	1749.94
483.65	1780.45
484.021	1800.33
484.391	1824.29
484.762	1862.93
485.133	1860.67
485.503	1906.32
485.874	1902.93
486.244	1945.19
486.615	1929.6
486.985	1983.61
487.356	2011.18
487.726	2026.32
488.097	2041.68
488.467	2080.1
488.837	2139.99
489.207	2154.67
489.578	2171.4
489.948	2196.71
490.318	2238.51
490.688	2201.45
491.058	2274.9
491.428	2278.74
491.798	2303.82
492.168	2337.72
492.538	2342.47
492.908	2357.83
493.278	2402.13
493.648	2426.98
494.017	2477.6
494.387	2475.57
494.757	2481.67
495.126	2505.63
495.496	2522.12
495.866	2537.04
496.235	2561.67
496.605	2596.02
496.974	2583.36
497.344	2630.14
497.713	2675.79
498.082	2666.53
498.452	2687.32
498.821	2717.15
499.19	2725.96
499.559	2758.05
499.928	2776.81
500.298	2769.8
500.667	2793.75
501.036	2790.36
501.405	2847.31
501.774	2842.11
502.143	2856.13
502.512	2869.01
502.88	2894.09
503.249	2933.86
503.618	2963.24
503.987	2986.07
504.356	2988.1
504.724	2997.36
505.093	3045.27
505.462	3065.16
505.83	3069.23
506.199	3089.79
506.567	3106.29
506.936	3142.9
507.304	3188.55
507.672	3203.01
508.041	3181.99
508.409	3215.44
508.777	3271.48
509.145	3280.52
509.514	3315.1
509.882	3334.3
510.25	3339.95
510.618	3384.93
510.986	3357.36
511.354	3421.99
511.722	3432.61
512.09	3475.09
512.458	3471.7
512.826	3494.98
513.193	3527.75
513.561	3545.6
513.929	3580.63
514.297	3603.9
514.664	3677.8
515.032	3660.62
515.4	3650.91
515.767	3692.26
516.135	3696.56
516.502	3718.25
516.869	3782.43
517.237	3780.39
517.604	3812.26
517.972	3840.96
518.339	3870.56
518.706	3870.11
519.073	3926.83
519.44	3953.72
519.808	3971.35
520.175	3965.93
520.542	4055.64
520.909	4070.1
521.276	4047.73
521.643	4149.88
522.009	4158.01
522.376	4118.24
522.743	4215.41
523.11	4285.69
523.477	4335.41
523.843	4377.89
524.21	4386.25
524.577	4386.03
524.943	4423.77
525.31	4505.12
525.676	4517.55
526.043	4544.44
526.409	4562.52
526.776	4626.02
527.142	4616.08
527.508	4656.3
527.874	4719.13
528.241	4734.27
528.607	4754.15
528.973	4793.02
529.339	4797.77
529.705	4879.8
530.071	4957.54
530.437	4920.7
530.803	4922.06
531.169	4976.52
531.535	5006.35
531.901	5025.79
532.267	5079.12
532.632	5136.29
532.998	5071.89
533.364	5149.4
533.73	5161.6
534.095	5237.98
534.461	5202.28
534.826	5262.39
535.192	5275.27
535.557	5326.79
535.923	5388.94
536.288	5429.84
536.653	5429.84
537.019	5478.66
537.384	5475.49
537.749	5508.71
538.114	5573.34
538.479	5568.37
538.845	5622.38
539.21	5592.32
539.575	5646.33
539.94	5671.64
540.305	5712.55
540.67	5712.77
541.034	5756.39
541.399	5734.92
541.764	5823.28
542.129	5849.27
542.494	5863.05
542.858	5902.37
543.223	5865.54
543.587	5984.86
543.952	6023.5
544.316	6024.86
544.681	6021.69
545.045	6078.41
545.41	6092.2
545.774	6145.76
546.138	6157.51
546.503	6199.99
546.867	6185.53
547.231	6336.26
547.595	6320.22
547.959	6303.27
548.324	6407.67
548.688	6443.83
549.052	6479.31
549.416	6532.19
549.779	6522.7
550.143	6571.96
550.507	6628.46
550.871	6663.48
551.235	6679.75
551.599	6779.41
551.962	6774.21
552.326	6873.87
552.689	6903.7
553.053	6896.47
553.417	6947.77
553.78	7093.08
554.143	7069.8
554.507	7168.1
554.87	7116.8
555.234	7267.08
555.597	7293.07
555.96	7314.09
556.323	7396.12
556.686	7438.83
557.05	7599.73
557.413	7570.8
557.776	7597.92
558.139	7759.95
558.502	7768.99
558.865	7872.26
559.228	7896.67
559.59	7974.18
559.953	8064.58
560.316	8134.86
560.679	8179.83
561.041	8190
561.404	8342.31
561.767	8420.72
562.129	8442.19
562.492	8599.48
562.854	8582.75
563.217	8707.95
563.579	8775.29
563.941	8903.2
564.304	8973.7
564.666	9067.26
565.028	9169.18
565.39	9234.04
565.753	9296.18
566.115	9413.47
566.477	9455.95
566.839	9531.2
567.201	9635.38
567.563	9711.99
567.925	9804.87
568.287	9870.18
568.648	9969.16
569.01	10025.43
569.372	10123.73
569.734	10141.81
570.095	10259.77
570.457	10364.63
570.819	10440.78
571.18	10488.92
571.542	10694.56
571.903	10685.07
572.265	10812.98
572.626	10868.12
572.987	10910.38
573.349	10972.52
573.71	11155.79
574.071	11257.03
574.432	11342.23
574.794	11471.49
575.155	11463.36
575.516	11552.17
575.877	11723.46
576.238	11719.85
576.599	11850.24
576.96	11863.8
577.32	11925.27
577.681	12066.28
578.042	12255.88
578.403	12219.95
578.763	12221.98
579.124	12261.53
579.485	12487.51
579.845	12471.92
580.206	12441.86
580.566	12549.43
580.927	12631.91
581.287	12722.98
581.648	12723.66
582.008	12802.08
582.368	12869.87
582.728	12871
583.089	12948.74
583.449	13106.48
583.809	13116.87
584.169	13110.55
584.529	13125.91
584.889	13306.25
585.249	13310.31
585.609	13287.04
585.969	13507.37
586.329	13470.54
586.688	13513.7
587.048	13572.91
587.408	13531.1
587.768	13655.39
588.127	13648.61
588.487	13638.21
588.846	13780.13
589.206	13799.57
589.565	13913.69
589.925	13934.93
590.284	13905.33
590.643	13950.97
591.003	13928.6
591.362	14178.09
591.721	14120.01
592.08	14285.88
592.44	14258.76
592.799	14283.17
593.158	14339.67
593.517	14388.25
593.876	14404.3
594.235	14433.45
594.593	14506.21
594.952	14590.96
595.311	14509.6
595.67	14661.24
596.029	14768.81
596.387	14769.03
596.746	14780.33
597.104	14758.19
597.463	14758.86
597.822	14883.61
598.18	14852.65
598.538	14941.46
598.897	15006.77
599.255	14950.95
599.613	15201.56
599.972	15082.02
600.33	15210.83
600.688	15134.22
601.046	15237.72
601.404	15362.69
601.762	15378.28
602.12	15430.03
602.478	15443.82
602.836	15454.66
603.194	15437.26
603.552	15532.4
603.91	15433.2
604.268	15701.89
604.625	15618.05
604.983	15661.89
605.341	15724.26
605.698	15837.71
606.056	15914.77
606.413	15915.22
606.771	15897.82
607.128	16032.5
607.485	15917.7
607.843	16032.95
608.2	16178.71
608.557	16201.76
608.914	16273.4
609.272	16281.31
609.629	16251.48
609.986	16395.88
610.343	16431.59
610.7	16620.74
611.057	16581.87
611.414	16573.73
611.771	16581.19
612.127	16740.28
612.484	16605.59
612.841	16694.86
613.198	16738.02
613.554	16692.6
613.911	16891.69
614.267	16840.16
614.624	17000.39
614.98	16891.24
615.337	17097.33
615.693	16957
616.05	17014.62
616.406	17252.36
616.762	17197.44
617.118	17123.32
617.475	17229.08
617.831	17264.79
618.187	17356.31
618.543	17456.87
618.899	17402.86
619.255	17512.69
619.611	17530.32
619.967	17566.47
620.323	17636.98
620.678	17637.43
621.034	17527.38
621.39	17675.4
621.746	17748.16
622.101	17895.28
622.457	17756.98
622.812	17777.77
623.168	17916.52
623.523	17921.94
623.879	17945.9
624.234	17865
624.589	17916.52
624.945	17983.64
625.3	18020.25
625.655	17981.15
626.01	18059.12
626.365	18069.74
626.72	18073.13
627.075	18028.61
627.43	18112.9
627.785	18045.33
628.14	18121.26
628.495	18197.19
628.85	18094.37
629.205	18039.91
629.559	18294.82
629.914	18199.9
630.269	18141.37
630.623	18130.07
630.978	18211.65
631.332	18296.17
631.687	18274.48
632.041	18234.25
632.396	18340.92
632.75	18247.13
633.104	18322.16
633.459	18256.4
633.813	18213.01
634.167	18235.83
634.521	18164.42
634.875	18287.36
635.229	18363.74
635.583	18255.27
635.937	18291.2
636.291	18266.12
636.645	18336.62
636.999	18287.13
637.352	18445.77
637.706	18272.9
638.06	18327.13
638.413	18346.57
638.767	18380.24
639.121	18390.41
639.474	18236.29
639.828	18287.58
640.181	18341.82
640.534	18379.56
640.888	18385.89
641.241	18254.59
641.594	18243.07
641.947	18344.08
642.301	18299.11
642.654	18417.98
643.007	18358.99
643.36	18394.25
643.713	18428.37
644.066	18560.12
644.419	18349.5
644.771	18106.35
645.124	18012.56
645.477	17934.6
645.83	17833.13
646.182	17859.35
646.535	17932.11
646.888	17922.85
647.24	17859.57
647.593	17978.44
647.945	17975.5
648.298	17927.37
648.65	17881.04
649.002	17889.85
649.355	17915.62
649.707	17841.27
650.059	17890.53
650.411	18103.18
650.763	18136.18
651.115	18375.04
651.467	18346.79
651.819	18330.97
652.171	18329.62
652.523	18432.89
652.875	18313.57
653.227	18178.21
653.578	18401.71
653.93	18426.34
654.282	18257.08
654.633	18237.64
654.985	18307.7
655.337	18450.07
655.688	18302.72
656.039	18415.04
656.391	18286.45
656.742	18416.17
657.094	18391.08
657.445	18429.95
657.796	18357.41
658.147	18330.07
658.498	18372.78
658.849	18487.8
659.2	18388.37
659.551	18430.86
659.902	18397.64
660.253	18379.56
660.604	18491.19
660.955	18344.53
661.306	18489.61
661.656	18462.27
662.007	18521.02
662.358	18481.93
662.708	18504.75
663.059	18526.22
663.409	18405.55
663.76	18514.7
664.11	18577.75
664.461	18619.33
664.811	18607.12
665.161	18569.38
665.511	18551.08
665.862	18592.21
666.212	18626.33
666.562	18712.66
666.912	18576.84
667.262	18635.37
667.612	18583.85
667.962	18685.09
668.312	18596.5
668.662	18802.6
669.011	18620.91
669.361	18686.22
669.711	18687.35
670.06	18801.47
670.41	18640.57
670.76	18680.12
671.109	18714.69
671.459	18739.55
671.808	18721.47
672.157	18774.35
672.507	18611.42
672.856	18700.91
673.205	18701.13
673.554	18788.81
673.904	18693.9
674.253	18796.27
674.602	18802.82
674.951	18522.15
675.3	18463.85
675.649	18737.06
675.998	18783.84
676.346	18852.99
676.695	18930.28
677.044	18791.75
677.393	18751.75
677.741	18779.55
678.09	18792.88
678.438	18880.11
678.787	18829.04
679.135	18890.05
679.484	18778.19
679.832	18914.91
680.181	18698.19
680.529	18741.58
680.877	18673.56
681.225	18728.02
681.573	18824.75
681.922	18637.63
682.27	18684.41
682.618	18673.11
682.966	18644.86
683.314	18726.67
683.661	18688.03
684.009	18676.27
684.357	18558.54
684.705	18591.08
685.053	18580.01
685.4	18625.88
685.748	18493.91
686.095	18605.32
686.443	18511.53
686.79	18358.99
687.138	18546.79
687.485	18609.84
687.832	18511.99
688.18	18590.4
688.527	18410.97
688.874	18421.37
689.221	18347.24
689.568	18298.21
689.915	18374.59
690.262	18399.45
690.609	18291.2
690.956	18333.46
691.303	18232.9
691.65	18227.7
691.997	18209.39
692.344	18207.36
692.69	18216.17
693.037	18125.33
693.383	18050.75
693.73	18107.25
694.077	17968.95
694.423	18001.72
694.769	18001.72
695.116	18019.79
695.462	17938.89
695.808	17845.79
696.155	17905.67
696.501	17827.71
696.847	17837.88
697.193	17696.19
697.539	17804.21
697.885	17672.23
698.231	17696.64
698.577	17662.06
698.923	17653.7
699.269	17548.39
699.614	17531.22
699.96	17548.39
700.306	17496.87
700.651	17464.1
700.997	17462.97
701.342	17397.21
701.688	17441.96
702.033	17377.55
702.379	17393.82
702.724	17336.42
703.069	17357.89
703.415	17143.21
703.76	17226.6
704.105	17219.59
704.45	17102.76
704.795	17117.67
705.14	17052.36
705.485	17070.22
705.83	17066.37
706.175	17008.3
706.52	16957
706.865	16905.02
707.209	16873.61
707.554	16884.68
707.899	16896.43
708.243	16831.13
708.588	16827.28
708.932	16719.49
709.277	16674.07
709.621	16779.83
709.966	16697.34
710.31	16731.24
710.654	16623.67
710.998	16690.56
711.342	16638.81
711.687	16665.48
712.031	16573.5
712.375	16499.16
712.719	16617.57
713.063	16387.97
713.407	16546.39
713.75	16529.21
714.094	16489.89
714.438	16349.56
714.782	16430.91
715.125	16351.82
715.469	16375.77
715.812	16332.83
716.156	16312.95
716.499	16338.03
716.843	16308.65
717.186	16225.72
717.53	16258.71
717.873	16174.87
718.216	16208.32
718.559	16138.94
718.902	16146.85
719.246	16180.75
719.589	16091.94
719.932	16073.41
720.275	16090.13
720.617	16075.44
720.96	16177.58
721.303	16013.52
721.646	16050.13
721.989	16045.61
722.331	16068.21
722.674	15981.43
723.016	15954.99
723.359	15993.86
723.701	15999.28
724.044	15945.27
724.386	15779.85
724.729	15898.49
725.071	15831.38
725.413	15883.58
725.755	15790.25
726.097	15804.03
726.439	15821.21
726.782	15785.95
727.124	15794.99
727.465	15774.43
727.807	15770.81
728.149	15842.22
728.491	15754.54
728.833	15766.29
729.175	15757.48
729.516	15784.15
729.858	15719.97
730.199	15767.42
730.541	15801.1
730.882	15775.79
731.224	15726.07
731.565	15628.9
731.906	15670.93
732.248	15710.48
732.589	15702.79
732.93	15604.49
733.271	15570.14
733.612	15618.5
733.953	15690.59
734.294	15630.7
734.635	15632.29
734.976	15631.16
735.317	15584.15
735.658	15523.14
735.999	15521.1
736.339	15504.83
736.68	15563.36
737.021	15481.56
737.361	15439.52
737.702	15497.15
738.042	15516.36
738.383	15510.03
738.723	15523.14
739.063	15453.31
739.404	15421.67
739.744	15328.79
740.084	15408.34
740.424	15535.57
740.764	15441.33
741.104	15449.01
741.444	15392.52
741.784	15316.36
742.124	15395.68
742.464	15388.45
742.804	15319.07
743.143	15365.85
743.483	15401.11
743.823	15320.66
744.162	15226.87
744.502	15329.7
744.841	15179.19
745.181	15307.55
745.52	15224.16
745.86	15288.34
746.199	15186.87
746.538	15113.2
746.877	15176.93
747.216	15238.17
747.556	15097.39
747.895	15209.7
748.234	15129.7
748.573	15114.79
748.911	15094.22
749.25	15109.14
749.589	15073.66
749.928	15189.81
750.267	15068.69
750.605	15058.29
750.944	14933.55
751.283	14867.34
751.621	14940.1
751.96	14831.4
752.298	14802.03
752.636	14887.22
752.975	14887.67
753.313	14835.7
753.651	14906.88
753.989	14760.22
754.327	14828.47
754.666	14758.86
755.004	14769.48
755.342	14765.64
755.679	14705.76
756.017	14697.4
756.355	14738.98
756.693	14729.03
757.031	14748.69
757.368	14587.57
757.706	14633.67
758.044	14625.31
758.381	14663.27
758.719	14548.7
759.056	14655.36
759.394	14571.98
759.731	14399.55
760.068	14449.94
760.405	14402.71
