Data from copper_heatsink_FLMS001491_006.txt Node
Date: Tue Feb 07 10:49:04 GMT 2017
User: dcchb
Spectrometer: FLMS00149
Trigger mode: 0
Integration Time (sec): 2.000000E-2
Scans to average: 10
Electric dark correction enabled: true
Nonlinearity correction enabled: false
Boxcar width: 0
XAxis mode: Wavelengths
Number of Pixels in Spectrum: 2048
>>>>>Begin Spectral Data<<<<<
341.393	-3.46
341.776	-3.46
342.16	-3.46
342.543	-63.8
342.927	-66.06
343.31	-69
343.693	-47.75
344.077	-51.59
344.46	-60.41
344.843	-48.2
345.226	-54.31
345.61	-30.13
345.993	-17.25
346.376	-5.04
346.759	5.13
347.142	31.12
347.525	35.18
347.908	59.59
348.291	82.41
348.674	70.66
349.057	99.59
349.44	119.47
349.823	127.84
350.206	154.05
350.588	250.54
350.971	241.28
351.354	265.91
351.737	275.4
352.119	271.56
352.502	305.68
352.884	324.21
353.267	303.42
353.65	333.25
354.032	317.89
354.414	337.1
354.797	344.1
355.179	363.99
355.562	384.33
355.944	367.15
356.326	366.93
356.709	374.61
357.091	373.25
357.473	398.56
357.855	388.39
358.238	389.52
358.62	364.67
359.002	392.01
359.384	400.6
359.766	380.94
360.148	399.69
360.53	375.29
360.912	383.87
361.294	381.61
361.676	366.93
362.057	394.27
362.439	362.63
362.821	370.09
363.203	388.39
363.584	375.29
363.966	368.28
364.348	373.93
364.729	360.15
365.111	357.43
365.493	389.07
365.874	368.51
366.256	377.32
366.637	370.77
367.019	359.92
367.4	371.22
367.781	356.53
368.163	370.32
368.544	360.37
368.925	390.2
369.306	369.19
369.688	388.85
370.069	387.26
370.45	361.73
370.831	379.35
371.212	350.88
371.593	360.82
371.974	372.12
372.355	385.23
372.736	380.71
373.117	396.76
373.498	410.54
373.879	368.73
374.26	391.78
374.641	365.34
375.021	386.36
375.402	373.48
375.783	390.43
376.163	388.62
376.544	416.87
376.925	394.72
377.305	377.32
377.686	422.07
378.066	391.11
378.447	399.92
378.827	401.27
379.208	400.14
379.588	399.92
379.968	386.13
380.349	411.9
380.729	395.63
381.109	410.09
381.489	434.27
381.87	430.43
382.25	408.96
382.63	430.88
383.01	429.97
383.39	444.89
383.77	422.97
384.15	430.2
384.53	432.23
384.91	445.79
385.29	434.72
385.67	437.66
386.049	460.93
386.429	435.85
386.809	449.86
387.189	466.58
387.568	452.57
387.948	459.35
388.328	439.69
388.707	467.94
389.087	469.52
389.466	461.16
389.846	469.97
390.225	456.64
390.605	467.26
390.984	479.46
391.363	492.35
391.743	474.04
392.122	484.89
392.501	522.4
392.881	506.81
393.26	492.57
393.639	513.14
394.018	503.19
394.397	502.06
394.776	532.34
395.155	514.49
395.534	518.33
395.913	511.78
396.292	496.87
396.671	522.85
397.05	519.01
397.429	540.03
397.808	544.55
398.186	541.84
398.565	528.73
398.944	529.18
399.323	536.64
399.701	536.64
400.08	549.75
400.458	553.36
400.837	533.7
401.215	547.71
401.594	574.15
401.972	567.6
402.351	551.1
402.729	581.38
403.107	577.54
403.486	575.06
403.864	585
404.242	595.62
404.62	578.22
404.999	571.44
405.377	580.93
405.755	597.43
406.133	615.28
406.511	610.08
406.889	649.63
407.267	625.68
407.645	611.44
408.023	623.64
408.401	634.94
408.779	644.21
409.156	655.28
409.534	640.36
409.912	643.75
410.29	665
410.667	667.48
411.045	682.17
411.422	666.35
411.8	669.52
412.178	688.05
412.555	705.22
412.933	726.01
413.31	706.58
413.687	703.19
414.065	726.69
414.442	736.41
414.819	719.46
415.197	761.49
415.574	743.64
415.951	744.09
416.328	742.06
416.705	766.01
417.082	765.56
417.46	765.33
417.837	771.21
418.214	784.32
418.591	787.25
418.967	789.29
419.344	773.47
419.721	794.71
420.098	804.43
420.475	818.66
420.852	790.19
421.228	801.49
421.605	824.99
421.982	825.22
422.358	817.99
422.735	828.16
423.111	850.3
423.488	833.58
423.864	858.89
424.241	878.1
424.617	891.43
424.994	893.47
425.37	900.24
425.746	891.21
426.123	884.43
426.499	891.66
426.875	914.71
427.251	944.76
427.627	917.19
428.003	937.76
428.379	971.66
428.756	935.72
429.132	983.63
429.507	983.86
429.883	988.15
430.259	990.64
430.635	990.64
431.011	1033.35
431.387	1038.55
431.763	1045.33
432.138	1034.7
432.514	1061.6
432.89	1065.89
433.265	1105.44
433.641	1084.87
434.016	1098.21
434.392	1129.62
434.767	1147.24
435.143	1128.26
435.518	1149.73
435.894	1136.17
436.269	1130.52
436.644	1160.12
437.02	1196.51
437.395	1174.59
437.77	1203.74
438.145	1199.67
438.52	1236.51
438.895	1186.11
439.271	1229.95
439.646	1252.55
440.021	1241.7
440.395	1247.58
440.77	1265.66
441.145	1293
441.52	1295.71
441.895	1273.57
442.27	1315.6
442.645	1295.71
443.019	1306.79
443.394	1288.03
443.769	1319.22
444.143	1310.18
444.518	1323.51
444.892	1363.74
445.267	1354.92
445.641	1370.29
446.016	1385.66
446.39	1388.14
446.764	1372.77
447.139	1378.2
447.513	1373.23
447.887	1416.84
448.262	1409.38
448.636	1403.96
449.01	1430.63
449.384	1443.96
449.758	1471.53
450.132	1465.2
450.506	1461.81
450.88	1497.97
451.254	1486.9
451.628	1475.37
452.002	1496.16
452.376	1542.04
452.75	1531.64
453.123	1531.19
453.497	1576.16
453.871	1588.14
454.244	1620.23
454.618	1627.01
454.992	1613.9
455.365	1634.69
455.739	1651.19
456.112	1698.87
456.486	1688.7
456.859	1678.76
457.232	1762.59
457.606	1770.73
457.979	1776.61
458.352	1769.83
458.725	1834.91
459.099	1823.61
459.472	1897.05
459.845	1860.45
460.218	1879.88
460.591	1934.57
460.964	1904.51
461.337	1938.86
461.71	1951.97
462.083	1963.04
462.456	1976.15
462.829	2007.11
463.201	2057.95
463.574	2057.05
463.947	2101.12
464.32	2117.61
464.692	2147.22
465.065	2122.13
465.438	2171.4
465.81	2194.67
466.183	2238.06
466.555	2273.99
466.928	2292.07
467.3	2294.33
467.672	2281
468.045	2348.79
468.417	2373.2
468.789	2363.94
469.161	2428.34
469.534	2459.98
469.906	2502.46
470.278	2526.42
470.65	2554.89
471.022	2581.33
471.394	2593.53
471.766	2634.21
472.138	2651.84
472.51	2693.87
472.882	2755.56
473.253	2750.59
473.625	2819.06
473.997	2893.19
474.369	2883.02
474.74	2936.58
475.112	2954.43
475.484	2978.83
475.855	3016.8
476.227	3093.18
476.598	3183.57
476.97	3149.68
477.341	3259.28
477.713	3323.91
478.084	3311.93
478.455	3401.65
478.827	3448.65
479.198	3524.81
479.569	3554.19
479.94	3596.67
480.311	3621.76
480.682	3704.92
481.053	3787.85
481.424	3846.16
481.795	3879.83
482.166	3950.11
482.537	3984.68
482.908	4026.72
483.279	4098.35
483.65	4156.88
484.021	4226.26
484.391	4280.72
484.762	4338.12
485.133	4367.95
485.503	4375.41
485.874	4530.43
486.244	4540.6
486.615	4611.11
486.985	4661.28
487.356	4724.55
487.726	4781.72
488.097	4878.45
488.467	4894.26
488.837	4957.09
489.207	5041.83
489.578	5136.07
489.948	5153.92
490.318	5231.66
490.688	5220.13
491.058	5321.15
491.428	5358.21
491.798	5441.37
492.168	5503.51
492.538	5543.29
492.908	5595.04
493.278	5625.09
493.648	5740.34
494.017	5799.1
494.387	5786.22
494.757	5848.36
495.126	5945.54
495.496	5965.2
495.866	6020.56
496.235	6040.45
496.605	6155.7
496.974	6103.5
497.344	6190.5
497.713	6210.16
498.082	6348.24
498.452	6338.07
498.821	6355.24
499.19	6428.01
499.559	6455.13
499.928	6491.96
500.298	6538.51
500.667	6658.74
501.036	6620.09
501.405	6671.17
501.774	6683.82
502.143	6739.64
502.512	6809.24
502.88	6860.09
503.249	6883.14
503.618	6991.16
503.987	6950.03
504.356	7046.3
504.724	7133.3
505.093	7184.37
505.462	7178.27
505.83	7227.76
506.199	7342.56
506.567	7303.24
506.936	7331.49
507.304	7398.6
507.672	7490.13
508.041	7514.76
508.409	7643.12
508.777	7628.66
509.145	7748.43
509.514	7761.08
509.882	7825.71
510.25	7824.36
510.618	7951.36
510.986	7961.53
511.354	8004.24
511.722	8099.6
512.09	8119.72
512.458	8137.34
512.826	8291.69
513.193	8317.45
513.561	8341.18
513.929	8375.08
514.297	8493.04
514.664	8587.27
515.032	8640.15
515.4	8646.26
515.767	8707.95
516.135	8746.82
516.502	8767.83
516.869	8940.26
517.237	8933.71
517.604	8957.66
517.972	9143.87
518.339	9141.61
518.706	9198.56
519.073	9274.26
519.44	9342.28
519.808	9395.61
520.175	9463.41
520.542	9591.09
520.909	9634.25
521.276	9722.61
521.643	9791.08
522.009	9899.78
522.376	9978.88
522.743	9997.41
523.11	10156.95
523.477	10285.99
523.843	10323.95
524.21	10408.92
524.577	10535.47
524.943	10620.44
525.31	10654.56
525.676	10751.96
526.043	10847.55
526.409	10886.2
526.776	11028.11
527.142	11068.11
527.508	11158.28
527.874	11252.74
528.241	11313.53
528.607	11343.36
528.973	11529.8
529.339	11564.82
529.705	11633.07
530.071	11720.75
530.437	11866.51
530.803	11976.56
531.169	12002.1
531.535	11998.71
531.901	12093.17
532.267	12150.12
532.632	12266.5
532.998	12363.22
533.364	12471.47
533.73	12506.49
534.095	12752.14
534.461	12742.65
534.826	12760.05
535.192	12840.5
535.557	12959.36
535.923	13019.02
536.288	13089.08
536.653	13147.15
537.019	13208.4
537.384	13291.56
537.749	13343.08
538.114	13492
538.479	13523.64
538.845	13561.83
539.21	13641.15
539.575	13679.12
539.94	13782.84
540.305	13934.48
540.67	14016.74
541.034	14048.37
541.399	14184.19
541.764	14247.92
542.129	14290.18
542.494	14347.8
542.858	14466.67
543.223	14569.49
543.587	14644.52
543.952	14714.34
544.316	14799.77
544.681	14767.9
545.045	14953.89
545.41	15093.54
545.774	15127.22
546.138	15289.02
546.503	15353.2
546.867	15380.54
547.231	15515.23
547.595	15653.53
547.959	15756.13
548.324	15756.58
548.688	15842.45
549.052	16031.6
549.416	16165.83
549.779	16210.58
550.143	16304.81
550.507	16525.82
550.871	16552.04
551.235	16613.05
551.599	16923.33
551.962	16938.47
552.326	17066.15
552.689	17307.27
553.053	17200.16
553.417	17378.68
553.78	17741.16
554.143	17637.43
554.507	17851.21
554.87	18006.24
555.234	18262.05
555.597	18210.98
555.96	18431.31
556.323	18691.64
556.686	18805.54
557.05	18971.63
557.413	19036.27
557.776	19324.17
558.139	19437.16
558.502	19560.09
558.865	19761.67
559.228	19958.95
559.59	20165.73
559.953	20317.36
560.316	20672.38
560.679	20766.84
561.041	21028.3
561.404	21245.02
561.767	21454.05
562.129	21588.97
562.492	21870.99
562.854	21998.9
563.217	22258.1
563.579	22482.28
563.941	22668.71
564.304	22930.85
564.666	23184.86
565.028	23401.35
565.39	23663.94
565.753	23911.17
566.115	24087.21
566.477	24399.51
566.839	24711.82
567.201	24975.54
567.563	25123.56
567.925	25427.96
568.287	25613.72
568.648	25774.39
569.01	26038.79
569.372	26416.18
569.734	26534.82
570.095	26908.15
570.457	27159.67
570.819	27486.66
571.18	27690.05
571.542	28080.1
571.903	28103.82
572.265	28527.99
572.626	28769.34
572.987	29071.03
573.349	29339.5
573.71	29564.12
574.071	29722.54
574.432	30046.6
574.794	30550.99
575.155	30607.49
575.516	30760.93
575.877	31030.98
576.238	31334.47
576.599	31590.74
576.96	31793.44
577.32	31896.49
577.681	32242.7
578.042	32427.1
578.403	32872.06
578.763	32920.42
579.124	33143.69
579.485	33466.62
579.845	33745.48
580.206	33855.99
580.566	34057.11
580.927	34326.94
581.287	34603.31
581.648	34713.59
582.008	34960.82
582.368	35017.77
582.728	35150.19
583.089	35314.48
583.449	35654.13
583.809	35806.67
584.169	35943.39
584.529	36162.82
584.889	36603.94
585.249	36545.86
585.609	36563.49
585.969	37084.38
586.329	37099.97
586.688	37377.48
587.048	37393.75
587.408	37614.31
587.768	37794.19
588.127	37860.4
588.487	38054.52
588.846	38459.03
589.206	38482.08
589.565	38458.13
589.925	38891.11
590.284	38919.36
590.643	39175.62
591.003	39353.47
591.362	39631.2
591.721	39598.44
592.08	39908.48
592.44	40185.09
592.799	40147.35
593.158	40217.85
593.517	40406.1
593.876	40434.8
594.235	40628.24
594.593	40954.11
594.952	41050.15
595.311	41223.93
595.67	41477.48
596.029	41845.16
596.387	41924.48
596.746	42071.37
597.104	42062.1
597.463	42140.97
597.822	42548.64
598.18	42618.92
598.538	42839.48
598.897	43087.84
599.255	42750.22
599.613	43493.93
599.972	43412.35
600.33	43686.92
600.688	43550.87
601.046	43920.58
601.404	44188.37
601.762	44257.52
602.12	44441.92
602.478	44656.83
602.836	44871.07
603.194	44696.83
603.552	44791.29
603.91	45024.96
604.268	45322.35
604.625	45398.28
604.983	45519.86
605.341	45522.12
605.698	45913.98
606.056	46166.63
606.413	46311.93
606.771	46545.82
607.128	46640.06
607.485	46552.15
607.843	46705.82
608.2	47120.05
608.557	47324.56
608.914	47170.21
609.272	47608.62
609.629	47759.13
609.986	47939.91
610.343	47796.64
610.7	48179.45
611.057	48348.26
611.414	48436.17
611.771	48483.17
612.127	48692.21
612.484	48783.96
612.841	48952.54
613.198	48922.71
613.554	48920.45
613.911	49359.31
614.267	49358.18
614.624	49552.75
614.98	49742.35
615.337	49935.34
615.693	50046.3
616.05	50203.58
616.406	50386.63
616.762	50226.86
617.118	50447.64
617.475	50542.78
617.831	50726.96
618.187	50828.2
618.543	51050.56
618.899	51204.01
619.255	51203.78
619.611	51246.72
619.967	51402.19
620.323	51622.53
620.678	51536.65
621.034	51575.3
621.39	51757.89
621.746	51752.47
622.101	52220.93
622.457	51941.39
622.812	52112.01
623.168	52286.24
623.523	52424.54
623.879	52535.5
624.234	52425.22
624.589	52604.2
624.945	52593.57
625.3	52724.42
625.655	52818.88
626.01	52889.61
626.365	52946.33
626.72	53014.13
627.075	53051.42
627.43	53203.28
627.785	53151.07
628.14	53265.42
628.495	53354.01
628.85	53347.91
629.205	53193.11
629.559	53450.28
629.914	53429.48
630.269	53527.34
630.623	53466.09
630.978	53510.84
631.332	53639.87
631.687	53819.31
632.041	53740.44
632.396	53781.11
632.75	53827.67
633.104	53850.94
633.459	53819.31
633.813	53867.21
634.167	53895.69
634.521	53975.69
634.875	54059.75
635.229	54090.26
635.583	53962.13
635.937	54090.71
636.291	54096.13
636.645	54131.39
636.999	54097.26
637.352	54270.37
637.706	54102.46
638.06	54271.95
638.413	54252.74
638.767	54263.59
639.121	54323.7
639.474	54305.39
639.828	54405.96
640.181	54471.72
640.534	54497.93
640.888	54410.25
641.241	54322.12
641.594	54410.25
641.947	54581.32
642.301	54465.62
642.654	54517.14
643.007	54605.05
643.36	54745.83
643.713	54668.77
644.066	54897.69
644.419	54623.13
644.771	54249.35
645.124	54065.4
645.477	54134.33
645.83	53931.62
646.182	53972.97
646.535	54090.71
646.888	54228.11
647.24	54191.95
647.593	54484.6
647.945	54437.37
648.298	54342.68
648.65	54417.93
649.002	54399.18
649.355	54435.33
649.707	54373.19
650.059	54416.58
650.411	54836.45
650.763	54851.82
651.115	55176.56
651.467	55193.51
651.819	55194.41
652.171	55185.82
652.523	55238.48
652.875	55180.4
653.227	55080.52
653.578	55377.23
653.93	55276.67
654.282	55217.01
654.633	55298.59
654.985	55392.37
655.337	55433.95
655.688	55468.53
656.039	55538.81
656.391	55355.31
656.742	55433.05
657.094	55549.43
657.445	55702.65
657.796	55626.49
658.147	55568.19
658.498	55599.15
658.849	55746.26
659.2	55684.57
659.551	55701.29
659.902	55835.75
660.253	55733.15
660.604	55760.95
660.955	55737.45
661.306	55837.33
661.656	55881.17
662.007	55967.95
662.358	55888.86
662.708	55979.7
663.059	55919.14
663.409	55840.04
663.76	56030.77
664.11	56078.68
664.461	56174.27
664.811	56165.68
665.161	56120.04
665.511	56139.24
665.862	56172.92
666.212	56318.22
666.562	56356.19
666.912	56350.99
667.262	56288.39
667.612	56381.05
667.962	56435.96
668.312	56418.11
668.662	56483.42
669.011	56463.08
669.361	56530.65
669.711	56537.88
670.06	56522.96
670.41	56574.49
670.76	56591.21
671.109	56708.27
671.459	56643.19
671.808	56651.77
672.157	56713.01
672.507	56633.47
672.856	56612.68
673.205	56669.17
673.554	56770.19
673.904	56691.32
674.253	56850.19
674.602	56776.52
674.951	56449.74
675.3	56386.92
675.649	56870.07
675.998	56874.14
676.346	56930.86
676.695	57049.95
677.044	56820.81
677.393	56973.35
677.741	56961.6
678.09	56899
678.438	56785.1
678.787	57001.14
679.135	56951.43
679.484	56892.22
679.832	56982.39
680.181	56768.15
680.529	56931.77
680.877	56866
681.225	56920.47
681.573	57112.78
681.922	56957.53
682.27	56944.65
682.618	56975.15
682.966	56942.84
683.314	57069.39
683.661	56923.86
684.009	56870.3
684.357	56874.59
684.705	56866.91
685.053	56917.98
685.4	56998.2
685.748	56882.28
686.095	56889.73
686.443	56922.27
686.79	56787.81
687.138	56773.8
687.485	56887.93
687.832	56792.56
688.18	56796.18
688.527	56772.22
688.874	56820.81
689.221	56752.34
689.568	56634.82
689.915	56625.79
690.262	56599.57
690.609	56550.31
690.956	56606.12
691.303	56632.11
691.65	56479.35
691.997	56540.14
692.344	56453.36
692.69	56379.92
693.037	56449.97
693.383	56237.77
693.73	56389.86
694.077	56316.87
694.423	56390.09
694.769	56239.81
695.116	56221.5
695.462	56157.55
695.808	56068.06
696.155	56159.58
696.501	55978.57
696.847	56005.46
697.193	55798.01
697.539	55948.74
697.885	55726.15
698.231	55720.27
698.577	55745.36
698.923	55754.62
699.269	55689.54
699.614	55588.3
699.96	55605.25
700.306	55600.05
700.651	55567.73
700.997	55555.76
701.342	55514.63
701.688	55475.08
702.033	55397.57
702.379	55396.21
702.724	55360.51
703.069	55500.39
703.415	55181.98
703.76	55183.34
704.105	55263.34
704.45	55135.65
704.795	54983.12
705.14	55049.1
705.485	55056.33
705.83	54949.67
706.175	55015.66
706.52	55000.29
706.865	54814.53
707.209	54889.79
707.554	54815.21
707.899	54937.02
708.243	54855.89
708.588	54745.16
708.932	54657.25
709.277	54704.71
709.621	54749.45
709.966	54581.77
710.31	54652.96
710.654	54404.83
710.998	54495.45
711.342	54542
711.687	54470.36
712.031	54384.49
712.375	54370.25
712.719	54475.56
713.063	54312.63
713.407	54408.22
713.75	54327.31
714.094	54306.52
714.438	54198.05
714.782	54290.93
715.125	54078.51
715.469	54225.17
715.812	54090.48
716.156	54014.55
716.499	54083.25
716.843	54103.37
717.186	53972.3
717.53	54162.8
717.873	54084.38
718.216	53945.63
718.559	53948.57
718.902	53819.08
719.246	53986.98
719.589	53841.68
719.932	53742.02
720.275	53705.18
720.617	53782.7
720.96	53739.31
721.303	53823.37
721.646	53760.32
721.989	53591.06
722.331	53796.03
722.674	53655.02
723.016	53622.7
723.359	53576.83
723.701	53697.5
724.044	53470.39
724.386	53396.94
724.729	53628.8
725.071	53454.12
725.413	53554
725.755	53591.06
726.097	53394.46
726.439	53258.87
726.782	53338.19
727.124	53476.04
727.465	53312.88
727.807	53350.39
728.149	53289.83
728.491	53249.83
728.833	53295.25
729.175	53227
729.516	53181.58
729.858	53117.63
730.199	53210.51
730.541	53225.87
730.882	53193.78
731.224	53328.47
731.565	53055.48
731.906	53231.75
732.248	53304.97
732.589	53128.7
732.93	53053.45
733.271	53071.08
733.612	53044.18
733.953	53051.42
734.294	52991.53
734.635	52985.2
734.976	53136.16
735.317	52899.1
735.658	52961.93
735.999	52940.01
736.339	52975.03
736.68	53088.48
737.021	52962.83
737.361	52837.18
737.702	53109.95
738.042	52896.84
738.383	52800.35
738.723	52825.43
739.063	52806.9
739.404	52873.79
739.744	52828.14
740.084	52719.67
740.424	52818.43
740.764	52701.82
741.104	52727.36
741.444	52635.38
741.784	52638.32
742.124	52709.96
742.464	52514.25
742.804	52540.92
743.143	52471.32
743.483	52429.96
743.823	52397.87
744.162	52390.19
744.502	52452.79
744.841	52417.31
745.181	52553.58
745.52	52405.11
745.86	52516.51
746.199	52354.71
746.538	52229.74
746.877	52390.87
747.216	52542.5
747.556	52430.87
747.895	52388.61
748.234	52242.17
748.573	52249.18
748.911	52201.72
749.25	52216.86
749.589	52080.82
749.928	52190.42
750.267	52309.97
750.605	52176.86
750.944	52046.02
751.283	51973.7
751.621	52020.26
751.96	51769.42
752.298	51745.24
752.636	51765.35
752.975	51707.95
753.313	51651
753.651	51719.47
753.989	51554.51
754.327	51483.55
754.666	51416.43
755.004	51467.28
755.342	51504.79
755.679	51500.04
756.017	51292.37
