Data from copper_heatsink_FLMS001491_068.txt Node
Date: Tue Feb 07 10:50:22 GMT 2017
User: dcchb
Spectrometer: FLMS00149
Trigger mode: 0
Integration Time (sec): 2.000000E-2
Scans to average: 10
Electric dark correction enabled: true
Nonlinearity correction enabled: false
Boxcar width: 0
XAxis mode: Wavelengths
Number of Pixels in Spectrum: 2048
>>>>>Begin Spectral Data<<<<<
341.393	-20.35
341.776	-20.35
342.16	-20.35
342.543	-61.26
342.927	-68.03
343.31	-73.68
343.693	-83.4
344.077	-72.33
344.46	-53.8
344.843	-59
345.226	-27.36
345.61	-34.82
345.993	-19.22
346.376	-1.6
346.759	1.79
347.142	14.45
347.525	46.99
347.908	56.48
348.291	87.67
348.674	105.52
349.057	112.3
349.44	117.5
349.823	140.77
350.206	157.27
350.588	189.81
350.971	182.58
351.354	213.99
351.737	231.39
352.119	231.62
352.502	257.61
352.884	289.02
353.267	280.88
353.65	281.56
354.032	289.92
354.414	288.11
354.797	313.42
355.179	314.78
355.562	330.37
355.944	328.11
356.326	330.6
356.709	335.57
357.091	342.58
357.473	345.29
357.855	340.99
358.238	345.97
358.62	335.8
359.002	327.89
359.384	357.94
359.766	335.34
360.148	344.16
360.53	336.25
360.912	352.97
361.294	327.21
361.676	327.89
362.057	315.23
362.439	322.01
362.821	322.46
363.203	299.64
363.584	314.33
363.966	308.23
364.348	326.3
364.729	343.71
365.111	310.49
365.493	343.25
365.874	321.33
366.256	319.3
366.637	325.85
367.019	331.5
367.4	307.1
367.781	298.28
368.163	303.03
368.544	306.64
368.925	310.26
369.306	310.26
369.688	317.27
370.069	315.01
370.45	330.37
370.831	293.76
371.212	324.27
371.593	315.01
371.974	303.93
372.355	300.54
372.736	301.22
373.117	313.42
373.498	302.12
373.879	308.68
374.26	311.84
374.641	318.17
375.021	308.23
375.402	291.96
375.783	313.42
376.163	328.34
376.544	322.01
376.925	325.63
377.305	296.48
377.686	312.97
378.066	320.88
378.447	328.11
378.827	304.61
379.208	309.81
379.588	315.01
379.968	324.72
380.349	329.47
380.729	304.61
381.109	342.12
381.489	323.37
381.87	338.06
382.25	328.11
382.63	328.11
383.01	326.3
383.39	319.3
383.77	350.49
384.15	343.93
384.53	329.92
384.91	340.32
385.29	339.64
385.67	320.88
386.049	350.03
386.429	331.28
386.809	346.42
387.189	356.59
387.568	345.29
387.948	334.21
388.328	355.23
388.707	348.9
389.087	336.47
389.466	348.9
389.846	356.59
390.225	341.45
390.605	378.96
390.984	351.62
391.363	348.68
391.743	366.98
392.122	342.12
392.501	344.61
392.881	367.43
393.26	366.08
393.639	359.75
394.018	376.25
394.397	385.06
394.776	364.72
395.155	380.09
395.534	371.95
395.913	371.28
396.292	385.29
396.671	384.83
397.05	387.09
397.429	398.85
397.808	377.6
398.186	389.81
398.565	385.29
398.944	364.27
399.323	378.51
399.701	378.06
400.08	400.43
400.458	357.26
400.837	410.14
401.215	401.11
401.594	356.81
401.972	381.44
402.351	403.14
402.729	390.71
403.107	387.55
403.486	409.47
403.864	373.99
404.242	397.72
404.62	414.44
404.999	398.62
405.377	402.91
405.755	397.04
406.133	426.42
406.511	416.02
406.889	426.87
407.267	415.34
407.645	423.25
408.023	400.2
408.401	412.4
408.779	409.24
409.156	437.26
409.534	406.3
409.912	427.77
410.29	410.82
410.667	434.78
411.045	425.51
411.422	423.48
411.8	426.87
412.178	445.4
412.555	457.37
412.933	438.17
413.31	456.92
413.687	425.74
414.065	469.58
414.442	453.31
414.819	469.8
415.197	463.48
415.574	444.27
415.951	444.04
416.328	460.76
416.705	463.7
417.082	469.8
417.46	456.7
417.837	482.23
418.214	455.34
418.591	475.45
418.967	453.53
419.344	489.69
419.721	469.8
420.098	484.49
420.475	489.69
420.852	482.46
421.228	495.11
421.605	500.76
421.982	489.24
422.358	491.72
422.735	486.98
423.111	498.05
423.488	507.54
423.864	472.97
424.241	505.96
424.617	485.17
424.994	496.02
425.37	493.76
425.746	533.08
426.123	521.33
426.499	519.97
426.875	510.71
427.251	520.65
427.627	544.38
428.003	530.14
428.379	536.92
428.756	527.66
429.132	535.34
429.507	551.84
429.883	536.02
430.259	530.82
430.635	535.57
431.011	542.34
431.387	538.73
431.763	560.65
432.138	562.46
432.514	573.08
432.89	572.63
433.265	587.32
433.641	578.73
434.016	555.68
434.392	589.12
434.767	599.52
435.143	574.89
435.518	603.81
435.894	606.75
436.269	595.9
436.644	626.64
437.02	628.44
437.395	616.92
437.77	609.01
438.145	630.03
438.52	631.61
438.895	635.68
439.271	609.01
439.646	632.29
440.021	648.56
440.395	628.22
440.77	674.54
441.145	631.83
441.52	656.01
441.895	643.58
442.27	658.95
442.645	691.27
443.019	667.31
443.394	666.64
443.769	647.2
444.143	645.17
444.518	676.58
444.892	671.61
445.267	667.76
445.641	673.41
446.016	684.49
446.39	668.44
446.764	694.2
447.139	700.76
447.513	705.5
447.887	698.72
448.262	695.56
448.636	672.96
449.01	701.44
449.384	707.99
449.758	731.27
450.132	720.42
450.506	715.67
450.88	744.6
451.254	736.24
451.628	744.6
452.002	766.52
452.376	740.08
452.75	732.85
453.123	762.68
453.497	773.98
453.871	753.64
454.244	776.01
454.618	783.69
454.992	780.3
455.365	792.06
455.739	795.22
456.112	801.55
456.486	836.12
456.859	808.78
457.232	836.35
457.606	825.73
457.979	830.02
458.352	848.1
458.725	858.95
459.099	832.05
459.472	893.3
459.845	872.51
460.218	860.53
460.591	881.32
460.964	871.6
461.337	890.81
461.71	918.61
462.083	921.77
462.456	909.34
462.829	922.9
463.201	946.18
463.574	951.83
463.947	948.21
464.32	978.72
464.692	972.62
465.065	974.2
465.438	967.87
465.81	971.94
466.183	1001.77
466.555	995.44
466.928	1031.82
467.3	1020.98
467.672	1052.84
468.045	1055.1
468.417	1086.28
468.789	1072.5
469.161	1102.56
469.534	1070.01
469.906	1113.63
470.278	1129.67
470.65	1109.79
471.022	1147.53
471.394	1163.57
471.766	1163.57
472.138	1182.1
472.51	1205.6
472.882	1205.15
473.253	1233.4
473.625	1220.97
473.997	1258.26
474.369	1274.75
474.74	1261.2
475.112	1287.64
475.484	1307.52
475.855	1308.2
476.227	1347.75
476.598	1376.22
476.97	1380.74
477.341	1408.99
477.713	1437.46
478.084	1405.82
478.455	1460.51
478.827	1495.31
479.198	1497.57
479.569	1511.13
479.94	1573.5
480.311	1540.28
480.682	1585.25
481.053	1619.6
481.424	1651.92
481.795	1655.76
482.166	1681.3
482.537	1676.78
482.908	1713.16
483.279	1707.29
483.65	1780.73
484.021	1815.76
484.391	1837.9
484.762	1832.93
485.133	1829.99
485.503	1870.67
485.874	1914.51
486.244	1934.85
486.615	1966.71
486.985	1982.08
487.356	2012.81
487.726	2009.2
488.097	2066.6
488.467	2088.97
488.837	2103.66
489.207	2167.84
489.578	2162.41
489.948	2202.19
490.318	2219.59
490.688	2237.44
491.058	2258.23
491.428	2278.34
491.798	2291.23
492.168	2342.75
492.538	2356.31
492.908	2371.9
493.278	2428.85
493.648	2393.14
494.017	2447.83
494.387	2507.26
494.757	2463.2
495.126	2524.21
495.496	2525.12
495.866	2560.6
496.235	2558.34
496.605	2567.15
496.974	2621.16
497.344	2643.76
497.713	2668.84
498.082	2669.52
498.452	2709.52
498.821	2729.18
499.19	2752.68
499.559	2738.67
499.928	2766.24
500.298	2810.53
500.667	2858.67
501.036	2816.18
501.405	2842.85
501.774	2839.23
502.143	2875.16
502.512	2900.7
502.88	2934.37
503.249	2944.77
503.618	2942.73
503.987	3018.21
504.356	3025.9
504.724	3011.21
505.093	3047.36
505.462	3088.04
505.83	3091.2
506.199	3066.35
506.567	3128.04
506.936	3136.17
507.304	3165.78
507.672	3222.5
508.041	3231.77
508.409	3210.97
508.777	3236.96
509.145	3311.99
509.514	3308.83
509.882	3302.72
510.25	3302.05
510.618	3358.32
510.986	3381.14
511.354	3431.99
511.722	3419.78
512.09	3490.52
512.458	3455.71
512.826	3514.47
513.193	3545.2
513.561	3582.72
513.929	3565.32
514.297	3619.55
514.664	3645.09
515.032	3632.43
515.4	3711.75
515.767	3706.78
516.135	3751.3
516.502	3670.17
516.869	3779.55
517.237	3814.12
517.604	3801.47
517.972	3837.63
518.339	3886.21
518.706	3904.52
519.073	3930.28
519.44	3928.92
519.808	3985.19
520.175	3997.39
520.542	4059.99
520.909	4098.41
521.276	4143.83
521.643	4143.83
522.009	4169.37
522.376	4223.6
522.743	4236.03
523.11	4267.9
523.477	4281.68
523.843	4341.11
524.21	4384.73
524.577	4408.23
524.943	4431.28
525.31	4466.99
525.676	4521.45
526.043	4534.56
526.409	4569.81
526.776	4572.3
527.142	4664.04
527.508	4651.16
527.874	4713.53
528.241	4703.59
528.607	4797.83
528.973	4761.44
529.339	4783.81
529.705	4902.46
530.071	4924.38
530.437	4947.65
530.803	4986.75
531.169	4961.89
531.535	5029.91
531.901	5013.19
532.267	5063.81
532.632	5062.68
532.998	5191.71
533.364	5140.42
533.73	5163.69
534.095	5230.58
534.461	5256.8
534.826	5293.41
535.192	5299.73
535.557	5365.95
535.923	5345.38
536.288	5414.08
536.653	5456.57
537.019	5440.52
537.384	5473.74
537.749	5581.31
538.114	5575.88
538.479	5585.38
538.845	5572.27
539.21	5576.56
539.575	5647.52
539.94	5655.88
540.305	5703.79
540.67	5752.15
541.034	5744.24
541.399	5787.4
541.764	5822.21
542.129	5830.12
542.494	5871.47
542.858	5906.95
543.223	5947.17
543.587	6012.03
543.952	5999.15
544.316	6013.16
544.681	6005.7
545.045	6057.23
545.41	6157.34
545.774	6167.73
546.138	6195.98
546.503	6243.21
546.867	6200.73
547.231	6305.81
547.595	6328.41
547.959	6353.04
548.324	6383.09
548.688	6388.52
549.052	6466.71
549.416	6522.07
549.779	6485.47
550.143	6621.96
550.507	6642.3
550.871	6694.95
551.235	6720.94
551.599	6800.94
551.962	6841.16
552.326	6823.08
552.689	6895.85
553.053	6854.95
553.417	6980.37
553.78	7080.48
554.143	7098.33
554.507	7157.99
554.87	7195.05
555.234	7261.49
555.597	7266.69
555.96	7289.51
556.323	7405.21
556.686	7470.3
557.05	7540.58
557.413	7550.97
557.776	7614.25
558.139	7741.25
558.502	7742.83
558.865	7841.14
559.228	8006.33
559.59	8000.91
559.953	8016.95
560.316	8188.47
560.679	8237.74
561.041	8224.85
561.404	8374.68
561.767	8464.85
562.129	8430.5
562.492	8598.4
562.854	8577.39
563.217	8663.49
563.579	8824.61
563.941	8924.72
564.304	8958.17
564.666	9033.87
565.028	9142.34
565.39	9217.37
565.753	9329.46
566.115	9361.32
566.477	9534.2
566.839	9516.8
567.201	9639.05
567.563	9669.11
567.925	9764.02
568.287	9862.1
568.648	9963.79
569.01	10016.67
569.372	10175.31
569.734	10223.45
570.095	10295.99
570.457	10390.45
570.819	10492.59
571.18	10601.74
571.542	10727.39
571.903	10689.42
572.265	10831.57
572.626	10865.01
572.987	10952.01
573.349	11025.23
573.71	11128.96
574.071	11279.69
574.432	11299.35
574.794	11476.75
575.155	11540.93
575.516	11575.73
575.877	11606.23
576.238	11715.38
576.599	11825.89
576.96	11883.29
577.32	11920.8
577.681	12061.59
578.042	12155.82
578.403	12154.92
578.763	12222.49
579.124	12347.23
579.485	12358.08
579.845	12534.8
580.206	12499.54
580.566	12600.78
580.927	12656.6
581.287	12706.54
581.648	12699.09
582.008	12852.3
582.368	12908.12
582.728	12890.04
583.089	12980.66
583.449	13045.07
583.809	13163.93
584.169	13226.08
584.529	13227.66
584.889	13344.49
585.249	13370.48
585.609	13314.89
585.969	13513.08
586.329	13476.47
586.688	13498.61
587.048	13563.02
587.408	13624.49
587.768	13584.94
588.127	13690.25
588.487	13734.09
588.846	13838.27
589.206	13813.18
589.565	13858.15
589.925	13938.83
590.284	13962.78
590.643	13920.07
591.003	14033.29
591.362	14189.67
591.721	14170.23
592.08	14111.03
592.44	14278.71
592.799	14298.37
593.158	14269.44
593.517	14308.08
593.876	14344.24
594.235	14351.7
594.593	14565.03
594.952	14546.95
595.311	14560.51
595.67	14590.56
596.029	14758.92
596.387	14720.05
596.746	14792.82
597.104	14753.27
597.463	14793.72
597.822	14926.15
598.18	14917.33
598.538	14833.27
598.897	15002.76
599.255	14927.28
599.613	15223.99
599.972	15138.8
600.33	15255.86
600.688	15161.62
601.046	15280.94
601.404	15310.09
601.762	15376.76
602.12	15360.71
602.478	15448.17
602.836	15548.96
603.194	15503.53
603.552	15495.62
603.91	15522.97
604.268	15676.18
604.625	15599.58
604.983	15703.98
605.341	15630.54
605.698	15841.15
606.056	15971.32
606.413	15891.09
606.771	15969.28
607.128	15971.32
607.485	16023.52
607.843	15967.7
608.2	16129.05
608.557	16110.97
608.914	16170.41
609.272	16268.71
609.629	16371.31
609.986	16360.69
610.343	16372.89
610.7	16476.61
611.057	16523.62
611.414	16562.49
611.771	16627.8
612.127	16691.3
612.484	16709.83
612.841	16711.41
613.198	16820.56
613.554	16715.93
613.911	16864.63
614.267	16958.18
614.624	16867.34
614.98	17000.89
615.337	17069.14
615.693	17115.02
616.05	17094.9
616.406	17212.19
616.762	17253.32
617.118	17212.41
617.475	17236.37
617.831	17277.95
618.187	17406.08
618.543	17310.04
618.899	17547.55
619.255	17530.82
619.611	17545.74
619.967	17569.02
620.323	17786.86
620.678	17539.19
621.034	17644.49
621.39	17675.45
621.746	17647.21
622.101	17814.66
622.457	17802.68
622.812	17903.7
623.168	17894.66
623.523	17907.54
623.879	17849.23
624.234	17797.48
624.589	17957.25
624.945	17948.67
625.3	17904.6
625.655	18046.52
626.01	18031.6
626.365	18079.74
626.72	18050.58
627.075	18027.76
627.43	18060.53
627.785	18107.53
628.14	18077.7
628.495	18156.8
628.85	18169.68
629.205	17977.82
629.559	18203.58
629.914	18164.03
630.269	18211.48
630.623	18224.59
630.978	18173.29
631.332	18280.86
631.687	18424.36
632.041	18310.69
632.396	18317.92
632.75	18360.86
633.104	18409.67
633.459	18293.29
633.813	18244.93
634.167	18316.34
634.521	18296.23
634.875	18388.2
635.229	18333.97
635.583	18172.39
635.937	18258.04
636.291	18273.63
636.645	18281.09
636.999	18341.42
637.352	18410.35
637.706	18322.67
638.06	18439.95
638.413	18224.14
638.767	18346.62
639.121	18214.65
639.474	18371.25
639.828	18252.84
640.181	18323.35
640.534	18447.86
640.888	18343.68
641.241	18312.72
641.594	18403.57
641.947	18390.91
642.301	18319.96
642.654	18408.77
643.007	18306.17
643.36	18405.6
643.713	18279.05
644.066	18550.01
644.419	18401.31
644.771	18226.4
645.124	18038.38
645.477	17912.96
645.83	17828.44
646.182	17924.71
646.535	17885.84
646.888	18011.72
647.24	17889.23
647.593	18013.07
647.945	17945.73
648.298	18006.29
648.65	17935.11
649.002	17874.77
649.355	18005.61
649.707	17831.83
650.059	17860.53
650.411	18006.29
650.763	18159.51
651.115	18437.47
651.467	18366.73
651.819	18456
652.171	18244.48
652.523	18329
652.875	18365.83
653.227	18282.89
653.578	18369.67
653.93	18399.5
654.282	18204.48
654.633	18243.57
654.985	18404.47
655.337	18373.29
655.688	18327.87
656.039	18486.51
656.391	18295.1
656.742	18278.15
657.094	18463.23
657.445	18473.17
657.796	18400.86
658.147	18440.63
658.498	18393.85
658.849	18448.31
659.2	18454.64
659.551	18333.74
659.902	18432.72
660.253	18422.55
660.604	18430.69
660.955	18427.75
661.306	18554.75
661.656	18461.42
662.007	18470.01
662.358	18472.95
662.708	18553.85
663.059	18524.7
663.409	18410.35
663.76	18608.76
664.11	18558.37
664.461	18595.88
664.811	18665.71
665.161	18525.83
665.511	18468.65
665.862	18626.16
666.212	18613.73
666.562	18690.34
666.912	18644.24
667.262	18626.61
667.612	18714.97
667.962	18738.25
668.312	18682.88
668.662	18768.53
669.011	18715.43
669.361	18670.46
669.711	18690.12
670.06	18708.42
670.41	18731.24
670.76	18628.87
671.109	18775.54
671.459	18733.96
671.808	18557.69
672.157	18694.64
672.507	18632.49
672.856	18678.59
673.205	18632.72
673.554	18877.23
673.904	18697.8
674.253	18832.49
674.602	18821.41
674.951	18460.07
675.3	18411.71
675.649	18754.52
675.998	18836.1
676.346	18916.1
676.695	18906.61
677.044	18807.17
677.393	18832.49
677.741	18845.14
678.09	18748.42
678.438	18724.47
678.787	18872.26
679.135	18852.6
679.484	18761.98
679.832	18883.78
680.181	18815.76
680.529	18801.75
680.877	18765.82
681.225	18751.58
681.573	18796.78
681.922	18693.05
682.27	18705.03
682.618	18800.17
682.966	18716.1
683.314	18796.1
683.661	18671.36
684.009	18602.66
684.357	18604.24
684.705	18596.33
685.053	18681.75
685.4	18553.85
685.748	18476.11
686.095	18545.71
686.443	18478.82
686.79	18562.66
687.138	18574.64
687.485	18591.14
687.832	18528.76
688.18	18492.38
688.527	18435.43
688.874	18485.6
689.221	18411.03
689.568	18328.32
689.915	18343.68
690.262	18404.93
690.609	18322.89
690.956	18284.25
691.303	18213.07
691.65	18184.59
691.997	18230.92
692.344	18194.08
692.69	18153.41
693.037	18174.88
693.383	18018.27
693.73	18129.9
694.077	18008.78
694.423	17982.34
694.769	17904.37
695.116	17933.53
695.462	17856.92
695.808	17832.96
696.155	17887.88
696.501	17694.44
696.847	17901.21
697.193	17803.13
697.539	17811.72
697.885	17693.53
698.231	17781.89
698.577	17670.03
698.923	17559.3
699.269	17550.48
699.614	17494.44
699.96	17511.62
700.306	17553.65
700.651	17497.6
700.997	17402.24
701.342	17393.2
701.688	17321.11
702.033	17261.9
702.379	17381.45
702.724	17395.69
703.069	17375.8
703.415	17142.36
703.76	17118.86
704.105	17170.61
704.45	17077.28
704.795	17082.02
705.14	17081.57
705.485	17015.58
705.83	16975.13
706.175	17061.68
706.52	16960.67
706.865	16977.84
707.209	16842.48
707.554	16848.36
707.899	16901.46
708.243	16817.4
708.588	16867.56
708.932	16693.11
709.277	16720
709.621	16755.25
709.966	16735.59
710.31	16658.3
710.654	16605.42
710.998	16713.9
711.342	16694.24
711.687	16581.92
712.031	16612.2
712.375	16513.45
712.719	16554.8
713.063	16496.28
713.407	16558.19
713.75	16475.71
714.094	16392.32
714.438	16421.47
714.782	16343.74
715.125	16379.22
715.469	16388.03
715.812	16342.16
716.156	16323.17
716.499	16254.7
716.843	16263.06
717.186	16276.62
717.53	16179.67
717.873	16286.56
718.216	16173.57
718.559	16160.24
718.902	16144.65
719.246	16192.78
719.589	16093.35
719.932	16064.87
720.275	16115.49
720.617	16088.15
720.96	16024.65
721.303	16107.81
721.646	16129.51
721.989	16011.32
722.331	16000.24
722.674	16039.11
723.016	16012.45
723.359	15907.36
723.701	16018.77
724.044	15901.26
724.386	15726.35
724.729	15876.86
725.071	15824.88
725.413	15819.46
725.755	15860.13
726.097	15820.81
726.439	15725.45
726.782	15777.65
727.124	15914.82
727.465	15770.87
727.807	15845.67
728.149	15790.76
728.491	15828.95
728.833	15774.26
729.175	15750.98
729.516	15720.7
729.858	15701.49
730.199	15733.58
730.541	15748.72
730.882	15729.74
731.224	15734.94
731.565	15689.74
731.906	15658.33
732.248	15614.72
732.589	15687.48
732.93	15655.85
733.271	15651.78
733.612	15687.48
733.953	15652.68
734.294	15613.13
734.635	15589.41
734.976	15650.2
735.317	15545.34
735.658	15539.01
735.999	15590.08
736.339	15501.73
736.68	15518.45
737.021	15509.63
737.361	15485.45
737.702	15496.53
738.042	15442.97
738.383	15434.16
738.723	15463.31
739.063	15415.63
739.404	15435.29
739.744	15374.27
740.084	15370.2
740.424	15490.2
740.764	15460.6
741.104	15452.01
741.444	15390.09
741.784	15421.05
742.124	15437.09
742.464	15413.37
742.804	15397.77
743.143	15418.79
743.483	15444.78
743.823	15281.84
744.162	15353.71
744.502	15289.75
744.841	15217.44
745.181	15251.11
745.52	15223.09
745.86	15173.37
746.199	15167.5
746.538	15233.48
746.877	15162.98
747.216	15173.15
747.556	15121.85
747.895	15131.79
748.234	15063.32
748.573	15134.28
748.911	15047.73
749.25	15049.08
749.589	15008.63
749.928	15101.51
750.267	14985.81
750.605	15045.01
750.944	15000.27
751.283	14931.12
751.621	15004.11
751.96	14908.29
752.298	14915.3
752.636	14835.08
752.975	14878.24
753.313	14805.02
753.651	14904.23
753.989	14734.29
754.327	14746.94
754.666	14809.54
755.004	14822.87
755.342	14823.78
755.679	14872.14
756.017	14653.61
756.355	14807.51
756.693	14727.73
757.031	14709.43
757.368	14605.93
757.706	14678.24
758.044	14604.8
758.381	14607.29
758.719	14574.29
759.056	14558.25
759.394	14474.63
759.731	14335.65
760.068	14502.88
760.405	14367.97
