Data from copper_heatsink_FLMS001491_085.txt Node
Date: Tue Feb 07 10:50:42 GMT 2017
User: dcchb
Spectrometer: FLMS00149
Trigger mode: 0
Integration Time (sec): 2.000000E-2
Scans to average: 10
Electric dark correction enabled: true
Nonlinearity correction enabled: false
Boxcar width: 0
XAxis mode: Wavelengths
Number of Pixels in Spectrum: 2048
>>>>>Begin Spectral Data<<<<<
341.393	-3.18
341.776	-3.18
342.16	-3.18
342.543	-43.4
342.927	-67.58
343.31	-56.74
343.693	-93.35
344.077	-60.58
344.46	-61.26
344.843	-40.92
345.226	-45.66
345.61	-34.82
345.993	-8.6
346.376	-31.43
346.759	-5.44
347.142	42.47
347.525	64.39
347.908	55.35
348.291	75.69
348.674	103.03
349.057	97.84
349.44	112.98
349.823	152.3
350.206	180.09
350.588	218.74
350.971	227.1
351.354	249.7
351.737	258.28
352.119	270.71
352.502	277.49
352.884	284.95
353.267	288.57
353.65	303.48
354.032	331.28
354.414	333.08
354.797	312.29
355.179	325.63
355.562	322.01
355.944	343.71
356.326	360.65
356.709	375.57
357.091	362.01
357.473	383.93
357.855	361.11
358.238	358.62
358.62	365.4
359.002	371.28
359.384	392.74
359.766	361.33
360.148	347.1
360.53	371.05
360.912	341.67
361.294	340.09
361.676	340.32
362.057	355.23
362.439	359.75
362.821	346.64
363.203	353.87
363.584	362.46
363.966	363.37
364.348	356.59
364.729	342.12
365.111	332.18
365.493	349.36
365.874	324.5
366.256	339.19
366.637	337.15
367.019	335.57
367.4	373.76
367.781	349.81
368.163	321.11
368.544	353.87
368.925	358.17
369.306	342.58
369.688	347.1
370.069	342.35
370.45	347.77
370.831	343.03
371.212	358.62
371.593	345.06
371.974	348.68
372.355	338.73
372.736	341.45
373.117	333.31
373.498	348.23
373.879	355
374.26	360.88
374.641	353.42
375.021	339.64
375.402	354.78
375.783	345.74
376.163	371.73
376.544	373.08
376.925	379.86
377.305	375.12
377.686	353.87
378.066	354.1
378.447	374.44
378.827	372.86
379.208	369.92
379.588	390.71
379.968	369.02
380.349	363.37
380.729	389.35
381.109	397.94
381.489	386.64
381.87	377.15
382.25	371.73
382.63	375.8
383.01	378.28
383.39	384.38
383.77	400.88
384.15	413.76
384.53	386.64
384.91	390.03
385.29	393.65
385.67	417.15
386.049	423.48
386.429	415.12
386.809	395.91
387.189	426.42
387.568	421.9
387.948	403.37
388.328	420.31
388.707	427.09
389.087	421.9
389.466	429.13
389.846	404.5
390.225	439.97
390.605	420.09
390.984	415.12
391.363	422.57
391.743	444.49
392.122	434.32
392.501	441.56
392.881	439.97
393.26	422.35
393.639	446.98
394.018	449.69
394.397	466.64
394.776	465.06
395.155	436.36
395.534	458.73
395.913	454.44
396.292	478.62
396.671	454.66
397.05	465.06
397.429	455.34
397.808	469.58
398.186	467.54
398.565	467.09
398.944	473.42
399.323	448.79
399.701	476.36
400.08	445.85
400.458	482.23
400.837	497.83
401.215	499.63
401.594	467.77
401.972	507.32
402.351	498.5
402.729	490.14
403.107	491.5
403.486	488.56
403.864	519.29
404.242	496.7
404.62	514.77
404.999	500.54
405.377	537.37
405.755	536.92
406.133	541.67
406.511	539.63
406.889	548.45
407.267	521.1
407.645	536.47
408.023	532.4
408.401	563.36
408.779	555.68
409.156	549.12
409.534	563.81
409.912	536.24
410.29	562.46
410.667	604.72
411.045	595.68
411.422	591.83
411.8	589.57
412.178	585.73
412.555	607.88
412.933	592.29
413.31	621.89
413.687	640.2
414.065	627.09
414.442	618.5
414.819	648.33
415.197	640.87
415.574	657.6
415.951	661.89
416.328	671.15
416.705	636.35
417.082	644.04
417.46	669.57
417.837	654.66
418.214	665.96
418.591	684.26
418.967	667.09
419.344	686.07
419.721	666.41
420.098	682.45
420.475	700.76
420.852	708.22
421.228	714.77
421.605	689.46
421.982	734.88
422.358	698.05
422.735	765.16
423.111	711.15
423.488	708.67
423.864	737.59
424.241	720.64
424.617	728.33
424.994	751.38
425.37	756.58
425.746	762.45
426.123	753.41
426.499	775.11
426.875	779.63
427.251	799.51
427.627	789.12
428.003	809
428.379	804.71
428.756	827.99
429.132	816.69
429.507	824.37
429.883	818.72
430.259	823.24
430.635	863.92
431.011	874.54
431.387	862.34
431.763	882.67
432.138	872.96
432.514	885.16
432.89	894.43
433.265	924.26
433.641	944.14
434.016	921.54
434.392	920.64
434.767	931.71
435.143	968.32
435.518	960.64
435.894	952.96
436.269	990.92
436.644	976.68
437.02	983.24
437.395	988.21
437.77	1016.46
438.145	1026.4
438.52	1034.53
438.895	1042.22
439.271	1047.19
439.646	1047.19
440.021	1047.64
440.395	1053.52
440.77	1049.9
441.145	1070.01
441.52	1089.67
441.895	1092.84
442.27	1103.46
442.645	1077.25
443.019	1091.93
443.394	1136.68
443.769	1127.64
444.143	1107.08
444.518	1104.82
444.892	1129.9
445.267	1155.89
445.641	1161.76
446.016	1190.69
446.39	1157.92
446.764	1169.67
447.139	1178.94
447.513	1198.37
447.887	1187.98
448.262	1187.07
448.636	1200.63
449.01	1217.81
449.384	1223
449.758	1232.27
450.132	1261.65
450.506	1252.61
450.88	1287.18
451.254	1260.29
451.628	1270.46
452.002	1291.7
452.376	1311.14
452.75	1313.4
453.123	1296
453.497	1347.97
453.871	1347.07
454.244	1355.43
454.618	1373.51
454.992	1395.2
455.365	1358.82
455.739	1410.12
456.112	1438.14
456.486	1441.53
456.859	1460.06
457.232	1479.04
457.606	1469.78
457.979	1496.67
458.352	1537.8
458.725	1523.11
459.099	1542.54
459.472	1583.45
459.845	1552.94
460.218	1621.86
460.591	1622.09
460.964	1630
461.337	1633.39
461.71	1669.09
462.083	1700.73
462.456	1685.37
462.829	1709.77
463.201	1702.54
463.574	1721.97
463.947	1777.79
464.32	1814.4
464.692	1808.53
465.065	1839.49
465.438	1839.49
465.81	1873.38
466.183	1866.38
466.555	1949.54
466.928	1925.13
467.3	1952.93
467.672	2011.01
468.045	2013.27
468.417	2010.33
468.789	2033.83
469.161	2060.95
469.534	2078.12
469.906	2119.48
470.278	2150.44
470.65	2169.65
471.022	2203.09
471.394	2255.97
471.766	2272.24
472.138	2264.79
472.51	2321.73
472.882	2363.77
473.253	2355.18
473.625	2396.76
473.997	2450.54
474.369	2450.09
474.74	2509.75
475.112	2528.73
475.484	2586.13
475.855	2596.75
476.227	2646.47
476.598	2707.03
476.97	2748.84
477.341	2739.35
477.713	2844.88
478.084	2845.11
478.455	2928.04
478.827	2902.06
479.198	3046.46
479.569	3056.63
479.94	3111.99
480.311	3118.1
480.682	3194.48
481.053	3258.21
481.424	3306.34
481.795	3317.64
482.166	3382.27
482.537	3456.39
482.908	3487.13
483.279	3543.17
483.65	3548.59
484.021	3674.47
484.391	3725.54
484.762	3712.88
485.133	3807.8
485.503	3810.06
485.874	3903.84
486.244	3955.81
486.615	3993.55
486.985	4059.09
487.356	4120.56
487.726	4140.44
488.097	4248.01
488.467	4287.33
488.837	4360.78
489.207	4431.51
489.578	4505.63
489.948	4519.64
490.318	4532.3
490.688	4555.57
491.058	4641.45
491.428	4716.92
491.798	4744.49
492.168	4848.22
492.538	4865.39
492.908	4934.09
493.278	5014.77
493.648	5022.9
494.017	5106.29
494.387	5166.4
494.757	5157.14
495.126	5243.69
495.496	5270.81
495.866	5322.11
496.235	5401.2
496.605	5411.14
496.974	5468.32
497.344	5474.42
497.713	5491.59
498.082	5633.28
498.452	5610.46
498.821	5663.11
499.19	5697.92
499.559	5717.8
499.928	5785.37
500.298	5837.12
500.667	5875.54
501.036	5844.35
501.405	5962.77
501.774	6017.91
502.143	6065.59
502.512	6129.99
502.88	6120.28
503.249	6172.7
503.618	6238.69
503.987	6283.44
504.356	6319.82
504.724	6356.88
505.093	6384.45
505.462	6427.61
505.83	6458.8
506.199	6482.3
506.567	6663.09
506.936	6614.95
507.304	6673.93
507.672	6830.09
508.041	6833.7
508.409	6862.86
508.777	6885
509.145	6974.27
509.514	6952.35
509.882	7059.01
510.25	7041.16
510.618	7096.52
510.986	7207.93
511.354	7242.51
511.722	7391.88
512.09	7374.03
512.458	7443.41
512.826	7444.31
513.193	7471.43
513.561	7602.05
513.929	7642.72
514.297	7754.36
514.664	7794.36
515.032	7860.57
515.4	7934.01
515.767	7950.51
516.135	7986.89
516.502	8017.18
516.869	8139.88
517.237	8197.06
517.604	8189.83
517.972	8331.29
518.339	8414.45
518.706	8429.37
519.073	8488.35
519.44	8483.38
519.808	8630.27
520.175	8591.4
520.542	8805.63
520.909	8882.69
521.276	8836.36
521.643	8993.42
522.009	9067.54
522.376	9168.78
522.743	9236.35
523.11	9316.13
523.477	9400.87
523.843	9478.61
524.21	9638.15
524.577	9659.17
524.943	9724.25
525.31	9825.04
525.676	9895.54
526.043	9959.05
526.409	10052.38
526.776	10127.86
527.142	10164.24
527.508	10282.2
527.874	10420.95
528.241	10457.34
528.607	10501.63
528.973	10611.68
529.339	10605.58
529.705	10817.33
530.071	10836.99
530.437	10886.48
530.803	11028.4
531.169	11102.29
531.535	11168.51
531.901	11218.9
532.267	11240.37
532.632	11450.08
532.998	11405.34
533.364	11551.77
533.73	11609.4
534.095	11719
534.461	11719.68
534.826	11904.98
535.192	11834.48
535.557	12006.45
535.923	11968.94
536.288	12112.21
536.653	12134.81
537.019	12217.29
537.384	12275.6
537.749	12354.01
538.114	12470.62
538.479	12511.75
538.845	12607.34
539.21	12598.75
539.575	12722.59
539.94	12805.98
540.305	12819.08
540.67	12922.81
541.034	13003.03
541.399	13164.16
541.764	13123.71
542.129	13350.82
542.494	13290.48
542.858	13372.97
543.223	13457.71
543.587	13516.01
543.952	13582.91
544.316	13687.76
544.681	13687.99
545.045	13863.58
545.41	13958.94
545.774	14068.99
546.138	14028.09
546.503	14212.04
546.867	14277.12
547.231	14399.61
547.595	14466.95
547.959	14578.13
548.324	14639.6
548.688	14724.8
549.052	14798.01
549.416	14910.78
549.779	15032.81
550.143	15115.97
550.507	15346.02
550.871	15306.7
551.235	15357.32
551.599	15553.7
551.962	15670.99
552.326	15791.89
552.689	15896.07
553.053	15998.44
553.417	16156.62
553.78	16216.28
554.143	16290.4
554.507	16499.21
554.87	16673.9
555.234	16760.45
555.597	16827.34
555.96	17055.58
556.323	17159.99
556.686	17211.74
557.05	17395.23
557.413	17629.13
557.776	17673.19
558.139	17991.38
558.502	18002.9
558.865	18155.67
559.228	18449.44
559.59	18555.88
559.953	18645.15
560.316	18917.45
560.679	18965.36
561.041	19220.72
561.404	19414.39
561.767	19667.72
562.129	19713.59
562.492	19902.06
562.854	20127.37
563.217	20092.34
563.579	20354.93
563.941	20632.21
564.304	20885.99
564.666	21022.26
565.028	21122.59
565.39	21368.24
565.753	21465.41
566.115	21837.83
566.477	22047.09
566.839	22235.79
567.201	22379.51
567.563	22555.78
567.925	22888.2
568.287	23024.92
568.648	23157.57
569.01	23410.44
569.372	23635.07
569.734	23760.94
570.095	23958.68
570.457	24267.14
570.819	24450.64
571.18	24529.28
571.542	24782.39
571.903	25034.58
572.265	25323.39
572.626	25509.82
572.987	25668.24
573.349	25779.42
573.71	26087.44
574.071	26273.65
574.432	26507.99
574.794	26810.58
575.155	26896.91
575.516	26911.82
575.877	27193.4
576.238	27307.06
576.599	27633.16
576.96	27788.63
577.32	27877.9
577.681	28062.3
578.042	28219.58
578.403	28392.91
578.763	28592
579.124	28840.81
579.485	29053.01
579.845	29078.77
580.206	29150.18
580.566	29388.14
580.927	29373.9
581.287	29736.38
581.648	29722.37
582.008	29971.63
582.368	30139.98
582.728	30238.96
583.089	30371.84
583.449	30509.01
583.809	30492.52
584.169	30767.54
584.529	30911.94
584.889	31161.43
585.249	31067.42
585.609	31209.56
585.969	31375.43
586.329	31354.19
586.688	31601.64
587.048	31599.16
587.408	31686.84
587.768	31676.67
588.127	31841.41
588.487	31977.45
588.846	32288.63
589.206	32092.93
589.565	32234.17
589.925	32551.45
590.284	32581.95
590.643	32721.61
591.003	32820.82
591.362	32968.16
591.721	33061.04
592.08	33048.61
592.44	33309.39
592.799	33360.24
593.158	33376.28
593.517	33443.17
593.876	33548.03
594.235	33749.61
594.593	33742.38
594.952	33862.82
595.311	33942.82
595.67	34104.17
596.029	34362.7
596.387	34494.67
596.746	34535.8
597.104	34474.11
597.463	34568.79
597.822	34807.66
598.18	34806.53
598.538	34837.04
598.897	35013.53
599.255	34809.92
599.613	35426.17
599.972	35357.47
600.33	35409
600.688	35526.51
601.046	35752.04
601.404	35965.37
601.762	35880.62
602.12	36187.73
602.478	36151.13
602.836	36269.31
603.194	36170.33
603.552	36362.87
603.91	36364.45
604.268	36724.22
604.625	36689.87
604.983	36800.37
605.341	36754.5
605.698	36987.04
606.056	37145.22
606.413	37163.3
606.771	37368.04
607.128	37457.53
607.485	37400.58
607.843	37571.2
608.2	37788.82
608.557	37956.73
608.914	37974.35
609.272	38205.31
609.629	38347.45
609.986	38530.27
610.343	38353.1
610.7	38786.99
611.057	38778.18
611.414	38734.33
611.771	38803.03
612.127	39074.21
612.484	39206.19
612.841	39350.82
613.198	39304.04
613.554	39406.86
613.911	39673.29
614.267	39763.01
614.624	39666.97
614.98	39811.59
615.337	40191.25
615.693	40095.2
616.05	40113.51
616.406	40483.89
616.762	40436.66
617.118	40544
617.475	40510.11
617.831	40738.58
618.187	40872.81
618.543	40978.34
618.899	41108.96
619.255	41099.47
619.611	41180.37
619.967	41347.83
620.323	41496.07
620.678	41600.47
621.034	41514.37
621.39	41581.49
621.746	41441.61
622.101	42039.56
622.457	41776.51
622.812	41977.87
623.168	42106.45
623.523	42129.95
623.879	42263.96
624.234	42155.71
624.589	42259.67
624.945	42274.13
625.3	42569.04
625.655	42533.33
626.01	42563.84
626.365	42574.91
626.72	42573.33
627.075	42550.28
627.43	42651.29
627.785	42701.24
628.14	42756.38
628.495	42791.63
628.85	43012.19
629.205	42790.5
629.559	43227.78
629.914	43017.84
630.269	43037.05
630.623	43065.07
630.978	43007.89
631.332	43215.35
631.687	43419.64
632.041	43189.58
632.396	43421.44
632.75	43206.08
633.104	43225.97
633.459	43222.8
633.813	43429.58
634.167	43343.25
634.521	43215.12
634.875	43477.94
635.229	43512.74
635.583	43285.4
635.937	43425.51
636.291	43313.2
636.645	43450.82
636.999	43490.37
637.352	43463.48
637.706	43432.06
638.06	43531.95
638.413	43511.38
638.767	43553.42
639.121	43593.87
639.474	43473.65
639.828	43375.34
640.181	43464.83
640.534	43583.47
640.888	43629.57
641.241	43464.15
641.594	43630.93
641.947	43588.44
642.301	43572.4
642.654	43574.66
643.007	43573.76
643.36	43595.68
643.713	43713.86
644.066	43785.05
644.419	43649.23
644.771	43498.05
645.124	43141.45
645.477	43208.79
645.83	42920.67
646.182	42694.23
646.535	42839.09
646.888	42969.93
647.24	42534.46
647.593	43014.67
647.945	42795.24
648.298	42700.11
648.65	42729.26
649.002	42576.95
649.355	42855.13
649.707	42801.35
650.059	43134.67
650.411	43495.79
650.763	43563.59
651.115	43974.42
651.467	43899.17
651.819	44001.09
652.171	43945.5
652.523	43867.31
652.875	43893.75
653.227	43799.96
653.578	44187.3
653.93	43962.22
654.282	43883.35
654.633	43843.58
654.985	44061.65
655.337	44000.64
655.688	44149.79
656.039	44330.57
656.391	43971.71
656.742	44085.83
657.094	44156.34
657.445	44417.35
657.796	44327.18
658.147	44096.45
658.498	44234.75
658.849	44330.35
659.2	44249.22
659.551	44300.06
659.902	44520.17
660.253	44460.74
660.604	44458.48
660.955	44374.64
661.306	44627.29
661.656	44543
662.007	44574.18
662.358	44689.43
662.708	44649.89
663.059	44636.55
663.409	44439.04
663.76	44806.27
664.11	44676.55
664.461	44762.65
664.811	44809.2
665.161	44897.11
665.511	44822.99
665.862	44815.08
666.212	44960.39
666.562	45214.84
666.912	45030.44
667.262	44873.38
667.612	45156.09
667.962	45037.22
668.312	44973.27
668.662	45230.66
669.011	45234.95
669.361	45209.87
669.711	45171.68
670.06	45258.91
670.41	45242.64
670.76	45271.79
671.109	45424.1
671.459	45398.79
671.808	45271.56
672.157	45518.11
672.507	45166.71
672.856	45256.87
673.205	45295.07
673.554	45530.77
673.904	45382.97
674.253	45650.99
674.602	45488.51
674.951	44966.04
675.3	44816.21
675.649	45540.26
675.998	45447.6
676.346	45659.12
676.695	45798.1
677.044	45563.99
677.393	45757.88
677.741	45752.23
678.09	45658.9
678.438	45684.21
678.787	45835.62
679.135	45833.36
679.484	45496.19
679.832	45713.81
680.181	45598.79
680.529	45660.71
680.877	45653.02
681.225	45635.4
681.573	45822.28
681.922	45664.32
682.27	45532.35
682.618	45602.85
682.966	45607.6
683.314	45620.03
683.661	45709.07
684.009	45460.71
684.357	45474.04
684.705	45438.34
685.053	45562.63
685.4	45529.64
685.748	45370.32
686.095	45288.51
686.443	45325.8
686.79	45484.67
687.138	45398.34
687.485	45276.54
687.832	45172.36
688.18	45267.27
688.527	45194.73
688.874	45076.99
689.221	45087.16
689.568	44950.44
689.915	44899.82
690.262	44990.44
690.609	44965.13
690.956	44954.51
691.303	44870.9
691.65	44794.97
691.997	44753.39
692.344	44413.96
692.69	44685.36
693.037	44691.47
693.383	44411.93
693.73	44571.47
694.077	44273.85
694.423	44338.93
694.769	44159.05
695.116	44322.21
695.462	44240.4
695.808	44098.49
696.155	44206.96
696.501	44092.61
696.847	43978.04
697.193	43771.94
697.539	43860.3
697.885	43736.01
698.231	43748.44
698.577	43714.32
698.923	43531.04
699.269	43431.16
699.614	43286.31
699.96	43151.17
700.306	43440.2
700.651	43229.81
700.997	43069.14
701.342	43116.37
701.688	43109.59
702.033	43004.5
702.379	43031.17
702.724	42863.72
703.069	43104.62
703.415	42538.3
703.76	42742.14
704.105	42720.44
704.45	42779.88
704.795	42511.86
705.14	42533.78
705.485	42505.99
705.83	42332.21
706.175	42512.09
706.52	42501.92
706.865	42332.21
707.209	42278.87
707.554	42089.27
707.899	42370.17
708.243	42150.97
708.588	42198.65
708.932	41960.92
709.277	41900.13
709.621	41816.51
709.966	41832.11
710.31	41970.63
710.654	41602.96
710.998	41710.98
711.342	41710.3
711.687	41711.66
712.031	41592.11
712.375	41685.22
712.719	41839.56
713.063	41623.52
713.407	41688.83
713.75	41502.4
714.094	41531.32
714.438	41299.46
714.782	41413.81
715.125	41244.33
715.469	41327.03
715.812	41278.67
716.156	40993.94
716.499	41060.15
716.843	41224.89
717.186	40958
717.53	41190.09
717.873	41281.84
718.216	41092.24
718.559	41001.17
718.902	40844.79
719.246	41105.8
719.589	40941.51
719.932	40667.39
720.275	40927.95
720.617	40832.81
720.96	40692.02
721.303	40726.37
721.646	40968.63
721.989	40646.6
722.331	41082.52
722.674	40763.89
723.016	40758.91
723.359	40759.37
723.701	40948.74
724.044	40603.21
724.386	40507.17
724.729	40601.86
725.071	40481.18
725.413	40603.89
725.755	40411.8
726.097	40257.68
726.439	40288.42
726.782	40306.5
727.124	40558.69
727.465	40273.28
727.807	40410.22
728.149	40206.39
728.491	40097.91
728.833	40191.7
729.175	40116.45
729.516	40051.81
729.858	39971.59
730.199	40106.28
730.541	40084.81
730.882	40061.98
731.224	40214.75
731.565	39998.48
731.906	40074.19
732.248	40180.62
732.589	40061.98
732.93	39956.22
733.271	40004.36
733.612	40080.74
733.953	40092.27
734.294	40025.37
734.635	39878.94
734.976	39852.5
735.317	39932.04
735.658	39698.38
735.999	39690.47
736.339	39841.65
736.68	39903.8
737.021	39751.93
737.361	39530.02
737.702	39735.89
738.042	39567.99
738.383	39599.62
738.723	39857.69
739.063	39690.02
739.404	39850.01
739.744	39700.18
740.084	39477.82
740.424	39744.25
740.764	39610.02
741.104	39912.16
741.444	39518.27
741.784	39560.98
742.124	39482.34
742.464	39542.9
742.804	39485.5
743.143	39509
743.483	39619.28
743.823	39342.45
744.162	39406.86
744.502	39396.69
744.841	39318.73
745.181	39456.58
745.52	39238.95
745.86	39432.85
746.199	39334.54
746.538	39407.99
746.877	39645.72
747.216	39298.84
747.556	39217.94
747.895	39269.69
748.234	39011.84
748.573	39156.24
748.911	39252.97
749.25	39255.9
749.589	39124.61
749.928	39151.95
750.267	39141.33
750.605	39053.2
750.944	38975.01
751.283	39020.43
751.621	39121.44
751.96	38813.88
752.298	38746.99
752.636	38700.21
752.975	38643.72
753.313	38562.59
753.651	38632.42
753.989	38448.47
754.327	38377.96
754.666	38352.65
755.004	38409.82
755.342	38515.36
755.679	38443.04
756.017	38082.15
756.355	38383.38
756.693	38120.34
