Data from copper_heatsink_FLMS001491_015.txt Node
Date: Tue Feb 07 10:49:18 GMT 2017
User: dcchb
Spectrometer: FLMS00149
Trigger mode: 0
Integration Time (sec): 2.000000E-2
Scans to average: 10
Electric dark correction enabled: true
Nonlinearity correction enabled: false
Boxcar width: 0
XAxis mode: Wavelengths
Number of Pixels in Spectrum: 2048
>>>>>Begin Spectral Data<<<<<
341.393	-2.42
341.776	-2.42
342.16	-2.42
342.543	-72.02
342.927	-55.97
343.31	-70.66
343.693	-58.91
344.077	-73.6
344.46	-55.52
344.843	-67.95
345.226	-51.91
345.61	-22.08
345.993	-1.74
346.376	-20.72
346.759	9.79
347.142	15.44
347.525	44.82
347.908	66.28
348.291	66.28
348.674	118.71
349.057	101.76
349.44	125.72
349.823	153.74
350.206	153.06
350.588	206.39
350.971	227.64
351.354	234.87
351.737	252.04
352.119	256.11
352.502	261.98
352.884	287.52
353.267	307.18
353.65	297.24
354.032	306.73
354.414	303.79
354.797	318.48
355.179	322.32
355.562	343.79
355.944	331.59
356.326	360.51
356.709	339.95
357.091	370.23
357.473	355.32
357.855	357.12
358.238	354.41
358.62	363
359.002	367.52
359.384	367.07
359.766	357.35
360.148	363.68
360.53	351.47
360.912	344.24
361.294	368.42
361.676	339.27
362.057	338.37
362.439	353.96
362.821	370.23
363.203	328.88
363.584	363
363.966	353.96
364.348	339.72
364.729	308.76
365.111	355.77
365.493	358.48
365.874	315.54
366.256	346.5
366.637	307.63
367.019	322.1
367.4	325.71
367.781	323.45
368.163	342.21
368.544	349.44
368.925	350.8
369.306	362.77
369.688	324.13
370.069	341.08
370.45	345.15
370.831	330.68
371.212	330.01
371.593	342.89
371.974	333.85
372.355	347.86
372.736	350.12
373.117	366.39
373.498	344.69
373.879	353.06
374.26	332.94
374.641	348.99
375.021	342.66
375.402	345.37
375.783	340.17
376.163	333.4
376.544	363.9
376.925	341.3
377.305	353.51
377.686	346.28
378.066	355.99
378.447	361.19
378.827	357.35
379.208	361.64
379.588	368.42
379.968	341.98
380.349	341.53
380.729	356.67
381.109	356.9
381.489	360.51
381.87	364.13
382.25	372.04
382.63	360.51
383.01	363.45
383.39	380.4
383.77	378.82
384.15	372.49
384.53	371.13
384.91	374.98
385.29	367.97
385.67	386.95
386.049	385.37
386.429	380.63
386.809	395.77
387.189	378.37
387.568	383.34
387.948	364.13
388.328	370.91
388.707	390.12
389.087	405.71
389.466	416.1
389.846	401.64
390.225	377.46
390.605	398.7
390.984	398.03
391.363	417.69
391.743	405.48
392.122	379.72
392.501	408.87
392.881	423.56
393.26	393.28
393.639	401.64
394.018	417.46
394.397	392.6
394.776	419.27
395.155	419.04
395.534	431.7
395.913	425.6
396.292	422.88
396.671	464.69
397.05	433.28
397.429	419.27
397.808	441.41
398.186	425.37
398.565	411.36
398.944	427.63
399.323	422.88
399.701	430.12
400.08	419.72
400.458	423.11
400.837	431.25
401.215	446.39
401.594	429.21
401.972	444.13
402.351	460.17
402.729	447.06
403.107	441.41
403.486	452.04
403.864	481.41
404.242	460.4
404.62	444.8
404.999	473.05
405.377	469.89
405.755	476.22
406.133	468.76
406.511	462.43
406.889	475.99
407.267	466.5
407.645	485.93
408.023	477.8
408.401	469.21
408.779	479.15
409.156	495.42
409.534	486.16
409.912	494.52
410.29	499.04
410.667	491.81
411.045	528.87
411.422	512.83
411.8	485.71
412.178	515.99
412.555	517.8
412.933	505.59
413.31	516.67
413.687	528.19
414.065	517.12
414.442	534.29
414.819	551.92
415.197	551.92
415.574	554.41
415.951	569.77
416.328	554.86
416.705	546.27
417.082	556.21
417.46	547.63
417.837	555.08
418.214	560.28
418.591	564.8
418.967	570.45
419.344	566.61
419.721	575.42
420.098	564.58
420.475	585.82
420.852	587.85
421.228	579.26
421.605	599.38
421.982	596.89
422.358	599.38
422.735	600.05
423.111	608.42
423.488	621.3
423.864	617
424.241	614.29
424.617	619.26
424.994	626.72
425.37	614.52
425.746	645.25
426.123	636.89
426.499	633.5
426.875	637.12
427.251	656.1
427.627	647.06
428.003	651.35
428.379	647.96
428.756	640.51
429.132	656.32
429.507	676.21
429.883	678.24
430.259	681.41
430.635	666.27
431.011	687.06
431.387	691.13
431.763	692.03
432.138	702.43
432.514	697.68
432.89	701.97
433.265	706.04
433.641	726.83
434.016	726.38
434.392	722.31
434.767	746.04
435.143	722.99
435.518	740.84
435.894	755.53
436.269	756.66
436.644	780.39
437.02	778.81
437.395	766.38
437.77	757.56
438.145	800.5
438.52	804.57
438.895	829.2
439.271	790.11
439.646	807.28
440.021	807.51
440.395	814.74
440.77	828.07
441.145	845.02
441.52	832.37
441.895	827.62
442.27	848.64
442.645	845.92
443.019	853.38
443.394	866.49
443.769	851.35
444.143	860.39
444.518	868.3
444.892	863.32
445.267	843.89
445.641	875.98
446.016	893.15
446.39	885.25
446.764	900.39
447.139	888.18
447.513	903.78
447.887	920.05
448.262	919.59
448.636	939.25
449.01	929.09
449.384	923.21
449.758	929.09
450.132	944
450.506	932.7
450.88	946.26
451.254	956.66
451.628	946.03
452.002	984.68
452.376	988.07
452.75	994.62
453.123	994.85
453.497	1012.93
453.871	1022.19
454.244	1026.26
454.618	1044.11
454.992	1062.42
455.365	1049.76
455.739	1061.06
456.112	1098.35
456.486	1118.23
456.859	1106.03
457.232	1129.31
457.606	1091.79
457.979	1122.3
458.352	1138.8
458.725	1153.26
459.099	1171.34
459.472	1165.92
459.845	1200.94
460.218	1185.35
460.591	1215.86
460.964	1235.74
461.337	1240.26
461.71	1266.25
462.083	1274.84
462.456	1289.08
462.829	1277.55
463.201	1302.86
463.574	1311
463.947	1301.28
464.32	1342.86
464.692	1370.43
465.065	1391.22
465.438	1379.92
465.81	1423.76
466.183	1409.98
466.555	1466.47
466.928	1438.45
467.3	1457.66
467.672	1447.04
468.045	1504.21
468.417	1521.61
468.789	1500.6
469.161	1552.8
469.534	1571.55
469.906	1587.37
470.278	1636.64
470.65	1626.47
471.022	1658.56
471.394	1669.41
471.766	1683.19
472.138	1708.5
472.51	1749.63
472.882	1772.23
473.253	1802.74
473.625	1805.9
473.997	1859.23
474.369	1874.82
474.74	1906.91
475.112	1902.39
475.484	1957.99
475.855	1985.33
476.227	2006.8
476.598	2047.93
476.97	2087.7
477.341	2106.23
477.713	2169.51
478.084	2185.55
478.455	2255.83
478.827	2273.01
479.198	2291.08
479.569	2304.64
479.94	2370.63
480.311	2401.36
480.682	2484.53
481.053	2485.2
481.424	2554.58
481.795	2567.69
482.166	2631.41
482.537	2647.68
482.908	2722.26
483.279	2720
483.65	2812.88
484.021	2825.31
484.391	2846.78
484.762	2892.88
485.133	2948.69
485.503	2973.78
485.874	3057.39
486.244	3112.76
486.615	3138.75
486.985	3164.96
487.356	3222.58
487.726	3262.58
488.097	3336.25
488.467	3371.96
488.837	3397.72
489.207	3474.33
489.578	3546.87
489.948	3531.5
490.318	3601.78
490.688	3655.34
491.058	3668
491.428	3726.75
491.798	3779.86
492.168	3875
492.538	3902.34
492.908	3953.64
493.278	3986.63
493.648	4028.21
494.017	4038.61
494.387	4148.44
494.757	4129
495.126	4218.94
495.496	4247.42
495.866	4274.53
496.235	4335.1
496.605	4347.53
496.974	4395.21
497.344	4443.34
497.713	4460.74
498.082	4514.08
498.452	4559.72
498.821	4661.42
499.19	4641.08
499.559	4677.01
499.928	4722.66
500.298	4740.96
500.667	4781.41
501.036	4832.03
501.405	4872.48
501.774	4862.32
502.143	4969.21
502.512	5000.39
502.88	5046.04
503.249	5082.65
503.618	5080.84
503.987	5147.73
504.356	5179.37
504.724	5209.43
505.093	5267.5
505.462	5251.91
505.83	5307.95
506.199	5399.48
506.567	5445.8
506.936	5476.31
507.304	5545.91
507.672	5565.57
508.041	5640.15
508.409	5638.11
508.777	5739.35
509.145	5767.38
509.514	5793.59
509.882	5881.27
510.25	5894.15
510.618	5954.49
510.986	5988.16
511.354	6102.74
511.722	6076.97
512.09	6141.6
512.458	6162.39
512.826	6237.19
513.193	6325.1
513.561	6347.93
513.929	6352.22
514.297	6463.4
514.664	6480.13
515.032	6548.15
515.4	6563.29
515.767	6609.84
516.135	6697.75
516.502	6678.09
516.869	6828.82
517.237	6897.52
517.604	6829.95
517.972	7019.77
518.339	6955.37
518.706	7053.67
519.073	7080.11
519.44	7170.5
519.808	7244.85
520.175	7225.19
520.542	7337.96
520.909	7410.95
521.276	7424.28
521.643	7507.22
522.009	7673.54
522.376	7663.37
522.743	7788.34
523.11	7872.86
523.477	7913.76
523.843	7944.49
524.21	8066.07
524.577	8115.34
524.943	8242.57
525.31	8209.35
525.676	8363.01
526.043	8412.96
526.409	8474.65
526.776	8581.31
527.142	8616.34
527.508	8638.71
527.874	8786.96
528.241	8866.5
528.607	8872.15
528.973	8963.9
529.339	8994.18
529.705	9086.84
530.071	9190.56
530.437	9242.99
530.803	9417.9
531.169	9456.32
531.535	9414.29
531.901	9501.29
532.267	9560.95
532.632	9659.7
532.998	9713.26
533.364	9740.61
533.73	9770.44
534.095	9971.56
534.461	10052.01
534.826	10083.2
535.192	10170.42
535.557	10254.49
535.923	10299.69
536.288	10289.07
536.653	10466.24
537.019	10443.19
537.384	10569.28
537.749	10586.23
538.114	10557.08
538.479	10665.1
538.845	10839.56
539.21	10768.38
539.575	10905.77
539.94	10918.2
540.305	11112.09
540.67	11080.23
541.034	11167.91
541.399	11270.73
541.764	11312.09
542.129	11452.42
542.494	11455.81
542.858	11553.89
543.223	11618.52
543.587	11696.26
543.952	11823.71
544.316	11805.86
544.681	11880.44
545.045	11948.68
545.41	12078.17
545.774	12190.03
546.138	12192.97
546.503	12315.9
546.867	12330.14
547.231	12539.4
547.595	12607.65
547.959	12666.18
548.324	12730.58
548.688	12793.63
549.052	12884.7
549.416	13040.86
549.779	13049.45
550.143	13133.74
550.507	13399.49
550.871	13417.34
551.235	13515.65
551.599	13632.03
551.962	13631.12
552.326	13828.41
552.689	13978.46
553.053	13991.57
553.417	14105.91
553.78	14394.49
554.143	14333.71
554.507	14495.73
554.87	14660.7
555.234	14860.7
555.597	14845.33
555.96	15043.74
556.323	15222.5
556.686	15332.1
557.05	15492.54
557.413	15583.84
557.776	15730.96
558.139	15891.86
558.502	16063.38
558.865	16138.63
559.228	16377.27
559.59	16505.85
559.953	16629.46
560.316	16921.89
560.679	17004.82
561.041	17157.13
561.404	17295.66
561.767	17514.19
562.129	17579.95
562.492	17814.29
562.854	18028.3
563.217	18158.92
563.579	18392.81
563.941	18521.17
564.304	18663.99
564.666	18911.89
565.028	19093.13
565.39	19209.06
565.753	19429.62
566.115	19716.61
566.477	19868.25
566.839	20063.05
567.201	20334.23
567.563	20374
567.925	20687.66
568.287	20734.21
568.648	20912.74
569.01	21187.76
569.372	21453.74
569.734	21536.91
570.095	21698.94
570.457	21910.91
570.819	22146.83
571.18	22269.09
571.542	22553.38
571.903	22706.37
572.265	22845.57
572.626	23065.23
572.987	23242.4
573.349	23454.6
573.71	23654.14
574.071	23847.58
574.432	24043.73
574.794	24350.16
575.155	24363.72
575.516	24483.72
575.877	24590.84
576.238	24671.74
576.599	25020.2
576.96	25046.19
577.32	25219.52
577.681	25396.24
578.042	25602.79
578.403	25645.05
578.763	25818.15
579.124	26017.01
579.485	26143.56
579.845	26333.16
580.206	26327.06
580.566	26438.25
580.927	26532.48
581.287	26925.92
581.648	26808.18
582.008	27179.24
582.368	27092.69
582.728	27212.69
583.089	27348.28
583.449	27327.26
583.809	27514.83
584.169	27630.98
584.529	27645.22
584.889	27858.77
585.249	27898.77
585.609	27882.95
585.969	28064.87
586.329	28118.2
586.688	28325.65
587.048	28322.94
587.408	28332.21
587.768	28462.15
588.127	28401.81
588.487	28558.64
588.846	28894
589.206	28801.8
589.565	28729.71
589.925	28893.1
590.284	28908.46
590.643	28929.25
591.003	29343.71
591.362	29364.04
591.721	29351.16
592.08	29501.22
592.44	29651.72
592.799	29706.18
593.158	29737.14
593.517	29735.56
593.876	29850.81
594.235	29810.81
594.593	29882.22
594.952	30116.57
595.311	30159.73
595.67	30248.99
596.029	30432.72
596.387	30581.64
596.746	30556.1
597.104	30457.8
597.463	30475.65
597.822	30763.33
598.18	30668.87
598.538	30847.62
598.897	30903.44
599.255	30853.27
599.613	31239.02
599.972	31090.33
600.33	31183.43
600.688	31277.89
601.046	31391.11
601.404	31579.35
601.762	31622.97
602.12	31748.61
602.478	31872.68
602.836	31897.31
603.194	31812.34
603.552	31928.27
603.91	31822.96
604.268	32042.17
604.625	31957.65
604.983	32366.23
605.341	32302.05
605.698	32389.28
606.056	32481.25
606.413	32568.93
606.771	32710.85
607.128	32868.58
607.485	32649.38
607.843	32889.15
608.2	33117.84
608.557	33170.95
608.914	33054.57
609.272	33241.46
609.629	33451.85
609.986	33586.76
610.343	33430.83
610.7	33680.31
611.057	33729.13
611.414	33744.49
611.771	33748.79
612.127	33915.56
612.484	33996.69
612.841	34351.94
613.198	34164.37
613.554	34101.55
613.911	34499.05
614.267	34432.61
614.624	34451.14
614.98	34544.93
615.337	34769.55
615.693	34795.09
616.05	34839.38
616.406	35064.23
616.762	34832.83
617.118	35059.04
617.475	35121.41
617.831	35059.04
618.187	35349.88
618.543	35280.95
618.899	35448.86
619.255	35508.97
619.611	35695.4
619.967	35708.51
620.323	35735.4
620.678	35681.84
621.034	35679.13
621.39	35885.91
621.746	35904.66
622.101	36211.1
622.457	36078.67
622.812	36134.26
623.168	36312.34
623.523	36381.71
623.879	36499
624.234	36336.52
624.589	36360.24
624.945	36531.31
625.3	36594.36
625.655	36531.99
626.01	36625.55
626.365	36731.99
626.72	36756.17
627.075	36619.9
627.43	36699.9
627.785	36713.23
628.14	36794.81
628.495	36878.42
628.85	36902.38
629.205	36928.59
629.559	37011.3
629.914	36768.14
630.269	36892.21
630.623	36873.9
630.978	36931.75
631.332	36989.83
631.687	36997.74
632.041	36918.87
632.396	37165.2
632.75	37000.68
633.104	36970.85
633.459	36870.74
633.813	37020.57
634.167	36999.78
634.521	37013.11
634.875	37193.22
635.229	37058.76
635.583	36850.4
635.937	37022.6
636.291	37038.87
636.645	37028.7
636.999	36920
637.352	37158.64
637.706	36909.61
638.06	37105.08
638.413	37006.33
638.767	36947.57
639.121	37058.76
639.474	36943.51
639.828	37007.01
640.181	37009.94
640.534	37130.85
640.888	37047.46
641.241	36901.7
641.594	37019.89
641.947	37097.17
642.301	36796.17
642.654	37022.6
643.007	37068.02
643.36	36993.67
643.713	37066.21
644.066	37251.75
644.419	36908.03
644.771	36480.24
645.124	36111.44
645.477	36156.41
645.83	35908.28
646.182	35873.25
646.535	36136.75
646.888	36266.69
647.24	36026.47
647.593	36376.52
647.945	36336.06
648.298	36260.81
648.65	36183.53
649.002	36184.43
649.355	36250.42
649.707	36141.27
650.059	36167.71
650.411	36554.36
650.763	36642.27
651.115	37148.25
651.467	37001.58
651.819	37257.4
652.171	37148.92
652.523	36912.55
652.875	36924.98
653.227	36819.22
653.578	37014.24
653.93	37021.7
654.282	36886.33
654.633	36751.87
654.985	37117.06
655.337	37098.76
655.688	36971.75
656.039	37247.9
656.391	36884.3
656.742	37031.87
657.094	37073.67
657.445	37292.65
657.796	37080.9
658.147	37275.02
658.498	37130.39
658.849	37223.95
659.2	37201.8
659.551	37127.46
659.902	37266.44
660.253	37114.8
660.604	37202.26
660.955	37087.91
661.306	37319.54
661.656	37184.4
662.007	37257.4
662.358	37228.02
662.708	37251.29
663.059	37343.95
663.409	36959.55
663.76	37345.08
664.11	37254.68
664.461	37566.31
664.811	37523.15
665.161	37320.22
665.511	37257.4
665.862	37307.56
666.212	37493.1
666.562	37705.29
666.912	37599.31
667.262	37454.9
667.612	37585.75
667.962	37561.57
668.312	37509.14
668.662	37657.16
669.011	37576.71
669.361	37617.61
669.711	37395.47
670.06	37593.66
670.41	37517.95
670.76	37376.26
671.109	37714.56
671.459	37668.68
671.808	37485.19
672.157	37839.98
672.507	37554.56
672.856	37623.26
673.205	37667.78
673.554	37740.77
673.904	37772.18
674.253	37955.46
674.602	37673.2
674.951	37076.16
675.3	37145.31
675.649	37657.84
675.998	37732.64
676.346	37755.69
676.695	37971.95
677.044	37767.89
677.393	37779.64
677.741	37808.79
678.09	37777.61
678.438	37657.39
678.787	37810.15
679.135	37884.27
679.484	37526.54
679.832	37661.91
680.181	37435.47
680.529	37638.85
680.877	37542.81
681.225	37624.17
681.573	37779.87
681.922	37526.77
682.27	37581.46
682.618	37646.76
682.966	37464.85
683.314	37543.26
683.661	37412.42
684.009	37352.76
684.357	37329.94
684.705	37204.74
685.053	37261.24
685.4	37190.73
685.748	37090.62
686.095	37201.8
686.443	37149.15
686.79	37059.21
687.138	37066.67
687.485	37239.54
687.832	36948.03
688.18	37086.1
688.527	36981.25
688.874	36985.76
689.221	36822.83
689.568	36921.59
689.915	36680.69
690.262	36790.97
690.609	36680.01
690.956	36647.69
691.303	36686.11
691.65	36530.41
691.997	36429.62
692.344	36386.01
692.69	36282.96
693.037	36363.18
693.383	36109.4
693.73	36292
694.077	36082.51
694.423	36249.06
694.769	36105.56
695.116	35888.62
695.462	36034.6
695.808	35790.54
696.155	35959.35
696.501	35667.38
696.847	35642.98
697.193	35392.81
697.539	35648.17
697.885	35421.51
698.231	35257.9
698.577	35354.85
698.923	35254.96
699.269	35126.15
699.614	34924.35
699.96	35123.89
700.306	35197.79
700.651	34965.7
700.997	35059.26
701.342	34880.28
701.688	34869.89
702.033	34672.38
702.379	34754.86
702.724	34598.71
703.069	34895.88
703.415	34353.74
703.76	34407.3
704.105	34381.54
704.45	34542.89
704.795	34131.15
705.14	34151.49
705.485	34101.55
705.83	34010.93
706.175	34094.32
706.52	34039.85
706.865	33852.74
707.209	33932.29
707.554	33794.66
707.899	33879.86
708.243	33722.12
708.588	33855.23
708.932	33579.3
709.277	33634.21
709.621	33730.48
709.966	33489.36
710.31	33496.37
710.654	33252.08
710.998	33495.69
711.342	33310.38
711.687	33305.18
712.031	33060.9
712.375	33091.4
712.719	33190.38
713.063	33229.48
713.407	33210.72
713.75	33182.93
714.094	33076.26
714.438	33004.17
714.782	33180.22
715.125	32883.73
715.469	32999.65
715.812	32765.08
716.156	32661.13
716.499	32996.04
716.843	33010.28
717.186	32712.2
717.53	32939.54
717.873	32887.57
718.216	32824.97
718.559	32752.88
718.902	32594.47
719.246	32736.84
719.589	32597.41
719.932	32447.13
720.275	32466.79
720.617	32508.82
720.96	32495.71
721.303	32338.2
721.646	32411.2
721.989	32230.41
722.331	32523.74
722.674	32350.63
723.016	32378.65
723.359	32231.99
723.701	32494.13
724.044	32114.71
724.386	32085.1
724.729	32222.73
725.071	32131.43
725.413	32120.81
725.755	32105.89
726.097	32005.33
726.439	31804.88
726.782	31946.58
727.124	32089.85
727.465	31829.97
727.807	31866.35
728.149	31800.14
728.491	31765.56
728.833	31804.88
729.175	31749.07
729.516	31669.52
729.858	31667.03
730.199	31702.06
730.541	31693.47
730.882	31679.24
731.224	31723.53
731.565	31711.55
731.906	31678.56
732.248	31697.32
732.589	31584.1
732.93	31510.88
733.271	31547.26
733.612	31595.85
733.953	31601.27
734.294	31611.44
734.635	31442.18
734.976	31606.92
735.317	31398.12
735.658	31456.19
735.999	31466.81
736.339	31423.2
736.68	31551.56
737.021	31469.98
737.361	31412.8
737.702	31646.47
738.042	31388.85
738.383	31325.57
738.723	31332.58
739.063	31257.78
739.404	31338.46
739.744	31379.36
740.084	31202.19
740.424	31184.11
740.764	31133.04
741.104	31295.29
741.444	31155.64
741.784	31066.6
742.124	31125.35
742.464	31053.27
742.804	31006.49
743.143	30907.05
743.483	31070.21
743.823	30842.2
744.162	30992.48
744.502	31093.72
744.841	30899.82
745.181	30962.19
745.52	30988.18
745.86	30960.84
746.199	30931.23
746.538	30748.41
746.877	30879.26
747.216	30883.33
747.556	30827.06
747.895	30942.99
748.234	30740.28
748.573	30791.35
748.911	30660.28
749.25	30664.35
749.589	30632.26
749.928	30599.49
750.267	30741.18
750.605	30727.62
750.944	30604.92
751.283	30463.45
751.621	30552.71
751.96	30281.53
752.298	30337.8
752.636	30334.41
752.975	30215.32
753.313	30138.71
753.651	30336
753.989	30168.32
754.327	30077.02
754.666	30002.67
755.004	30060.07
755.342	30107.53
755.679	30161.99
756.017	29899.17
756.355	30030.47
756.693	29903.24
757.031	29816.91
757.368	29747.54
757.706	29802.45
758.044	29754.99
758.381	29660.53
