Data from copper_heatsink_FLMS001491_038.txt Node
Date: Tue Feb 07 10:49:51 GMT 2017
User: dcchb
Spectrometer: FLMS00149
Trigger mode: 0
Integration Time (sec): 2.000000E-2
Scans to average: 10
Electric dark correction enabled: true
Nonlinearity correction enabled: false
Boxcar width: 0
XAxis mode: Wavelengths
Number of Pixels in Spectrum: 2048
>>>>>Begin Spectral Data<<<<<
341.393	-22.03
341.776	-22.03
342.16	-22.03
342.543	-63.16
342.927	-73.78
343.31	-71.75
343.693	-66.1
344.077	-65.65
344.46	-54.8
344.843	-48.25
345.226	-26.1
345.61	-28.81
345.993	-19.55
346.376	5.31
346.759	1.47
347.142	50.96
347.525	24.29
347.908	69.04
348.291	57.29
348.674	83.5
349.057	89.15
349.44	130.28
349.823	139.32
350.206	167.11
350.588	200.79
350.971	233.33
351.354	262.25
351.737	257.06
352.119	271.07
352.502	290.73
352.884	285.53
353.267	299.54
353.65	310.84
354.032	321.23
354.414	340.22
354.797	337.51
355.179	344.96
355.562	346.32
355.944	335.02
356.326	333.44
356.709	340.44
357.091	365.75
357.473	357.39
357.855	357.39
358.238	391.74
358.62	342.02
359.002	344.51
359.384	374.34
359.766	340.22
360.148	347.45
360.53	354.23
360.912	361.69
361.294	358.52
361.676	348.58
362.057	351.97
362.439	360.78
362.821	362.59
363.203	373.89
363.584	353.32
363.966	347.45
364.348	349.71
364.729	341.57
365.111	345.41
365.493	343.61
365.874	350.84
366.256	340.67
366.637	340.67
367.019	350.84
367.4	335.7
367.781	341.12
368.163	344.51
368.544	349.71
368.925	338.41
369.306	348.8
369.688	350.16
370.069	356.04
370.45	347
370.831	325.53
371.212	329.6
371.593	341.12
371.974	328.01
372.355	351.97
372.736	367.79
373.117	336.38
373.498	354.68
373.879	369.59
374.26	359.2
374.641	355.13
375.021	346.54
375.402	370.72
375.783	342.25
376.163	375.7
376.544	368.01
376.925	345.87
377.305	374.34
377.686	357.39
378.066	373.89
378.447	348.58
378.827	349.03
379.208	379.09
379.588	360.56
379.968	364.4
380.349	365.53
380.729	352.42
381.109	360.78
381.489	372.76
381.87	371.63
382.25	356.71
382.63	379.54
383.01	388.8
383.39	365.75
383.77	389.48
384.15	389.03
384.53	375.47
384.91	385.64
385.29	403.27
385.67	402.36
386.049	397.16
386.429	385.19
386.809	387.45
387.189	408.92
387.568	384.96
387.948	408.01
388.328	396.49
388.707	404.17
389.087	421.8
389.466	392.87
389.846	401.91
390.225	408.92
390.605	423.15
390.984	422.7
391.363	415.92
391.743	405.53
392.122	418.63
392.501	428.8
392.881	420.67
393.26	429.71
393.639	425.64
394.018	438.29
394.397	405.75
394.776	428.58
395.155	433.55
395.534	449.82
395.913	448.69
396.292	449.14
396.671	455.92
397.05	471.74
397.429	450.04
397.808	454.79
398.186	443.94
398.565	464.06
398.944	468.35
399.323	464.28
399.701	461.34
400.08	463.83
400.458	449.82
400.837	474
401.215	454.56
401.594	480.33
401.972	471.96
402.351	471.96
402.729	482.36
403.107	495.24
403.486	487.11
403.864	454.11
404.242	466.77
404.62	502.02
404.999	493.43
405.377	479.2
405.755	492.76
406.133	496.15
406.511	520.55
406.889	521.68
407.267	506.31
407.645	519.87
408.023	511.74
408.401	518.97
408.779	508.12
409.156	518.07
409.534	537.73
409.912	555.35
410.29	539.53
410.667	554.9
411.045	519.2
411.422	552.19
411.8	541.79
412.178	558.06
412.555	551.06
412.933	539.31
413.31	547.44
413.687	568.01
414.065	594.22
414.442	567.78
414.819	583.83
415.197	577.72
415.574	588.35
415.951	586.09
416.328	591.74
416.705	594.45
417.082	589.93
417.46	601.68
417.837	611.4
418.214	607.33
418.591	611.4
418.967	617.5
419.344	612.53
419.721	627.44
420.098	621.57
420.475	633.77
420.852	639.87
421.228	637.61
421.605	631.73
421.982	652.53
422.358	652.53
422.735	662.69
423.111	660.89
423.488	683.71
423.864	690.49
424.241	683.03
424.617	661.79
424.994	682.81
425.37	680.55
425.746	680.77
426.123	692.75
426.499	693.2
426.875	718.06
427.251	718.06
427.627	714.9
428.003	718.96
428.379	735.46
428.756	721.45
429.132	725.74
429.507	709.92
429.883	757.83
430.259	775.23
430.635	779.75
431.011	767.32
431.387	770.49
431.763	780.66
432.138	811.17
432.514	789.24
432.89	825.63
433.265	811.39
433.641	837.38
434.016	844.38
434.392	839.41
434.767	851.62
435.143	859.53
435.518	831.28
435.894	863.82
436.269	863.37
436.644	879.86
437.02	873.54
437.395	913.08
437.77	925.06
438.145	896.13
438.52	889.36
438.895	936.36
439.271	897.72
439.646	939.07
440.021	944.72
440.395	944.72
440.77	930.03
441.145	951.27
441.52	945.85
441.895	943.14
442.27	981.1
442.645	974.1
443.019	976.58
443.394	1000.99
443.769	1014.78
444.143	1009.8
444.518	1023.14
444.892	1019.97
445.267	998.28
445.641	981.78
446.016	1030.59
446.39	1026.07
446.764	1037.15
447.139	1045.96
447.513	1052.06
447.887	1046.41
448.262	1044.83
448.636	1058.62
449.01	1093.42
449.384	1097.26
449.758	1065.17
450.132	1108.33
450.506	1089.35
450.88	1129.8
451.254	1135.9
451.628	1124.6
452.002	1133.19
452.376	1132.51
452.75	1169.35
453.123	1145.17
453.497	1193.53
453.871	1193.53
454.244	1217.48
454.618	1207.09
454.992	1229.23
455.365	1222.23
455.739	1225.62
456.112	1272.17
456.486	1268.1
456.859	1283.02
457.232	1283.7
457.606	1293.64
457.979	1316.91
458.352	1333.86
458.725	1351.72
459.099	1319.85
459.472	1376.8
459.845	1396.23
460.218	1383.81
460.591	1404.14
460.964	1417.93
461.337	1448.89
461.71	1456.35
462.083	1463.8
462.456	1460.41
462.829	1488.89
463.201	1531.82
463.574	1509.9
463.947	1572.05
464.32	1586.96
464.692	1580.41
465.065	1595.1
465.438	1604.82
465.81	1624.25
466.183	1658.83
466.555	1680.07
466.928	1692.95
467.3	1686.17
467.672	1733.4
468.045	1748.99
468.417	1740.86
468.789	1787.41
469.161	1781.76
469.534	1830.57
469.906	1839.84
470.278	1849.33
470.65	1911.7
471.022	1917.35
471.394	1928.88
471.766	1966.39
472.138	1999.16
472.51	2007.74
472.882	2080.06
473.253	2114.86
473.625	2111.92
473.997	2140.17
474.369	2155.08
474.74	2188.3
475.112	2233.73
475.484	2268.75
475.855	2278.02
476.227	2348.07
476.598	2348.53
476.97	2413.83
477.341	2455.87
477.713	2515.53
478.084	2532.48
478.455	2552.14
478.827	2567.5
479.198	2656.09
479.569	2676.65
479.94	2763.88
480.311	2768.4
480.682	2840.04
481.053	2906.93
481.424	2941.05
481.795	2976.53
482.166	3012.92
482.537	3045
482.908	3099.24
483.279	3138.11
483.65	3215.62
484.021	3277.99
484.391	3280.93
484.762	3339.91
485.133	3406.35
485.503	3446.12
485.874	3463.75
486.244	3545.56
486.615	3571.54
486.985	3622.16
487.356	3691.99
487.726	3753.01
488.097	3801.82
488.467	3799.56
488.837	3931.54
489.207	3933.79
489.578	4014.47
489.948	4069.16
490.318	4105.09
490.688	4172.21
491.058	4226.67
491.428	4274.35
491.798	4291.3
492.168	4428.25
492.538	4454.69
492.908	4499.43
493.278	4559.09
493.648	4548.47
494.017	4591.63
494.387	4684.28
494.757	4752.76
495.126	4721.12
495.496	4790.95
495.866	4893.32
496.235	4902.36
496.605	4952.3
496.974	5029.59
497.344	5077.04
497.713	5107.1
498.082	5165.4
498.452	5191.84
498.821	5253.76
499.19	5245.85
499.559	5364.72
499.928	5391.84
500.298	5441.33
500.667	5510.48
501.036	5485.39
501.405	5573.07
501.774	5553.64
502.143	5674.54
502.512	5672.28
502.88	5734.2
503.249	5748.89
503.618	5892.84
503.987	5867.98
504.356	5934.87
504.724	5976.45
505.093	5989.33
505.462	6089.67
505.83	6139.39
506.199	6171.02
506.567	6302.77
506.936	6207.18
507.304	6360.62
507.672	6400.62
508.041	6458.93
508.409	6514.52
508.777	6565.14
509.145	6625.48
509.514	6642.88
509.882	6747.73
510.25	6714.29
510.618	6812.36
510.986	6875.19
511.354	6969.2
511.722	7072.47
512.09	7100.49
512.458	7058.68
512.826	7253.71
513.193	7204.67
513.561	7299.13
513.929	7386.36
514.297	7457.09
514.664	7486.7
515.032	7537.54
515.4	7720.36
515.767	7681.94
516.135	7796.52
516.502	7740.25
516.869	7930.3
517.237	8007.36
517.604	7868.38
517.972	8074.02
518.339	8189.05
518.706	8192.89
519.073	8323.06
519.44	8314.47
519.808	8479.66
520.175	8419.1
520.542	8609.6
520.909	8725.31
521.276	8712.88
521.643	8827
522.009	8951.97
522.376	8983.61
522.743	9031.29
523.11	9182.47
523.477	9259.76
523.843	9292.52
524.21	9475.12
524.577	9511.73
524.943	9652.51
525.31	9731.61
525.676	9719.86
526.043	9821.78
526.409	9878.72
526.776	10024.26
527.142	10089.34
527.508	10142.9
527.874	10274.42
528.241	10373.4
528.607	10446.84
528.973	10478.26
529.339	10530.91
529.705	10684.58
530.071	10764.8
530.437	10854.06
530.803	11025.36
531.169	11032.59
531.535	11102.65
531.901	11146.49
532.267	11239.82
532.632	11365.01
532.998	11404.78
533.364	11555.29
533.73	11561.62
534.095	11680.48
534.461	11734.27
534.826	11873.47
535.192	11870.54
535.557	12059.23
535.923	12087.25
536.288	12150.98
536.653	12184.43
537.019	12263.75
537.384	12376.96
537.749	12445.89
538.114	12518.2
538.479	12546.22
538.845	12613.11
539.21	12711.42
539.575	12762.26
539.94	12842.71
540.305	13017.85
540.67	12985.31
541.034	13115.93
541.399	13234.12
541.764	13258.97
542.129	13399.53
542.494	13448.35
542.858	13547.33
543.223	13582.35
543.587	13628.68
543.952	13659.87
544.316	13850.82
544.681	13859.64
545.045	14034.32
545.41	14102.34
545.774	14181.66
546.138	14266.4
546.503	14358.38
546.867	14338.27
547.231	14601.54
547.595	14695.77
547.959	14722.44
548.324	14729.22
548.688	14937.35
549.052	15050.79
549.416	15156.55
549.779	15247.4
550.143	15286.26
550.507	15425.7
550.871	15602.41
551.235	15545.24
551.599	15745.69
551.962	15959.02
552.326	16003.76
552.689	16170.99
553.053	16183.42
553.417	16312.23
553.78	16590.64
554.143	16544.54
554.507	16782.27
554.87	16895.26
555.234	17127.57
555.597	17185.42
555.96	17351.97
556.323	17467
556.686	17579.99
557.05	17752.64
557.413	17882.35
557.776	18000.09
558.139	18290.25
558.502	18453.19
558.865	18641.2
559.228	18744.48
559.59	18878.26
559.953	19018.82
560.316	19423.56
560.679	19478.92
561.041	19684.34
561.404	19894.96
561.767	20052.24
562.129	20116.65
562.492	20541.04
562.854	20508.05
563.217	20764.76
563.579	20969.05
563.941	21207.01
564.304	21378.53
564.666	21748.69
565.028	21880.89
565.39	22003.15
565.753	22253.31
566.115	22579.63
566.477	22791.38
566.839	22987.76
567.201	23233.85
567.563	23416.67
567.925	23635.88
568.287	23780.96
568.648	24042.87
569.01	24383.43
569.372	24644.44
569.734	24805.56
570.095	25070.41
570.457	25247.58
570.819	25394.93
571.18	25574.58
571.542	25872.88
571.903	26064.74
572.265	26410.27
572.626	26624.05
572.987	26808.9
573.349	27003.24
573.71	27190.13
574.071	27577.24
574.432	27676.67
574.794	28021.52
575.155	28180.84
575.516	28210.67
575.877	28468.07
576.238	28857.43
576.599	29000.71
576.96	29174.49
577.32	29394.82
577.681	29593.69
578.042	29854.24
578.403	30058.76
578.763	30192.31
579.124	30391.86
579.485	30763.37
579.845	30960.2
580.206	30983.71
580.566	31173.08
580.927	31441.77
581.287	31671.6
581.648	31599.96
582.008	31908.88
582.368	32046.73
582.728	32217.8
583.089	32248.08
583.449	32446.94
583.809	32745.01
584.169	32785.69
584.529	32832.7
584.889	33290.99
585.249	33238.11
585.609	33288.28
585.969	33542.73
586.329	33690.53
586.688	33891.43
587.048	34020.24
587.408	34058.88
587.768	34230.17
588.127	34286.44
588.487	34382.71
588.846	34747.45
589.206	34614.34
589.565	34761.91
589.925	35102.24
590.284	35120.09
590.643	35263.37
591.003	35449.35
591.362	35608.89
591.721	35729.57
592.08	35724.15
592.44	36077.13
592.799	36019.96
593.158	36250.46
593.517	36394.64
593.876	36483.67
594.235	36378.37
594.593	36584.69
594.952	36752.37
595.311	36820.39
595.67	37027.61
596.029	37277.32
596.387	37359.81
596.746	37475.06
597.104	37612.91
597.463	37600.93
597.822	37955.27
598.18	37894.71
598.538	37931.55
598.897	38347.58
599.255	38133.12
599.613	38683.16
599.972	38612.43
600.33	38864.63
600.688	38684.07
601.046	38935.81
601.404	39089.93
601.762	39096.03
602.12	39449.92
602.478	39561.78
602.836	39602.01
603.194	39608.56
603.552	39914.09
603.91	39821.66
604.268	40209.45
604.625	40123.8
604.983	40358.15
605.341	40234.76
605.698	40527.18
606.056	40548.43
606.413	40676.78
606.771	41018.7
607.128	41219.14
607.485	41094.17
607.843	41166.04
608.2	41519.7
608.557	41625.23
608.914	41673.82
609.272	41970.76
609.629	42090.08
609.986	42342.28
610.343	42273.8
610.7	42485.55
611.057	42568.94
611.414	42630.18
611.771	42859.55
612.127	43173.89
612.484	43168.7
612.841	43467.9
613.198	43340.44
613.554	43473.55
613.911	43741.79
614.267	43780.66
614.624	43687.78
614.98	44017.49
615.337	44287.08
615.693	44264.71
616.05	44369.12
616.406	44541.31
616.762	44616.12
617.118	44653.85
617.475	44809.56
617.831	44889.33
618.187	44967.74
618.543	45119.38
618.899	45476.66
619.255	45487.96
619.611	45357.79
619.967	45574.28
620.323	45720.27
620.678	45778.34
621.034	45695.41
621.39	45782.64
621.746	45731.79
622.101	46355.96
622.457	46059.92
622.812	46310.76
623.168	46378.78
623.523	46551.88
623.879	46784.42
624.234	46537.42
624.589	46748.49
624.945	46723.4
625.3	46741.26
625.655	46693.8
626.01	46952.32
626.365	47038.65
626.72	47060.34
627.075	47013.57
627.43	47068.48
627.785	47141.02
628.14	47306.89
628.495	47344.18
628.85	47376.04
629.205	47360.68
629.559	47678.86
629.914	47449.03
630.269	47551.18
630.623	47452.88
630.978	47504.63
631.332	47811.96
631.687	47722.25
632.041	47669.82
632.396	47815.8
632.75	47776.48
633.104	47893.54
633.459	47703.72
633.813	47670.5
634.167	47747.56
634.521	47898.51
634.875	47963.82
635.229	47933.32
635.583	47858.06
635.937	47791.85
636.291	47904.84
636.645	47897.16
636.999	47889.93
637.352	48010.38
637.706	47884.73
638.06	48078.17
638.413	48187.77
638.767	48019.64
639.121	48215.34
639.474	47963.15
639.828	48095.8
640.181	48130.6
640.534	48116.36
640.888	48032.3
641.241	47976.7
641.594	48106.19
641.947	48257.38
642.301	48107.32
642.654	48177.38
643.007	48359.97
643.36	48197.94
643.713	48216.02
644.066	48411.5
644.419	48109.81
644.771	47919.76
645.124	47716.6
645.477	47699.88
645.83	47444.97
646.182	47435.48
646.535	47321.13
646.888	47451.29
647.24	47394.12
647.593	47652.87
647.945	47608.13
648.298	47435.7
648.65	47385.31
649.002	47305.31
649.355	47444.06
649.707	47326.78
650.059	47572.65
650.411	47964.73
650.763	48125.85
651.115	48572.17
651.467	48456.92
651.819	48499.63
652.171	48462.12
652.523	48418.05
652.875	48444.71
653.227	48427.77
653.578	48682.9
653.93	48500.53
654.282	48411.5
654.633	48360.88
654.985	48553.19
655.337	48426.86
655.688	48494.21
656.039	48768.1
656.391	48312.51
656.742	48590.93
657.094	48529.68
657.445	48798.6
657.796	48660.75
658.147	48670.92
658.498	48838.15
658.849	48884.48
659.2	48726.52
659.551	48759.51
659.902	48964.48
660.253	48792.05
660.604	48907.08
660.955	48775.78
661.306	48941.65
661.656	48900.3
662.007	48957.02
662.358	48823.91
662.708	48963.12
663.059	48955.21
663.409	48844.93
663.76	49135.77
664.11	49051.03
664.461	48991.82
664.811	49037.69
665.161	49159.72
665.511	48973.06
665.862	49233.85
666.212	49216.22
666.562	49162.21
666.912	49106.62
667.262	49302.32
667.612	49274.75
667.962	49371.02
668.312	49344.13
668.662	49569.66
669.011	49366.5
669.361	49372.37
669.711	49568.98
670.06	49281.3
670.41	49400.85
670.76	49287.86
671.109	49580.5
671.459	49551.8
671.808	49496.21
672.157	49610.11
672.507	49349.78
672.856	49353.17
673.205	49548.41
673.554	49593.84
673.904	49549.54
674.253	49593.61
674.602	49539.83
674.951	49082.89
675.3	48878.83
675.649	49612.82
675.998	49578.7
676.346	49564.69
676.695	49751.12
677.044	49470.68
677.393	49609.88
677.741	49716.55
678.09	49611.01
678.438	49581.18
678.787	49650.33
679.135	49695.08
679.484	49380.06
679.832	49662.31
680.181	49502.54
680.529	49575.53
680.877	49347.74
681.225	49423.9
681.573	49691.69
681.922	49455.54
682.27	49389.77
682.618	49485.59
682.966	49411.47
683.314	49444.91
683.661	49195.2
684.009	49110.46
684.357	49133.74
684.705	49240.85
685.053	49108.43
685.4	49220.74
685.748	49064.36
686.095	49071.14
686.443	48931.48
686.79	48922.67
687.138	49059.61
687.485	49168.76
687.832	49038.37
688.18	49061.2
688.527	48885.61
688.874	48633.86
689.221	48809.23
689.568	48641.32
689.915	48761.99
690.262	48585.05
690.609	48656.69
690.956	48533.07
691.303	48543.24
691.65	48212.18
691.997	48285.62
692.344	48019.64
692.69	48071.84
693.037	48241.78
693.383	47846.31
693.73	47918.18
694.077	47814.9
694.423	47963.82
694.769	47888.35
695.116	47809.93
695.462	47932.86
695.808	47741.91
696.155	47861.23
696.501	47515.7
696.847	47572.42
697.193	47259.21
697.539	47540.78
697.885	47121.13
698.231	47026.67
698.577	47083.85
698.923	47110.96
699.269	47000.23
699.614	46830.75
699.96	46789.62
700.306	46879.56
700.651	46661.94
700.997	46587.14
701.342	46524.09
701.688	46481.83
702.033	46500.59
702.379	46374.49
702.724	46272.79
703.069	46358.44
703.415	45983.08
703.76	45974.72
704.105	45872.81
704.45	45870.09
704.795	45751.68
705.14	45737.89
705.485	45723.43
705.83	45413.83
706.175	45544.68
706.52	45454.96
706.865	45445.02
707.209	45351.69
707.554	45300.16
707.899	45345.36
708.243	45188.76
708.588	45055.2
708.932	44893.62
709.277	44876.45
709.621	45050.91
709.966	44726.62
710.31	44839.39
710.654	44353.52
710.998	44648.88
711.342	44645.49
711.687	44638.26
712.031	44424.26
712.375	44212.06
712.719	44458.38
713.063	44284.37
713.407	44387.87
713.75	44296.58
714.094	44233.53
714.438	44120.08
714.782	44232.17
715.125	43830.6
715.469	44071.04
715.812	43912.4
716.156	43706.08
716.499	43632.64
716.843	43858.85
717.186	43718.06
717.53	43727.55
717.873	43726.42
718.216	43521.68
718.559	43463.83
718.902	43198.53
719.246	43381.57
719.589	43233.33
719.932	43327.79
720.275	43140.67
720.617	43171.63
720.96	43246.89
721.303	43048.02
721.646	43104.29
721.989	42937.97
722.331	43181.58
722.674	43090.73
723.016	43054.12
723.359	43084.4
723.701	43027.46
724.044	42733.9
724.386	42526.68
724.729	42790.17
725.071	42705.88
725.413	42750.18
725.755	42726.9
726.097	42570.07
726.439	42463.18
726.782	42579.33
727.124	42627.24
727.465	42299.57
727.807	42483.06
728.149	42341.37
728.491	42251.66
728.833	42416.17
729.175	42287.81
729.516	42146.12
729.858	42212.11
730.199	42069.06
730.541	42034.26
730.882	42007.14
731.224	41895.96
731.565	41876.75
731.906	42032
732.248	42149.97
732.589	41860.71
732.93	41770.09
733.271	41782.07
733.612	41885.34
733.953	41965.56
734.294	41694.16
734.635	41501.17
734.976	41607.15
735.317	41560.15
735.658	41647.61
735.999	41571.9
736.339	41337.78
736.68	41424.79
737.021	41399.48
737.361	41180.73
737.702	41321.06
738.042	41148.18
738.383	41084.91
738.723	41352.25
739.063	41225.47
739.404	41290.78
739.744	41147.05
740.084	41169.43
740.424	41220.95
740.764	41012.82
741.104	41268.86
741.444	40956.1
741.784	40780.74
742.124	41000.62
742.464	40888.53
742.804	40962.88
743.143	40853.28
743.483	40768.76
743.823	40567.63
744.162	40576.67
744.502	40904.12
744.841	40680.85
745.181	40892.37
745.52	40606.95
745.86	40712.26
746.199	40473.63
746.538	40473.17
746.877	40585.49
747.216	40471.82
747.556	40465.49
747.895	40562.89
748.234	40283.35
748.573	40187.53
748.911	40178.49
749.25	40130.36
749.589	39931.49
749.928	39993.41
750.267	40164.93
750.605	39990.02
750.944	39900.53
751.283	39748.45
751.621	39967.88
751.96	39800.87
752.298	39815.79
752.636	39931.04
752.975	39489.02
753.313	39457.83
753.651	39466.42
753.989	39421.9
754.327	39388.68
754.666	39236.6
755.004	39123.6
755.342	39126.32
755.679	39187.78
756.017	38924.74
756.355	39075.47
756.693	38968.35
757.031	38889.26
