Data from copper_heatsink_FLMS001491_078.txt Node
Date: Tue Feb 07 10:50:34 GMT 2017
User: dcchb
Spectrometer: FLMS00149
Trigger mode: 0
Integration Time (sec): 2.000000E-2
Scans to average: 10
Electric dark correction enabled: true
Nonlinearity correction enabled: false
Boxcar width: 0
XAxis mode: Wavelengths
Number of Pixels in Spectrum: 2048
>>>>>Begin Spectral Data<<<<<
341.393	-14.72
341.776	-14.72
342.16	-14.72
342.543	-49.07
342.927	-75.73
343.31	-82.51
343.693	-70.08
344.077	-41.84
344.46	-40.48
344.843	-68.5
345.226	-36.19
345.61	-39.12
345.993	-15.62
346.376	2.46
346.759	20.99
347.142	11.27
347.525	39.74
347.908	45.39
348.291	69.57
348.674	97.82
349.057	107.09
349.44	127.43
349.823	141.44
350.206	165.62
350.588	218.05
350.971	237.93
351.354	253.75
351.737	259.17
352.119	290.59
352.502	298.49
352.884	304.82
353.267	320.42
353.65	314.99
354.032	325.61
354.414	341.88
354.797	331.26
355.179	347.31
355.562	370.13
355.944	371.04
356.326	368.1
356.709	362.22
357.091	375.56
357.473	372.39
357.855	390.24
358.238	362.9
358.62	367.42
359.002	390.47
359.384	387.76
359.766	390.7
360.148	376.23
360.53	358.38
360.912	371.26
361.294	349.12
361.676	382.56
362.057	388.66
362.439	376.23
362.821	373.3
363.203	360.87
363.584	362.67
363.966	362.9
364.348	381.66
364.729	351.37
365.111	351.15
365.493	351.83
365.874	350.25
366.256	358.15
366.637	372.62
367.019	379.4
367.4	374.65
367.781	362.67
368.163	372.84
368.544	356.12
368.925	365.84
369.306	361.32
369.688	387.08
370.069	350.25
370.45	370.13
370.831	360.87
371.212	366.06
371.593	341.21
371.974	348.21
372.355	353.63
372.736	355.44
373.117	370.81
373.498	375.78
373.879	364.03
374.26	399.51
374.641	361.54
375.021	354.54
375.402	362.45
375.783	375.56
376.163	385.27
376.544	397.25
376.925	379.85
377.305	378.94
377.686	381.43
378.066	377.36
378.447	403.58
378.827	372.84
379.208	379.4
379.588	397.93
379.968	396.12
380.349	387.98
380.729	394.54
381.109	404.03
381.489	386.18
381.87	404.25
382.25	401.09
382.63	399.06
383.01	402.22
383.39	407.87
383.77	402.9
384.15	401.09
384.53	383.46
384.91	415.55
385.29	422.56
385.67	410.13
386.049	401.09
386.429	431.6
386.809	437.93
387.189	450.81
387.568	404.03
387.948	426.63
388.328	432.5
388.707	443.58
389.087	453.75
389.466	449.23
389.846	442.67
390.225	448.77
390.605	452.39
390.984	443.8
391.363	437.02
391.743	462.56
392.122	451.49
392.501	473.18
392.881	496
393.26	473.41
393.639	460.07
394.018	482.44
394.397	467.08
394.776	484.7
395.155	484.93
395.534	483.8
395.913	484.7
396.292	490.13
396.671	497.59
397.05	489.45
397.429	505.95
397.808	480.19
398.186	512.73
398.565	526.74
398.944	509.11
399.323	518.38
399.701	503.69
400.08	540.07
400.458	533.07
400.837	512.73
401.215	521.77
401.594	544.59
401.972	531.26
402.351	560.18
402.729	562.44
403.107	555.44
403.486	559.96
403.864	555.66
404.242	569.67
404.62	578.49
404.999	564.02
405.377	556.79
405.755	587.75
406.133	561.31
406.511	590.69
406.889	586.4
407.267	621.65
407.645	626.4
408.023	618.49
408.401	628.2
408.779	629.56
409.156	656
409.534	625.49
409.912	653.97
410.29	652.38
410.667	657.81
411.045	658.03
411.422	655.32
411.8	679.28
412.178	667.3
412.555	664.81
412.933	703.46
413.31	705.49
413.687	700.52
414.065	705.04
414.442	708.43
414.819	716.11
415.197	745.94
415.574	718.14
415.951	739.16
416.328	754.98
416.705	749.78
417.082	753.17
417.46	749.1
417.837	764.02
418.214	754.53
418.591	783.45
418.967	811.25
419.344	780.29
419.721	805.83
420.098	799.5
420.475	811.25
420.852	815.54
421.228	837.92
421.605	830.23
421.982	824.58
422.358	851.93
422.735	843.79
423.111	862.77
423.488	873.62
423.864	858.71
424.241	895.99
424.617	872.49
424.994	905.48
425.37	907.29
425.746	904.13
426.123	914.75
426.499	923.56
426.875	938.93
427.251	955.88
427.627	954.75
428.003	946.84
428.379	978.7
428.756	997.91
429.132	1005.14
429.507	1023.9
429.883	1040.17
430.259	1019.83
430.635	1053.28
431.011	1051.47
431.387	1076.1
431.763	1092.6
432.138	1109.32
432.514	1081.53
432.89	1118.59
433.265	1147.96
433.641	1165.36
434.016	1160.39
434.392	1185.03
434.767	1207.4
435.143	1192.48
435.518	1194.74
435.894	1201.97
436.269	1229.77
436.644	1243.78
437.02	1269.54
437.395	1288.75
437.77	1281.52
438.145	1296.21
438.52	1298.02
438.895	1327.17
439.271	1347.96
439.646	1345.93
440.021	1366.94
440.395	1361.07
440.77	1384.57
441.145	1387.96
441.52	1422.31
441.895	1379.37
442.27	1404.68
442.645	1417.11
443.019	1465.47
443.394	1450.56
443.769	1439.48
444.143	1446.49
444.518	1491.46
444.892	1451.68
445.267	1497.33
445.641	1497.79
446.016	1505.92
446.39	1527.84
446.764	1538.91
447.139	1536.88
447.513	1541.17
447.887	1537.33
448.262	1587.05
448.636	1576.2
449.01	1590.89
449.384	1569.65
449.758	1598.12
450.132	1665.46
450.506	1660.27
450.88	1663.66
451.254	1682.19
451.628	1662.75
452.002	1717.89
452.376	1715.41
452.75	1726.93
453.123	1724.9
453.497	1776.65
453.871	1771
454.244	1852.35
454.618	1815.52
454.992	1867.72
455.365	1869.3
455.739	1931.22
456.112	1932.58
456.486	1942.75
456.859	1946.14
457.232	1999.02
457.606	1996.3
457.979	2030.2
458.352	2033.14
458.725	2093.02
459.099	2076.08
459.472	2146.58
459.845	2160.82
460.218	2181.38
460.591	2170.31
460.964	2192.23
461.337	2270.19
461.71	2276.97
462.083	2300.48
462.456	2311.55
462.829	2346.8
463.201	2391.1
463.574	2388.61
463.947	2424.99
464.32	2463.18
464.692	2469.06
465.065	2504.09
465.438	2535.72
465.81	2575.27
466.183	2614.37
466.555	2688.26
466.928	2680.81
467.3	2691.88
467.672	2743.63
468.045	2808.71
468.417	2817.75
468.789	2810.75
469.161	2838.77
469.534	2908.82
469.906	2981.81
470.278	2973.45
470.65	3028.59
471.022	3091.87
471.394	3094.58
471.766	3129.83
472.138	3160.79
472.51	3258.19
472.882	3272.43
473.253	3333.9
473.625	3398.75
473.997	3458.64
474.369	3498.41
474.74	3516.72
475.112	3588.13
475.484	3667.22
475.855	3686.65
476.227	3738.86
476.598	3814.56
476.97	3845.75
477.341	3909.93
477.713	4012.97
478.084	3975.91
478.455	4119.86
478.827	4151.5
479.198	4307.2
479.569	4347.65
479.94	4402.79
480.311	4429.23
480.682	4530.25
481.053	4639.4
481.424	4727.31
481.795	4737.7
482.166	4810.47
482.537	4867.41
482.908	4979.95
483.279	4999.61
483.65	5171.81
484.021	5236.67
484.391	5258.59
484.762	5307.63
485.133	5397.57
485.503	5454.74
485.874	5561.63
486.244	5630.33
486.615	5779.71
486.985	5794.17
487.356	5946.71
487.726	5979.25
488.097	6120.71
488.467	6188.51
488.837	6258.11
489.207	6325.68
489.578	6376.3
489.948	6443.87
490.318	6529.52
490.688	6598.44
491.058	6695.16
491.428	6768.61
491.798	6861.26
492.168	7026
492.538	7080.24
492.908	7140.57
493.278	7238.43
493.648	7214.02
494.017	7368.14
494.387	7423.73
494.757	7517.74
495.126	7599.32
495.496	7619.88
495.866	7678.87
496.235	7832.99
496.605	7883.38
496.974	7891.06
497.344	8033.66
497.713	8062.13
498.082	8108.91
498.452	8263.94
498.821	8269.58
499.19	8303.26
499.559	8385.06
499.928	8440.43
500.298	8524.72
500.667	8574.66
501.036	8657.15
501.405	8739.4
501.774	8782.79
502.143	8868.89
502.512	8847.42
502.88	8934.65
503.249	9010.36
503.618	9117.25
503.987	9137.36
504.356	9186.85
504.724	9221.2
505.093	9361.99
505.462	9368.54
505.83	9474.98
506.199	9586.84
506.567	9738.92
506.936	9738.7
507.304	9902.76
507.672	9891.46
508.041	9957.9
508.409	10046.49
508.777	10127.62
509.145	10221.17
509.514	10218.23
509.882	10371.22
510.25	10394.73
510.618	10507.49
510.986	10550.88
511.354	10681.95
511.722	10797.65
512.09	10864.77
512.458	10851.66
512.826	11032.68
513.193	11089.17
513.561	11175.5
513.929	11267.92
514.297	11366.9
514.664	11493.45
515.032	11505.66
515.4	11636.05
515.767	11678.31
516.135	11820.9
516.502	11835.37
516.869	12029.94
517.237	12114.91
517.604	12086.21
517.972	12231.74
518.339	12338.86
518.706	12470.38
519.073	12496.82
519.44	12620.66
519.808	12736.13
520.175	12810.48
520.542	12971.38
520.909	13089.57
521.276	13160.76
521.643	13216.8
522.009	13446.4
522.376	13516.45
522.743	13577.47
523.11	13847.97
523.477	13938.14
523.843	14055.42
524.21	14198.02
524.577	14291.8
524.943	14343.78
525.31	14596.2
525.676	14689.98
526.043	14840.71
526.409	14908.51
526.776	15092.23
527.142	15230.76
527.508	15219.46
527.874	15497.64
528.241	15461.49
528.607	15546.91
528.973	15782.38
529.339	15868.26
529.705	15962.72
530.071	16156.38
530.437	16236.61
530.803	16383.5
531.169	16590.27
531.535	16618.07
531.901	16688.35
532.267	16769.25
532.632	17016.47
532.998	17050.6
533.364	17127.88
533.73	17267.99
534.095	17416.46
534.461	17533.3
534.826	17611.94
535.192	17813.51
535.557	18003.34
535.923	17966.73
536.288	18083.56
536.653	18190.23
537.019	18364.01
537.384	18434.52
537.749	18530.78
538.114	18635.87
538.479	18668.18
538.845	18806.93
539.21	18927.61
539.575	19022.97
539.94	19101.84
540.305	19166.25
540.67	19368.95
541.034	19402.4
541.399	19534.37
541.764	19603.07
542.129	19856.17
542.494	19940.92
542.858	20139.33
543.223	20112.89
543.587	20281.25
543.952	20498.64
544.316	20549.04
544.681	20624.97
545.045	20714.68
545.41	20961.23
545.774	21013.66
546.138	21119.87
546.503	21291.84
546.867	21358.28
547.231	21692.06
547.595	21703.13
547.959	21931.6
548.324	22023.12
548.688	22070.8
549.052	22357.12
549.416	22310.8
549.779	22452.49
550.143	22640.05
550.507	22966.6
550.871	23113.94
551.235	23133.6
551.599	23394.84
551.962	23534.95
552.326	23639.35
552.689	24059.9
553.053	23984.2
553.417	24108.04
553.78	24478.2
554.143	24580.12
554.507	24795.7
554.87	25009.03
555.234	25292.19
555.597	25329.25
555.96	25575.8
556.323	25766.98
556.686	25924.26
557.05	26277.7
557.413	26353.18
557.776	26684.47
558.139	27042.65
558.502	27155.64
558.865	27195.19
559.228	27548.85
559.59	27783.65
559.953	28105.45
560.316	28509.28
560.679	28620.69
561.041	28922.83
561.404	29188.58
561.767	29610.94
562.129	29783.14
562.492	30145.17
562.854	30255.45
563.217	30512.62
563.579	30786.96
563.941	31196.21
564.304	31406.6
564.666	31759.59
565.028	31988.06
565.39	32258.33
565.753	32680.47
566.115	32963.62
566.477	33150.74
566.839	33474.57
567.201	33843.83
567.563	34135.12
567.925	34588.21
568.287	34778.94
568.648	35033.85
569.01	35439.94
569.372	35850.1
569.734	35991.57
570.095	36332.58
570.457	36771.43
570.819	36920.36
571.18	37003.52
571.542	37591.07
571.903	37763.5
572.265	38195.8
572.626	38412.3
572.987	38690.25
573.349	39080.53
573.71	39579.95
574.071	39768.42
574.432	39966.38
574.794	40492.69
575.155	40509.19
575.516	40605.68
575.877	40985.33
576.238	41264.2
576.599	41703.73
576.96	41941.02
577.32	42081.8
577.681	42460.1
578.042	42775.12
578.403	42855.79
578.763	43104.15
579.124	43410.36
579.485	43756.56
579.845	44168.3
580.206	44230
580.566	44465.92
580.927	44628.4
581.287	44872.46
581.648	44881.96
582.008	45350.19
582.368	45289.85
582.728	45653.46
583.089	45721.03
583.449	45991.53
583.809	46086.22
584.169	46318.75
584.529	46420.45
584.889	46885.52
585.249	46842.81
585.609	46953.31
585.969	47397.14
586.329	47276.47
586.688	47600.3
587.048	47509.68
587.408	47710.58
587.768	47945.83
588.127	47994.64
588.487	48140.17
588.846	48462.2
589.206	48344.46
589.565	48493.16
589.925	48746.94
590.284	48840.72
590.643	48972.92
591.003	49230.77
591.362	49449.07
591.721	49476.64
592.08	49565.67
592.44	49761.15
592.799	49930.41
593.158	49816.51
593.517	50011.09
593.876	50200.01
594.235	50235.49
594.593	50338.54
594.952	50479.77
595.311	50533.78
595.67	50748.02
596.029	51006.31
596.387	51057.16
596.746	51270.04
597.104	51285.18
597.463	51319.07
597.822	51561.33
598.18	51463.25
598.538	51636.13
598.897	51858.5
599.255	51773.3
599.613	52329.44
599.972	52106.85
600.33	52337.13
600.688	52260.07
601.046	52533.05
601.404	52679.04
601.762	52650.79
602.12	52847.62
602.478	53028.18
602.836	53060.95
603.194	52928.52
603.552	53208.74
603.91	53176.65
604.268	53422.97
604.625	53397.66
604.983	53742.97
605.341	53557.89
605.698	53888.72
606.056	54003.75
606.413	53950.64
606.771	54205.55
607.128	54180.92
607.485	54283.52
607.843	54351.54
608.2	54572.55
608.557	54762.37
608.914	54656.84
609.272	54852.31
609.629	54996.49
609.986	55195.13
610.343	55104.96
610.7	55391.96
611.057	55351.06
611.414	55457.5
611.771	55535.01
612.127	55713.99
612.484	55770.93
612.841	55869.01
613.198	55873.3
613.554	55936.13
613.911	56196.23
614.267	56214.31
614.624	56298.38
614.98	56322.33
615.337	56580.18
615.693	56497.7
616.05	56587.86
616.406	56791.25
616.762	56878.48
617.118	56900.4
617.475	56977.23
617.831	57121.86
618.187	57144.46
618.543	57256.09
618.899	57398.01
619.255	57362.76
619.611	57449.31
619.967	57581.06
620.323	57678.46
620.678	57599.14
621.034	57632.81
621.39	57741.73
621.746	57737.44
622.101	58059.46
622.457	57853.37
622.812	57932.69
623.168	58177.88
623.523	58149.18
623.879	58336.97
624.234	58210.19
624.589	58313.47
624.945	58392.56
625.3	58419.68
625.655	58474.82
626.01	58526.57
626.365	58585.32
626.72	58647.7
627.075	58682.95
627.43	58705.32
627.785	58805.88
628.14	58916.84
628.495	58972.88
628.85	58908.25
629.205	58833
629.559	59049.94
629.914	59000.68
630.269	59074.8
630.623	59054.46
630.978	58998.87
631.332	59163.61
631.687	59279.32
632.041	59183.95
632.396	59281.12
632.75	59268.7
633.104	59275.25
633.459	59200.9
633.813	59296.94
634.167	59273.44
634.521	59401.35
634.875	59471.63
635.229	59433.89
635.583	59331.07
635.937	59427.56
636.291	59418.3
636.645	59570.38
636.999	59522.02
637.352	59569.03
637.706	59527.45
638.06	59726.08
638.413	59677.27
638.767	59613.09
639.121	59628.23
639.474	59563.6
639.828	59696.48
640.181	59752.75
640.534	59774.22
640.888	59754.56
641.241	59663.94
641.594	59782.35
641.947	59834.1
642.301	59806.76
642.654	59863.26
643.007	59961.56
643.36	59876.36
643.713	59932.41
644.066	60024.16
644.419	59973.08
644.771	59911.84
645.124	59756.14
645.477	59771.28
645.83	59595.24
646.182	59508.92
646.535	59444.74
646.888	59481.8
647.24	59331.29
647.593	59499.42
647.945	59459.65
648.298	59396.15
648.65	59410.39
649.002	59381.46
649.355	59549.37
649.707	59603.15
650.059	59771.28
650.411	60106.64
650.763	60196.13
651.115	60436.12
651.467	60374.66
651.819	60443.58
652.171	60407.65
652.523	60372.62
652.875	60385.05
653.227	60332.4
653.578	60550.7
653.93	60495.33
654.282	60461.66
654.633	60487.19
654.985	60576.23
655.337	60609.23
655.688	60675.66
656.039	60793.4
656.391	60623.69
656.742	60660.75
657.094	60750.69
657.445	60830.01
657.796	60808.32
658.147	60775.1
658.498	60800.86
658.849	60891.7
659.2	60850.12
659.551	60848.54
659.902	60965.37
660.253	60921.76
660.604	61066.39
660.955	60957.92
661.306	61135.31
661.656	61065.26
662.007	61136.67
662.358	61151.36
662.708	61161.53
663.059	61203.33
663.409	61098.25
663.76	61281.52
664.11	61284.01
664.461	61343.22
664.811	61324.46
665.161	61394.52
665.511	61274.74
665.862	61380.28
666.212	61498.92
666.562	61576.21
666.912	61522.65
667.262	61502.54
667.612	61544.79
667.962	61596.09
668.312	61573.27
668.662	61683.77
669.011	61780.04
669.361	61765.13
669.711	61788.18
670.06	61804.45
670.41	61745.47
670.76	61703.21
671.109	61928.29
671.459	61897.1
671.808	61868.63
672.157	61960.6
672.507	61847.61
672.856	61926.03
673.205	61945.91
673.554	62111.33
673.904	61933.03
674.253	62175.29
674.602	62128.73
674.951	61825.46
675.3	61691.01
675.649	62184.1
675.998	62100.94
676.346	62112.24
676.695	62292.35
677.044	62139.35
677.393	62256.19
677.741	62305.9
678.09	62274.49
678.438	62236.3
678.787	62292.8
679.135	62389.74
679.484	62247.15
679.832	62410.08
680.181	62273.14
680.529	62289.63
680.877	62319.24
681.225	62374.83
681.573	62511.32
681.922	62356.3
682.27	62321.5
682.618	62382.74
682.966	62326.02
683.314	62415.05
683.661	62400.59
684.009	62346.58
684.357	62287.15
684.705	62310.88
685.053	62387.94
685.4	62365.56
685.748	62385.45
686.095	62364.66
686.443	62385.9
686.79	62353.36
687.138	62358.78
687.485	62439.01
687.832	62356.98
688.18	62410.31
688.527	62323.08
688.874	62392.23
689.221	62357.65
689.568	62281.95
689.915	62307.26
690.262	62298.45
690.609	62263.87
690.956	62258.9
691.303	62247.83
691.65	62092.8
691.997	62099.81
692.344	62067.94
692.69	62022.75
693.037	62084.22
693.383	62012.13
693.73	62105.91
694.077	61918.57
694.423	61926.71
694.769	62002.18
695.116	61989.3
695.462	61937.55
695.808	61879.25
696.155	61997.44
696.501	61896.42
696.847	61903.43
697.193	61787.95
697.539	61933.48
697.885	61812.81
698.231	61787.5
698.577	61803.32
698.923	61814.62
699.269	61723.09
699.614	61663.66
699.96	61613.94
700.306	61613.94
700.651	61512.93
700.997	61493.95
701.342	61495.98
701.688	61469.54
702.033	61430.9
702.379	61505.25
702.724	61448.3
703.069	61551.12
703.415	61348.64
703.76	61388.87
704.105	61472.48
704.45	61354.29
704.795	61293.28
705.14	61244.69
705.485	61236.78
705.83	61158.82
706.175	61237.01
706.52	61237.01
706.865	61128.76
707.209	61167.4
707.554	61138.93
707.899	61184.8
708.243	61056.45
708.588	61097.57
708.932	61060.74
709.277	61013.73
709.621	61061.87
709.966	60958.37
710.31	61084.24
710.654	60897.58
710.998	60998.14
711.342	60940.74
711.687	60936
712.031	60896
712.375	60835.89
712.719	60933.28
713.063	60885.38
713.407	60955.66
713.75	60800.86
714.094	60818.26
714.438	60798.37
714.782	60827.52
715.125	60800.86
715.469	60809.45
715.812	60728.77
716.156	60706.62
716.499	60660.98
716.843	60710.24
717.186	60652.16
717.53	60763.57
717.873	60773.74
718.216	60736
718.559	60618.72
718.902	60502.79
719.246	60581.2
719.589	60579.4
719.932	60524.71
720.275	60560.87
720.617	60563.35
720.96	60512.05
721.303	60566.74
721.646	60586.85
721.989	60501.21
722.331	60531.04
722.674	60485.16
723.016	60574.2
723.359	60525.39
723.701	60561.54
724.044	60472.05
724.386	60390.93
724.729	60475.67
725.071	60488.1
725.413	60424.15
725.755	60467.99
726.097	60437.7
726.439	60337.37
726.782	60347.76
727.124	60549.11
727.465	60339.18
727.807	60343.02
728.149	60393.41
728.491	60306.41
728.833	60459.17
729.175	60406.75
729.516	60409.46
729.858	60343.92
730.199	60420.3
730.541	60375.33
730.882	60340.08
731.224	60445.61
731.565	60298.73
731.906	60317.93
732.248	60369.23
732.589	60242
732.93	60202.68
733.271	60313.64
733.612	60306.18
733.953	60372.4
734.294	60330.36
734.635	60277.71
734.976	60383.24
735.317	60275.9
735.658	60300.31
735.999	60280.87
736.339	60263.47
736.68	60371.27
737.021	60302.34
737.361	60157.26
737.702	60350.25
738.042	60195.45
738.383	60190.93
738.723	60267.54
739.063	60235.22
739.404	60306.86
739.744	60306.86
740.084	60237.94
740.424	60337.59
740.764	60200.2
741.104	60334.88
741.444	60238.84
741.784	60285.62
742.124	60262.12
742.464	60203.36
742.804	60195.45
743.143	60212.85
743.483	60260.53
743.823	60143.93
744.162	60177.15
744.502	60148.45
744.841	60099.41
745.181	60232.06
745.52	60153.87
745.86	60233.42
746.199	60191.61
746.538	60237.71
746.877	60271.83
747.216	60267.54
747.556	60279.29
747.895	60250.36
748.234	60150.03
748.573	60161.1
748.911	60105.51
749.25	60107.09
749.589	60067.77
749.928	60114.1
750.267	60105.51
750.605	60061.44
750.944	59978.51
751.283	59919.07
751.621	60018.51
751.96	59780.77
752.298	59873.2
752.636	59967.21
752.975	59726.54
753.313	59806.31
753.651	59929.24
753.989	59743.03
754.327	59722.47
754.666	59629.36
755.004	59792.98
755.342	59779.64
755.679	59749.59
