Data from copper_heatsink_FLMS001491_002.txt Node
Date: Tue Feb 07 10:49:03 GMT 2017
User: dcchb
Spectrometer: FLMS00149
Trigger mode: 0
Integration Time (sec): 2.000000E-2
Scans to average: 10
Electric dark correction enabled: true
Nonlinearity correction enabled: false
Boxcar width: 0
XAxis mode: Wavelengths
Number of Pixels in Spectrum: 2048
>>>>>Begin Spectral Data<<<<<
341.393	-3.4
341.776	-3.4
342.16	-3.4
342.543	-61.71
342.927	-72.78
343.31	-57.87
343.693	-58.09
344.077	-76.4
344.46	-47.47
344.843	-61.71
345.226	-34.59
345.61	-28.04
345.993	-7.92
346.376	-5.44
346.759	-4.53
347.142	27.33
347.525	44.28
347.908	49.93
348.291	58.97
348.674	97.38
349.057	104.16
349.44	113.2
349.823	152.3
350.206	178.74
350.588	236.82
350.971	242.47
351.354	269.13
351.737	275.46
352.119	303.93
352.502	308.45
352.884	289.02
353.267	316.59
353.65	330.82
354.032	334.21
354.414	350.03
354.797	335.8
355.179	370.37
355.562	357.72
355.944	343.71
356.326	379.18
356.709	381.22
357.091	382.35
357.473	371.73
357.855	383.93
358.238	380.09
358.62	389.81
359.002	393.65
359.384	419.41
359.766	355.91
360.148	388.68
360.53	390.26
360.912	384.38
361.294	394.33
361.676	384.83
362.057	391.84
362.439	394.33
362.821	377.6
363.203	377.15
363.584	374.44
363.966	372.63
364.348	363.82
364.729	351.62
365.111	362.24
365.493	371.05
365.874	376.47
366.256	364.5
366.637	381.22
367.019	379.41
367.4	372.41
367.781	336.02
368.163	386.19
368.544	365.85
368.925	380.99
369.306	358.17
369.688	382.35
370.069	357.72
370.45	371.05
370.831	373.99
371.212	388.45
371.593	373.76
371.974	391.16
372.355	373.99
372.736	374.67
373.117	385.96
373.498	386.64
373.879	370.82
374.26	375.8
374.641	373.99
375.021	372.86
375.402	362.91
375.783	390.48
376.163	396.13
376.544	381.22
376.925	390.03
377.305	404.95
377.686	397.04
378.066	415.34
378.447	404.95
378.827	416.25
379.208	416.7
379.588	415.57
379.968	424.16
380.349	428.68
380.729	419.18
381.109	402.91
381.489	420.77
381.87	445.4
382.25	437.94
382.63	423.93
383.01	417.83
383.39	422.12
383.77	434.78
384.15	442.01
384.53	449.69
384.91	433.87
385.29	449.47
385.67	450.14
386.049	444.49
386.429	463.02
386.809	435.91
387.189	470.93
387.568	450.82
387.948	444.72
388.328	474.1
388.707	489.01
389.087	449.92
389.466	464.83
389.846	473.65
390.225	471.16
390.605	470.93
390.984	506.87
391.363	486.53
391.743	459.41
392.122	486.53
392.501	496.24
392.881	512.29
393.26	518.16
393.639	495.34
394.018	508.22
394.397	522.01
394.776	515.45
395.155	511.61
395.534	506.19
395.913	519.52
396.292	523.81
396.671	520.42
397.05	521.55
397.429	504.38
397.808	535.11
398.186	532.18
398.565	530.37
398.944	539.63
399.323	550.93
399.701	535.79
400.08	533.31
400.458	570.59
400.837	569.91
401.215	563.36
401.594	582.8
401.972	570.14
402.351	577.82
402.729	593.87
403.107	548.67
403.486	572.63
403.864	595
404.242	575.11
404.62	594.09
404.999	601.1
405.377	605.62
405.755	603.59
406.133	586.64
406.511	608.33
406.889	618.73
407.267	615.34
407.645	640.87
408.023	635.68
408.401	642.45
408.779	630.03
409.156	618.73
409.534	635.9
409.912	652.85
410.29	666.18
410.667	676.35
411.045	650.82
411.422	680.19
411.8	703.7
412.178	688.33
412.555	702.79
412.933	707.76
413.31	703.7
413.687	687.88
414.065	726.97
414.442	737.82
414.819	740.08
415.197	754.32
415.574	776.01
415.951	755.45
416.328	762.9
416.705	774.43
417.082	778.5
417.46	743.02
417.837	788.67
418.214	800.87
418.591	787.99
418.967	790.47
419.344	808.1
419.721	791.6
420.098	780.08
420.475	831.38
420.852	833.18
421.228	818.27
421.605	804.71
421.982	827.76
422.358	847.42
422.735	884.03
423.111	850.58
423.488	853.75
423.864	856.01
424.241	900.53
424.617	878.83
424.994	862.79
425.37	886.06
425.746	888.32
426.123	910.7
426.499	925.61
426.875	921.54
427.251	925.84
427.627	958.38
428.003	966.97
428.379	942.56
428.756	951.83
429.132	958.83
429.507	1007.87
429.883	1002.22
430.259	989.56
430.635	984.37
431.011	1020.07
431.387	1038.6
431.763	1033.86
432.138	1045.16
432.514	1070.69
432.89	1091.48
433.265	1103.01
433.641	1087.64
434.016	1112.95
434.392	1119.73
434.767	1123.12
435.143	1129
435.518	1159.73
435.894	1141.2
436.269	1142.55
436.644	1156.34
437.02	1190.46
437.395	1192.95
437.77	1183.23
438.145	1220.74
438.52	1222.33
438.895	1230.01
439.271	1223.46
439.646	1252.38
440.021	1256.9
440.395	1279.5
440.77	1256.22
441.145	1272.72
441.52	1275.21
441.895	1276.79
442.27	1295.32
442.645	1289.67
443.019	1295.77
443.394	1303
443.769	1320.63
444.143	1353.85
444.518	1314.53
444.892	1327.41
445.267	1375.54
445.641	1367.63
446.016	1379.38
446.39	1377.35
446.764	1366.5
447.139	1354.53
447.513	1394.98
447.887	1373.96
448.262	1402.89
448.636	1403.56
449.01	1470.68
449.384	1448.76
449.758	1460.29
450.132	1458.93
450.506	1455.09
450.88	1490.79
451.254	1531.02
451.628	1511.58
452.002	1533.5
452.376	1558.36
452.75	1538.93
453.123	1579.83
453.497	1573.5
453.871	1573.73
454.244	1599.27
454.618	1643.11
454.992	1628.42
455.365	1616.44
455.739	1675.65
456.112	1702.54
456.486	1722.65
456.859	1753.84
457.232	1765.14
457.606	1707.96
457.979	1779.83
458.352	1767.85
458.725	1808.07
459.099	1849.88
459.472	1868.86
459.845	1896.21
460.218	1891.91
460.591	1907.28
460.964	1902.76
461.337	1956.09
461.71	1956.54
462.083	2012.81
462.456	1974.85
462.829	1989.76
463.201	2058.01
463.574	2045.81
463.947	2089.2
464.32	2158.35
464.692	2099.59
465.065	2160.16
465.438	2194.28
465.81	2183.43
466.183	2237.67
466.555	2262.75
466.928	2262.53
467.3	2290.32
467.672	2341.17
468.045	2379.81
468.417	2368.96
468.789	2386.14
469.161	2389.53
469.534	2439.47
469.906	2498.68
470.278	2515.17
470.65	2546.36
471.022	2581.16
471.394	2630.65
471.766	2654.15
472.138	2668.16
472.51	2686.24
472.882	2731.44
473.253	2759.91
473.625	2809.86
473.997	2894.83
474.369	2893.47
474.74	2930.08
475.112	2961.94
475.484	3035.84
475.855	3061.6
476.227	3086.46
476.598	3153.58
476.97	3205.33
477.341	3223.86
477.713	3326.23
478.084	3336.62
478.455	3399.9
478.827	3453.91
479.198	3485.09
479.569	3514.92
479.94	3607.12
480.311	3622.04
480.682	3756.5
481.053	3783.62
481.424	3792.2
481.795	3885.53
482.166	3884.63
482.537	3998.07
482.908	4070.61
483.279	4105.64
483.65	4176.37
484.021	4224.73
484.391	4251.17
484.762	4318.06
485.133	4351.74
485.503	4429.02
485.874	4520.32
486.244	4528.68
486.615	4591.5
486.985	4647.55
487.356	4718.51
487.726	4786.75
488.097	4862.46
488.467	4856.13
488.837	5000.98
489.207	5051.6
489.578	5037.59
489.948	5146.07
490.318	5231.03
490.688	5223.35
491.058	5334.08
491.428	5392.61
491.798	5429
492.168	5534.98
492.538	5591.48
492.908	5635.09
493.278	5662.89
493.648	5688.42
494.017	5770.23
494.387	5805.93
494.757	5880.96
495.126	5910.79
495.496	5915.99
495.866	6012.71
496.235	6090.22
496.605	6108.75
496.974	6110.79
497.344	6232.14
497.713	6223.55
498.082	6364.79
498.452	6343.1
498.821	6360.27
499.19	6408.18
499.559	6507.84
499.928	6561.85
500.298	6543.99
500.667	6626.03
501.036	6652.69
501.405	6672.13
501.774	6672.35
502.143	6789.64
502.512	6760.03
502.88	6872.8
503.249	6926.58
503.618	6945.79
503.987	6948.05
504.356	7014.26
504.724	7074.6
505.093	7149.85
505.462	7171.1
505.83	7183.75
506.199	7228.04
506.567	7358.89
506.936	7335.39
507.304	7492.9
507.672	7457.87
508.041	7515.04
508.409	7639.11
508.777	7657.64
509.145	7697.64
509.514	7763.4
509.882	7827.58
510.25	7818.31
510.618	7889.95
510.986	7919.78
511.354	8007.68
511.722	8026.67
512.09	8138.53
512.458	8169.04
512.826	8311.86
513.193	8280.9
513.561	8317.28
513.929	8407
514.297	8431.63
514.664	8539.42
515.032	8648.8
515.4	8742.13
515.767	8744.84
516.135	8814.22
516.502	8764.95
516.869	8973.99
517.237	8953.65
517.604	9035
517.972	9006.53
518.339	9203.13
518.706	9203.13
519.073	9273.19
519.44	9343.24
519.808	9450.58
520.175	9434.99
520.542	9597.7
520.909	9650.13
521.276	9709.34
521.643	9780.29
522.009	9907.52
522.376	9954.98
522.743	10058.03
523.11	10166.27
523.477	10204.24
523.843	10313.39
524.21	10381.86
524.577	10522.2
524.943	10591.57
525.31	10586.37
525.676	10760.38
526.043	10804.45
526.409	10947.27
526.776	11067.49
527.142	11168.28
527.508	11149.3
527.874	11312.68
528.241	11317.88
528.607	11377.54
528.973	11471.32
529.339	11541.6
529.705	11720.13
530.071	11783.63
530.437	11817.98
530.803	11986.56
531.169	12055.71
531.535	12037.18
531.901	12184.3
532.267	12153.56
532.632	12337.74
532.998	12337.29
533.364	12504.52
533.73	12540.9
534.095	12614.12
534.461	12715.58
534.826	12782.93
535.192	12809.37
535.557	12997.38
535.923	12985.41
536.288	13018.17
536.653	13228.79
537.019	13241.45
537.384	13257.72
537.749	13411.38
538.114	13409.58
538.479	13438.28
538.845	13637.59
539.21	13625.62
539.575	13706.52
539.94	13871.26
540.305	13893.86
540.67	13909.9
541.034	14022.67
541.399	14235.09
541.764	14226.05
542.129	14278.93
542.494	14405.71
542.858	14442.09
543.223	14558.93
543.587	14648.64
543.952	14635.76
544.316	14854.06
544.681	14789.43
545.045	14977.67
545.41	15093.6
545.774	15166.37
546.138	15298.34
546.503	15328.4
546.867	15367.72
547.231	15646.35
547.595	15694.94
547.959	15725.45
548.324	15880.7
548.688	15911.66
549.052	16014.71
549.416	16140.8
549.779	16267.13
550.143	16303.06
550.507	16555.93
550.871	16649.72
551.235	16675.71
551.599	16920.22
551.962	16940.56
552.326	17096.26
552.689	17270.04
553.053	17276.37
553.417	17306.88
553.78	17704.61
554.143	17707.09
554.507	17918.61
554.87	17906.86
555.234	18273.63
555.597	18192.73
555.96	18432.5
556.323	18579.38
556.686	18764.69
557.05	19013.05
557.413	19144.79
557.776	19324.68
558.139	19426.59
558.502	19556.53
558.865	19798.79
559.228	20002.17
559.59	20161.49
559.953	20353.35
560.316	20631.76
560.679	20804.64
561.041	21054.12
561.404	21133.67
561.767	21485.07
562.129	21586.54
562.492	22012.51
562.854	22084.83
563.217	22180.65
563.579	22469.9
563.941	22671.71
564.304	22934.52
564.666	23230.56
565.028	23448.41
565.39	23517.79
565.753	23875.74
566.115	24231.89
566.477	24375.62
566.839	24723.63
567.201	24953
567.563	25083.17
567.925	25483.38
568.287	25647.9
568.648	25895.58
569.01	26148.9
569.372	26455.34
569.734	26494.66
570.095	26994.3
570.457	27257.57
570.819	27448.53
571.18	27633.61
571.542	27995.86
571.903	28221.16
572.265	28581.16
572.626	28784.09
572.987	29066.79
573.349	29304.98
573.71	29626.78
574.071	29883.95
574.432	30020.67
574.794	30514.66
575.155	30551.95
575.516	30766.63
575.877	31017.7
576.238	31274.64
576.599	31623.11
576.96	31841.41
577.32	32016.77
577.681	32231.45
578.042	32485.46
578.403	32804.77
578.763	32935.62
579.124	33125.44
579.485	33451.31
579.845	33745.09
580.206	33926.33
580.566	34129.03
580.927	34328.8
581.287	34596.59
581.648	34634.1
582.008	34995.45
582.368	34995.68
582.728	35467.53
583.089	35479.5
583.449	35674.08
583.809	35951.36
584.169	36084.23
584.529	36054.41
584.889	36633.6
585.249	36509.99
585.609	36598.12
585.969	37001.72
586.329	37140.25
586.688	37274.71
587.048	37565.78
587.408	37501.82
587.768	37858.2
588.127	37983.85
588.487	38143.62
588.846	38527.79
589.206	38392.42
589.565	38657.95
589.925	38851.62
590.284	38916.7
590.643	38956.48
591.003	39426.97
591.362	39731.6
591.721	39819.5
592.08	39999.61
592.44	40116.9
592.799	40287.29
593.158	40349.43
593.517	40535.64
593.876	40563.89
594.235	40775.41
594.593	40880.04
594.952	41265.57
595.311	41228.96
595.67	41586.01
596.029	41753.69
596.387	41962.05
596.746	42120.46
597.104	41903.74
597.463	42355.71
597.822	42617.17
598.18	42574.46
598.538	42605.87
598.897	43160.66
599.255	42792.31
599.613	43681.55
599.972	43417.38
600.33	43682.45
600.688	43701.66
601.046	43923.12
601.404	44208.99
601.762	44119.73
602.12	44462.09
602.478	44684.69
602.836	44761.29
603.194	44750.9
603.552	44868.18
603.91	44898.92
604.268	45302.07
604.625	45359.7
604.983	45686.69
605.341	45612.57
605.698	45834.94
606.056	46266.11
606.413	46222.05
606.771	46510.4
607.128	46694.13
607.485	46645.77
607.843	46770.51
608.2	47017.51
608.557	47277.39
608.914	47206.65
609.272	47580.43
609.629	47824.94
609.986	48051.15
610.343	47819.75
610.7	48297.92
611.057	48289.56
611.414	48320.3
611.771	48500.41
612.127	48743.56
612.484	48874.63
612.841	49040.28
613.198	48947.63
613.554	49007.96
613.911	49458.8
614.267	49491.57
614.624	49516.42
614.98	49790.54
615.337	50136.97
615.693	50153.7
616.05	50203.41
616.406	50525.66
616.762	50356.85
617.118	50455.61
617.475	50594.36
617.831	50678.88
618.187	50861.47
618.543	50959.55
618.899	51136.27
619.255	51157.51
619.611	51287
619.967	51452.19
620.323	51649.7
620.678	51536.26
621.034	51589.14
621.39	51757.04
621.746	51802.24
622.101	52210.14
622.457	52025.06
622.812	52167.43
623.168	52352.73
623.523	52371.72
623.879	52643.57
624.234	52363.58
624.589	52630.47
624.945	52675.44
625.3	52830.01
625.655	52811.7
626.01	52929.89
626.365	53002.66
626.72	53012.15
627.075	53076.33
627.43	53164.24
627.785	53127.85
628.14	53239.04
628.495	53389.32
628.85	53353.39
629.205	53249.66
629.559	53450.78
629.914	53397.23
630.269	53565.36
630.623	53497.11
630.978	53562.87
631.332	53742.53
631.687	53864.33
632.041	53772.36
632.396	53923.99
632.75	53770.32
633.104	53955.86
633.459	53780.94
633.813	53909.3
634.167	53945.91
634.521	53933.03
634.875	54097.32
635.229	54086.25
635.583	53955.4
635.937	54096.42
636.291	54077.89
636.645	54213.48
636.999	54164.44
637.352	54243.76
637.706	54203.98
638.06	54291.44
638.413	54318.56
638.767	54273.36
639.121	54351.33
639.474	54340.7
639.828	54378.22
640.181	54493.02
640.534	54568.27
640.888	54473.81
641.241	54307.71
641.594	54503.86
641.947	54614.82
642.301	54518.33
642.654	54630.64
643.007	54671.99
643.36	54762.84
643.713	54656.4
644.066	54862.72
644.419	54595.39
644.771	54337.99
645.124	54100.94
645.477	54105
645.83	54011.9
646.182	54014.38
646.535	54190.2
646.888	54372.34
647.24	54238.33
647.593	54436.75
647.945	54407.59
648.298	54378.67
648.65	54411.66
649.002	54481.94
649.355	54449.18
649.707	54385.22
650.059	54567.36
650.411	54807.58
650.763	54895.27
651.115	55199.66
651.467	55217.29
651.819	55140
652.171	55232.88
652.523	55213
652.875	55155.6
653.227	55139.1
653.578	55327.8
653.93	55382.03
654.282	55201.7
654.633	55251.41
654.985	55474.69
655.337	55505.42
655.688	55580.67
656.039	55616.6
656.391	55354.91
656.742	55460.67
657.094	55450.51
657.445	55734.57
657.796	55628.13
658.147	55607.79
658.498	55697.96
658.849	55757.84
659.2	55810.5
659.551	55730.5
659.902	55810.95
660.253	55710.16
660.604	55870.16
660.955	55700.22
661.306	55923.26
661.656	55871.74
662.007	55903.6
662.358	56037.61
662.708	55970.27
663.059	56012.3
663.409	55878.74
663.76	56037.61
664.11	56151.05
664.461	56273.76
664.811	56242.12
665.161	56146.98
665.511	56169.81
665.862	56278.96
666.212	56406.86
666.562	56435.34
666.912	56497.48
667.262	56352.63
667.612	56358.73
667.962	56419.07
668.312	56449.8
668.662	56560.98
669.011	56534.09
669.361	56621.77
669.711	56529.8
670.06	56578.16
670.41	56551.49
670.76	56624.49
671.109	56712.62
671.459	56665.39
671.808	56673.52
672.157	56836.68
672.507	56680.53
672.856	56690.7
673.205	56777.02
673.554	56858.15
673.904	56798.27
674.253	56843.69
674.602	56783.13
674.951	56462.91
675.3	56408.9
675.649	56877.59
675.998	56909
676.346	56947.64
676.695	57097.69
677.044	56919.62
677.393	56974.08
677.741	57004.59
678.09	56916.46
678.438	56935.44
678.787	56988.32
679.135	57096.56
679.484	56907.87
679.832	56998.26
680.181	56805.27
680.529	56984.93
680.877	56852.5
681.225	56913.97
681.573	57122.33
681.922	57001.88
682.27	56922.1
682.618	56984.02
682.966	56941.99
683.314	57073.97
683.661	56991.71
684.009	56891.37
684.357	56891.82
684.705	56872.61
685.053	56918.26
685.4	56890.92
685.748	56913.52
686.095	56891.15
686.443	56913.52
686.79	56815.67
687.138	56866.06
687.485	56813.63
687.832	56785.84
688.18	56821.54
688.527	56778.61
688.874	56876.68
689.221	56733.18
689.568	56703.13
689.915	56645.5
690.262	56554.66
690.609	56581.55
690.956	56543.36
691.303	56558.27
691.65	56522.12
691.997	56466.07
692.344	56458.61
692.69	56385.85
693.037	56460.65
693.383	56243.93
693.73	56426.75
694.077	56318.73
694.423	56357.37
694.769	56279.64
695.116	56222.46
695.462	56131.17
695.808	56149.02
696.155	56194.21
696.501	56029.47
696.847	56039.19
697.193	55823.83
697.539	55976.37
697.885	55742.93
698.231	55712.65
698.577	55797.61
698.923	55826.99
699.269	55757.16
699.614	55678.3
699.96	55617.51
700.306	55615.25
700.651	55573.44
700.997	55515.59
701.342	55518.98
701.688	55486.66
702.033	55380
702.379	55505.42
702.724	55436.95
703.069	55546.55
703.415	55268.36
703.76	55287.12
704.105	55265.65
704.45	55158.54
704.795	55033.12
705.14	55017.75
705.485	55077.41
705.83	55050.97
706.175	55096.84
706.52	55070.4
706.865	54916.96
707.209	54901.82
707.554	54805.32
707.899	54909.95
708.243	54900.92
708.588	54850.07
708.932	54726.91
709.277	54737.3
709.621	54773.91
709.966	54594.48
710.31	54738.21
710.654	54507.03
710.998	54543.64
711.342	54510.64
711.687	54522.39
712.031	54417.31
712.375	54374.83
712.719	54390.87
713.063	54386.35
713.407	54408.95
713.75	54221.61
714.094	54360.14
714.438	54237.66
714.782	54265.23
715.125	54146.36
715.469	54238.56
715.812	53961.73
716.156	54083.76
716.499	54102.74
716.843	54113.14
717.186	54019.36
717.53	54210.76
717.873	54173.7
718.216	54054.16
718.559	53895.52
718.902	53801.51
719.246	53994.27
719.589	53822.75
719.932	53825.01
720.275	53802.19
720.617	53703.88
720.96	53776.65
721.303	53845.8
721.646	53790.89
721.989	53548.63
722.331	53758.57
722.674	53743.43
723.016	53610.1
723.359	53600.38
723.701	53747.27
724.044	53542.98
724.386	53364.68
724.729	53625.24
725.071	53587.96
725.413	53552.7
725.755	53516.54
726.097	53466.15
726.439	53228.87
726.782	53311.13
727.124	53468.64
727.465	53380.5
727.807	53338.47
728.149	53328.98
728.491	53184.35
728.833	53335.08
729.175	53214.41
729.516	53285.36
729.858	53106.61
730.199	53226.83
730.541	53197.91
730.882	53078.14
731.224	53282.65
731.565	53196.33
731.906	53182.77
732.248	53266.16
732.589	53125.82
732.93	53013.51
733.271	53062.09
733.612	53106.84
733.953	53106.39
734.294	53074.3
734.635	53094.64
734.976	53120.85
735.317	52944.58
735.658	53026.16
735.999	52975.99
736.339	52994.75
736.68	53095.54
737.021	53020.06
737.361	52846.51
737.702	53052.6
738.042	52888.54
738.383	52854.87
738.723	52932.83
739.063	52760.18
739.404	52861.87
739.744	52828.43
740.084	52665.95
740.424	52741.65
740.764	52661.65
741.104	52707.07
741.444	52630.92
741.784	52601.31
742.124	52655.55
742.464	52646.96
742.804	52536.23
743.143	52474.99
743.483	52573.52
743.823	52458.49
744.162	52379.63
744.502	52510.24
744.841	52386.18
745.181	52525.38
745.52	52396.12
745.86	52533.29
746.199	52464.37
746.538	52366.74
746.877	52361.09
747.216	52492.84
747.556	52428.44
747.895	52418.27
748.234	52270.93
748.573	52275.9
748.911	52260.98
749.25	52236.8
749.589	52188.67
749.928	52249.91
750.267	52298.95
750.605	52138.28
750.944	52066.87
751.283	52065.28
751.621	52092.4
751.96	51853.76
752.298	51810.37
752.636	51851.73
752.975	51706.65
753.313	51486.99
753.651	51748.46
753.989	51630.94
754.327	51586.65
754.666	51504.85
755.004	51579.65
755.342	51545.3
755.679	51441.12
756.017	51314.79
756.355	51432.98
756.693	51286.77
