Data from copper_heatsink_FLMS001491_069.txt Node
Date: Tue Feb 07 10:50:22 GMT 2017
User: dcchb
Spectrometer: FLMS00149
Trigger mode: 0
Integration Time (sec): 2.000000E-2
Scans to average: 10
Electric dark correction enabled: true
Nonlinearity correction enabled: false
Boxcar width: 0
XAxis mode: Wavelengths
Number of Pixels in Spectrum: 2048
>>>>>Begin Spectral Data<<<<<
341.393	-25.21
341.776	-25.21
342.16	-25.21
342.543	-46.68
342.927	-71.09
343.31	-69.96
343.693	-84.64
344.077	-66.11
344.46	-60.46
344.843	-42.84
345.226	-45.1
345.61	-27.92
345.993	-12.78
346.376	-20.01
346.759	1.68
347.142	42.58
347.525	47.33
347.908	66.54
348.291	86.2
348.674	97.72
349.057	87.78
349.44	121.45
349.823	135.01
350.206	175.24
350.588	209.13
350.971	194.9
351.354	219.3
351.737	232.18
352.119	240.32
352.502	252.52
352.884	256.14
353.267	286.19
353.65	313.76
354.032	300.43
354.414	297.04
354.797	303.82
355.179	330.03
355.562	337.27
355.944	308.57
356.326	324.16
356.709	328.68
357.091	330.03
357.473	325.29
357.855	337.94
358.238	317.83
358.62	329.58
359.002	323.03
359.384	319.19
359.766	340.88
360.148	325.74
360.53	350.82
360.912	316.02
361.294	323.03
361.676	323.25
362.057	345.4
362.439	315.34
362.821	342.46
363.203	318.06
363.584	322.35
363.966	324.84
364.348	297.04
364.729	318.96
365.111	330.26
365.493	320.09
365.874	316.02
366.256	307.89
366.637	315.8
367.019	314.67
367.4	307.66
367.781	330.71
368.163	292.29
368.544	332.52
368.925	325.74
369.306	301.33
369.688	306.31
370.069	310.83
370.45	302.69
370.831	310.37
371.212	292.52
371.593	304.72
371.974	311.96
372.355	327.55
372.736	309.7
373.117	318.28
373.498	330.26
373.879	302.69
374.26	303.82
374.641	326.87
375.021	318.28
375.402	329.81
375.783	305.18
376.163	328.45
376.544	322.8
376.925	326.19
377.305	323.48
377.686	318.06
378.066	319.41
378.447	333.42
378.827	312.18
379.208	309.92
379.588	322.35
379.968	344.95
380.349	325.51
380.729	306.53
381.109	344.27
381.489	327.55
381.87	321.22
382.25	320.99
382.63	341.56
383.01	329.58
383.39	329.58
383.77	337.72
384.15	336.14
384.53	332.75
384.91	339.98
385.29	328.23
385.67	343.82
386.049	356.25
386.429	337.94
386.809	370.94
387.189	337.49
387.568	346.08
387.948	344.95
388.328	333.2
388.707	336.81
389.087	356.47
389.466	352.63
389.846	346.76
390.225	353.99
390.605	340.88
390.984	356.93
391.363	364.38
391.743	369.13
392.122	352.63
392.501	365.29
392.881	342.46
393.26	352.86
393.639	374.33
394.018	366.64
394.397	370.94
394.776	382.01
395.155	379.07
395.534	377.04
395.913	375.46
396.292	380.2
396.671	382.91
397.05	357.6
397.429	369.81
397.808	393.08
398.186	373.2
398.565	389.69
398.944	380.43
399.323	378.39
399.701	385.85
400.08	385.17
400.458	387.43
400.837	380.88
401.215	405.29
401.594	394.21
401.972	380.43
402.351	386.98
402.729	392.18
403.107	398.05
403.486	378.85
403.864	408.68
404.242	403.7
404.62	394.66
404.999	412.07
405.377	406.42
405.755	412.52
406.133	400.99
406.511	405.51
406.889	420.2
407.267	414.78
407.645	397.38
408.023	408.68
408.401	438.96
408.779	408.9
409.156	438.28
409.534	429.47
409.912	443.25
410.29	419.75
410.667	420.88
411.045	426.75
411.422	429.24
411.8	437.38
412.178	446.19
412.555	442.12
412.933	448.22
413.31	434.89
413.687	433.31
414.065	445.74
414.442	467.88
414.819	453.65
415.197	449.13
415.574	457.04
415.951	461.33
416.328	455.68
416.705	455.23
417.082	467.43
417.46	475.11
417.837	481.22
418.214	474.89
418.591	471.27
418.967	477.15
419.344	485.96
419.721	475.34
420.098	472.4
420.475	464.49
420.852	512.18
421.228	483.93
421.605	487.09
421.982	480.09
422.358	471.05
422.735	510.14
423.111	507.88
423.488	477.83
423.864	504.27
424.241	499.75
424.617	502.23
424.994	511.95
425.37	521.67
425.746	520.99
426.123	532.97
426.499	515.34
426.875	499.07
427.251	513.76
427.627	522.12
428.003	545.85
428.379	525.28
428.756	521.22
429.132	536.13
429.507	567.32
429.883	540.88
430.259	522.8
430.635	564.6
431.011	552.63
431.387	572.29
431.763	572.51
432.138	554.43
432.514	589.69
432.89	568.9
433.265	562.12
433.641	603.47
434.016	570.48
434.392	585.85
434.767	579.29
435.143	603.02
435.518	607.09
435.894	597.82
436.269	611.61
436.644	608.9
437.02	617.26
437.395	626.98
437.77	619.97
438.145	631.49
438.52	626.07
438.895	610.48
439.271	617.71
439.646	656.35
440.021	658.16
440.395	640.31
440.77	640.99
441.145	642.12
441.52	649.35
441.895	643.7
442.27	669.91
442.645	658.61
443.019	664.94
443.394	673.75
443.769	659.74
444.143	671.95
444.518	671.04
444.892	663.81
445.267	681.89
445.641	707.2
446.016	678.95
446.39	700.65
446.764	692.74
447.139	691.38
447.513	715.56
447.887	719.85
448.262	710.59
448.636	707.65
449.01	718.5
449.384	724.15
449.758	701.32
450.132	732.51
450.506	718.72
450.88	738.61
451.254	742
451.628	740.87
452.002	760.3
452.376	765.73
452.75	780.42
453.123	766.86
453.497	768.21
453.871	765.5
454.244	799.17
454.618	791.49
454.992	796.24
455.365	792.85
455.739	814.31
456.112	805.73
456.486	805.05
456.859	818.16
457.232	828.78
457.606	829.23
457.979	833.75
458.352	844.14
458.725	887.53
459.099	866.06
459.472	850.92
459.845	877.14
460.218	894.31
460.591	896.35
460.964	901.32
461.337	894.09
461.71	937.02
462.083	942.22
462.456	906.29
462.829	942
463.201	935.89
463.574	940.87
463.947	923.46
464.32	958.04
464.692	958.94
465.065	1000.3
465.438	987.42
465.81	1015.67
466.183	999.39
466.555	1011.82
466.928	1037.13
467.3	1028.32
467.672	1061.09
468.045	1094.53
468.417	1073.52
468.789	1068.55
469.161	1095.21
469.534	1077.13
469.906	1118.04
470.278	1136.79
470.65	1123.91
471.022	1144.25
471.394	1176.34
471.766	1135.44
472.138	1165.94
472.51	1212.04
472.882	1226.96
473.253	1236.45
473.625	1243.23
473.997	1262.44
474.369	1241.42
474.74	1295.21
475.112	1277.35
475.484	1335.88
475.855	1325.49
476.227	1335.88
476.598	1371.14
476.97	1380.85
477.341	1402.1
477.713	1415.43
478.084	1444.13
478.455	1469.66
478.827	1477.57
479.198	1508.08
479.569	1540.85
479.94	1527.29
480.311	1570.45
480.682	1589.89
481.053	1620.85
481.424	1658.59
481.795	1654.07
482.166	1664.69
482.537	1713.73
482.908	1725.03
483.279	1753.95
483.65	1762.09
484.021	1812.71
484.391	1822.42
484.762	1810.45
485.133	1855.42
485.503	1855.42
485.874	1887.73
486.244	1936.55
486.615	1973.83
486.985	2000.05
487.356	2048.86
487.726	2017.22
488.097	2070.78
488.467	2092.93
488.837	2127.95
489.207	2155.3
489.578	2179.25
489.948	2193.26
490.318	2197.78
490.688	2239.81
491.058	2280.94
491.428	2284.78
491.798	2302.19
492.168	2302.19
492.538	2327.27
492.908	2366.36
493.278	2433.03
493.648	2428.74
494.017	2436.42
494.387	2480.49
494.757	2471.67
495.126	2541.05
495.496	2529.75
495.866	2590.09
496.235	2581.27
496.605	2616.98
496.974	2619.01
497.344	2650.2
497.713	2651.1
498.082	2671.67
498.452	2699.91
498.821	2699.46
499.19	2741.5
499.559	2744.89
499.928	2756.86
500.298	2758.67
500.667	2831.89
501.036	2830.98
501.405	2850.19
501.774	2863.3
502.143	2911.43
502.512	2902.85
502.88	2911.89
503.249	2933.36
503.618	2981.49
503.987	2991.88
504.356	2998.66
504.724	3028.04
505.093	3040.24
505.462	3025.1
505.83	3112.79
506.199	3091.09
506.567	3129.73
506.936	3105.33
507.304	3166.12
507.672	3181.94
508.041	3244.08
508.409	3223.29
508.777	3233.01
509.145	3299.22
509.514	3335.6
509.882	3337.41
510.25	3322.27
510.618	3380.8
510.986	3370.86
511.354	3421.93
511.722	3441.59
512.09	3511.64
512.458	3487.01
512.826	3455.15
513.193	3491.31
513.561	3539.44
513.929	3598.65
514.297	3617.18
514.664	3647.91
515.032	3682.71
515.4	3696.95
515.767	3673.67
516.135	3745.76
516.502	3712.09
516.869	3818.08
517.237	3820.79
517.604	3815.14
517.972	3820.34
518.339	3890.84
518.706	3882.71
519.073	3914.8
519.44	3910.96
519.808	3968.81
520.175	3958.86
520.542	4054
520.909	4116.37
521.276	4091.97
521.643	4185.98
522.009	4159.99
522.376	4175.81
522.743	4221.68
523.11	4261
523.477	4292.87
523.843	4333.77
524.21	4365.18
524.577	4412.19
524.943	4433.88
525.31	4478.85
525.676	4474.78
526.043	4551.17
526.409	4543.03
526.776	4625.51
527.142	4618.96
527.508	4694.21
527.874	4681.56
528.241	4702.35
528.607	4747.54
528.973	4785.51
529.339	4831.61
529.705	4891.04
530.071	4935.56
530.437	4950.48
530.803	4973.75
531.169	4979.85
531.535	5032.96
531.901	5034.32
532.267	5034.54
532.632	5111.15
532.998	5133.52
533.364	5186.86
533.73	5214.88
534.095	5190.47
534.461	5235.44
534.826	5283.58
535.192	5316.34
535.557	5334.65
535.923	5339.85
536.288	5384.36
536.653	5465.04
537.019	5482.67
537.384	5493.97
537.749	5511.82
538.114	5548.2
538.479	5577.13
538.845	5576.22
539.21	5594.75
539.575	5599.95
539.94	5684.24
540.305	5733.96
540.67	5714.52
541.034	5759.04
541.399	5794.07
541.764	5827.74
542.129	5831.58
542.494	5911.36
542.858	5910.68
543.223	5903.67
543.587	6008.53
543.952	6001.3
544.316	5983.22
544.681	6062.76
545.045	6086.94
545.41	6109.77
545.774	6126.94
546.138	6201.29
546.503	6143.44
546.867	6225.92
547.231	6286.26
547.595	6350.21
547.959	6410.1
548.324	6395.64
548.688	6442.87
549.052	6508.4
549.416	6529.42
549.779	6489.87
550.143	6631.79
550.507	6654.84
550.871	6675.63
551.235	6721.28
551.599	6805.57
551.962	6827.49
552.326	6820.94
552.689	6920.37
553.053	6872.69
553.417	6890.99
553.78	7059.12
554.143	7116.97
554.507	7126.69
554.87	7199.68
555.234	7265.22
555.597	7278.55
555.96	7308.83
556.323	7408.94
556.686	7429.73
557.05	7587.24
557.413	7580.69
557.776	7651.65
558.139	7739.78
558.502	7748.6
558.865	7852.77
559.228	7946.78
559.59	7964.64
559.953	8064.75
560.316	8153.56
560.679	8210.73
561.041	8244.63
561.404	8344.06
561.767	8396.49
562.129	8457.73
562.492	8605.97
562.854	8557.84
563.217	8670.83
563.579	8783.82
563.941	8885.74
564.304	8995.79
564.666	9080.09
565.028	9192.85
565.39	9233.08
565.753	9292.28
566.115	9332.73
566.477	9481.88
566.839	9527.31
567.201	9643.01
567.563	9736.11
567.925	9844.13
568.287	9908.54
568.648	10006.16
569.01	10030.8
569.372	10119.61
569.734	10188.08
570.095	10299.49
570.457	10415.64
570.819	10455.19
571.18	10509.65
571.542	10708.07
571.903	10807.95
572.265	10879.13
572.626	10941.28
572.987	10920.49
573.349	11059.02
573.71	11119.81
574.071	11245
574.432	11396.86
574.794	11455.39
575.155	11556.86
575.516	11487.71
575.877	11647.48
576.238	11736.29
576.599	11834.82
576.96	11875.72
577.32	12002.27
577.681	12094.24
578.042	12105.09
578.403	12178.08
578.763	12253.56
579.124	12371.07
579.485	12419.89
579.845	12500.56
580.206	12569.71
580.566	12620.11
580.927	12605.64
581.287	12660.33
581.648	12766.99
582.008	12832.53
582.368	12908.23
582.728	13018.51
583.089	12953.2
583.449	13056.25
583.809	13130.38
584.169	13172.41
584.529	13238.85
584.889	13322.01
585.249	13338.05
585.609	13289.47
585.969	13565.39
586.329	13467.99
586.688	13539.18
587.048	13582.11
587.408	13547.99
587.768	13696.01
588.127	13656.24
588.487	13750.02
588.846	13832.05
589.206	13831.6
589.565	13849.45
589.925	14010.35
590.284	13991.14
590.643	13970.35
591.003	14108.88
591.362	14185.94
591.721	14164.7
592.08	14229.56
592.44	14170.35
592.799	14268.88
593.158	14357.24
593.517	14353.39
593.876	14481.53
594.235	14434.97
594.593	14486.5
594.952	14509.77
595.311	14501.64
595.67	14592.03
596.029	14744.34
596.387	14792.25
596.746	14785.92
597.104	14699.6
597.463	14737.56
597.822	14830.44
598.18	14882.65
598.538	14875.19
598.897	15063.43
599.255	15018.24
599.613	15205.8
599.972	15155.18
600.33	15263.43
600.688	15213.71
601.046	15332.58
601.404	15334.61
601.762	15345.68
602.12	15469.3
602.478	15495.74
602.836	15468.62
603.194	15519.24
603.552	15574.83
603.91	15493.7
604.268	15639.69
604.625	15693.47
604.983	15759.46
605.341	15771.21
605.698	15814.37
606.056	15864.31
606.413	15966.68
606.771	16028.15
607.128	16012.56
607.485	16050.75
607.843	16031.99
608.2	16247.36
608.557	16297.52
608.914	16127.13
609.272	16249.62
609.629	16290.97
609.986	16380.69
610.343	16423.17
610.7	16608.25
611.057	16400.57
611.414	16550.85
611.771	16541.13
612.127	16746.78
612.484	16666.33
612.841	16796.27
613.198	16790.39
613.554	16786.55
613.911	16944.96
614.267	16920.78
614.624	16920.56
614.98	17014.11
615.337	16984.29
615.693	17104.28
616.05	17054.57
616.406	17245.97
616.762	17083.94
617.118	17172.3
617.475	17193.77
617.831	17401
618.187	17291.17
618.543	17329.13
618.899	17545.63
619.255	17496.59
619.611	17546.3
619.967	17546.53
620.323	17679.63
620.678	17592.86
621.034	17598.28
621.39	17595.79
621.746	17628.34
622.101	17791.72
622.457	17711.72
622.812	17817.71
623.168	17894.32
623.523	17861.32
623.879	17873.98
624.234	17899.06
624.589	17907.2
624.945	17940.42
625.3	18006.86
625.655	18035.78
626.01	17958.27
626.365	18058.83
626.72	17999.85
627.075	17979.74
627.43	18119.4
627.785	18072.62
628.14	18158.49
628.495	18088.89
628.85	18085.5
629.205	18045.73
629.559	18228.32
629.914	18127.31
630.269	18206.17
630.623	18087.98
630.978	18204.59
631.332	18320.75
631.687	18371.59
632.041	18251.37
632.396	18249.11
632.75	18231.71
633.104	18345.83
633.459	18264.93
633.813	18207.53
634.167	18331.59
634.521	18244.14
634.875	18396
635.229	18304.93
635.583	18241.2
635.937	18257.7
636.291	18292.95
636.645	18287.98
636.999	18293.86
637.352	18367.53
637.706	18311.03
638.06	18357.36
638.413	18357.13
638.767	18264.25
639.121	18396
639.474	18265.38
639.828	18379.28
640.181	18366.62
640.534	18456.56
640.888	18358.71
641.241	18287.3
641.594	18386.06
641.947	18497.69
642.301	18372.72
642.654	18442.78
643.007	18470.8
643.36	18442.1
643.713	18384.93
644.066	18406.85
644.419	18317.36
644.771	18176.57
645.124	18051.38
645.477	17874.21
645.83	17924.6
646.182	17881.89
646.535	17901.55
646.888	17939.51
647.24	17913.98
647.593	18012.28
647.945	17962.79
648.298	18002.56
648.65	17931.38
649.002	17930.93
649.355	17955.11
649.707	17859.97
650.059	17884.6
650.411	18095.44
650.763	18169.11
651.115	18489.56
651.467	18372.72
651.819	18410.01
652.171	18322.55
652.523	18381.31
652.875	18292.5
653.227	18235.1
653.578	18446.62
653.93	18302.67
654.282	18208.89
654.633	18297.7
654.985	18327.07
655.337	18350.58
655.688	18348.54
656.039	18460.86
656.391	18410.24
656.742	18320.52
657.094	18393.06
657.445	18487.97
657.796	18428.09
658.147	18411.82
658.498	18374.98
658.849	18446.62
659.2	18445.26
659.551	18342.44
659.902	18463.34
660.253	18442.33
660.604	18480.29
660.955	18372.95
661.306	18572.27
661.656	18365.72
662.007	18467.18
662.358	18438.48
662.708	18562.55
663.059	18535.2
663.409	18446.62
663.76	18441.42
664.11	18510.57
664.461	18579.72
664.811	18651.59
665.161	18529.56
665.511	18608.65
665.862	18553.28
666.212	18668.31
666.562	18741.53
666.912	18596.45
667.262	18638.48
667.612	18623.11
667.962	18687.97
668.312	18619.95
668.662	18717.12
669.011	18645.94
669.361	18715.09
669.711	18716.89
670.06	18775.88
670.41	18706.05
670.76	18693.39
671.109	18739.27
671.459	18711.25
671.808	18699.72
672.157	18657.24
672.507	18592.83
672.856	18675.54
673.205	18836.44
673.554	18753.96
673.904	18788.98
674.253	18839.6
674.602	18804.58
674.951	18519.16
675.3	18511.93
675.649	18786.95
675.998	18876.21
676.346	18849.55
676.695	18870.79
677.044	18702.43
677.393	18855.65
677.741	18860.17
678.09	18791.7
678.438	18706.73
678.787	18775.88
679.135	18871.92
679.484	18749.66
679.832	18865.14
680.181	18792.6
680.529	18847.51
680.877	18611.13
681.225	18741.3
681.573	18786.27
681.922	18751.02
682.27	18698.14
682.618	18713.96
682.966	18845.93
683.314	18745.14
683.661	18630.34
684.009	18601.42
684.357	18607.97
684.705	18572.72
685.053	18711.02
685.4	18616.11
685.748	18498.14
686.095	18543.79
686.443	18497.24
686.79	18440.29
687.138	18614.07
687.485	18542.44
687.832	18494.53
688.18	18566.84
688.527	18487.97
688.874	18468.31
689.221	18381.54
689.568	18471.03
689.915	18390.12
690.262	18364.59
690.609	18307.64
690.956	18229
691.303	18318.49
691.65	18143.58
691.997	18269
692.344	18128.89
692.69	18094.54
693.037	18193.74
693.383	17950.59
693.73	18220.86
694.077	17939.74
694.423	18047.76
694.769	17972.96
695.116	17894.54
695.462	17951.04
695.808	17866.75
696.155	17930.93
696.501	17796.02
696.847	17862.45
697.193	17717.6
697.539	17873.75
697.885	17696.81
698.231	17636.7
698.577	17665.17
698.923	17614.78
699.269	17552.86
699.614	17465.4
699.96	17453.2
700.306	17613.65
700.651	17445.52
700.997	17372.75
701.342	17398.96
701.688	17417.27
702.033	17347.67
702.379	17423.37
702.724	17313.32
703.069	17349.02
703.415	17122.59
703.76	17198.74
704.105	17109.03
704.45	17102.02
704.795	17107.22
705.14	17005.53
705.485	16976.83
705.83	17009.14
706.175	17082.59
706.52	17022.02
706.865	16942.93
707.209	16916.04
707.554	16876.49
707.899	16783.84
708.243	16862.25
708.588	16836.94
708.932	16672.88
709.277	16638.31
709.621	16712.43
709.966	16681.02
710.31	16647.57
710.654	16674.24
710.998	16642.37
711.342	16689.38
711.687	16688.25
712.031	16586.78
712.375	16617.97
712.719	16573.9
713.063	16497.52
713.407	16472.21
713.75	16442.15
714.094	16490.29
714.438	16502.26
714.782	16478.31
715.125	16367.35
715.469	16394.02
715.812	16267.47
716.156	16314.7
716.499	16274.47
716.843	16294.81
717.186	16177.3
717.53	16211.88
717.873	16235.6
718.216	16264.08
718.559	16119
718.902	16030.41
719.246	16203.74
719.589	16089.39
719.932	16074.48
720.275	16008.94
720.617	16082.84
720.96	16035.38
721.303	16038.55
721.646	16168.94
721.989	15972.56
722.331	16130.07
722.674	15985.89
723.016	16024.08
723.359	16019.11
723.701	15990.19
724.044	15890.3
724.386	15823.41
724.729	15759.91
725.071	15870.87
725.413	15932.11
725.755	15881.94
726.097	15853.69
726.439	15745
726.782	15681.95
727.124	15859.12
727.465	15737.54
727.807	15841.26
728.149	15823.86
728.491	15820.25
728.833	15893.01
729.175	15781.38
729.516	15716.07
729.858	15720.36
730.199	15755.84
730.541	15688.5
730.882	15763.75
731.224	15728.05
731.565	15688.5
731.906	15670.87
732.248	15719.01
732.589	15664.55
732.93	15603.3
733.271	15668.61
733.612	15608.05
733.953	15670.42
734.294	15677.43
734.635	15549.75
734.976	15637.2
735.317	15521.95
735.658	15546.58
735.999	15546.58
736.339	15497.09
736.68	15472.91
737.021	15507.49
737.361	15388.85
737.702	15556.3
738.042	15520.37
738.383	15415.51
738.723	15610.08
739.063	15474.72
739.404	15402.18
739.744	15396.53
740.084	15380.71
740.424	15401.73
740.764	15490.31
741.104	15454.83
741.444	15408.06
741.784	15381.84
742.124	15425.46
742.464	15328.06
742.804	15460.26
743.143	15326.93
743.483	15415.29
743.823	15288.96
744.162	15283.99
744.502	15397.21
744.841	15266.14
745.181	15312.69
745.52	15242.18
745.86	15269.98
746.199	15181.39
746.538	15142.07
746.877	15173.03
747.216	15179.36
747.556	15079.25
747.895	15217.1
748.234	15129.64
748.573	14984.34
748.911	15058.91
749.25	15127.61
749.589	15057.1
749.928	15082.41
750.267	15100.72
750.605	15001.06
750.944	14898.46
751.283	14903.44
751.621	14865.02
751.96	14865.92
752.298	14829.54
752.636	14833.16
752.975	14851.46
753.313	14716.55
753.651	14810.56
753.989	14781.63
754.327	14836.77
754.666	14743.67
755.004	14705.47
755.342	14783.89
755.679	14763.33
756.017	14805.81
756.355	14794.06
756.693	14731.91
757.031	14628.64
757.368	14683.33
757.706	14638.81
758.044	14576.66
758.381	14493.05
758.719	14515.42
759.056	14541.41
759.394	14494.86
759.731	14388.42
760.068	14475.65
