Data from copper_heatsink_FLMS001491_004.txt Node
Date: Tue Feb 07 10:49:03 GMT 2017
User: dcchb
Spectrometer: FLMS00149
Trigger mode: 0
Integration Time (sec): 2.000000E-2
Scans to average: 10
Electric dark correction enabled: true
Nonlinearity correction enabled: false
Boxcar width: 0
XAxis mode: Wavelengths
Number of Pixels in Spectrum: 2048
>>>>>Begin Spectral Data<<<<<
341.393	3.7
341.776	3.7
342.16	3.7
342.543	-57.54
342.927	-65.68
343.31	-66.58
343.693	-67.26
344.077	-75.39
344.46	-57.09
344.843	-65.22
345.226	-21.61
345.61	-29.29
345.993	-19.58
346.376	-8.73
346.759	0.31
347.142	12.74
347.525	44.15
347.908	54.77
348.291	84.15
348.674	94.09
349.057	120.53
349.44	114.88
349.823	140.87
350.206	167.99
350.588	230.14
350.971	259.29
351.354	253.41
351.737	278.5
352.119	290.02
352.502	317.14
352.884	330.02
353.267	308.55
353.65	344.93
354.032	347.42
354.414	349
354.797	362.79
355.179	342.9
355.562	363.69
355.944	365.27
356.326	362.34
356.709	406.85
357.091	379.96
357.473	398.49
357.855	396.91
358.238	384.48
358.62	382.9
359.002	381.09
359.384	392.39
359.766	381.54
360.148	377.02
360.53	402.33
360.912	406.85
361.294	368.89
361.676	369.79
362.057	389.91
362.439	394.42
362.821	379.06
363.203	384.03
363.584	401.43
363.966	377.25
364.348	354.2
364.729	351.26
365.111	380.41
365.493	380.41
365.874	390.13
366.256	363.92
366.637	387.42
367.019	380.87
367.4	366.18
367.781	371.83
368.163	377.48
368.544	358.04
368.925	379.28
369.306	379.74
369.688	363.01
370.069	379.74
370.45	384.93
370.831	360.08
371.212	378.15
371.593	394.2
371.974	360.98
372.355	390.13
372.736	375.67
373.117	358.04
373.498	390.58
373.879	391.03
374.26	371.6
374.641	365.5
375.021	378.61
375.402	384.03
375.783	383.35
376.163	410.24
376.544	403.92
376.925	415.89
377.305	415.67
377.686	392.39
378.066	419.51
378.447	412.28
378.827	414.31
379.208	407.98
379.588	421.54
379.968	423.35
380.349	415.44
380.729	415.22
381.109	430.36
381.489	414.76
381.87	424.03
382.25	430.81
382.63	444.37
383.01	407.98
383.39	435.1
383.77	424.25
384.15	434.2
384.53	449.79
384.91	446.63
385.29	452.05
385.67	420.41
386.049	436.01
386.429	455.21
386.809	449.11
387.189	455.44
387.568	453.18
387.948	488.89
388.328	451.15
388.707	472.61
389.087	461.54
389.466	483.46
389.846	487.53
390.225	483.01
390.605	473.74
390.984	469.45
391.363	493.86
391.743	485.27
392.122	485.72
392.501	493.18
392.881	504.7
393.26	497.02
393.639	504.7
394.018	499.96
394.397	498.38
394.776	526.62
395.155	516
395.534	509.9
395.913	512.84
396.292	509.9
396.671	533.18
397.05	539.28
397.429	533.63
397.808	537.7
398.186	535.66
398.565	544.48
398.944	559.39
399.323	538.38
399.701	544.25
400.08	568.43
400.458	577.24
400.837	565.72
401.215	571.82
401.594	558.26
401.972	553.52
402.351	575.21
402.729	568.21
403.107	581.09
403.486	585.15
403.864	581.09
404.242	617.24
404.62	591.48
404.999	583.8
405.377	613.63
405.755	621.31
406.133	611.59
406.511	593.06
406.889	628.32
407.267	636.45
407.645	623.35
408.023	651.59
408.401	643.68
408.779	649.56
409.156	649.79
409.534	678.71
409.912	662.21
410.29	680.29
410.667	675.55
411.045	679.84
411.422	709.67
411.8	689.78
412.178	700.86
412.555	707.41
412.933	709.22
413.31	716.9
413.687	711.93
414.065	723.68
414.442	720.29
414.819	746.51
415.197	745.15
415.574	749.9
415.951	740.4
416.328	756
416.705	760.74
417.082	757.13
417.46	756.22
417.837	766.84
418.214	756.68
418.591	791.25
418.967	791.02
419.344	804.13
419.721	828.99
420.098	807.97
420.475	820.63
420.852	814.98
421.228	808.65
421.605	830.12
421.982	823.11
422.358	823.57
422.735	867.63
423.111	859.5
423.488	864.02
423.864	859.5
424.241	888.42
424.617	897.69
424.994	871.02
425.37	893.62
425.746	888.87
426.123	912.38
426.499	903.11
426.875	920.06
427.251	914.19
427.627	955.54
428.003	956.67
428.379	972.04
428.756	969.78
429.132	974.07
429.507	989.21
429.883	1003.9
430.259	1019.27
430.635	1031.02
431.011	1003.45
431.387	1028.53
431.763	1053.84
432.138	1068.08
432.514	1087.51
432.89	1073.28
433.265	1097.68
433.641	1083.67
434.016	1100.85
434.392	1128.42
434.767	1123.22
435.143	1117.8
435.518	1153.95
435.894	1148.08
436.269	1164.35
436.644	1172.03
437.02	1184.46
437.395	1163.67
437.77	1181.52
438.145	1188.08
438.52	1221.3
438.895	1236.89
439.271	1237.11
439.646	1254.06
440.021	1238.24
440.395	1278.24
440.77	1262.2
441.145	1292.25
441.52	1288.41
441.895	1280.28
442.27	1273.72
442.645	1306.72
443.019	1293.84
443.394	1307.85
443.769	1329.09
444.143	1339.26
444.518	1358.69
444.892	1345.13
445.267	1348.52
445.641	1392.36
446.016	1354.63
446.39	1372.7
446.764	1359.82
447.139	1392.36
447.513	1393.27
447.887	1396.43
448.262	1400.27
448.636	1425.13
449.01	1404.79
449.384	1417.67
449.758	1459.71
450.132	1475.75
450.506	1482.53
450.88	1502.64
451.254	1468.97
451.628	1520.27
452.002	1522.98
452.376	1531.57
452.75	1549.2
453.123	1552.81
453.497	1577.67
453.871	1555.07
454.244	1624.9
454.618	1625.13
454.992	1655.18
455.365	1640.04
455.739	1675.29
456.112	1703.54
456.486	1706.48
456.859	1719.14
457.232	1738.12
457.606	1768.4
457.979	1749.42
458.352	1773.15
458.725	1817.66
459.099	1848.62
459.472	1887.04
459.845	1822.64
460.218	1879.36
460.591	1922.07
460.964	1915.51
461.337	1943.54
461.71	1969.3
462.083	1986.93
462.456	2009.3
462.829	1998.68
463.201	2039.13
463.574	2038.68
463.947	2064.66
464.32	2104.44
464.692	2141.95
465.065	2139.69
465.438	2162.51
465.81	2254.04
466.183	2203.87
466.555	2267.37
466.928	2249.97
467.3	2293.58
467.672	2262.62
468.045	2338.55
468.417	2386.46
468.789	2398.44
469.161	2426.91
469.534	2446.12
469.906	2503.75
470.278	2499.91
470.65	2534.03
471.022	2555.5
471.394	2650.64
471.766	2666.68
472.138	2690.18
472.51	2741.93
472.882	2769.05
473.253	2778.77
473.625	2836.39
473.997	2864.64
474.369	2861.48
474.74	2910.29
475.112	2943.74
475.484	3022.6
475.855	3046.56
476.227	3113.22
476.598	3164.52
476.97	3202.49
477.341	3264.41
477.713	3308.92
478.084	3312.99
478.455	3427.11
478.827	3444.74
479.198	3502.14
479.569	3515.25
479.94	3613.78
480.311	3668.69
480.682	3690.84
481.053	3784.17
481.424	3837.72
481.795	3870.72
482.166	3953.65
482.537	4010.83
482.908	4049.02
483.279	4091.73
483.65	4165.17
484.021	4213.53
484.391	4277.49
484.762	4343.02
485.133	4344.83
485.503	4399.74
485.874	4503.24
486.244	4505.05
486.615	4606.52
486.985	4682.22
487.356	4745.5
487.726	4785.5
488.097	4893.52
488.467	4896.45
488.837	4947.53
489.207	5040.86
489.578	5148.42
489.948	5171.47
490.318	5226.61
490.688	5235.2
491.058	5270.68
491.428	5426.16
491.798	5437
492.168	5534.85
492.538	5575.98
492.908	5632.25
493.278	5700.05
493.648	5684.23
494.017	5774.17
494.387	5844.68
494.757	5875.41
495.126	5908.18
495.496	5965.13
495.866	6024.79
496.235	6037.21
496.605	6092.13
496.974	6158.79
497.344	6158.11
497.713	6275.85
498.082	6288.51
498.452	6329.41
498.821	6400.37
499.19	6394.27
499.559	6516.3
499.928	6506.81
500.298	6568.73
500.667	6579.12
501.036	6627.71
501.405	6668.16
501.774	6690.3
502.143	6732.56
502.512	6797.19
502.88	6888.94
503.249	6828.61
503.618	6954.7
503.987	7022.05
504.356	7055.49
504.724	7097.75
505.093	7099.79
505.462	7153.57
505.83	7194.25
506.199	7261.81
506.567	7410.51
506.936	7388.59
507.304	7479.21
507.672	7504.29
508.041	7491.19
508.409	7539.77
508.777	7683.95
509.145	7757.85
509.514	7767.11
509.882	7781.12
510.25	7864.74
510.618	7903.38
510.986	7935.47
511.354	7985.64
511.722	8063.38
512.09	8165.97
512.458	8169.81
512.826	8320.54
513.193	8342.92
513.561	8346.98
513.929	8474.21
514.297	8503.59
514.664	8571.84
515.032	8575.68
515.4	8676.92
515.767	8685.73
516.135	8761.44
516.502	8795.79
516.869	8907.65
517.237	8966.63
517.604	8980.19
517.972	9132.95
518.339	9188.32
518.706	9231.71
519.073	9231.71
519.44	9378.14
519.808	9499.04
520.175	9439.84
520.542	9554.86
520.909	9674.41
521.276	9678.25
521.643	9812.26
522.009	9859.26
522.376	9991.91
522.743	10001.86
523.11	10141.06
523.477	10301.06
523.843	10318.01
524.21	10427.38
524.577	10583.31
524.943	10562.97
525.31	10657.43
525.676	10761.84
526.043	10800.48
526.409	10906.69
526.776	11030.08
527.142	11077.99
527.508	11120.7
527.874	11314.82
528.241	11268.72
528.607	11430.29
528.973	11541.93
529.339	11499.22
529.705	11685.43
530.071	11698.76
530.437	11824.41
530.803	11907.34
531.169	11979.2
531.535	12008.36
531.901	12118.86
532.267	12168.13
532.632	12290.16
532.998	12382.13
533.364	12471.17
533.73	12534.44
534.095	12653.09
534.461	12708.23
534.826	12799.97
535.192	12922.68
535.557	13084.71
535.923	12988.22
536.288	13076.8
536.653	13144.15
537.019	13122.68
537.384	13282
537.749	13386.17
538.114	13434.31
538.479	13500.97
538.845	13546.85
539.21	13634.3
539.575	13782.77
539.94	13799.95
540.305	13949.1
540.67	13975.08
541.034	14126.49
541.399	14187.51
541.764	14262.99
542.129	14303.21
542.494	14326.71
542.858	14506.14
543.223	14484
543.587	14658.68
543.952	14681.51
544.316	14768.96
544.681	14850.09
545.045	14981.61
545.41	15112
545.774	15260.02
546.138	15276.29
546.503	15415.5
546.867	15341.38
547.231	15557.87
547.595	15691.65
547.959	15709.5
548.324	15821.36
548.688	15949.72
549.052	16012.09
549.416	16085.76
549.779	16194.91
550.143	16388.81
550.507	16516.26
550.871	16587.67
551.235	16734.56
551.599	16861.79
551.962	16935.23
552.326	17138.39
552.689	17275.34
553.053	17271.5
553.417	17337.48
553.78	17700.41
554.143	17745.61
554.507	17878.26
554.87	18084.58
555.234	18288.42
555.597	18221.53
555.96	18459.94
556.323	18588.97
556.686	18729.54
557.05	19004.1
557.413	19148.96
557.776	19299.69
558.139	19502.17
558.502	19680.25
558.865	19787.14
559.228	20088.14
559.59	20223.96
559.953	20316.84
560.316	20629.82
560.679	20811.74
561.041	21003.37
561.404	21291.5
561.767	21506.64
562.129	21618.95
562.492	21847.42
562.854	22106.62
563.217	22286.5
563.579	22426.84
563.941	22647.85
564.304	22837.45
564.666	23164.22
565.028	23470.2
565.39	23583.19
565.753	23816.18
566.115	24104.31
566.477	24471.08
566.839	24652.32
567.201	25056.38
567.563	25125.3
567.925	25451.17
568.287	25567.55
568.648	25873.08
569.01	26145.84
569.372	26408.43
569.734	26625.15
570.095	26967.96
570.457	27253.15
570.819	27376.77
571.18	27622.86
571.542	28000.25
571.903	28286.57
572.265	28513.69
572.626	28768.82
572.987	29034.58
573.349	29187.57
573.71	29637.5
574.071	29908.45
574.432	30122.91
574.794	30458.94
575.155	30586.63
575.516	30675.21
575.877	31000.17
576.238	31154.97
576.599	31559.71
576.96	31783.66
577.32	31974.16
577.681	32263.64
578.042	32608.94
578.403	32772.56
578.763	32989.5
579.124	33013.91
579.485	33374.57
579.845	33814.34
580.206	33994.22
580.566	33957.84
580.927	34297.94
581.287	34640.53
581.648	34693.86
582.008	34975.66
582.368	35094.53
582.728	35227.41
583.089	35467.4
583.449	35680.95
583.809	35955.52
584.169	36021.51
584.529	36209.3
584.889	36468.96
585.249	36474.38
585.609	36667.82
585.969	37148.94
586.329	37080.01
586.688	37369.05
587.048	37392.55
587.408	37651.07
587.768	37750.05
588.127	37994.57
588.487	38084.28
588.846	38452.41
589.206	38400.88
589.565	38518.62
589.925	38869.8
590.284	38814.21
590.643	39113.86
591.003	39365.83
591.362	39805.82
591.721	39842.2
592.08	39858.47
592.44	40171.68
592.799	40172.59
593.158	40422.52
593.517	40518.12
593.876	40661.39
594.235	40660.26
594.593	40833.14
594.952	41200.36
595.311	41287.36
595.67	41406.45
596.029	41726.45
596.387	41970.28
596.746	42024.29
597.104	42139.09
597.463	42294.57
597.822	42589.47
598.18	42636.03
598.538	42751.05
598.897	43123.7
599.255	42904.72
599.613	43592.84
599.972	43404.14
600.33	43655.66
600.688	43565.94
601.046	43879.16
601.404	44195.76
601.762	44163.67
602.12	44619.48
602.478	44717.1
602.836	44952.8
603.194	44653.6
603.552	44924.78
603.91	44957.09
604.268	45361.6
604.625	45297.42
604.983	45535.61
605.341	45653.35
605.698	45998.65
606.056	46144.18
606.413	46147.12
606.771	46530.84
607.128	46687.9
607.485	46551.4
607.843	46831.17
608.2	47055.8
608.557	47281.78
608.914	47196.58
609.272	47600.64
609.629	47648.78
609.986	47945.49
610.343	48033.85
610.7	48216.67
611.057	48302.32
611.414	48390
611.771	48533.72
612.127	48726.71
612.484	48881.74
612.841	49056.42
613.198	48920.61
613.554	49067.04
613.911	49418.67
614.267	49581.83
614.624	49579.57
614.98	49820.24
615.337	50019.33
615.693	50107.02
616.05	50138.88
616.406	50428.59
616.762	50291.87
617.118	50422.04
617.475	50471.53
617.831	50726.89
618.187	50841.91
618.543	50924.62
618.899	51122.13
619.255	51260.66
619.611	51255.01
619.967	51403.93
620.323	51650.7
620.678	51444.38
621.034	51633.98
621.39	51719.4
621.746	51740.87
622.101	52223.8
622.457	52065.16
622.812	52153.97
623.168	52392.83
623.523	52373.85
623.879	52511.25
624.234	52311.25
624.589	52622.43
624.945	52698.59
625.3	52732.26
625.655	52775.42
626.01	52944.68
626.365	52983.32
626.72	52998.69
627.075	53095.86
627.43	53193.71
627.785	53118.91
628.14	53312.58
628.495	53350.09
628.85	53385.35
629.205	53274.62
629.559	53513.25
629.914	53363.2
630.269	53563.87
630.623	53506.47
630.978	53565.23
631.332	53683.64
631.687	53770.2
632.041	53720.93
632.396	53835.96
632.75	53737.65
633.104	53935.62
633.459	53821.72
633.813	53770.65
634.167	53922.96
634.521	53932.68
634.875	54029.17
635.229	54069.4
635.583	54027.59
635.937	54089.28
636.291	54167.7
636.645	54178.77
636.999	54082.73
637.352	54319.56
637.706	54113.92
638.06	54386.45
638.413	54315.94
638.767	54321.82
639.121	54465.09
639.474	54313.46
639.828	54385.77
640.181	54512.55
640.534	54466
640.888	54461.48
641.241	54331.09
641.594	54487.69
641.947	54614.24
642.301	54520.01
642.654	54579.44
643.007	54639.1
643.36	54682.04
643.713	54664.86
644.066	54880.22
644.419	54665.99
644.771	54424.64
645.124	54108.49
645.477	54080.7
645.83	53978.78
646.182	54090.41
646.535	54013.58
646.888	54333.57
647.24	54177.87
647.593	54496.05
647.945	54402.72
648.298	54297.19
648.65	54375.83
649.002	54420.12
649.355	54480.46
649.707	54431.65
650.059	54424.87
650.411	54744.41
650.763	54860.56
651.115	55202.48
651.467	55116.38
651.819	55223.27
652.171	55192.08
652.523	55206.09
652.875	55178.97
653.227	55152.08
653.578	55370.61
653.93	55301.68
654.282	55249.93
654.633	55222.59
654.985	55413.09
655.337	55423.03
655.688	55551.17
656.039	55532.64
656.391	55392.53
656.742	55426.65
657.094	55502.13
657.445	55653.54
657.796	55575.35
658.147	55615.35
658.498	55646.98
658.849	55777.83
659.2	55700.32
659.551	55720.88
659.902	55877.03
660.253	55788.22
660.604	55803.36
660.955	55712.29
661.306	55905.96
661.656	55969.46
662.007	55919.74
662.358	55915.22
662.708	55949.12
663.059	55986.86
663.409	55814.66
663.76	56135.33
664.11	56077.03
664.461	56218.95
664.811	56169.68
665.161	56256.01
665.511	56180.3
665.862	56307.53
666.212	56366.29
666.562	56374.65
666.912	56358.38
667.262	56392.95
667.612	56440.41
667.962	56437.7
668.312	56419.17
668.662	56561.99
669.011	56518.15
669.361	56547.98
669.711	56574.87
670.06	56520.86
670.41	56488.54
670.76	56565.6
671.109	56637.47
671.459	56655.77
671.808	56605.83
672.157	56726.95
672.507	56608.31
672.856	56639.5
673.205	56706.16
673.554	56825.26
673.904	56722.21
674.253	56821.19
674.602	56795.2
674.951	56444.25
675.3	56405.61
675.649	56851.7
675.998	56870
676.346	56938.7
676.695	57070.22
677.044	56929.66
677.393	57032.94
677.741	57037.23
678.09	56937.57
678.438	56924.01
678.787	57028.19
679.135	57042.65
679.484	56848.76
679.832	56966.27
680.181	56842.43
680.529	56875.2
680.877	56864.58
681.225	56889.44
681.573	57171.46
681.922	56969.66
682.27	56900.96
682.618	56979.38
682.966	56931.24
683.314	57015.08
683.661	56961.75
684.009	56929.44
684.357	56822.32
684.705	56901.64
685.053	56964.69
685.4	56932.37
685.748	56868.42
686.095	56920.17
686.443	56940.96
686.79	56868.42
687.138	56844.01
687.485	56872.71
687.832	56838.82
688.18	56881.53
688.527	56815.31
688.874	56827.97
689.221	56737.8
689.568	56709.78
689.915	56627.07
690.262	56583.46
690.609	56568.54
690.956	56570.57
691.303	56705.49
691.65	56538.26
691.997	56565.6
692.344	56463.23
692.69	56356.57
693.037	56512.72
693.383	56247.87
693.73	56428.21
694.077	56303.24
694.423	56346.63
694.769	56272.73
695.116	56211.49
695.462	56171.04
695.808	56033.41
696.155	56136.01
696.501	56004.94
696.847	56033.41
697.193	55888.56
697.539	55909.35
697.885	55697.38
698.231	55688.34
698.577	55818.73
698.923	55812.4
699.269	55727.43
699.614	55609.02
699.96	55573.31
700.306	55621.22
700.651	55555.23
700.997	55569.02
701.342	55520.21
701.688	55528.34
702.033	55457.84
702.379	55413.32
702.724	55361.34
703.069	55586.19
703.415	55224.62
703.76	55236.15
704.105	55176.26
704.45	55207.67
704.795	55020.78
705.14	55054.23
705.485	55029.37
705.83	54992.09
706.175	55064.17
706.52	55086.77
706.865	54875.7
707.209	54950.05
707.554	54839.77
707.899	54925.65
708.243	54857.85
708.588	54812.88
708.932	54735.59
709.277	54718.42
709.621	54860.11
709.966	54633
710.31	54808.81
710.654	54476.84
710.998	54457.18
711.342	54551.42
711.687	54508.93
712.031	54460.8
712.375	54294.48
712.719	54371.99
713.063	54350.52
713.407	54442.27
713.75	54310.07
714.094	54204.76
714.438	54332.44
714.782	54312.55
715.125	54144.88
715.469	54171.09
715.812	54047.93
716.156	54055.84
716.499	54173.8
716.843	54154.82
717.186	53998.89
717.53	54185.78
717.873	54183.07
718.216	53920.93
718.559	53860.82
718.902	53790.08
719.246	54028.04
719.589	53958.44
719.932	53801.83
720.275	53743.3
720.617	53794.38
720.96	53790.31
721.303	53783.98
721.646	53764.32
721.989	53517.32
722.331	53834.83
722.674	53661.27
723.016	53636.19
723.359	53681.16
723.701	53645.68
724.044	53479.36
724.386	53404.56
724.729	53629.41
725.071	53560.03
725.413	53495.4
725.755	53557.32
726.097	53396.19
726.439	53226.48
726.782	53360.94
727.124	53451.33
727.465	53328.85
727.807	53385.8
728.149	53213.15
728.491	53293.82
728.833	53337.44
729.175	53134.73
729.516	53233.94
729.858	53085.47
730.199	53268.74
730.541	53094.73
730.882	53208.18
731.224	53301.96
731.565	53091.12
731.906	53186.93
732.248	53269.19
732.589	53023.55
732.93	53047.28
733.271	53069.65
733.612	53127.05
733.953	53092.47
734.294	53014.51
734.635	53011.57
734.976	53175.86
735.317	52869.66
735.658	52904.91
735.999	53039.82
736.339	52953.27
736.68	53056.54
737.021	52963.44
737.361	52843.22
737.702	53020.39
738.042	52920.73
738.383	52925.47
738.723	52886.6
739.063	52829.43
739.404	52852.48
739.744	52770.9
740.084	52658.36
740.424	52816.78
740.764	52664.24
741.104	52808.19
741.444	52625.14
741.784	52595.76
742.124	52628.08
742.464	52561.64
742.804	52510.57
743.143	52464.24
743.483	52555.09
743.823	52426.73
744.162	52391.25
744.502	52531.13
744.841	52365.04
745.181	52556.44
745.52	52429.67
745.86	52478.7
746.199	52391.93
746.538	52305.6
746.877	52432.38
747.216	52395.54
747.556	52426.5
747.895	52371.14
748.234	52298.82
748.573	52214.53
748.911	52248.2
749.25	52238.94
749.589	52031.94
749.928	52172.05
750.267	52189.67
750.605	52159.39
750.944	52052.73
751.283	51955.55
751.621	52114.65
751.96	51824.71
752.298	51804.6
752.636	51828.55
752.975	51696.13
753.313	51545.62
753.651	51684.15
753.989	51617.03
754.327	51603.02
754.666	51484.83
755.004	51486.41
755.342	51490.03
755.679	51538.62
756.017	51384.04
756.355	51445.96
