Data from copper_heatsink_FLMS001491_022.txt Node
Date: Tue Feb 07 10:49:36 GMT 2017
User: dcchb
Spectrometer: FLMS00149
Trigger mode: 0
Integration Time (sec): 2.000000E-2
Scans to average: 10
Electric dark correction enabled: true
Nonlinearity correction enabled: false
Boxcar width: 0
XAxis mode: Wavelengths
Number of Pixels in Spectrum: 2048
>>>>>Begin Spectral Data<<<<<
341.393	-11.34
341.776	-11.34
342.16	-11.34
342.543	-74.39
342.927	-61.28
343.31	-54.05
343.693	-75.52
344.077	-79.36
344.46	-41.85
344.843	-52.47
345.226	-18.35
345.61	-19.48
345.993	-29.87
346.376	-4.34
346.759	25.95
347.142	21.88
347.525	43.35
347.908	44.93
348.291	56.45
348.674	79.96
349.057	102.78
349.44	116.56
349.823	133.51
350.206	158.82
350.588	201.53
350.971	253.51
351.354	231.14
351.737	225.26
352.119	267.52
352.502	273.17
352.884	279.5
353.267	305.26
353.65	294.87
354.032	324.92
354.414	329.67
354.797	348.2
355.179	314.07
355.562	331.7
355.944	339.38
356.326	372.6
356.709	374.19
357.091	348.65
357.473	367.63
357.855	352.26
358.238	366.95
358.62	347.75
359.002	344.58
359.384	352.94
359.766	352.26
360.148	350.68
360.53	355.88
360.912	354.07
361.294	335.54
361.676	358.82
362.057	364.47
362.439	365.6
362.821	374.41
363.203	341.42
363.584	338.71
363.966	352.49
364.348	348.88
364.729	335.77
365.111	344.58
365.493	336.67
365.874	353.17
366.256	329.44
366.637	346.62
367.019	335.99
367.4	359.95
367.781	342.32
368.163	324.24
368.544	348.42
368.925	331.7
369.306	349.1
369.688	345.26
370.069	346.16
370.45	333.28
370.831	347.07
371.212	323.56
371.593	339.61
371.974	357.46
372.355	353.39
372.736	340.29
373.117	354.75
373.498	342.55
373.879	332.38
374.26	346.62
374.641	346.62
375.021	360.4
375.402	353.17
375.783	359.27
376.163	358.82
376.544	374.86
376.925	376.44
377.305	359.72
377.686	367.63
378.066	360.85
378.447	390.23
378.827	372.6
379.208	360.85
379.588	386.61
379.968	383.9
380.349	371.25
380.729	386.61
381.109	393.62
381.489	383
381.87	383.45
382.25	402.66
382.63	411.47
383.01	395.65
383.39	406.5
383.77	396.78
384.15	395.2
384.53	435.2
384.91	420.06
385.29	396.56
385.67	407.86
386.049	412.38
386.429	413.96
386.809	442.88
387.189	405.14
387.568	425.94
387.948	443.56
388.328	437.23
388.707	454.41
389.087	432.71
389.466	450.57
389.846	440.4
390.225	454.86
390.605	445.82
390.984	450.34
391.363	465.26
391.743	473.17
392.122	477.23
392.501	461.19
392.881	477.23
393.26	465.48
393.639	468.42
394.018	498.48
394.397	487.4
394.776	498.48
395.155	472.26
395.534	496.44
395.913	500.28
396.292	499.83
396.671	491.02
397.05	495.99
397.429	489.66
397.808	507.97
398.186	527.63
398.565	493.28
398.944	518.36
399.323	506.84
399.701	530.34
400.08	522.43
400.458	519.27
400.837	538.47
401.215	534.41
401.594	552.94
401.972	546.16
402.351	552.94
402.729	568.08
403.107	573.05
403.486	576.44
403.864	580.06
404.242	588.64
404.62	590.45
404.999	586.38
405.377	591.58
405.755	587.96
406.133	606.95
406.511	598.13
406.889	630.22
407.267	614.4
407.645	637
408.023	631.58
408.401	608.98
408.779	627.74
409.156	644.23
409.534	664.35
409.912	666.15
410.29	680.39
410.667	674.97
411.045	699.6
411.422	691.92
411.8	691.69
412.178	705.48
412.555	710.45
412.933	715.65
413.31	723.78
413.687	723.1
414.065	749.32
414.442	766.94
414.819	751.12
415.197	744.34
415.574	757.45
415.951	754.51
416.328	791.12
416.705	796.09
417.082	778.69
417.46	811.91
417.837	799.94
418.214	799.71
418.591	826.38
418.967	824.79
419.344	827.28
419.721	837.9
420.098	839.03
420.475	867.05
420.852	847.17
421.228	865.25
421.605	856.43
421.982	891.46
422.358	886.26
422.735	879.48
423.111	868.41
423.488	915.87
423.864	911.8
424.241	941.4
424.617	941.85
424.994	940.05
425.37	944.57
425.746	955.64
426.123	950.89
426.499	994.28
426.875	999.03
427.251	1020.72
427.627	1018.91
428.003	1020.04
428.379	1045.81
428.756	1046.48
429.132	1053.49
429.507	1055.07
429.883	1057.1
430.259	1083.09
430.635	1115.86
431.011	1122.41
431.387	1145.46
431.763	1142.98
432.138	1179.59
432.514	1181.4
432.89	1171
433.265	1226.59
433.641	1234.95
434.016	1221.17
434.392	1245.8
434.767	1262.52
435.143	1261.17
435.518	1325.57
435.894	1287.61
436.269	1302.52
436.644	1345.01
437.02	1370.09
437.395	1357.89
437.77	1400.6
438.145	1380.26
438.52	1400.15
438.895	1413.25
439.271	1383.88
439.646	1490.31
440.021	1482.18
440.395	1475.63
440.77	1476.08
441.145	1468.17
441.52	1483.53
441.895	1499.58
442.27	1506.58
442.645	1492.8
443.019	1533.25
443.394	1530.31
443.769	1550.2
444.143	1568.28
444.518	1590.88
444.892	1596.98
445.267	1608.5
445.641	1605.34
446.016	1643.98
446.39	1663.64
446.764	1664.55
447.139	1661.61
447.513	1679.69
447.887	1706.58
448.262	1674.04
448.636	1727.6
449.01	1724.21
449.384	1766.01
449.758	1728.27
450.132	1784.54
450.506	1794.94
450.88	1774.83
451.254	1802.4
451.628	1838.1
452.002	1875.39
452.376	1868.38
452.75	1874.48
453.123	1893.69
453.497	1927.82
453.871	1959.45
454.244	1944.99
454.618	2007.81
454.992	2024.54
455.365	2021.83
455.739	2092.11
456.112	2115.38
456.486	2084.87
456.859	2150.64
457.232	2182.73
457.606	2170.75
457.979	2194.7
458.352	2278.32
458.725	2290.29
459.099	2303.85
459.472	2363.29
459.845	2381.36
460.218	2410.74
460.591	2397.41
460.964	2449.16
461.337	2487.12
461.71	2551.3
462.083	2572.32
462.456	2549.95
462.829	2589.95
463.201	2627.01
463.574	2626.1
463.947	2698.64
464.32	2743.61
464.692	2809.83
465.065	2768.7
465.438	2837.62
465.81	2881.46
466.183	2894.34
466.555	2963.95
466.928	3013.66
467.3	3004.17
467.672	3040.1
468.045	3112.64
468.417	3110.84
468.789	3132.08
469.161	3195.13
469.534	3239.42
469.906	3308.8
470.278	3363.49
470.65	3409.36
471.022	3426.76
471.394	3545.4
471.766	3564.61
472.138	3583.14
472.51	3650.26
472.882	3731.38
473.253	3740.65
473.625	3856.81
473.997	3914.88
474.369	3920.98
474.74	4011.15
475.112	4042.34
475.484	4152.84
475.855	4196.91
476.227	4203.46
476.598	4347.19
476.97	4381.31
477.341	4483.46
477.713	4583.79
478.084	4561.42
478.455	4723.9
478.827	4722.32
479.198	4860.62
479.569	4899.72
479.94	5043.44
480.311	5068.07
480.682	5182.42
481.053	5311.23
481.424	5364.34
481.795	5408.85
482.166	5496.54
482.537	5569.3
482.908	5689.75
483.279	5713.03
483.65	5890.65
484.021	6007.71
484.391	6061.72
484.762	6152.79
485.133	6152.79
485.503	6300.36
485.874	6468.04
486.244	6416.51
486.615	6536.06
486.985	6642.95
487.356	6769.72
487.726	6854.69
488.097	6935.82
488.467	6955.48
488.837	7116.15
489.207	7235.02
489.578	7316.83
489.948	7373.55
490.318	7493.32
490.688	7578.06
491.058	7719.98
491.428	7820.54
491.798	7786.19
492.168	7997.49
492.538	8086.52
492.908	8150.93
493.278	8180.31
493.648	8258.5
494.017	8395.67
494.387	8446.74
494.757	8593.63
495.126	8619.62
495.496	8660.97
495.866	8727.64
496.235	8830.23
496.605	8927.86
496.974	8942.55
497.344	9053.96
497.713	9139.6
498.082	9162.65
498.452	9262.54
498.821	9357.23
499.19	9391.8
499.559	9459.82
499.928	9524.23
500.298	9570.55
500.667	9752.92
501.036	9699.82
501.405	9811.23
501.774	9818.46
502.143	9889.42
502.512	9986.59
502.88	10043.99
503.249	10112.23
503.618	10117.88
503.987	10211.21
504.356	10225.45
504.724	10327.82
505.093	10336.41
505.462	10457.76
505.83	10523.07
506.199	10614.59
506.567	10849.39
506.936	10788.37
507.304	10940.01
507.672	10973.68
508.041	10969.16
508.409	11141.81
508.777	11229.49
509.145	11211.41
509.514	11343.84
509.882	11388.81
510.25	11405.31
510.618	11509.94
510.986	11557.85
511.354	11730.5
511.722	11753.77
512.09	11881.91
512.458	11874
512.826	12021.34
513.193	12127.32
513.561	12068.57
513.929	12227.21
514.297	12359.41
514.664	12456.58
515.032	12498.39
515.4	12566.18
515.767	12610.02
516.135	12724.37
516.502	12676.69
516.869	12891.14
517.237	12993.74
517.604	13062.44
517.972	13144.92
518.339	13268.08
518.706	13188.76
519.073	13344.92
519.44	13451.36
519.808	13625.81
520.175	13607.51
520.542	13909.2
520.909	13903.09
521.276	13933.83
521.643	14107.61
522.009	14224.22
522.376	14250.43
522.743	14459.24
523.11	14590.99
523.477	14636.86
523.843	14830.3
524.21	14860.36
524.577	15073.91
524.943	15076.4
525.31	15197.52
525.676	15335.15
526.043	15501.02
526.409	15539.66
526.776	15755.93
527.142	15800.67
527.508	15839.09
527.874	16069.37
528.241	16166.99
528.607	16152.98
528.973	16364.27
529.339	16319.3
529.705	16553.87
530.071	16670.71
530.437	16741.66
530.803	16917.25
531.169	17052.62
531.535	17018.95
531.901	17070.92
532.267	17103.46
532.632	17360.18
532.998	17468.88
533.364	17545.48
533.73	17544.13
534.095	17727.85
534.461	17714.52
534.826	18017.79
535.192	18045.36
535.557	18020.27
535.923	18126.49
536.288	18223.21
536.653	18386.37
537.019	18280.15
537.384	18367.61
537.749	18656.87
538.114	18637.43
538.479	18671.11
538.845	18868.39
539.21	18862.51
539.575	18908.39
539.94	18945.22
540.305	19076.52
540.67	19194.71
541.034	19307.92
541.399	19457.75
541.764	19437.86
542.129	19563.51
542.494	19641.25
542.858	19763.28
543.223	19776.61
543.587	19967.34
543.952	19997.17
544.316	20046.44
544.681	20141.57
545.045	20295.7
545.41	20350.61
545.774	20509.25
546.138	20565.29
546.503	20693.2
546.867	20757.15
547.231	20937.03
547.595	20990.37
547.959	21156.24
548.324	21158.72
548.688	21256.8
549.052	21363.46
549.416	21427.19
549.779	21665.15
550.143	21672.16
550.507	21862.66
550.871	22033.05
551.235	22048.64
551.599	22220.84
551.962	22335.64
552.326	22438.92
552.689	22533.6
553.053	22565.69
553.417	22879.58
553.78	23052.46
554.143	23108.05
554.507	23289.51
554.87	23409.96
555.234	23745.32
555.597	23647.7
555.96	23956.62
556.323	24127.23
556.686	24180.56
557.05	24405.19
557.413	24538.3
557.776	24599.54
558.139	24908.91
558.502	24980.54
558.865	25254.66
559.228	25511.83
559.59	25663.92
559.953	25747.98
560.316	26126.73
560.679	26381.41
561.041	26499.37
561.404	26823.89
561.767	26893.49
562.129	27013.71
562.492	27298.45
562.854	27633.36
563.217	27819.57
563.579	28000.58
563.941	28241.47
564.304	28441.47
564.666	28779.54
565.028	28829.93
565.39	29094.79
565.753	29228.79
566.115	29553.98
566.477	29740.64
566.839	30133.85
567.201	30284.59
567.563	30548.08
567.925	30971.35
568.287	31047.73
568.648	31163.88
569.01	31643.87
569.372	31922.73
569.734	31914.82
570.095	32306.68
570.457	32532.66
570.819	32836.83
571.18	32828.7
571.542	33327.44
571.903	33416.93
572.265	33637.72
572.626	33956.58
572.987	34239.74
573.349	34506.17
573.71	34787.52
574.071	34934.41
574.432	35177.56
574.794	35599.02
575.155	35745.01
575.516	35696.19
575.877	36174.6
576.238	36352
576.599	36654.81
576.96	36713.79
577.32	37024.75
577.681	37213.89
578.042	37540.21
578.403	37638.74
578.763	37752.86
579.124	38111.27
579.485	38273.3
579.845	38624.93
580.206	38578.6
580.566	38867.86
580.927	39078.25
581.287	39325.93
581.648	39317.79
582.008	39695.41
582.368	39806.37
582.728	39942.86
583.089	39937.44
583.449	40094.27
583.809	40312.12
584.169	40576.74
584.529	40563.18
584.889	40922.5
585.249	40896.06
585.609	40880.01
585.969	41407.68
586.329	41422.6
586.688	41575.36
587.048	41558.19
587.408	41740.1
587.768	41926.54
588.127	42072.75
588.487	42033.65
588.846	42452.4
589.206	42236.14
589.565	42405.17
589.925	42919.96
590.284	42797.7
590.643	42980.75
591.003	43172.16
591.362	43451.24
591.721	43376.67
592.08	43490.79
592.44	43618.7
592.799	43802.2
593.158	43796.32
593.517	43991.34
593.876	44320.6
594.235	44267.49
594.593	44430.43
594.952	44441.5
595.311	44525.34
595.67	44777.31
596.029	45100.69
596.387	45195.61
596.746	45302.72
597.104	45330.29
597.463	45334.58
597.822	45619.55
598.18	45647.12
598.538	45693.22
598.897	46100.67
599.255	45759.43
599.613	46519.19
599.972	46347.44
600.33	46608.45
600.688	46434.89
601.046	46730.25
601.404	46945.16
601.762	46970.25
602.12	47260.18
602.478	47354.64
602.836	47445.04
603.194	47445.04
603.552	47628.54
603.91	47598.25
604.268	47851.58
604.625	47721.64
604.983	47987.62
605.341	47760.96
605.698	48188.75
606.056	48244.79
606.413	48477.78
606.771	48603.88
607.128	48774.72
607.485	48731.78
607.843	48789.41
608.2	49173.81
608.557	49273.24
608.914	49140.13
609.272	49540.12
609.629	49696.28
609.986	49939.44
610.343	49787.8
610.7	49962.94
611.057	50048.59
611.414	50146.21
611.771	50240.22
612.127	50529.7
612.484	50510.49
612.841	50732.18
613.198	50597.95
613.554	50673.43
613.911	50989.58
614.267	51078.16
614.624	51072.97
614.98	51214.43
615.337	51473.18
615.693	51359.06
616.05	51442.9
616.406	51766.51
616.762	51632.27
617.118	51744.59
617.475	51768.77
617.831	51897.8
618.187	52001.98
618.543	52162.88
618.899	52332.14
619.255	52206.27
619.611	52291.92
619.967	52406.26
620.323	52481.97
620.678	52520.16
621.034	52512.7
621.39	52595.18
621.746	52586.15
622.101	53004.21
622.457	52726.03
622.812	52926.02
623.168	53035.17
623.523	53111.56
623.879	53257.31
624.234	53114.72
624.589	53318.78
624.945	53381.15
625.3	53391.32
625.655	53490.53
626.01	53471.09
626.365	53412.11
626.72	53471.77
627.075	53596.97
627.43	53608.49
627.785	53579.79
628.14	53718.09
628.495	53761.03
628.85	53842.16
629.205	53700.69
629.559	53870.86
629.914	53799.67
630.269	53850.75
630.623	53814.81
630.978	53782.05
631.332	53951.31
631.687	54034.92
632.041	53939.56
632.396	54108.37
632.75	53901.14
633.104	54085.09
633.459	54048.48
633.813	54154.69
634.167	54106.78
634.521	54043.73
634.875	54199.21
635.229	54145.88
635.583	54121.25
635.937	54166.44
636.291	54137.74
636.645	54162.15
636.999	54162.6
637.352	54273.11
637.706	54041.7
638.06	54241.47
638.413	54200.34
638.767	54086.45
639.121	54273.33
639.474	54175.48
639.828	54146.78
640.181	54218.19
640.534	54310.17
640.888	54260.9
641.241	54085.32
641.594	54268.14
641.947	54368.92
642.301	54243.96
642.654	54398.08
643.007	54356.95
643.36	54376.83
643.713	54309.04
644.066	54463.38
644.419	54340.68
644.771	54340.68
645.124	54170.28
645.477	54241.7
645.83	53978.2
646.182	53782.72
646.535	53603.75
646.888	53678.09
647.24	53338.89
647.593	53641.94
647.945	53579.79
648.298	53456.86
648.65	53581.37
649.002	53515.16
649.355	53712.22
649.707	53765.55
650.059	53947.24
650.411	54405.76
650.763	54361.92
651.115	54598.52
651.467	54494.57
651.819	54553.55
652.171	54600.78
652.523	54531.63
652.875	54558.07
653.227	54500.9
653.578	54749.48
653.93	54636.71
654.282	54602.36
654.633	54537.05
654.985	54549.26
655.337	54612.76
655.688	54639.88
656.039	54732.76
656.391	54519.88
656.742	54639.2
657.094	54667.22
657.445	54735.69
657.796	54633.32
658.147	54685.53
658.498	54743.38
658.849	54781.12
659.2	54741.12
659.551	54681.68
659.902	54874.22
660.253	54772.53
660.604	54896.82
660.955	54796.48
661.306	54886.42
661.656	54814.11
662.007	54920.1
662.358	54979.53
662.708	54980.21
663.059	55022.01
663.409	54812.98
663.76	55095.23
664.11	55095.46
664.461	55094.55
664.811	55100.66
665.161	55038.51
665.511	55029.7
665.862	55091.39
666.212	55160.77
666.562	55233.99
666.912	55236.25
667.262	55212.52
667.612	55254.32
667.962	55266.75
668.312	55278.73
668.662	55245.28
669.011	55318.05
669.361	55365.51
669.711	55392.4
670.06	55346.07
670.41	55339.52
670.76	55325.51
671.109	55453.41
671.459	55449.35
671.808	55336.36
672.157	55411.16
672.507	55216.81
672.856	55341.1
673.205	55405.96
673.554	55424.49
673.904	55447.09
674.253	55568.44
674.602	55557.37
674.951	55120.32
675.3	54987.21
675.649	55518.95
675.998	55490.02
676.346	55542.23
676.695	55715.55
677.044	55448.67
677.393	55567.76
677.741	55580.64
678.09	55525.28
678.438	55573.86
678.787	55615.67
679.135	55608.66
679.484	55418.39
679.832	55613.41
680.181	55560.53
680.529	55583.58
680.877	55428.56
681.225	55492.74
681.573	55709.68
681.922	55553.75
682.27	55500.19
682.618	55484.83
682.966	55489.35
683.314	55549.91
683.661	55414.77
684.009	55401.66
684.357	55323.93
684.705	55373.87
685.053	55386.98
685.4	55434.88
685.748	55375.68
686.095	55339.07
686.443	55154.67
686.79	55176.36
687.138	55263.82
687.485	55299.52
687.832	55171.39
688.18	55204.83
688.527	55032.86
688.874	55112.86
689.221	55008
689.568	55018.4
689.915	55081.9
690.262	55042.58
690.609	54968.91
690.956	54846.2
691.303	54888.68
691.65	54691.63
691.997	54790.61
692.344	54670.16
692.69	54697.73
693.037	54711.29
693.383	54590.39
693.73	54569.6
694.077	54404.63
694.423	54552.87
694.769	54445.08
695.116	54396.27
695.462	54404.18
695.808	54374.12
696.155	54371.18
696.501	54173.9
696.847	54213.67
697.193	54023.62
697.539	54109.72
697.885	54003.96
698.231	54038.76
698.577	53965.54
698.923	53927.58
699.269	53871.54
699.614	53761.93
699.96	53706.57
700.306	53828.6
700.651	53602.62
700.997	53634.25
701.342	53547.48
701.688	53523.07
702.033	53361.94
702.379	53401.04
702.724	53321.49
703.069	53398.1
703.415	53091.22
703.76	53202.63
704.105	53244.66
704.45	53135.06
704.795	52950.2
705.14	52958.34
705.485	52961.5
705.83	52888.51
706.175	52945.23
706.52	52829.08
706.865	52669.53
707.209	52792.24
707.554	52575.98
707.899	52744.56
708.243	52725.8
708.588	52594.51
708.932	52407.39
709.277	52454.85
709.621	52536.88
709.966	52399.71
710.31	52429.54
710.654	52086.95
710.998	52291.92
711.342	52289.88
711.687	52092.15
712.031	52041.3
712.375	52107.51
712.719	52151.81
713.063	52075.2
713.407	52147.29
713.75	51881.31
714.094	52081.98
714.438	51990.91
714.782	51965.14
715.125	51861.42
715.469	51884.02
715.812	51766.96
716.156	51609.22
716.499	51637.24
716.843	51695.32
717.186	51498.26
717.53	51755.21
717.873	51776
718.216	51758.14
718.559	51561.54
718.902	51464.59
719.246	51615.78
719.589	51330.59
719.932	51326.97
720.275	51326.74
720.617	51253.07
720.96	51370.58
721.303	51384.37
721.646	51441.09
721.989	51159.06
722.331	51333.75
722.674	51226.41
723.016	51286.74
723.359	51127.65
723.701	51248.1
724.044	51014.89
724.386	50973.08
724.729	51130.82
725.071	51046.53
725.413	50940.09
725.755	51077.71
726.097	50974.89
726.439	50767.21
726.782	50818.73
727.124	51028.45
727.465	50860.54
727.807	50686.53
728.149	50656.7
728.491	50668
728.833	50732.63
729.175	50742.8
729.516	50668.68
729.858	50693.09
730.199	50687.21
730.541	50565.41
730.882	50572.41
731.224	50581
731.565	50564.05
731.906	50404.73
732.248	50540.55
732.589	50490.61
732.93	50401.12
733.271	50430.27
733.612	50542.81
733.953	50499.42
734.294	50275.02
734.635	50318.18
734.976	50354.79
735.317	50308.24
735.658	50296.04
735.999	50299.43
736.339	50092.43
736.68	50333.1
737.021	50102.6
737.361	49943.05
737.702	50223.95
738.042	50070.96
738.383	50092.88
738.723	50212.2
739.063	50098.3
739.404	50348.69
739.744	50087.68
740.084	50003.16
740.424	50090.62
740.764	49922.03
741.104	50119.77
741.444	49965.65
741.784	49870.74
742.124	50052.65
742.464	49934.24
742.804	50000.45
743.143	49849.27
743.483	49902.37
743.823	49760.91
744.162	49767.91
744.502	49982.37
744.841	49817.86
745.181	49943.96
745.52	49649.95
745.86	49704.41
746.199	49733.11
746.538	49736.5
746.877	49788.7
747.216	49755.94
747.556	49737.41
747.895	49705.54
748.234	49398.43
748.573	49454.7
748.911	49470.3
749.25	49468.94
749.589	49283.18
749.928	49343.29
750.267	49546.45
750.605	49324.54
750.944	49181.49
751.283	49277.98
751.621	49428.49
751.96	49125.67
752.298	49102.62
752.636	49279.57
752.975	49069.4
753.313	48996.41
753.651	49158.44
753.989	49040.02
754.327	49002.06
754.666	48851.1
755.004	48816.53
