Data from copper_heatsink_FLMS001491_090.txt Node
Date: Tue Feb 07 10:50:43 GMT 2017
User: dcchb
Spectrometer: FLMS00149
Trigger mode: 0
Integration Time (sec): 2.000000E-2
Scans to average: 10
Electric dark correction enabled: true
Nonlinearity correction enabled: false
Boxcar width: 0
XAxis mode: Wavelengths
Number of Pixels in Spectrum: 2048
>>>>>Begin Spectral Data<<<<<
341.393	-2.4
341.776	-2.4
342.16	-2.4
342.543	-34.94
342.927	-65.22
343.31	-79.46
343.693	-70.42
344.077	-63.19
344.46	-60.7
344.843	-53.47
345.226	-21.61
345.61	-44.21
345.993	-14.83
346.376	14.77
346.759	-1.95
347.142	28.78
347.525	40.54
347.908	56.13
348.291	69.69
348.674	98.84
349.057	101.1
349.44	132.51
349.823	132.96
350.206	180.64
350.588	226.52
350.971	231.72
351.354	259.74
351.737	245.28
352.119	274.88
352.502	284.82
352.884	283.02
353.267	296.12
353.65	303.58
354.032	317.36
354.414	323.69
354.797	329.57
355.179	329.12
355.562	333.64
355.944	354.65
356.326	368.44
356.709	355.33
357.091	360.53
357.473	363.01
357.855	361.88
358.238	374.31
358.62	370.02
359.002	362.79
359.384	376.57
359.766	352.84
360.148	349
360.53	376.57
360.912	372.5
361.294	390.58
361.676	354.65
362.057	349.45
362.439	351.49
362.821	363.69
363.203	367.98
363.584	359.17
363.966	359.62
364.348	365.72
364.729	346.97
365.111	354.2
365.493	326.18
365.874	373.18
366.256	361.21
366.637	353.52
367.019	356.69
367.4	343.8
367.781	330.25
368.163	348.32
368.544	344.48
368.925	342
369.306	339.96
369.688	346.52
370.069	348.1
370.45	354.2
370.831	363.47
371.212	337.48
371.593	360.98
371.974	346.06
372.355	353.75
372.736	357.36
373.117	354.2
373.498	355.56
373.879	353.97
374.26	333.86
374.641	361.21
375.021	344.03
375.402	359.85
375.783	351.26
376.163	372.5
376.544	382
376.925	368.44
377.305	381.77
377.686	328.21
378.066	361.21
378.447	376.57
378.827	361.21
379.208	370.24
379.588	405.5
379.968	375.89
380.349	391.94
380.729	367.31
381.109	397.59
381.489	399.85
381.87	388.55
382.25	390.58
382.63	401.2
383.01	405.05
383.39	364.59
383.77	413.63
384.15	384.93
384.53	412.5
384.91	404.37
385.29	401.66
385.67	399.17
386.049	408.44
386.429	410.7
386.809	430.81
387.189	392.16
387.568	425.16
387.948	400.75
388.328	410.47
388.707	428.32
389.087	428.1
389.466	432.84
389.846	428.1
390.225	435.55
390.605	424.48
390.984	432.39
391.363	448.43
391.743	432.16
392.122	439.85
392.501	413.18
392.881	439.17
393.26	428.55
393.639	450.47
394.018	466.97
394.397	450.47
394.776	451.82
395.155	463.12
395.534	456.8
395.913	484.37
396.292	479.17
396.671	455.21
397.05	456.34
397.429	480.98
397.808	465.16
398.186	499.96
398.565	480.98
398.944	484.14
399.323	473.29
399.701	471.94
400.08	509.68
400.458	509.9
400.837	479.85
401.215	488.21
401.594	507.87
401.972	505.38
402.351	502.22
402.729	505.83
403.107	501.99
403.486	523.91
403.864	528.21
404.242	534.99
404.62	527.08
404.999	517.59
405.377	530.47
405.755	539.05
406.133	548.09
406.511	537.92
406.889	546.74
407.267	571.6
407.645	557.58
408.023	549.45
408.401	558.26
408.779	558.04
409.156	573.63
409.534	548.77
409.912	561.43
410.29	586.74
410.667	582.44
411.045	571.82
411.422	577.24
411.8	579.28
412.178	589.9
412.555	610.92
412.933	610.46
413.31	607.53
413.687	614.53
414.065	622.89
414.442	626.96
414.819	633.29
415.197	628.99
415.574	649.79
415.951	618.37
416.328	640.75
416.705	635.55
417.082	657.92
417.46	657.69
417.837	675.55
418.214	651.82
418.591	676.45
418.967	687.52
419.344	683.68
419.721	708.99
420.098	721.65
420.475	682.33
420.852	699.73
421.228	696.34
421.605	713.06
421.982	702.67
422.358	722.33
422.735	719.39
423.111	717.81
423.488	731.36
423.864	728.2
424.241	747.86
424.617	758.26
424.994	754.42
425.37	774.3
425.746	770.69
426.123	777.01
426.499	793.74
426.875	771.14
427.251	802.32
427.627	803.68
428.003	823.34
428.379	814.53
428.756	808.43
429.132	826.73
429.507	855.88
429.883	846.84
430.259	848.88
430.635	847.97
431.011	858.59
431.387	880.06
431.763	871.7
432.138	858.82
432.514	905.37
432.89	913.96
433.265	931.81
433.641	949.66
434.016	937.01
434.392	944.47
434.767	935.88
435.143	970.23
435.518	960.74
435.894	977.46
436.269	994.86
436.644	960.74
437.02	1015.2
437.395	1018.36
437.77	1011.58
438.145	1009.55
438.52	1010.91
438.895	1066.72
439.271	1039.83
439.646	1076.44
440.021	1084.35
440.395	1058.59
440.77	1062.43
441.145	1093.84
441.52	1103.33
441.895	1103.11
442.27	1133.84
442.645	1106.72
443.019	1109.21
443.394	1102.43
443.769	1146.95
444.143	1144.69
444.518	1142.2
444.892	1160.96
445.267	1176.55
445.641	1127.96
446.016	1157.12
446.39	1167.96
446.764	1178.81
447.139	1168.19
447.513	1192.6
447.887	1202.54
448.262	1225.14
448.636	1256.55
449.01	1194.86
449.384	1245.93
449.758	1259.03
450.132	1256.77
450.506	1249.77
450.88	1249.77
451.254	1289.54
451.628	1316.21
452.002	1294.74
452.376	1288.64
452.75	1313.27
453.123	1342.65
453.497	1334.29
453.871	1328.41
454.244	1376.77
454.618	1375.19
454.992	1404.79
455.365	1383.55
455.739	1427.39
456.112	1442.76
456.486	1461.97
456.859	1455.87
457.232	1508.07
457.606	1464.68
457.979	1487.5
458.352	1492.7
458.725	1538.58
459.099	1569.31
459.472	1579.25
459.845	1572.7
460.218	1600.04
460.591	1610.21
460.964	1612.7
461.337	1652.24
461.71	1666.71
462.083	1703.54
462.456	1714.39
462.829	1708.51
463.201	1743.99
463.574	1732.24
463.947	1766.37
464.32	1804.56
464.692	1790.32
465.065	1818.57
465.438	1850.43
465.81	1881.84
466.183	1896.31
466.555	1946.47
466.928	1954.84
467.3	1926.59
467.672	1945.8
468.045	2001.84
468.417	2021.5
468.789	2042.06
469.161	2061.95
469.534	2094.94
469.906	2118.67
470.278	2139.46
470.65	2160.03
471.022	2194.83
471.394	2246.81
471.766	2260.82
472.138	2249.29
472.51	2340.14
472.882	2361.6
473.253	2390.98
473.625	2406.35
473.997	2463.3
474.369	2492
474.74	2517.53
475.112	2539.23
475.484	2574.25
475.855	2630.98
476.227	2656.96
476.598	2713.46
476.97	2711.2
477.341	2774.48
477.713	2858.31
478.084	2837.98
478.455	2902.16
478.827	2938.09
479.198	3014.69
479.569	3038.65
479.94	3102.6
480.311	3110.51
480.682	3195.93
481.053	3276.16
481.424	3344.63
481.795	3372.2
482.166	3395.93
482.537	3458.98
482.908	3501.24
483.279	3530.16
483.65	3568.13
484.021	3659.88
484.391	3692.64
484.762	3755.69
485.133	3815.58
485.503	3849.7
485.874	3890.6
486.244	3936.7
486.615	3998.17
486.985	4090.37
487.356	4111.39
487.726	4183.7
488.097	4246.98
488.467	4275.45
488.837	4360.42
489.207	4408.33
489.578	4471.61
489.948	4515.45
490.318	4554.32
490.688	4613.07
491.058	4704.59
491.428	4738.27
491.798	4778.72
492.168	4841.77
492.538	4894.42
492.908	4914.08
493.278	5011.48
493.648	4988.88
494.017	5101.87
494.387	5133.28
494.757	5165.6
495.126	5240.85
495.496	5259.16
495.866	5316.1
496.235	5342.77
496.605	5430.22
496.974	5465.03
497.344	5452.82
497.713	5525.59
498.082	5562.2
498.452	5640.39
498.821	5692.36
499.19	5690.78
499.559	5751.57
499.928	5786.15
500.298	5845.35
500.667	5930.78
501.036	5905.01
501.405	5999.93
501.774	6014.62
502.143	6041.51
502.512	6117.44
502.88	6158.34
503.249	6107.95
503.618	6272.91
503.987	6292.57
504.356	6337.55
504.724	6392.23
505.093	6444.21
505.462	6495.28
505.83	6435.85
506.199	6536.64
506.567	6637.88
506.936	6665.45
507.304	6708.16
507.672	6699.34
508.041	6782.28
508.409	6864.76
508.777	6898.43
509.145	6964.65
509.514	6995.38
509.882	7080.58
510.25	7126.9
510.618	7159.44
510.986	7204.19
511.354	7292.32
511.722	7352.89
512.09	7395.37
512.458	7450.06
512.826	7444.18
513.193	7594.01
513.561	7598.3
513.929	7746.32
514.297	7771.18
514.664	7892.76
515.032	7847.34
515.4	7926.2
515.767	7962.14
516.135	8076.71
516.502	7976.37
516.869	8193.32
517.237	8238.51
517.604	8220.66
517.972	8365.29
518.339	8363.48
518.706	8497.26
519.073	8493.42
519.44	8589.92
519.808	8665.39
520.175	8711.04
520.542	8811.83
520.909	8905.39
521.276	8899.29
521.643	8999.4
522.009	9094.99
522.376	9203.68
522.743	9174.53
523.11	9277.13
523.477	9462.66
523.843	9515.31
524.21	9593.5
524.577	9680.96
524.943	9748.53
525.31	9742.88
525.676	9890.45
526.043	9941.52
526.409	10072.59
526.776	10220.16
527.142	10208.18
527.508	10236.88
527.874	10443.43
528.241	10463.54
528.607	10484.1
528.973	10598.9
529.339	10697.2
529.705	10701.5
530.071	10843.19
530.437	10988.27
530.803	11057.87
531.169	11079.34
531.535	11096.06
531.901	11209.06
532.267	11271.43
532.632	11382.61
532.998	11415.15
533.364	11445.66
533.73	11644.52
534.095	11677.74
534.461	11787.35
534.826	11819.43
535.192	11805.65
535.557	12028.24
535.923	12060.56
536.288	12122.03
536.653	12208.8
537.019	12301.46
537.384	12287.9
537.749	12324.96
538.114	12381.68
538.479	12482.24
538.845	12612.18
539.21	12601.79
539.575	12759.98
539.94	12820.09
540.305	12864.15
540.67	12911.61
541.034	12993.42
541.399	13153.19
541.764	13186.63
542.129	13302.56
542.494	13343.24
542.858	13453.97
543.223	13415.1
543.587	13604.92
543.952	13699.16
544.316	13703.91
544.681	13786.84
545.045	13866.61
545.41	13910.45
545.774	14085.36
546.138	14104.57
546.503	14163.55
546.867	14231.57
547.231	14315.41
547.595	14525.35
547.959	14548.18
548.324	14610.32
548.688	14713.37
549.052	14822.29
549.416	14928.05
549.779	15033.36
550.143	15138.44
550.507	15289.63
550.871	15318.55
551.235	15416.4
551.599	15594.48
551.962	15650.75
552.326	15781.14
552.689	15949.04
553.053	15975.26
553.417	16149.94
553.78	16355.81
554.143	16364.85
554.507	16459.54
554.87	16635.13
555.234	16760.77
555.597	16863.82
555.96	16994.44
556.323	17157.15
556.686	17276.69
557.05	17376.35
557.413	17547.42
557.776	17678.04
558.139	17920.52
558.502	18013.4
558.865	18148.08
559.228	18415.19
559.59	18491.8
559.953	18699.48
560.316	18941.73
560.679	19013.82
561.041	19268.96
561.404	19474.15
561.767	19637.31
562.129	19635.5
562.492	20060.35
562.854	20141.25
563.217	20165.66
563.579	20372.88
563.941	20721.57
564.304	20807
564.666	21071.17
565.028	21194.33
565.39	21274.1
565.753	21661.21
566.115	21824.82
566.477	22045.38
566.839	22173.74
567.201	22491.24
567.563	22512.94
567.925	22895.53
568.287	22989.08
568.648	23205.12
569.01	23521.5
569.372	23640.82
569.734	23701.61
570.095	24072.9
570.457	24293.01
570.819	24378.43
571.18	24520.34
571.542	24817.06
571.903	24854.8
572.265	25303.15
572.626	25575.68
572.987	25582.01
573.349	25924.83
573.71	26046.86
574.071	26176.35
574.432	26428.32
574.794	26752.6
575.155	26930.45
575.516	26875.76
575.877	27200.05
576.238	27328.63
576.599	27604.78
576.96	27686.36
577.32	27856.3
577.681	28081.61
578.042	28335.38
578.403	28338.1
578.763	28543.97
579.124	28720.46
579.485	28868.03
579.845	29115.48
580.206	29187.34
580.566	29325.87
580.927	29458.52
581.287	29796.36
581.648	29697.83
582.008	30035.68
582.368	30023.93
582.728	30074.77
583.089	30279.06
583.449	30347.99
583.809	30683.8
584.169	30775.09
584.529	30891.25
584.889	31144.35
585.249	30992.26
585.609	31149.77
585.969	31492.82
586.329	31393.38
586.688	31436.32
587.048	31564.68
587.408	31636.32
587.768	31795.41
588.127	31855.74
588.487	32001.28
588.846	32340.7
589.206	32098.68
589.565	32265.68
589.925	32516.97
590.284	32572.79
590.643	32784.08
591.003	32977.75
591.362	33101.81
591.721	32957.86
592.08	33132.32
592.44	33370.28
592.799	33334.58
593.158	33340.23
593.517	33489.15
593.876	33653.21
594.235	33722.59
594.593	33837.16
594.952	34035.12
595.311	33947.67
595.67	34089.13
596.029	34346.53
596.387	34540.65
596.746	34495.45
597.104	34464.26
597.463	34597.82
597.822	34674.2
598.18	34738.83
598.538	34947.64
598.897	35125.49
599.255	34746.74
599.613	35300.85
599.972	35296.56
600.33	35506.72
600.688	35271.93
601.046	35727.28
601.404	35979.03
601.762	35785.58
602.12	36151.22
602.478	36086.59
602.836	36229.41
603.194	36306.25
603.552	36429.41
603.91	36381.73
604.268	36638.44
604.625	36563.87
604.983	36920.24
605.341	36755.28
605.698	37001.6
606.056	37098.32
606.413	37252.21
606.771	37333.34
607.128	37490.62
607.485	37377.18
607.843	37604.52
608.2	37785.31
608.557	38036.37
608.914	38050.38
609.272	38140.32
609.629	38349.36
609.986	38382.13
610.343	38402.92
610.7	38906.86
611.057	38694.43
611.414	38855.11
611.771	38889.23
612.127	39093.97
612.484	39173.29
612.841	39330.58
613.198	39173.29
613.554	39322.44
613.911	39543.68
614.267	39574.64
614.624	39803.56
614.98	39746.61
615.337	40170.33
615.693	40167.84
616.05	40269.53
616.406	40604.21
616.762	40457.78
617.118	40514.27
617.475	40568.96
617.831	40725.57
618.187	40838.11
618.543	40961.72
618.899	41088.5
619.255	41097.31
619.611	41151.32
619.967	41458.66
620.323	41396.28
620.678	41572.32
621.034	41521.7
621.39	41569.39
621.746	41609.39
622.101	42061.13
622.457	41779.33
622.812	41944.52
623.168	42096.83
623.523	42156.04
623.879	42298.86
624.234	42147.45
624.589	42252.08
624.945	42368.69
625.3	42488.23
625.655	42548.57
626.01	42540.44
626.365	42701.56
626.72	42662.69
627.075	42684.61
627.43	42777.27
627.785	42726.87
628.14	42911.5
628.495	42890.26
628.85	43065.17
629.205	42761.67
629.559	43152.62
629.914	42903.82
630.269	43075.56
630.623	43125.73
630.978	43087.99
631.332	43294.77
631.687	43351.04
632.041	43306.74
632.396	43328.21
632.75	43276.23
633.104	43395.78
633.459	43248.89
633.813	43347.87
634.167	43323.01
634.521	43291.15
634.875	43454.99
635.229	43393.29
635.583	43309
635.937	43330.7
636.291	43506.06
636.645	43485.04
636.999	43405.05
637.352	43601.65
637.706	43487.53
638.06	43693.4
638.413	43577.24
638.767	43598.94
639.121	43531.37
639.474	43358.94
639.828	43451.37
640.181	43612.27
640.534	43590.8
640.888	43526.85
641.241	43591.25
641.594	43667.19
641.947	43716.68
642.301	43603.01
642.654	43677.35
643.007	43753.96
643.36	43714.19
643.713	43725.71
644.066	43940.62
644.419	43772.49
644.771	43535.66
645.124	43172.28
645.477	43057.03
645.83	43019.29
646.182	42890.03
646.535	42898.84
646.888	42963.47
647.24	42709.7
647.593	43030.37
647.945	42913.98
648.298	42764.84
648.65	42661.79
649.002	42590.6
649.355	42810.48
649.707	42895.91
650.059	43116.01
650.411	43600.75
650.763	43567.3
651.115	44092.71
651.467	44028.53
651.819	44088.19
652.171	43973.39
652.523	43995.76
652.875	43957.57
653.227	43905.6
653.578	44185.59
653.93	43993.96
654.282	44007.29
654.633	43815.88
654.985	43900.63
655.337	43906.5
655.688	44150.34
656.039	44237.79
656.391	44021.53
656.742	44174.74
657.094	44328.64
657.445	44392.82
657.796	44262.42
658.147	44226.72
658.498	44271.01
658.849	44314.17
659.2	44202.31
659.551	44259.71
659.902	44553.72
660.253	44541.74
660.604	44598.91
660.955	44393.72
661.306	44597.56
661.656	44598.69
662.007	44576.31
662.358	44691.11
662.708	44597.78
663.059	44798.23
663.409	44502.64
663.76	44665.8
664.11	44831.45
664.461	44916.64
664.811	44967.72
665.161	44893.82
665.511	44768.4
665.862	44939.02
666.212	45041.16
666.562	45111.21
666.912	44983.99
667.262	45067.6
667.612	45007.04
667.962	45199.57
668.312	45041.61
668.662	45323.41
669.011	45223.75
669.361	45237.77
669.711	45374.48
670.06	45219.91
670.41	45233.47
670.76	45468.95
671.109	45478.89
671.459	45299.68
671.808	45535.61
672.157	45534.03
672.507	45288.61
672.856	45230.31
673.205	45452.22
673.554	45579.9
673.904	45421.04
674.253	45717.3
674.602	45712.78
674.951	45052.91
675.3	44937.21
675.649	45581.94
675.998	45555.95
676.346	45741.03
676.695	45908.03
677.044	45561.15
677.393	45717.07
677.741	45791.42
678.09	45753.01
678.438	45854.47
678.787	45870.29
679.135	45850.18
679.484	45548.27
679.832	45856.28
680.181	45673.01
680.529	45767.02
680.877	45647.92
681.225	45804.53
681.573	45933.57
681.922	45794.13
682.27	45609.96
682.618	45560.02
682.966	45614.03
683.314	45688.83
683.661	45597.3
684.009	45549.17
684.357	45515.72
684.705	45488.15
685.053	45570.19
685.4	45449.51
685.748	45316.86
686.095	45370.87
686.443	45425.78
686.79	45269.18
687.138	45502.17
687.485	45457.19
687.832	45328.84
688.18	45545.78
688.527	45192.34
688.874	45212.23
689.221	45198.44
689.568	45007.26
689.915	44925.91
690.262	45146.92
690.609	44866.25
690.956	45007.26
691.303	44954.83
691.65	44831
691.997	44905.34
692.344	44611.79
692.69	44746.93
693.037	44686.37
693.383	44395.98
693.73	44538.8
694.077	44373.61
694.423	44280.95
694.769	44259.26
695.116	44302.2
695.462	44161.86
695.808	44104.69
696.155	44351.69
696.501	43976.1
696.847	43907.63
697.193	43736.79
697.539	43985.37
697.885	43705.83
698.231	43591.93
698.577	43605.94
698.923	43477.59
699.269	43525.04
699.614	43377.02
699.96	43302.67
700.306	43493.4
700.651	43326.86
700.997	43301.09
701.342	43066.52
701.688	43059.97
702.033	43097.71
702.379	43031.72
702.724	42873.31
703.069	43129.8
703.415	42762.12
703.76	42867.66
704.105	42711.96
704.45	42768
704.795	42581.56
705.14	42691.84
705.485	42664.73
705.83	42443.71
706.175	42586.54
706.52	42429.03
706.865	42284.85
707.209	42282.36
707.554	42226.09
707.899	42267.22
708.243	42114.01
708.588	42112.88
708.932	42073.1
709.277	41781.59
709.621	42058.41
709.966	41834.24
710.31	41872.2
710.654	41606.45
710.998	41789.27
711.342	41826.33
711.687	41787.46
712.031	41714.02
712.375	41627.69
712.719	41815.03
713.063	41728.25
713.407	41766.9
713.75	41495.26
714.094	41453.91
714.438	41451.65
714.782	41454.14
715.125	41389.05
715.469	41456.4
715.812	41250.07
716.156	40956.75
716.499	41208.49
716.843	41186.35
717.186	41093.24
717.53	41197.19
717.873	41213.46
718.216	41075.39
718.559	41119
718.902	40836.07
719.246	40912.91
719.589	40743.42
719.932	40828.84
720.275	40756.3
720.617	40709.52
720.96	40698.9
721.303	40930.08
721.646	41045.56
721.989	40797.66
722.331	41010.76
722.674	40736.19
723.016	40924.66
723.359	40808.96
723.701	40919.23
724.044	40597.44
724.386	40617.1
724.729	40628.4
725.071	40519.02
725.413	40387.95
725.755	40492.58
726.097	40154.74
726.439	40148.41
726.782	40339.82
727.124	40627.49
727.465	40265.47
727.807	40327.16
728.149	40212.13
728.491	40209.65
728.833	40154.51
729.175	40070.9
729.516	40038.35
729.858	40244.9
730.199	40108.41
730.541	39949.54
730.882	39953.38
731.224	40175.98
731.565	40131.68
731.906	40210.1
732.248	40274.28
732.589	40114.74
732.93	39958.13
733.271	40194.73
733.612	40051.24
733.953	39967.62
734.294	39949.54
734.635	39961.75
734.976	40012.82
735.317	39695.99
735.658	39804.01
735.999	39844.46
736.339	39816.21
736.68	39916.32
737.021	39885.82
737.361	39516.56
737.702	39897.57
738.042	39697.12
738.383	39677.91
738.723	39977.79
739.063	39671.58
739.404	39821.18
739.744	39668.65
740.084	39578.25
740.424	39790.22
740.764	39625.03
741.104	39763.56
741.444	39550.91
741.784	39454.87
742.124	39691.92
742.464	39646.73
742.804	39535.99
743.143	39553.17
743.483	39624.81
743.823	39323.57
744.162	39458.93
744.502	39398.82
744.841	39321.31
745.181	39466.17
745.52	39504.58
745.86	39427.52
746.199	39291.26
746.538	39360.41
746.877	39673.39
747.216	39234.53
747.556	39218.94
747.895	39277.24
748.234	39016.01
748.573	39148.66
748.911	39248.32
749.25	39262.78
749.589	39128.55
749.928	39159.51
750.267	39215.78
750.605	39162.22
750.944	39066.18
751.283	38985.95
751.621	38952.28
751.96	38852.62
752.298	38780.31
752.636	38893.75
752.975	38588.22
753.313	38444.95
753.651	38811.04
753.989	38473.88
754.327	38446.31
754.666	38374.22
755.004	38621.67
755.342	38736.24
755.679	38465.06
756.017	38213.32
756.355	38442.69
756.693	38199.98
