Data from copper_heatsink_FLMS001491_093.txt Node
Date: Tue Feb 07 10:50:52 GMT 2017
User: dcchb
Spectrometer: FLMS00149
Trigger mode: 0
Integration Time (sec): 2.000000E-2
Scans to average: 10
Electric dark correction enabled: true
Nonlinearity correction enabled: false
Boxcar width: 0
XAxis mode: Wavelengths
Number of Pixels in Spectrum: 2048
>>>>>Begin Spectral Data<<<<<
341.393	-3.95
341.776	-3.95
342.16	-3.95
342.543	-53.67
342.927	-72.43
343.31	-66.78
343.693	-76.27
344.077	-69.49
344.46	-55.03
344.843	-52.77
345.226	-48.02
345.61	-42.15
345.993	-8.02
346.376	8.93
346.759	6.67
347.142	27.68
347.525	42.37
347.908	55.7
348.291	84.4
348.674	97.74
349.057	95.03
349.44	119.88
349.823	150.84
350.206	170.96
350.588	197.4
350.971	214.34
351.354	229.49
351.737	210.5
352.119	230.16
352.502	258.86
352.884	295.25
353.267	282.59
353.65	295.02
354.032	309.94
354.414	313.78
354.797	313.78
355.179	313.33
355.562	310.61
355.944	327.79
356.326	315.81
356.709	327.11
357.091	314
357.473	339.54
357.855	334.79
358.238	337.05
358.62	339.99
359.002	366.43
359.384	347.9
359.766	331.18
360.148	328.24
360.53	345.41
360.912	352.19
361.294	333.44
361.676	342.7
362.057	342.7
362.439	340.22
362.821	319.2
363.203	322.59
363.584	338.41
363.966	324.62
364.348	325.53
364.729	342.93
365.111	333.89
365.493	314.46
365.874	314.46
366.256	322.36
366.637	314.23
367.019	320.1
367.4	329.14
367.781	325.98
368.163	317.62
368.544	312.2
368.925	347.45
369.306	322.59
369.688	328.01
370.069	333.21
370.45	347.22
370.831	337.28
371.212	332.31
371.593	319.43
371.974	316.49
372.355	316.04
372.736	315.36
373.117	324.17
373.498	324.4
373.879	312.2
374.26	316.04
374.641	324.85
375.021	342.02
375.402	343.83
375.783	337.73
376.163	333.66
376.544	322.14
376.925	332.99
377.305	351.52
377.686	332.76
378.066	339.54
378.447	344.74
378.827	340.67
379.208	339.31
379.588	334.12
379.968	332.99
380.349	349.93
380.729	334.57
381.109	351.74
381.489	353.1
381.87	361.01
382.25	342.25
382.63	356.71
383.01	365.3
383.39	342.7
383.77	365.53
384.15	361.01
384.53	369.59
384.91	359.43
385.29	371.4
385.67	351.97
386.049	355.13
386.429	379.99
386.809	371.63
387.189	386.77
387.568	397.62
387.948	374.57
388.328	385.19
388.707	394
389.087	354.91
389.466	375.92
389.846	368.01
390.225	367.79
390.605	399.2
390.984	419.99
391.363	406.66
391.743	389.71
392.122	389.93
392.501	403.04
392.881	372.76
393.26	403.49
393.639	371.18
394.018	383.83
394.397	402.14
394.776	396.03
395.155	382.7
395.534	401.46
395.913	399.2
396.292	407.56
396.671	410.72
397.05	395.58
397.429	406.2
397.808	398.97
398.186	400.33
398.565	406.2
398.944	403.04
399.323	418.63
399.701	394.23
400.08	410.95
400.458	414.34
400.837	405.53
401.215	427.45
401.594	412.31
401.972	448.69
402.351	452.76
402.729	439.42
403.107	459.31
403.486	444.62
403.864	460.44
404.242	445.3
404.62	443.04
404.999	457.73
405.377	425.41
405.755	467.45
406.133	441.68
406.511	457.73
406.889	464.28
407.267	467.45
407.645	452.3
408.023	449.14
408.401	469.93
408.779	468.12
409.156	466.09
409.534	479.42
409.912	473.55
410.29	477.61
410.667	477.84
411.045	477.84
411.422	489.37
411.8	504.51
412.178	479.87
412.555	500.89
412.933	496.6
413.31	487.33
413.687	498.63
414.065	510.83
414.442	507.44
414.819	512.87
415.197	518.52
415.574	491.85
415.951	540.21
416.328	547.67
416.705	523.26
417.082	519.87
417.46	529.59
417.837	537.95
418.214	544.73
418.591	544.51
418.967	534.11
419.344	566.65
419.721	541.12
420.098	533.43
420.475	548.12
420.852	543.6
421.228	562.58
421.605	556.71
421.982	565.52
422.358	559.87
422.735	560.78
423.111	572.08
423.488	583.15
423.864	591.06
424.241	577.5
424.617	586.54
424.994	580.21
425.37	587.22
425.746	580.89
426.123	601.91
426.499	615.24
426.875	594.9
427.251	624.05
427.627	612.3
428.003	596.48
428.379	625.86
428.756	618.4
429.132	633.09
429.507	647.55
429.883	653.2
430.259	649.81
430.635	671.28
431.011	664.5
431.387	650.72
431.763	669.7
432.138	673.09
432.514	659.98
432.89	668.8
433.265	712.86
433.641	713.54
434.016	725.74
434.392	713.31
434.767	722.81
435.143	711.96
435.518	720.09
435.894	728
436.269	734.33
436.644	739.98
437.02	728
437.395	754.44
437.77	744.5
438.145	769.36
438.52	745.86
438.895	749.25
439.271	778.85
439.646	762.13
440.021	773.2
440.395	794.67
440.77	796.7
441.145	800.54
441.52	796.02
441.895	806.65
442.27	806.42
442.645	802.8
443.019	824.72
443.394	815.23
443.769	829.47
444.143	848.68
444.518	827.89
444.892	847.1
445.267	846.19
445.641	839.64
446.016	838.51
446.39	844.61
446.764	872.41
447.139	836.02
447.513	869.69
447.887	863.82
448.262	872.86
448.636	873.31
449.01	881.22
449.384	870.37
449.758	894.55
450.132	909.02
450.506	893.2
450.88	917.6
451.254	898.62
451.628	924.61
452.002	933.87
452.376	950.14
452.75	958.28
453.123	953.76
453.497	952.18
453.871	968.68
454.244	995.79
454.618	978.39
454.992	994.66
455.365	981.1
455.739	982.46
456.112	1015.68
456.486	1020.43
456.859	1050.48
457.232	1059.29
457.606	1040.76
457.979	1065.4
458.352	1095
458.725	1085.06
459.099	1093.87
459.472	1120.99
459.845	1101.78
460.218	1118.28
460.591	1123.7
460.964	1174.09
461.337	1117.82
461.71	1145.62
462.083	1166.18
462.456	1192.4
462.829	1197.82
463.201	1198.5
463.574	1201.21
463.947	1236.24
464.32	1271.72
464.692	1275.11
465.065	1279.85
465.438	1318.72
465.81	1315.78
466.183	1317.59
466.555	1327.99
466.928	1339.29
467.3	1352.39
467.672	1375.67
468.045	1387.2
468.417	1387.2
468.789	1370.47
469.161	1422.9
469.534	1447.31
469.906	1449.79
470.278	1472.39
470.65	1464.03
471.022	1494.09
471.394	1532.5
471.766	1548.77
472.138	1563.91
472.51	1608.21
472.882	1615.66
473.253	1615.21
473.625	1661.54
473.997	1669.22
474.369	1693.85
474.74	1702.89
475.112	1744.25
475.484	1767.75
475.855	1789.22
476.227	1788.09
476.598	1852.27
476.97	1849.33
477.341	1876.22
477.713	1935.88
478.084	1919.84
478.455	1971.81
478.827	1990.57
479.198	2071.47
479.569	2051.58
479.94	2132.26
480.311	2115.54
480.682	2167.97
481.053	2221.07
481.424	2249.32
481.795	2255.42
482.166	2275.53
482.537	2277.12
482.908	2343.78
483.279	2350.79
483.65	2428.75
484.021	2434.4
484.391	2453.83
484.762	2504.91
485.133	2502.65
485.503	2585.36
485.874	2649.99
486.244	2648.63
486.615	2708.06
486.985	2723.21
487.356	2772.7
487.726	2807.5
488.097	2818.8
488.467	2849.98
488.837	2891.11
489.207	2958.45
489.578	2993.93
489.948	3026.25
490.318	3040.71
490.688	3089.07
491.058	3105.34
491.428	3161.84
491.798	3146.47
492.168	3249.97
492.538	3278.22
492.908	3332.68
493.278	3336.52
493.648	3340.14
494.017	3383.98
494.387	3444.54
494.757	3468.72
495.126	3483.86
495.496	3513.01
495.866	3531.32
496.235	3607.02
496.605	3607.25
496.974	3627.59
497.344	3675.04
497.713	3690.19
498.082	3695.38
498.452	3727.47
498.821	3790.07
499.19	3825.55
499.559	3849.05
499.928	3883.85
500.298	3861.25
500.667	3922.04
501.036	3915.04
501.405	3996.17
501.774	3990.06
502.143	4023.74
502.512	4026.22
502.88	4098.76
503.249	4065.09
503.618	4079.78
503.987	4173.34
504.356	4185.54
504.724	4207.23
505.093	4226.44
505.462	4247.91
505.83	4286.33
506.199	4326.33
506.567	4354.8
506.936	4396.83
507.304	4419.43
507.672	4456.49
508.041	4494.23
508.409	4516.15
508.777	4557.96
509.145	4588.92
509.514	4600.44
509.882	4661.01
510.25	4719.31
510.618	4699.88
510.986	4748.24
511.354	4778.52
511.722	4800.66
512.09	4854.67
512.458	4901.91
512.826	4921.11
513.193	4919.98
513.561	4960.43
513.929	5004.73
514.297	5087.89
514.664	5108.45
515.032	5188.45
515.4	5179.64
515.767	5205.4
516.135	5242.24
516.502	5201.78
516.869	5329.92
517.237	5338.5
517.604	5343.02
517.972	5372.18
518.339	5431.16
518.706	5489.23
519.073	5478.39
519.44	5545.28
519.808	5631.15
520.175	5619.17
520.542	5722.9
520.909	5779.62
521.276	5736.69
521.643	5785.05
522.009	5877.47
522.376	5954.08
522.743	5980.75
523.11	6054.42
523.477	6107.97
523.843	6086.51
524.21	6201.53
524.577	6261.19
524.943	6298.03
525.31	6280.17
525.676	6458.47
526.043	6427.29
526.409	6511.13
526.776	6539.38
527.142	6577.12
527.508	6665.93
527.874	6691.91
528.241	6758.58
528.607	6759.71
528.973	6851.68
529.339	6865.92
529.705	6938.91
530.071	6955.18
530.437	7062.07
530.803	7020.49
531.169	7116.08
531.535	7197.89
531.901	7161.51
532.267	7243.54
532.632	7316.08
532.998	7298
533.364	7410.99
533.73	7433.36
534.095	7518.56
534.461	7543.87
534.826	7560.14
535.192	7642.62
535.557	7647.6
535.923	7729.85
536.288	7724.88
536.653	7764.2
537.019	7828.83
537.384	7911.09
537.749	7968.04
538.114	7920.81
538.479	7979.11
538.845	8052.1
539.21	8055.95
539.575	8117.64
539.94	8173.91
540.305	8260.23
540.67	8222.04
541.034	8249.84
541.399	8376.16
541.764	8387.46
542.129	8491.19
542.494	8484.41
542.858	8465.65
543.223	8564.18
543.587	8664.97
543.952	8666.33
544.316	8662.48
544.681	8688.25
545.045	8771.41
545.41	8864.51
545.774	8921.01
546.138	8959.2
546.503	8985.41
546.867	9022.25
547.231	9093.21
547.595	9136.37
547.959	9245.75
548.324	9242.81
548.688	9235.12
549.052	9328.68
549.416	9403.03
549.779	9446.64
550.143	9389.7
550.507	9631.72
550.871	9790.14
551.235	9738.39
551.599	9832.85
551.962	9898.61
552.326	9941.77
552.689	10033.97
553.053	10043.01
553.417	10064.48
553.78	10306.28
554.143	10290.69
554.507	10389.22
554.87	10463.11
555.234	10591.25
555.597	10558.93
555.96	10729.1
556.323	10764.58
556.686	10840.73
557.05	10938.81
557.413	11007.51
557.776	11074.17
558.139	11240.04
558.502	11301.96
558.865	11413.15
559.228	11573.82
559.59	11617.89
559.953	11618.34
560.316	11881.38
560.679	11849.74
561.041	12096.74
561.404	12165.89
561.767	12345.33
562.129	12308.04
562.492	12520.24
562.854	12588.26
563.217	12713.45
563.579	12680.68
563.941	12945.54
564.304	13049.04
564.666	13112.31
565.028	13280.67
565.39	13383.04
565.753	13548.01
566.115	13691.73
566.477	13800.65
566.839	13881.78
567.201	14038.39
567.563	14134.88
567.925	14314.76
568.287	14432.05
568.648	14555.21
569.01	14724.47
569.372	14855.09
569.734	14915.2
570.095	15027.29
570.457	15086.72
570.819	15340.05
571.18	15448.75
571.542	15672.47
571.903	15719.25
572.265	15782.07
572.626	16042.63
572.987	16013.48
573.349	16217.99
573.71	16366.69
574.071	16460.92
574.432	16509.96
574.794	16760.12
575.155	16885.54
575.516	16870.86
575.877	17146.78
576.238	17292.31
576.599	17243.05
576.96	17396.49
577.32	17605.98
577.681	17670.38
578.042	17795.8
578.403	17813.2
578.763	17851.85
579.124	18040.54
579.485	18099.98
579.845	18337.71
580.206	18327.09
580.566	18430.36
580.927	18546.52
581.287	18691.82
581.648	18564.6
582.008	18862.89
582.368	18943.8
582.728	18971.59
583.089	19056.11
583.449	19150.57
583.809	19283
584.169	19332.03
584.529	19340.4
584.889	19586.26
585.249	19537.23
585.609	19505.81
585.969	19625.13
586.329	19776.99
586.688	19901.74
587.048	19988.06
587.408	19920.27
587.768	19998.23
588.127	20063.77
588.487	20203.42
588.846	20309.64
589.206	20266.7
589.565	20279.81
589.925	20448.39
590.284	20543.08
590.643	20588.72
591.003	20625.79
591.362	20859
591.721	20829.85
592.08	20875.27
592.44	20935.61
592.799	20916.63
593.158	20914.82
593.517	21096.06
593.876	21200.01
594.235	21163.17
594.593	21296.73
594.952	21324.75
595.311	21367.23
595.67	21478.19
596.029	21651.3
596.387	21677.06
596.746	21722.93
597.104	21778.98
597.463	21736.04
597.822	21961.12
598.18	21757.96
598.538	21882.7
598.897	22110.49
599.255	22042.02
599.613	22435.91
599.972	22283.82
600.33	22351.39
600.688	22448.34
601.046	22460.77
601.404	22564.49
601.762	22531.5
602.12	22698.5
602.478	22757.48
602.836	22904.37
603.194	22785.73
603.552	22870.7
603.91	22814.2
604.268	22986.4
604.625	23032.5
604.983	23178.03
605.341	23149.11
605.698	23312.04
606.056	23463.68
606.413	23409.44
606.771	23513.39
607.128	23604.69
607.485	23551.58
607.843	23604.69
608.2	23784.12
608.557	23841.07
608.914	23833.38
609.272	24081.51
609.629	24059.59
609.986	24226.82
610.343	24134.62
610.7	24327.61
611.057	24308.63
611.414	24484.21
611.771	24599.01
612.127	24636.75
612.484	24573.48
612.841	24824.77
613.198	24767.37
613.554	24869.29
613.911	24903.86
614.267	24949.51
614.624	24983.18
614.98	24997.42
615.337	25182.05
615.693	25322.39
616.05	25364.87
616.406	25446
616.762	25419.56
617.118	25402.38
617.475	25555.37
617.831	25600.57
618.187	25704.07
618.543	25810.06
618.899	25862.03
619.255	26013.21
619.611	25988.36
619.967	26093.44
620.323	26098.64
620.678	26154.68
621.034	26073.55
621.39	26073.33
621.746	26111.52
622.101	26473.54
622.457	26285.98
622.812	26440.1
623.168	26428.57
623.523	26499.98
623.879	26643.93
624.234	26412.07
624.589	26463.6
624.945	26532.3
625.3	26692.29
625.655	26623.82
626.01	26719.64
626.365	26696.13
626.72	26897.26
627.075	26781.33
627.43	26792.85
627.785	26713.08
628.14	26859.07
628.495	26950.36
628.85	26887.09
629.205	26811.16
629.559	26947.88
629.914	26976.13
630.269	26856.58
630.623	27049.8
630.978	27130.02
631.332	27167.99
631.687	27154.2
632.041	27135.9
632.396	27221.77
632.75	27121.66
633.104	27294.76
633.459	27163.01
633.813	27135.9
634.167	27178.38
634.521	27184.48
634.875	27196.91
635.229	27170.92
635.583	27005.73
635.937	27116.24
636.291	27146.29
636.645	27080.08
636.999	27064.71
637.352	27230.81
637.706	27077.37
638.06	27276.46
638.413	27229.91
638.767	27140.87
639.121	27325.04
639.474	27163.69
639.828	27280.75
640.181	27351.26
640.534	27411.82
640.888	27213.63
641.241	27177.25
641.594	27274.65
641.947	27341.09
642.301	27271.49
642.654	27323.69
643.007	27375.89
643.36	27326.17
643.713	27285.95
644.066	27387.64
644.419	27293.18
644.771	27045.28
645.124	26794.89
645.477	26794.44
645.83	26669.47
646.182	26515.57
646.535	26555.12
646.888	26565.97
647.24	26510.83
647.593	26711.95
647.945	26766.87
648.298	26613.2
648.65	26675.34
649.002	26520.55
649.355	26657.72
649.707	26639.86
650.059	26646.87
650.411	27072.62
650.763	27021.78
651.115	27389.22
651.467	27369.11
651.819	27347.64
652.171	27250.92
652.523	27276.46
652.875	27320.3
653.227	27149
653.578	27395.78
653.93	27319.17
654.282	27213.63
654.633	27221.54
654.985	27355.1
655.337	27334.08
655.688	27352.84
656.039	27389
656.391	27239.17
656.742	27336.34
657.094	27487.98
657.445	27548.54
657.796	27327.53
658.147	27403.23
658.498	27340.86
658.849	27403.46
659.2	27346.29
659.551	27251.83
659.902	27298.83
660.253	27362.56
660.604	27454.98
660.955	27377.25
661.306	27495.89
661.656	27433.74
662.007	27528.43
662.358	27494.76
662.708	27372.27
663.059	27605.49
663.409	27412.05
663.76	27695.66
664.11	27670.35
664.461	27636.67
664.811	27563.23
665.161	27605.04
665.511	27687.75
665.862	27724.36
666.212	27827.4
666.562	27742.66
666.912	27789.66
667.262	27744.47
667.612	27770.91
667.962	27744.92
668.312	27800.74
668.662	28030.79
669.011	27858.36
669.361	27818.14
669.711	27903.79
670.06	27901.53
670.41	27761.19
670.76	27697.69
671.109	27909.89
671.459	27881.64
671.808	27751.02
672.157	27810.91
672.507	27658.59
672.856	27690.46
673.205	27883.67
673.554	28041.18
673.904	27869.66
674.253	28036.66
674.602	27903.33
674.951	27596.9
675.3	27368.21
675.649	27863.34
675.998	28056.55
676.346	28035.53
676.695	28062.2
677.044	27889.78
677.393	27902.66
677.741	28051.13
678.09	27949.66
678.438	28068.08
678.787	28033.05
679.135	28063.33
679.484	27782.43
679.832	27858.82
680.181	27748.31
680.529	27891.81
680.877	27892.71
681.225	27859.49
681.573	27963.45
681.922	27864.47
682.27	27715.99
682.618	27809.33
682.966	27842.54
683.314	27794.86
683.661	27741.3
684.009	27591.93
684.357	27565.49
684.705	27460.63
685.053	27641.87
685.4	27615.43
685.748	27593.29
686.095	27605.71
686.443	27408.66
686.79	27500.18
687.138	27523.01
687.485	27463.57
687.832	27344.93
688.18	27376.12
688.527	27242.33
688.874	27301.09
689.221	27393.97
689.568	27180.64
689.915	27179.74
690.262	27273.97
690.609	27112.39
690.956	27063.58
691.303	26923.92
691.65	26914.89
691.997	27017.03
692.344	26926.86
692.69	26887.32
693.037	26840.31
693.383	26745.4
693.73	26707.21
694.077	26499.53
694.423	26554.89
694.769	26609.58
695.116	26651.84
695.462	26613.88
695.808	26356.48
696.155	26503.6
696.501	26223.15
696.847	26363.04
697.193	26200.33
697.539	26166.43
697.885	26216.6
698.231	26050.5
698.577	25977.74
698.923	26020.9
699.269	25903.16
699.614	25894.57
699.96	25888.02
700.306	25931.63
700.651	25748.59
700.997	25756.95
701.342	25733.9
701.688	25820.9
702.033	25741.58
702.379	25660.46
702.724	25581.81
703.069	25624.52
703.415	25383.85
703.76	25419.11
704.105	25344.76
704.45	25432.44
704.795	25232.9
705.14	25166.23
705.485	25264.08
705.83	25007.59
706.175	25139.11
706.52	25054.82
706.865	24912.9
707.209	24978.44
707.554	24892.57
707.899	25046.23
708.243	24898.89
708.588	24741.16
708.932	24819.57
709.277	24877.65
709.621	24821.61
709.966	24574.61
710.31	24645.34
710.654	24387.27
710.998	24669.75
711.342	24690.54
711.687	24536.87
712.031	24350.43
712.375	24378.68
712.719	24456.42
713.063	24329.64
713.407	24395.63
713.75	24268.85
714.094	24286.93
714.438	24177.78
714.782	24394.27
715.125	24114.73
715.469	24191.12
715.812	24176.65
716.156	23975.08
716.499	23988.41
716.843	23980.5
717.186	23810.11
717.53	23855.3
717.873	24002.19
718.216	24002.65
718.559	23939.14
718.902	23848.07
719.246	23865.25
719.589	23776.44
719.932	23782.09
720.275	23759.04
720.617	23767.62
720.96	23742.99
721.303	23783.89
721.646	23724.01
721.989	23695.31
722.331	23750.22
722.674	23477.91
723.016	23693.28
723.359	23577.12
723.701	23676.78
724.044	23545.93
724.386	23424.13
724.729	23493.28
725.071	23349.33
725.413	23440.85
725.755	23406.5
726.097	23291.03
726.439	23302.1
726.782	23275.89
727.124	23369.44
727.465	23315.66
727.807	23284.02
728.149	23357.92
728.491	23234.53
728.833	23303.46
729.175	23247.19
729.516	23265.72
729.858	23124.7
730.199	23108.43
730.541	23187.53
730.882	23138.49
731.224	23352.27
731.565	23152.5
731.906	23112.5
732.248	23186.4
732.589	23077.92
732.93	23091.94
733.271	23191.82
733.612	23115.44
733.953	23052.16
734.294	23091.94
734.635	22998.15
734.976	23024.14
735.317	22973.97
735.658	22945.72
735.999	22812.39
736.339	22868.66
736.68	22772.4
737.021	22814.43
737.361	22761.77
737.702	22840.19
738.042	22873.64
738.383	22686.75
738.723	22803.36
739.063	22715.22
739.404	22783.47
739.744	22710.93
740.084	22579.86
740.424	22767.2
740.764	22674.77
741.104	22851.94
741.444	22605.62
741.784	22625.51
742.124	22659.63
742.464	22762
742.804	22714.09
743.143	22466.41
743.483	22636.58
743.823	22520.2
744.162	22447.66
744.502	22448.56
744.841	22387.09
745.181	22526.07
745.52	22492.63
745.86	22474.1
746.199	22439.52
746.538	22284.5
746.877	22363.82
747.216	22336.47
747.556	22298.06
747.895	22322.69
748.234	22203.82
748.573	22127.89
748.911	22105.97
749.25	22174.9
749.589	22016.48
749.928	21970.61
750.267	22113.88
750.605	22088.8
750.944	21988.91
751.283	21874.34
751.621	22012.42
751.96	21821.91
752.298	21928.8
752.636	21821.23
752.975	21748.02
753.313	21696.49
753.651	21864.17
753.989	21658.53
754.327	21730.62
754.666	21607.68
755.004	21683.61
755.342	21655.59
755.679	21649.94
756.017	21510.73
756.355	21631.86
756.693	21519.1
757.031	21454.69
757.368	21384.64
757.706	21378.53
758.044	21373.11
758.381	21413.11
758.719	21320.23
759.056	21380.79
759.394	21202.49
