Data from copper_heatsink_FLMS001491_029.txt Node
Date: Tue Feb 07 10:49:37 GMT 2017
User: dcchb
Spectrometer: FLMS00149
Trigger mode: 0
Integration Time (sec): 2.000000E-2
Scans to average: 10
Electric dark correction enabled: true
Nonlinearity correction enabled: false
Boxcar width: 0
XAxis mode: Wavelengths
Number of Pixels in Spectrum: 2048
>>>>>Begin Spectral Data<<<<<
341.393	-7.57
341.776	-7.57
342.16	-7.57
342.543	-71.07
342.927	-50.51
343.31	-40.34
343.693	-80.56
344.077	-64.07
344.46	-83.73
344.843	-58.64
345.226	-38.53
345.61	-33.33
345.993	-22.26
346.376	3.28
346.759	20
347.142	22.03
347.525	51.86
347.908	63.39
348.291	81.69
348.674	69.49
349.057	109.71
349.44	118.3
349.823	141.58
350.206	163.5
350.588	220.9
350.971	233.33
351.354	230.16
351.737	246.89
352.119	249.37
352.502	268.35
352.884	288.24
353.267	295.25
353.65	302.03
354.032	282.59
354.414	335.02
354.797	319.2
355.179	318.97
355.562	344.74
355.944	333.66
356.326	365.53
356.709	355.58
357.091	333.44
357.473	357.17
357.855	352.42
358.238	362.59
358.62	356.94
359.002	339.77
359.384	347
359.766	356.26
360.148	352.19
360.53	366.21
360.912	372.08
361.294	364.4
361.676	345.41
362.057	351.29
362.439	325.53
362.821	340.22
363.203	342.02
363.584	339.09
363.966	345.87
364.348	343.83
364.729	368.69
365.111	337.96
365.493	351.74
365.874	342.25
366.256	343.38
366.637	339.54
367.019	333.21
367.4	341.57
367.781	338.18
368.163	335.92
368.544	330.95
368.925	310.16
369.306	345.19
369.688	347.45
370.069	339.77
370.45	339.77
370.831	356.49
371.212	326.43
371.593	335.02
371.974	348.8
372.355	356.71
372.736	340.22
373.117	378.41
373.498	338.18
373.879	345.41
374.26	355.36
374.641	334.79
375.021	351.06
375.402	339.31
375.783	371.85
376.163	384.06
376.544	367.33
376.925	343.61
377.305	356.04
377.686	347.67
378.066	363.04
378.447	367.11
378.827	380.89
379.208	376.83
379.588	379.31
379.968	367.56
380.349	381.8
380.729	376.83
381.109	380.22
381.489	390.16
381.87	382.7
382.25	402.36
382.63	397.16
383.01	390.61
383.39	400.55
383.77	402.36
384.15	401.23
384.53	402.59
384.91	404.85
385.29	427.67
385.67	413.44
386.049	415.02
386.429	427.9
386.809	413.21
387.189	432.64
387.568	439.42
387.948	442.81
388.328	424.06
388.707	458.63
389.087	440.33
389.466	440.1
389.846	459.31
390.225	445.98
390.605	444.17
390.984	438.52
391.363	442.59
391.743	458.18
392.122	495.92
392.501	456.6
392.881	446.65
393.26	497.73
393.639	495.47
394.018	477.16
394.397	485.07
394.776	476.94
395.155	486.88
395.534	507.9
395.913	492.3
396.292	491.4
396.671	507.44
397.05	486.43
397.429	499.99
397.808	509.48
398.186	507.22
398.565	532.53
398.944	528.69
399.323	525.52
399.701	512.64
400.08	551.74
400.458	531.85
400.837	551.28
401.215	545.18
401.594	561.23
401.972	562.58
402.351	568.23
402.729	556.26
403.107	570.27
403.486	572.3
403.864	562.81
404.242	582.02
404.62	575.24
404.999	588.35
405.377	596.48
405.755	602.36
406.133	584.96
406.511	618.63
406.889	591.06
407.267	622.92
407.645	618.85
408.023	632.64
408.401	617.27
408.779	642.58
409.156	643.26
409.534	648.68
409.912	661.11
410.29	678.29
410.667	663.82
411.045	670.15
411.422	695.46
411.8	687.33
412.178	710.6
412.555	702.69
412.933	703.37
413.31	745.86
413.687	730.26
414.065	749.7
414.442	742.24
414.819	731.17
415.197	727.55
415.574	756.03
415.951	769.36
416.328	776.82
416.705	793.31
417.082	781.56
417.46	816.36
417.837	790.6
418.214	805.74
418.591	795.57
418.967	833.99
419.344	820.66
419.721	835.12
420.098	827.89
420.475	830.37
420.852	863.14
421.228	857.04
421.605	890.26
421.982	881.22
422.358	875.12
422.735	864.5
423.111	911.5
423.488	907.89
423.864	903.59
424.241	917.15
424.617	949.01
424.994	948.34
425.37	939.07
425.746	973.19
426.123	984.72
426.499	981.33
426.875	957.6
427.251	1007.77
427.627	1020.88
428.003	1016.58
428.379	1017.94
428.756	1031.95
429.132	1031.72
429.507	1064.94
429.883	1088.9
430.259	1091.38
430.635	1126.64
431.011	1141.1
431.387	1141.55
431.763	1151.27
432.138	1172.96
432.514	1192.85
432.89	1214.77
433.265	1209.35
433.641	1215
434.016	1247.09
434.392	1216.8
434.767	1262.9
435.143	1252.51
435.518	1270.81
435.894	1276.46
436.269	1305.84
436.644	1334.77
437.02	1328.44
437.395	1361.43
437.77	1351.72
438.145	1402.34
438.52	1412.28
438.895	1387.2
439.271	1420.64
439.646	1445.72
440.021	1466.29
440.395	1460.41
440.77	1459.51
441.145	1473.07
441.52	1490.24
441.895	1479.17
442.27	1512.84
442.645	1533.63
443.019	1552.39
443.394	1546.96
443.769	1575.21
444.143	1542.9
444.518	1589
444.892	1577.02
445.267	1604.36
445.641	1589
446.016	1622.22
446.39	1625.38
446.764	1650.69
447.139	1626.28
447.513	1661.54
447.887	1678.49
448.262	1646.85
448.636	1686.62
449.01	1733.85
449.384	1748.99
449.758	1756.23
450.132	1786.28
450.506	1783.79
450.88	1783.34
451.254	1781.54
451.628	1825.6
452.002	1853.85
452.376	1873.28
452.75	1872.83
453.123	1874.64
453.497	1940.17
453.871	1925.26
454.244	1979.5
454.618	2004.13
454.992	2050.23
455.365	2021.53
455.739	2085.71
456.112	2079.15
456.486	2126.16
456.859	2141.98
457.232	2145.59
457.606	2181.52
457.979	2205.03
458.352	2255.65
458.725	2280.51
459.099	2327.51
459.472	2354.85
459.845	2371.12
460.218	2365.93
460.591	2415.19
460.964	2422.2
461.337	2500.61
461.71	2523.66
462.083	2562.98
462.456	2589.2
462.829	2602.08
463.201	2631.91
463.574	2670.55
463.947	2653.6
464.32	2766.82
464.692	2806.82
465.065	2802.75
465.438	2839.59
465.81	2849.3
466.183	2905.35
466.555	2969.07
466.928	2979.7
467.3	3004.1
467.672	3050.43
468.045	3132.23
468.417	3104.44
468.789	3138.11
469.161	3182.18
469.534	3283.42
469.906	3343.08
470.278	3336.52
470.65	3381.94
471.022	3412.9
471.394	3542.17
471.766	3563.18
472.138	3625.55
472.51	3677.3
472.882	3741.48
473.253	3784.65
473.625	3817.19
473.997	3929.73
474.369	3921.14
474.74	3994.13
475.112	4034.81
475.484	4166.33
475.855	4142.15
476.227	4257.63
476.598	4340.11
476.97	4369.04
477.341	4451.07
477.713	4564.74
478.084	4589.82
478.455	4711.85
478.827	4751.4
479.198	4891.28
479.569	4898.74
479.94	5063.71
480.311	5076.14
480.682	5207.89
481.053	5318.39
481.424	5405.85
481.795	5420.99
482.166	5534.88
482.537	5626.41
482.908	5736.91
483.279	5718.83
483.65	5856.23
484.021	6041.08
484.391	6015.1
484.762	6140.97
485.133	6128.54
485.503	6270
485.874	6424.58
486.244	6424.35
486.615	6594.06
486.985	6695.76
487.356	6727.85
487.726	6807.62
488.097	6995.41
488.467	7038.35
488.837	7205.57
489.207	7239.7
489.578	7403.76
489.948	7468.39
490.318	7568.95
490.688	7502.51
491.058	7596.52
491.428	7771.43
491.798	7862.05
492.168	8051.2
492.538	8110.63
492.908	8104.53
493.278	8253.46
493.648	8293
494.017	8376.84
494.387	8510.17
494.757	8537.06
495.126	8709.71
495.496	8684.18
495.866	8787.68
496.235	8862.93
496.605	8931.18
496.974	8930.05
497.344	9081
497.713	9122.13
498.082	9259.98
498.452	9368.91
498.821	9365.29
499.19	9342.69
499.559	9455.46
499.928	9622.46
500.298	9590.6
500.667	9684.38
501.036	9667.66
501.405	9806.41
501.774	9770.7
502.143	9938.83
502.512	9988.78
502.88	10079.17
503.249	10102.9
503.618	10159.62
503.987	10222.22
504.356	10358.94
504.724	10361.87
505.093	10410.01
505.462	10533.62
505.83	10535.88
506.199	10658.59
506.567	10744.92
506.936	10813.16
507.304	10909.43
507.672	11023.1
508.041	11013.83
508.409	11181.74
508.777	11310.1
509.145	11262.42
509.514	11319.59
509.882	11456.76
510.25	11419.25
510.618	11534.72
510.986	11599.36
511.354	11664.67
511.722	11746.92
512.09	11904.88
512.458	11908.5
512.826	12014.26
513.193	12140.36
513.561	12142.17
513.929	12250.41
514.297	12367.47
514.664	12508.71
515.032	12565.66
515.4	12621.93
515.767	12707.58
516.135	12797.29
516.502	12711.64
516.869	12978.08
517.237	13046.78
517.604	13008.81
517.972	13212.87
518.339	13293.55
518.706	13291.29
519.073	13485.41
519.44	13541.23
519.808	13628.68
520.175	13713.88
520.542	13830.26
520.909	13902.57
521.276	14032.06
521.643	14103.02
522.009	14216.69
522.376	14308.44
522.743	14498.04
523.11	14640.18
523.477	14693.29
523.843	14811.25
524.21	14933.51
524.577	14951.13
524.943	15184.35
525.31	15256.44
525.676	15389.54
526.043	15481.29
526.409	15564.22
526.776	15726.93
527.142	15794.27
527.508	15921.28
527.874	16109.07
528.241	16114.04
528.607	16206.69
528.973	16427.93
529.339	16432.9
529.705	16631.09
530.071	16705.89
530.437	16808.26
530.803	16873.12
531.169	17058.87
531.535	16923.06
531.901	17116.73
532.267	17217.51
532.632	17272.88
532.998	17477.17
533.364	17550.84
533.73	17565.98
534.095	17715.13
534.461	17852.52
534.826	17864.5
535.192	18010.49
535.557	18138.62
535.923	18170.03
536.288	18280.31
536.653	18320.99
537.019	18363.92
537.384	18432.17
537.749	18661.54
538.114	18656.12
538.479	18768.43
538.845	18849.33
539.21	18793.07
539.575	18996.9
539.94	19008.65
540.305	19160.97
540.67	19119.84
541.034	19290.45
541.399	19419.72
541.764	19525.02
542.129	19551.24
542.494	19669.65
542.858	19724.34
543.223	19767.73
543.587	19936.99
543.952	19895.41
544.316	20057.21
544.681	20124.33
545.045	20288.17
545.41	20419.69
545.774	20481.38
546.138	20497.2
546.503	20629.4
546.867	20750.75
547.231	20903.29
547.595	21003.4
547.959	21079.78
548.324	21061.93
548.688	21222.83
549.052	21437.29
549.416	21488.36
549.779	21651.07
550.143	21756.15
550.507	21816.26
550.871	22080.21
551.235	22105.07
551.599	22256.25
551.962	22327.21
552.326	22417.6
552.689	22647.65
553.053	22530.82
553.417	22798.84
553.78	23169.45
554.143	23034.08
554.507	23273.85
554.87	23524.69
555.234	23666.84
555.597	23641.53
555.96	23881.74
556.323	23985.25
556.686	23997.67
557.05	24356.76
557.413	24435.18
557.776	24659.35
558.139	24901.61
558.502	24983.41
558.865	25191.32
559.228	25406.68
559.59	25584.53
559.953	25840.34
560.316	26196.94
560.679	26194.9
561.041	26456.37
561.404	26661.56
561.767	26987.88
562.129	26950.36
562.492	27543.57
562.854	27492.5
563.217	27596.45
563.579	27823.56
563.941	28170.45
564.304	28348.75
564.666	28574.5
565.028	28840.71
565.39	29045.22
565.753	29377.65
566.115	29617.41
566.477	29922.26
566.839	29973.79
567.201	30375.81
567.563	30437.5
567.925	30801.79
568.287	30940.32
568.648	31108.45
569.01	31519.96
569.372	31865.72
569.734	31997.01
570.095	32316.78
570.457	32551.57
570.819	32831.79
571.18	32863.88
571.542	33356.07
571.903	33434.04
572.265	33667.93
572.626	34019.11
572.987	34204.64
573.349	34455.03
573.71	34691.86
574.071	34972.3
574.432	35224.5
574.794	35704.71
575.155	35712.85
575.516	35837.59
575.877	36015.21
576.238	36372.26
576.599	36634.63
576.96	36810.22
577.32	37000.27
577.681	37236.42
578.042	37518.9
578.403	37767.71
578.763	37870.53
579.124	37991.43
579.485	38476.62
579.845	38675.25
580.206	38571.08
580.566	38735.14
580.927	38974.23
581.287	39387.1
581.648	39306.65
582.008	39540.77
582.368	39772.17
582.728	39982.56
583.089	39992.73
583.449	40148.21
583.809	40265.95
584.169	40568.31
584.529	40623.23
584.889	41011.24
585.249	40850.11
585.609	41006.94
585.969	41361.96
586.329	41199.71
586.688	41479.02
587.048	41586.82
587.408	41641.96
587.768	41896.86
588.127	41873.81
588.487	42091.89
588.846	42469.05
589.206	42273.35
589.565	42400.35
589.925	42800.8
590.284	42740.46
590.643	42976.16
591.003	43116.95
591.362	43413.43
591.721	43289.6
592.08	43536.6
592.44	43723.03
592.799	43852.75
593.158	43866.98
593.517	44068.33
593.876	44263.58
594.235	44326.18
594.593	44487.53
594.952	44638.94
595.311	44530.92
595.67	44780.4
596.029	45175.65
596.387	45274.85
596.746	45211.35
597.104	45438.24
597.463	45498.58
597.822	45656.54
598.18	45692.47
598.538	45792.13
598.897	45994.38
599.255	45998.23
599.613	46493.81
599.972	46353.24
600.33	46424.88
600.688	46602.5
601.046	46809.5
601.404	46957.75
601.762	47131.3
602.12	47329.72
602.478	47311.86
602.836	47541.01
603.194	47605.87
603.552	47689.48
603.91	47484.97
604.268	47898.74
604.625	47763.38
604.983	48071.39
605.341	47960.66
605.698	48349.35
606.056	48436.35
606.413	48571.49
606.771	48744.14
607.128	48933.97
607.485	48792.95
607.843	48940.07
608.2	49287.63
608.557	49402.66
608.914	49358.82
609.272	49660.05
609.629	49731.91
609.986	49906.37
610.343	49813.04
610.7	50117.21
611.057	50080.38
611.414	50274.05
611.771	50286.93
612.127	50507.49
612.484	50588.16
612.841	50740.47
613.198	50735.28
613.554	50791.09
613.911	51076.74
614.267	51130.97
614.624	51158.54
614.98	51204.42
615.337	51396.5
615.693	51482.6
616.05	51420.68
616.406	51674.01
616.762	51709.94
617.118	51765.31
617.475	51895.7
617.831	52036.26
618.187	52089.59
618.543	52138.86
618.899	52374.56
619.255	52428.79
619.611	52371.17
619.967	52610.48
620.323	52625.4
620.678	52515.79
621.034	52646.64
621.39	52596.02
621.746	52744.26
622.101	53030.58
622.457	52876.69
622.812	53039.17
623.168	53105.16
623.523	53140.64
623.879	53319.84
624.234	53087.76
624.589	53288.88
624.945	53462.21
625.3	53529.55
625.655	53435.77
626.01	53599.16
626.365	53672.6
626.72	53588.76
627.075	53705.37
627.43	53635.54
627.785	53692.49
628.14	53811.81
628.495	53877.79
628.85	53880.05
629.205	53750.79
629.559	53958.92
629.914	53949.88
630.269	53937
630.623	53911.46
630.978	53914.4
631.332	54152.14
631.687	54193.72
632.041	54098.13
632.396	54144.9
632.75	54111.91
633.104	54184.9
633.459	54060.84
633.813	54197.33
634.167	54117.56
634.521	54198.01
634.875	54210.44
635.229	54336.54
635.583	54202.53
635.937	54223.77
636.291	54306.71
636.645	54238.46
636.999	54183.32
637.352	54380.6
637.706	54266.71
638.06	54374.05
638.413	54406.14
638.767	54345.35
639.121	54392.58
639.474	54302.87
639.828	54298.8
640.181	54285.47
640.534	54416.99
640.888	54332.02
641.241	54333.37
641.594	54331.57
641.947	54480.71
642.301	54407.72
642.654	54515.97
643.007	54567.72
643.36	54439.59
643.713	54440.72
644.066	54498.34
644.419	54487.27
644.771	54433.03
645.124	54289.76
645.477	54277.1
645.83	54013.38
646.182	53928.19
646.535	53603.45
646.888	53738.14
647.24	53533.62
647.593	53747.63
647.945	53654.97
648.298	53531.36
648.65	53565.26
649.002	53618.36
649.355	53772.94
649.707	53893.16
650.059	54056.54
650.411	54453.6
650.763	54499.02
651.115	54763.87
651.467	54614.72
651.819	54586.25
652.171	54596.19
652.523	54589.64
652.875	54704.66
653.227	54646.59
653.578	54832.57
653.93	54752.35
654.282	54666.25
654.633	54583.76
654.985	54640.71
655.337	54649.75
655.688	54810.2
656.039	54827.37
656.391	54708.28
656.742	54719.35
657.094	54803.64
657.445	54981.27
657.796	54886.81
658.147	54860.82
658.498	54877.31
658.849	54859.01
659.2	54839.8
659.551	54750.99
659.902	54881.16
660.253	54934.71
660.604	55041.6
660.955	54880.93
661.306	54975.39
661.656	54997.54
662.007	54943.75
662.358	54963.19
662.708	55163.18
663.059	55093.81
663.409	54943.53
663.76	55125.22
664.11	55120.47
664.461	55188.94
664.811	55218.1
665.161	55226.46
665.511	55193.24
665.862	55246.12
666.212	55351.2
666.562	55334.7
666.912	55280.47
667.262	55342.84
667.612	55291.54
667.962	55334.93
668.312	55412.22
668.662	55455.83
669.011	55443.85
669.361	55443.17
669.711	55376.06
670.06	55405.89
670.41	55429.16
670.76	55382.84
671.109	55503.74
671.459	55409.96
671.808	55455.15
672.157	55631.87
672.507	55430.07
672.856	55524.98
673.205	55558.88
673.554	55679.33
673.904	55531.53
674.253	55674.36
674.602	55612.44
674.951	55197.31
675.3	55160.24
675.649	55592.32
675.998	55620.8
676.346	55709.83
676.695	55668.03
677.044	55548.93
677.393	55717.52
677.741	55775.14
678.09	55767.01
678.438	55729.95
678.787	55737.86
679.135	55703.06
679.484	55594.81
679.832	55732.43
680.181	55598.2
680.529	55675.49
680.877	55568.82
681.225	55663.73
681.573	55780.79
681.922	55583.28
682.27	55535.6
682.618	55578.76
682.966	55532.21
683.314	55629.38
683.661	55562.72
684.009	55527.92
684.357	55508.26
684.705	55453.34
685.053	55509.84
685.4	55561.82
685.748	55394.81
686.095	55374.02
686.443	55321.14
686.79	55258.32
687.138	55329.51
687.485	55285.21
687.832	55190.3
688.18	55287.25
688.527	55233.69
688.874	55232.33
689.221	55194.37
689.568	55162.73
689.915	55069.85
690.262	55115.27
690.609	55090.87
690.956	55024.65
691.303	55008.38
691.65	54861.5
691.997	54891.55
692.344	54663.31
692.69	54690.88
693.037	54867.37
693.383	54551
693.73	54685.68
694.077	54565.46
694.423	54582.86
694.769	54466.93
695.116	54524.78
695.462	54371.11
695.808	54374.28
696.155	54444.11
696.501	54208.63
696.847	54189.87
697.193	54096.09
697.539	54218.35
697.885	54091.12
698.231	54030.56
698.577	54017
698.923	53919.15
699.269	53811.58
699.614	53785.37
699.96	53748.76
700.306	53746.5
700.651	53679.15
700.997	53617.69
701.342	53553.51
701.688	53501.31
702.033	53511.93
702.379	53482.77
702.724	53403.23
703.069	53563.45
703.415	53232.39
703.76	53257.92
704.105	53271.93
704.45	53217.47
704.795	53033.97
705.14	53042.79
705.485	52974.54
705.83	52887.54
706.175	53023.35
706.52	52892.28
706.865	52852.96
707.209	52801.44
707.554	52651.61
707.899	52781.78
708.243	52684.6
708.588	52573.42
708.932	52446.42
709.277	52584.49
709.621	52481.67
709.966	52400.54
710.31	52434.21
710.654	52124.62
710.998	52307.21
711.342	52305.18
711.687	52143.6
712.031	52205.97
712.375	52207.1
712.719	52265.63
713.063	52140.66
713.407	52320.77
713.75	52165.3
714.094	52041.46
714.438	52061.12
714.782	52099.31
715.125	51967.11
715.469	52049.37
715.812	51773.67
716.156	51728.24
716.499	51836.72
716.843	51823.84
717.186	51608.02
717.53	51801.24
717.873	51828.81
718.216	51842.14
718.559	51691.86
718.902	51484.41
719.246	51632.43
719.589	51473.34
719.932	51411.42
720.275	51298.88
720.617	51375.94
720.96	51352.89
721.303	51357.18
721.646	51362.83
721.989	51190.18
722.331	51283.06
722.674	51317.18
723.016	51283.06
723.359	51371.87
723.701	51295.49
724.044	51148.15
724.386	50874.03
724.729	51122.61
725.071	51022.5
725.413	50931.43
725.755	50793.58
726.097	50807.14
726.439	50752.9
726.782	50752
727.124	51090.3
727.465	50921.26
727.807	50937.3
728.149	50791.55
728.491	50697.99
728.833	50773.24
729.175	50728.5
729.516	50780.02
729.858	50671.55
730.199	50766.46
730.541	50644.66
730.882	50692.11
731.224	50742.06
731.565	50507.26
731.906	50614.38
732.248	50716.52
732.589	50489.41
732.93	50342.07
733.271	50391.33
733.612	50522.63
733.953	50488.5
734.294	50240.83
734.635	50285.34
734.976	50351.78
735.317	50266.59
735.658	50300.49
735.999	50256.19
736.339	50282.86
736.68	50330.99
737.021	50171
737.361	49986.82
737.702	50194.73
738.042	49998.8
738.383	50127.16
738.723	50292.8
739.063	50154.05
739.404	50342.97
739.744	50213.03
740.084	50169.19
740.424	50300.71
740.764	50119.02
741.104	50202.18
741.444	49975.07
741.784	49825.92
742.124	49968.29
742.464	49887.61
742.804	49810.1
743.143	49874.51
743.483	50119.93
743.823	49792.93
744.162	49739.37
744.502	49852.36
744.841	49855.3
745.181	49813.49
745.52	49712.93
745.86	49759.71
746.199	49684.91
746.538	49730.33
746.877	49785.92
747.216	49715.42
747.556	49582.99
747.895	49526.95
748.234	49383
748.573	49411.92
748.911	49402.66
749.25	49518.36
749.589	49350.68
749.928	49372.83
750.267	49444.91
750.605	49292.83
750.944	49224.36
751.283	49297.57
751.621	49381.19
751.96	49132.61
752.298	49197.69
752.636	49178.25
752.975	49040.18
753.313	49104.36
753.651	49083.57
753.989	48982.33
754.327	49007.41
754.666	48816
755.004	48897.13
755.342	48931.48
