Data from copper_heatsink_FLMS001491_046.txt Node
Date: Tue Feb 07 10:50:01 GMT 2017
User: dcchb
Spectrometer: FLMS00149
Trigger mode: 0
Integration Time (sec): 2.000000E-2
Scans to average: 10
Electric dark correction enabled: true
Nonlinearity correction enabled: false
Boxcar width: 0
XAxis mode: Wavelengths
Number of Pixels in Spectrum: 2048
>>>>>Begin Spectral Data<<<<<
341.393	-6.43
341.776	-6.43
342.16	-6.43
342.543	-70.61
342.927	-80.77
343.31	-75.58
343.693	-61.57
344.077	-57.27
344.46	-52.3
344.843	-58.18
345.226	-57.27
345.61	-40.55
345.993	-12.75
346.376	-14.79
346.759	9.17
347.142	28.15
347.525	50.07
347.908	63.63
348.291	84.64
348.674	93.91
349.057	100.69
349.44	118.77
349.823	136.85
350.206	164.19
350.588	223.4
350.971	222.95
351.354	257.07
351.737	277.63
352.119	288.93
352.502	289.39
352.884	300.46
353.267	318.54
353.65	299.33
354.032	307.92
354.414	310.4
354.797	347.24
355.179	319.67
355.562	342.04
355.944	363.28
356.326	332.55
356.709	372.55
357.091	362.6
357.473	350.4
357.855	354.69
358.238	357.18
358.62	357.86
359.002	368.25
359.384	374.58
359.766	351.08
360.148	362.6
360.53	337.29
360.912	352.43
361.294	349.27
361.676	358.31
362.057	353.56
362.439	349.27
362.821	357.18
363.203	347.24
363.584	355.82
363.966	350.85
364.348	368.25
364.729	337.52
365.111	335.71
365.493	334.81
365.874	371.42
366.256	330.29
366.637	340.91
367.019	341.14
367.4	369.83
367.781	335.71
368.163	346.33
368.544	343.85
368.925	336.62
369.306	350.4
369.688	343.39
370.069	345.2
370.45	351.08
370.831	359.89
371.212	362.83
371.593	350.85
371.974	337.97
372.355	350.4
372.736	338.42
373.117	342.49
373.498	340.23
373.879	350.4
374.26	349.95
374.641	330.97
375.021	328.48
375.402	338.2
375.783	380.91
376.163	376.39
376.544	374.13
376.925	352.43
377.305	366.67
377.686	341.36
378.066	359.89
378.447	368.03
378.827	394.92
379.208	388.59
379.588	354.92
379.968	350.63
380.349	369.61
380.729	379.55
381.109	373.22
381.489	400.12
381.87	376.84
382.25	384.07
382.63	372.32
383.01	367.35
383.39	394.02
383.77	384.75
384.15	403.96
384.53	377.97
384.91	394.92
385.29	400.57
385.67	402.6
386.049	407.57
386.429	397.18
386.809	401.47
387.189	408.48
387.568	410.29
387.948	412.77
388.328	422.26
388.707	419.55
389.087	410.29
389.466	407.35
389.846	424.3
390.225	413.68
390.605	429.04
390.984	428.36
391.363	437.18
391.743	425.88
392.122	441.47
392.501	443.05
392.881	435.6
393.26	457.74
393.639	448.25
394.018	448.25
394.397	436.27
394.776	455.48
395.155	449.15
395.534	437.18
395.913	433.11
396.292	460.68
396.671	449.61
397.05	481.7
397.429	455.93
397.808	479.21
398.186	451.41
398.565	487.12
398.944	489.15
399.323	477.85
399.701	486.89
400.08	459.78
400.458	489.61
400.837	478.76
401.215	481.24
401.594	507.23
401.972	508.81
402.351	489.15
402.729	491.64
403.107	497.74
403.486	493.22
403.864	503.16
404.242	482.15
404.62	512.88
404.999	513.33
405.377	523.73
405.755	528.7
406.133	546.33
406.511	533.45
406.889	534.8
407.267	553.78
407.645	545.88
408.023	563.5
408.401	573.67
408.779	537.51
409.156	548.81
409.534	561.69
409.912	565.54
410.29	556.72
410.667	558.98
411.045	586.55
411.422	582.03
411.8	594.91
412.178	589.26
412.555	615.03
412.933	609.6
413.31	620.45
413.687	599.89
414.065	634.69
414.442	623.39
414.819	646.21
415.197	641.69
415.574	644.86
415.951	642.6
416.328	650.28
416.705	650.05
417.082	646.66
417.46	640.79
417.837	662.03
418.214	671.3
418.591	674.23
418.967	663.61
419.344	687.79
419.721	686.66
420.098	694.12
420.475	689.37
420.852	700.22
421.228	704.52
421.605	712.42
421.982	714.46
422.358	704.06
422.735	718.98
423.111	756.49
423.488	737.96
423.864	731.63
424.241	737.28
424.617	753.1
424.994	764.17
425.37	755.81
425.746	781.12
426.123	766.43
426.499	765.08
426.875	776.15
427.251	794
427.627	795.36
428.003	808.47
428.379	838.3
428.756	822.48
429.132	843.49
429.507	836.72
429.883	826.32
430.259	869.48
430.635	857.51
431.011	858.18
431.387	889.14
431.763	892.76
432.138	878.3
432.514	898.86
432.89	897.05
433.265	942.02
433.641	920.78
434.016	932.98
434.392	946.09
434.767	971.18
435.143	971.4
435.518	970.5
435.894	977.28
436.269	1005.52
436.644	1010.27
437.02	1013.89
437.395	1022.25
437.77	1028.57
438.145	1034.9
438.52	1035.35
438.895	1060.44
439.271	1053.88
439.646	1060.66
440.021	1081.68
440.395	1097.73
440.77	1090.49
441.145	1098.63
441.52	1133.66
441.895	1115.35
442.27	1115.8
442.645	1121.45
443.019	1128.91
443.394	1121.91
443.769	1142.7
444.143	1167.33
444.518	1173.66
444.892	1180.66
445.267	1166.65
445.641	1186.54
446.016	1202.58
446.39	1217.04
446.764	1216.82
447.139	1214.78
447.513	1237.16
447.887	1253.88
448.262	1208.23
448.636	1266.53
449.01	1254.78
449.384	1231.96
449.758	1247.33
450.132	1286.87
450.506	1279.19
450.88	1300.88
451.254	1313.54
451.628	1306.99
452.002	1296.36
452.376	1324.84
452.75	1349.92
453.123	1337.95
453.497	1368.9
453.871	1414.55
454.244	1382.46
454.618	1432.63
454.992	1430.15
455.365	1435.12
455.739	1475.57
456.112	1501.1
456.486	1490.48
456.859	1496.58
457.232	1506.08
457.606	1541.1
457.979	1551.5
458.352	1577.94
458.725	1585.85
459.099	1650.48
459.472	1627.2
459.845	1667.2
460.218	1676.47
460.591	1678.28
460.964	1647.54
461.337	1765.96
461.71	1737.26
462.083	1744.71
462.456	1737.26
462.829	1785.39
463.201	1763.02
463.574	1827.2
463.947	1837.82
464.32	1864.03
464.692	1890.47
465.065	1899.51
465.438	1931.83
465.81	1936.8
466.183	1960.08
466.555	2025.38
466.928	2023.12
467.3	2038.04
467.672	2066.06
468.045	2106.29
468.417	2078.94
468.789	2093.18
469.161	2147.64
469.534	2192.61
469.906	2260.63
470.278	2231.48
470.65	2257.47
471.022	2301.31
471.394	2360.07
471.766	2368.88
472.138	2393.28
472.51	2489.78
472.882	2477.35
473.253	2501.53
473.625	2520.29
473.997	2581.53
474.369	2596.67
474.74	2649.55
475.112	2698.36
475.484	2739.26
475.855	2797.34
476.227	2814.52
476.598	2873.5
476.97	2918.02
477.341	2999.14
477.713	3010.44
478.084	3002.31
478.455	3106.71
478.827	3123.43
479.198	3210.44
479.569	3280.27
479.94	3304.22
480.311	3375.18
480.682	3452.24
481.053	3526.36
481.424	3530.2
481.795	3572.69
482.166	3662.63
482.537	3738.11
482.908	3744.21
483.279	3810.87
483.65	3914.83
484.021	3963.41
484.391	4011.32
484.762	4091.77
485.133	4089.06
485.503	4164.76
485.874	4275.27
486.244	4344.19
486.615	4342.16
486.985	4447.92
487.356	4515.49
487.726	4573.57
488.097	4668.48
488.467	4684.98
488.837	4745.54
489.207	4845.42
489.578	4908.02
489.948	4982.37
490.318	5059.66
490.688	5101.91
491.058	5198.41
491.428	5275.02
491.798	5320.21
492.168	5399.76
492.538	5447.44
492.908	5513.88
493.278	5588.68
493.648	5625.97
494.017	5705.29
494.387	5789.58
494.757	5867.32
495.126	5883.81
495.496	5971.04
495.866	5988.22
496.235	6042
496.605	6147.76
496.974	6200.87
497.344	6246.97
497.713	6310.7
498.082	6367.87
498.452	6443.35
498.821	6484.02
499.19	6505.72
499.559	6580.52
499.928	6672.49
500.298	6730.12
500.667	6807.86
501.036	6840.4
501.405	6881.3
501.774	6972.15
502.143	6995.42
502.512	7037.91
502.88	7172.82
503.249	7194.51
503.618	7248.07
503.987	7268.86
504.356	7378.46
504.724	7448.97
505.093	7478.12
505.462	7542.3
505.83	7609.64
506.199	7656.65
506.567	7795.85
506.936	7777.78
507.304	7948.84
507.672	8008.73
508.041	8031.55
508.409	8143.42
508.777	8227.71
509.145	8284.88
509.514	8337.31
509.882	8414.6
510.25	8487.59
510.618	8508.15
510.986	8563.97
511.354	8728.71
511.722	8766.45
512.09	8901.36
512.458	8991.53
512.826	9015.71
513.193	9121.24
513.561	9116.5
513.929	9243.95
514.297	9355.36
514.664	9464.29
515.032	9485.53
515.4	9598.74
515.767	9629.25
516.135	9768.23
516.502	9683.71
516.869	9927.32
517.237	9968.45
517.604	10027.89
517.972	10165.51
518.339	10189.46
518.706	10366.86
519.073	10412.28
519.44	10453.86
519.808	10700.18
520.175	10683.91
520.542	10830.8
520.909	10979.05
521.276	10995.32
521.643	11212.26
522.009	11290.23
522.376	11285.25
522.743	11429.21
523.11	11556.21
523.477	11696.77
523.843	11763.89
524.21	11957.55
524.577	12063.54
524.943	12205.23
525.31	12228.05
525.676	12402.74
526.043	12533.13
526.409	12616.29
526.776	12755.5
527.142	12820.58
527.508	13003.18
527.874	13041.82
528.241	13087.69
528.607	13289.72
528.973	13464.63
529.339	13424.86
529.705	13592.99
530.071	13775.81
530.437	13797.5
530.803	13941.91
531.169	14018.06
531.535	14069.14
531.901	14207.44
532.267	14345.51
532.632	14531.04
532.998	14466.41
533.364	14685.16
533.73	14789.57
534.095	14927.42
534.461	15011.26
534.826	15198.15
535.192	15230.46
535.557	15447.86
535.923	15464.35
536.288	15497.57
536.653	15697.79
537.019	15716.1
537.384	15808.07
537.749	15982.08
538.114	16049.2
538.479	16066.82
538.845	16152.92
539.21	16222.07
539.575	16448.06
539.94	16479.02
540.305	16677.88
540.67	16692.57
541.034	16866.12
541.399	16930.98
541.764	17076.29
542.129	17158.09
542.494	17288.94
542.858	17419.33
543.223	17522.6
543.587	17674.24
543.952	17664.3
544.316	17877.62
544.681	17936.83
545.045	18093.21
545.41	18208.91
545.774	18278.52
546.138	18392.41
546.503	18486.19
546.867	18586.31
547.231	18833.3
547.595	18887.99
547.959	19101.32
548.324	19142.45
548.688	19280.52
549.052	19426.73
549.416	19510.12
549.779	19619.05
550.143	19787.18
550.507	20002.77
550.871	20181.29
551.235	20167.05
551.599	20480.27
551.962	20662.18
552.326	20816.53
552.689	20940.59
553.053	21069.86
553.417	21105.56
553.78	21544.87
554.143	21608.15
554.507	21859.21
554.87	21985.09
555.234	22341.01
555.597	22288.35
555.96	22456.26
556.323	22777.38
556.686	22874.33
557.05	23200.87
557.413	23330.36
557.776	23514.54
558.139	23724.02
558.502	23993.62
558.865	24077.69
559.228	24477
559.59	24688.07
559.953	24860.94
560.316	25170.99
560.679	25333.02
561.041	25641.94
561.404	25840.58
561.767	26190.62
562.129	26312.2
562.492	26820.44
562.854	26818.41
563.217	27051.39
563.579	27537.26
563.941	27874.42
564.304	27994.65
564.666	28281.64
565.028	28522.54
565.39	28817.67
565.753	29186.03
566.115	29424.66
566.477	29648.39
566.839	29905.33
567.201	30258.31
567.563	30643.16
567.925	30904.17
568.287	31065.75
568.648	31302.81
569.01	31776.47
569.372	32137.81
569.734	32286.51
570.095	32591.36
570.457	32961.07
570.819	33238.12
571.18	33530.32
571.542	33766.47
571.903	34148.61
572.265	34477.86
572.626	34687.58
572.987	34984.52
573.349	35312.64
573.71	35652.07
574.071	35866.3
574.432	36349
574.794	36650.69
575.155	36807.97
575.516	36998.48
575.877	37424.68
576.238	37562.76
576.599	38035.06
576.96	38150.54
577.32	38436.18
577.681	38778.99
578.042	38965.88
578.403	39256.72
578.763	39602.02
579.124	39780.1
579.485	40006.76
579.845	40308.9
580.206	40537.14
580.566	40856
580.927	41020.29
581.287	41349.1
581.648	41479.71
582.008	41693.95
582.368	41821.4
582.728	42116.76
583.089	42204.44
583.449	42446.92
583.809	42646.92
584.169	42900.24
584.529	42964.65
584.889	43565.99
585.249	43409.83
585.609	43552.43
585.969	43852.99
586.329	43947.22
586.688	44170.27
587.048	44297.04
587.408	44310.15
587.768	44578.39
588.127	44764.6
588.487	44688.67
588.846	45177.24
589.206	45163.01
589.565	45363
589.925	45622.2
590.284	45697
590.643	45843.22
591.003	46037.56
591.362	46394.84
591.721	46444.1
592.08	46506.25
592.44	46832.12
592.799	46809.52
593.158	46922.06
593.517	47260.13
593.876	47281.6
594.235	47487.24
594.593	47508.03
594.952	47728.82
595.311	47771.07
595.67	48016.94
596.029	48263.04
596.387	48562.69
596.746	48616.25
597.104	48573.09
597.463	48798.84
597.822	49056.24
598.18	48851.05
598.538	48983.92
598.897	49320.86
599.255	49226.86
599.613	49997.23
599.972	49705.94
600.33	50061.41
600.688	49974.63
601.046	50273.61
601.404	50402.42
601.762	50400.38
602.12	50620.94
602.478	50698.23
602.836	50958.11
603.194	50833.59
603.552	51000.37
603.91	50954.72
604.268	51360.81
604.625	51255.73
604.983	51412.56
605.341	51330.98
605.698	51731.42
606.056	51939.1
606.413	51999.44
606.771	52160.79
607.128	52257.06
607.485	52282.59
607.843	52447.11
608.2	52650.72
608.557	52805.52
608.914	52768.91
609.272	52934.1
609.629	53198.73
609.986	53257.71
610.343	53240.08
610.7	53494.77
611.057	53492.28
611.414	53675.78
611.771	53757.58
612.127	53987.18
612.484	53950.8
612.841	54226.5
613.198	54146.5
613.554	54277.8
613.911	54474.63
614.267	54534.29
614.624	54648.63
614.98	54749.2
615.337	54867.61
615.693	54937.21
616.05	55017.44
616.406	55167.94
616.762	55148.96
617.118	55195.06
617.475	55317.09
617.831	55410.42
618.187	55435.05
618.543	55604.99
618.899	55773.58
619.255	55829.62
619.611	55930.63
619.967	56002.27
620.323	56059.9
620.678	56068.48
621.034	56067.58
621.39	56200.46
621.746	56206.56
622.101	56526.1
622.457	56339.21
622.812	56518.64
623.168	56665.53
623.523	56672.76
623.879	56836.37
624.234	56785.3
624.589	56919.53
624.945	56929.7
625.3	56982.13
625.655	56970.15
626.01	57091.51
626.365	57184.61
626.72	57154.1
627.075	57204.95
627.43	57269.81
627.785	57171.96
628.14	57311.39
628.495	57411.95
628.85	57431.61
629.205	57375.79
629.559	57589.35
629.914	57484.94
630.269	57520.87
630.623	57513.42
630.978	57540.54
631.332	57718.84
631.687	57829.57
632.041	57833.18
632.396	57919.96
632.75	57794.09
633.104	57916.57
633.459	57908.66
633.813	57847.19
634.167	57954.76
634.521	57969.22
634.875	58063.69
635.229	58000.64
635.583	57882.67
635.937	57932.84
636.291	57983.46
636.645	58160.18
636.999	57953.18
637.352	58110.92
637.706	58030.24
638.06	58131.93
638.413	58103.46
638.767	58071.82
639.121	58219.61
639.474	58096.9
639.828	58162.89
640.181	58251.25
640.534	58243.34
640.888	58294.41
641.241	58215.09
641.594	58329.21
641.947	58405.15
642.301	58397.69
642.654	58389.1
643.007	58393.85
643.36	58447.18
643.713	58381.64
644.066	58578.93
644.419	58508.87
644.771	58455.09
645.124	58379.16
645.477	58315.2
645.83	58108.66
646.182	58043.12
646.535	57922.22
646.888	57933.52
647.24	57777.36
647.593	58018.71
647.945	57986.4
648.298	57930.36
648.65	57793.41
649.002	57720.19
649.355	57981.43
649.707	57983.69
650.059	58220.97
650.411	58568.3
650.763	58618.7
651.115	58881.06
651.467	58898.69
651.819	58855.3
652.171	58825.02
652.523	58773.5
652.875	58872.7
653.227	58824.57
653.578	59019.37
653.93	58895.53
654.282	58879.26
654.633	58879.26
654.985	58944.57
655.337	58990.89
655.688	58916.09
656.039	59082.19
656.391	58947.5
656.742	59075.18
657.094	59081.96
657.445	59166.93
657.796	59146.14
658.147	59091.68
658.498	59153.83
658.849	59189.31
659.2	59152.92
659.551	59139.14
659.902	59330.54
660.253	59340.94
660.604	59293.71
660.955	59251.45
661.306	59302.97
661.656	59337.1
662.007	59332.8
662.358	59431.78
662.708	59422.97
663.059	59410.99
663.409	59270.66
663.76	59465
664.11	59415.06
664.461	59528.96
664.811	59519.24
665.161	59488.51
665.511	59436.76
665.862	59554.04
666.212	59726.47
666.562	59747.48
666.912	59733.47
667.262	59766.47
667.612	59794.04
667.962	59833.13
668.312	59801.04
668.662	59961.49
669.011	59926.69
669.361	59961.49
669.711	59911.77
670.06	59968.27
670.41	59949.29
670.76	59960.13
671.109	60037.64
671.459	60013.01
671.808	59926.24
672.157	60080.58
672.507	59918.55
672.856	59975.73
673.205	60023.86
673.554	60086.68
673.904	60119
674.253	60213.01
674.602	60224.53
674.951	59796.29
675.3	59779.8
675.649	60240.58
675.998	60196.74
676.346	60243.29
676.695	60305.89
677.044	60191.09
677.393	60242.61
677.741	60327.13
678.09	60270.18
678.438	60201.03
678.787	60272.21
679.135	60247.13
679.484	60129.62
679.832	60222.72
680.181	60106.57
680.529	60324.19
680.877	60248.71
681.225	60238.09
681.573	60430.18
681.922	60271.31
682.27	60262.95
682.618	60321.7
682.966	60226.57
683.314	60356.73
683.661	60180.24
684.009	60184.53
684.357	60176.4
684.705	60221.59
685.053	60286.68
685.4	60150.86
685.748	60048.72
686.095	60185.21
686.443	60039
686.79	60108.83
687.138	60123.29
687.485	60208.49
687.832	60094.82
688.18	60058.43
688.527	59986.12
688.874	59972.34
689.221	59894.37
689.568	59954.71
689.915	59924.88
690.262	59997.19
690.609	59889.63
690.956	59866.35
691.303	59920.36
691.65	59660.93
691.997	59782.51
692.344	59603.31
692.69	59725.56
693.037	59737.09
693.383	59573.93
693.73	59638.56
694.077	59547.26
694.423	59532.57
694.769	59437.21
695.116	59434.95
695.462	59481.5
695.808	59400.37
696.155	59485.57
696.501	59304.78
696.847	59315.18
697.193	59199.25
697.539	59300.26
697.885	59118.8
698.231	59075.18
698.577	59044.22
698.923	59060.27
699.269	58992.02
699.614	58837.68
699.96	58908.18
700.306	58930.56
700.651	58762.2
700.997	58816.21
701.342	58771.24
701.688	58796.77
702.033	58740.5
702.379	58738.24
702.724	58702.99
703.069	58786.38
703.415	58512.71
703.76	58576.21
704.105	58549.55
704.45	58508.65
704.795	58359.04
705.14	58351.59
705.485	58431.81
705.83	58223.45
706.175	58285.83
706.52	58211.25
706.865	58159.05
707.209	58214.19
707.554	58141.65
707.899	58257.13
708.243	58153.63
708.588	58052.16
708.932	57856.01
709.277	57964.48
709.621	57962.67
709.966	57823.69
710.31	57933.29
710.654	57685.62
710.998	57731.04
711.342	57813.07
711.687	57825.5
712.031	57724.71
712.375	57538.73
712.719	57661.89
713.063	57635.22
713.407	57743.69
713.75	57530.59
714.094	57552.06
714.438	57448.33
714.782	57566.3
715.125	57460.76
715.469	57545.73
715.812	57434.55
716.156	57307.09
716.499	57359.3
716.843	57418.05
717.186	57216.7
717.53	57295.12
717.873	57366.3
718.216	57340.09
718.559	57270.94
718.902	57175.12
719.246	57228.23
719.589	57124.05
719.932	57066.65
720.275	57061.68
720.617	57011.06
720.96	56984.17
721.303	57003.6
721.646	56959.08
721.989	56842.7
722.331	57010.15
722.674	56885.86
723.016	57047.89
723.359	56999.08
723.701	56963.6
724.044	56877.95
724.386	56827.33
724.729	56963.15
725.071	56792.31
725.413	56731.06
725.755	56762.02
726.097	56614.01
726.439	56621.01
726.782	56664.17
727.124	56821.23
727.465	56574.91
727.807	56697.17
728.149	56602.48
728.491	56536.72
728.833	56654.23
729.175	56566.78
729.516	56531.52
729.858	56473.9
730.199	56577.62
730.541	56522.48
730.882	56508.7
731.224	56554.12
731.565	56355.71
731.906	56463.73
732.248	56440.23
732.589	56315.71
732.93	56281.59
733.271	56194.36
733.612	56230.29
733.953	56258.76
734.294	56204.98
734.635	56217.18
734.976	56343.5
735.317	56121.14
735.658	56194.36
735.999	56070.74
736.339	56099.44
736.68	56178.99
737.021	56052.66
737.361	56043.85
737.702	56107.13
738.042	55971.99
738.383	55921.37
738.723	56001.82
739.063	55941.26
739.404	56082.04
739.744	55941.26
740.084	55990.75
740.424	55968.37
740.764	55929.05
741.104	56008.15
741.444	55912.1
741.784	55795.95
742.124	55851.77
742.464	55971.76
742.804	55831.65
743.143	55684.31
743.483	55730.87
743.823	55638.89
744.162	55647.93
744.502	55680.02
744.841	55548.5
745.181	55650.19
745.52	55591.21
745.86	55710.3
746.199	55740.58
746.538	55720.24
746.877	55733.58
747.216	55715.27
747.556	55643.64
747.895	55624.2
748.234	55463.08
748.573	55386.92
748.911	55372
749.25	55337.2
749.589	55250.65
749.928	55245.68
750.267	55312.12
750.605	55234.16
750.944	55165.68
751.283	55207.49
751.621	55211.1
751.96	55118
752.298	55138.56
752.636	55074.84
752.975	55088.62
753.313	54953.71
753.651	55160.26
753.989	54909.64
754.327	54814.73
754.666	54740.38
755.004	54770.89
755.342	54781.51
755.679	54758.46
756.017	54503.55
756.355	54735.41
