Data from copper_heatsink_FLMS001491_028.txt Node
Date: Tue Feb 07 10:49:37 GMT 2017
User: dcchb
Spectrometer: FLMS00149
Trigger mode: 0
Integration Time (sec): 2.000000E-2
Scans to average: 10
Electric dark correction enabled: true
Nonlinearity correction enabled: false
Boxcar width: 0
XAxis mode: Wavelengths
Number of Pixels in Spectrum: 2048
>>>>>Begin Spectral Data<<<<<
341.393	-13.84
341.776	-13.84
342.16	-13.84
342.543	-74.63
342.927	-79.15
343.31	-58.81
343.693	-75.53
344.077	-55.87
344.46	-44.8
344.843	-39.83
345.226	-39.83
345.61	-36.89
345.993	-14.97
346.376	3.33
346.759	1.98
347.142	14.63
347.525	39.49
347.908	60.73
348.291	64.57
348.674	91.24
349.057	90.56
349.44	137.12
349.823	126.95
350.206	151.35
350.588	207.85
350.971	234.74
351.354	244
351.737	261.63
352.119	262.99
352.502	275.87
352.884	286.49
353.267	294.17
353.65	309.31
354.032	326.04
354.414	317.68
354.797	317.9
355.179	363.32
355.562	360.39
355.944	347.5
356.326	339.82
356.709	360.39
357.091	352.7
357.473	351.12
357.855	367.62
358.238	372.82
358.62	358.58
359.002	367.62
359.384	356.32
359.766	342.99
360.148	356.54
360.53	363.55
360.912	360.39
361.294	337.11
361.676	349.31
362.057	357
362.439	365.81
362.821	348.86
363.203	336.21
363.584	355.41
363.966	331.01
364.348	336.88
364.729	352.93
365.111	344.34
365.493	350.89
365.874	352.93
366.256	347.05
366.637	341.86
367.019	339.6
367.4	359.26
367.781	332.82
368.163	349.54
368.544	363.55
368.925	335.75
369.306	359.93
369.688	363.78
370.069	358.58
370.45	324.68
370.831	349.54
371.212	356.09
371.593	354.74
371.974	355.64
372.355	354.96
372.736	344.57
373.117	351.8
373.498	362.19
373.879	365.13
374.26	360.61
374.641	365.58
375.021	351.57
375.402	342.76
375.783	364.23
376.163	387.73
376.544	375.07
376.925	376.2
377.305	378.01
377.686	373.27
378.066	380.72
378.447	380.27
378.827	400.84
379.208	382.08
379.588	374.85
379.968	400.61
380.349	390.67
380.729	386.15
381.109	396.54
381.489	382.98
381.87	400.84
382.25	400.16
382.63	393.83
383.01	402.42
383.39	418.46
383.77	393.83
384.15	399.93
384.53	416.66
384.91	435.41
385.29	424.11
385.67	408.75
386.049	412.14
386.429	441.97
386.809	435.19
387.189	433.38
387.568	441.06
387.948	431.57
388.328	414.62
388.707	422.53
389.087	438.8
389.466	441.97
389.846	444.23
390.225	480.61
390.605	464.11
390.984	463.66
391.363	446.26
391.743	466.15
392.122	490.33
392.501	467.95
392.881	488.52
393.26	480.38
393.639	477.9
394.018	470.21
394.397	478.8
394.776	480.16
395.155	498.69
395.534	508.86
395.913	481.29
396.292	508.86
396.671	509.99
397.05	518.35
397.429	516.09
397.808	510.44
398.186	520.16
398.565	498.24
398.944	511.12
399.323	551.34
399.701	499.82
400.08	524.45
400.458	527.39
400.837	528.74
401.215	566.93
401.594	553.15
401.972	555.86
402.351	568.29
402.729	583.66
403.107	586.14
403.486	592.47
403.864	571.91
404.242	583.66
404.62	577.78
404.999	598.12
405.377	594.28
405.755	595.18
406.133	613.26
406.511	606.03
406.889	615.75
407.267	652.36
407.645	613.71
408.023	622.98
408.401	626.14
408.779	662.52
409.156	645.8
409.534	653.49
409.912	647.16
410.29	656.2
410.667	681.06
411.045	678.57
411.422	669.76
411.8	672.69
412.178	702.75
412.555	693.03
412.933	712.47
413.31	728.06
413.687	731.9
414.065	744.56
414.442	760.83
414.819	761.51
415.197	762.18
415.574	767.61
415.951	770.09
416.328	794.95
416.705	780.49
417.082	804.89
417.46	797.89
417.837	793.82
418.214	807.61
418.591	828.4
418.967	851.45
419.344	823.2
419.721	838.79
420.098	858.9
420.475	844.89
420.852	867.49
421.228	869.98
421.605	869.07
421.982	886.7
422.358	887.15
422.735	894.61
423.111	903.2
423.488	917.43
423.864	918.34
424.241	941.84
424.617	918.11
424.994	933.93
425.37	962.63
425.746	963.31
426.123	960.14
426.499	969.41
426.875	991.78
427.251	1021.16
427.627	1007.15
428.003	1016.87
428.379	1054.61
428.756	1052.12
429.132	1050.99
429.507	1074.04
429.883	1090.76
430.259	1116.98
430.635	1116.3
431.011	1108.39
431.387	1143.64
431.763	1169.18
432.138	1149.97
432.514	1145.9
432.89	1180.7
433.265	1211.89
433.641	1222.96
434.016	1227.48
434.392	1258.67
434.767	1283.98
435.143	1281.27
435.518	1288.5
435.894	1315.39
436.269	1298.21
436.644	1313.36
437.02	1361.94
437.395	1375.95
437.77	1365.78
438.145	1375.5
438.52	1382.51
438.895	1425.22
439.271	1434.48
439.646	1461.15
440.021	1473.35
440.395	1477.42
440.77	1464.76
441.145	1479
441.52	1520.36
441.895	1492.56
442.27	1489.85
442.645	1544.99
443.019	1554.25
443.394	1509.96
443.769	1580.47
444.143	1548.15
444.518	1573.46
444.892	1583.63
445.267	1622.05
445.641	1608.94
446.016	1620.24
446.39	1651.88
446.764	1657.08
447.139	1631.31
447.513	1692.78
447.887	1721.93
448.262	1699.11
448.636	1707.02
449.01	1732.33
449.384	1749.28
449.758	1769.84
450.132	1786.34
450.506	1824.08
450.88	1783.17
451.254	1814.81
451.628	1851.42
452.002	1865.88
452.376	1903.85
452.75	1868.14
453.123	1917.63
453.497	1921.02
453.871	1917.41
454.244	1982.26
454.618	1954.69
454.992	2022.72
455.365	2035.82
455.739	2067.01
456.112	2101.36
456.486	2158.08
456.859	2154.69
457.232	2184.29
457.606	2201.92
457.979	2232.2
458.352	2268.58
458.725	2289.83
459.099	2322.37
459.472	2374.12
459.845	2359.88
460.218	2420.22
460.591	2387.68
460.964	2436.49
461.337	2488.24
461.71	2550.38
462.083	2534.57
462.456	2571.18
462.829	2591.29
463.201	2647.56
463.574	2640.1
463.947	2710.15
464.32	2729.36
464.692	2757.16
465.065	2807.55
465.438	2839.42
465.81	2869.92
466.183	2942.01
466.555	2985.4
466.928	2980.88
467.3	3023.82
467.672	3043.25
468.045	3083.25
468.417	3138.62
468.789	3156.02
469.161	3212.74
469.534	3262.91
469.906	3348.1
470.278	3324.6
470.65	3341.55
471.022	3459.97
471.394	3470.59
471.766	3547.19
472.138	3617.48
472.51	3701.99
472.882	3724.14
473.253	3774.99
473.625	3819.73
473.997	3947.18
474.369	3932.27
474.74	4006.62
475.112	4056.11
475.484	4115.54
475.855	4188.76
476.227	4240.96
476.598	4368.64
476.97	4399.6
477.341	4449.32
477.713	4579.26
478.084	4583.33
478.455	4726.37
478.827	4781.29
479.198	4889.08
479.569	4908.74
479.94	5054.27
480.311	5109.19
480.682	5190.77
481.053	5338.33
481.424	5365.45
481.795	5388.95
482.166	5536.75
482.537	5567.71
482.908	5751.88
483.279	5730.87
483.65	5897.87
484.021	5961.82
484.391	6049.95
484.762	6103.29
485.133	6164.53
485.503	6280.91
485.874	6379.89
486.244	6490.85
486.615	6571.52
486.985	6660.11
487.356	6760.22
487.726	6866.88
488.097	6977.39
488.467	6986.88
488.837	7185.74
489.207	7246.08
489.578	7366.53
489.948	7395.23
490.318	7528.79
490.688	7566.98
491.058	7688.33
491.428	7785.73
491.798	7870.25
492.168	7980.98
492.538	8045.38
492.908	8214.64
493.278	8229.56
493.648	8303.91
494.017	8460.74
494.387	8474.3
494.757	8538.48
495.126	8667.74
495.496	8644.69
495.866	8752.48
496.235	8781.63
496.605	8980.72
496.974	8977.11
497.344	9034.96
497.713	9129.19
498.082	9212.13
498.452	9273.6
498.821	9314.73
499.19	9369.41
499.559	9450.32
499.928	9516.53
500.298	9603.53
500.667	9725.11
501.036	9804.88
501.405	9808.95
501.774	9813.02
502.143	9949.74
502.512	9977.31
502.88	10122.62
503.249	10041.71
503.618	10162.84
503.987	10225.89
504.356	10288.49
504.724	10365.55
505.093	10348.15
505.462	10498.88
505.83	10554.92
506.199	10655.48
506.567	10801.92
506.936	10777.29
507.304	10890.96
507.672	11045.08
508.041	10988.81
508.409	11121.46
508.777	11170.27
509.145	11291.4
509.514	11285.3
509.882	11396.03
510.25	11433.99
510.618	11568.68
510.986	11533.65
511.354	11652.29
511.722	11802.8
512.09	11960.53
512.458	11905.62
512.826	12021.55
513.193	12168.44
513.561	12246.18
513.929	12245.05
514.297	12402.78
514.664	12492.04
515.032	12527.07
515.4	12658.59
515.767	12708.76
516.135	12778.36
516.502	12763.45
516.869	12972.71
517.237	12983.33
517.604	12966.16
517.972	13205.7
518.339	13329.54
518.706	13326.15
519.073	13373.83
519.44	13432.36
519.808	13633.03
520.175	13697.44
520.542	13786.93
520.909	13904.66
521.276	13990.99
521.643	14077.99
522.009	14172
522.376	14348.72
522.743	14438.43
523.11	14628.71
523.477	14715.04
523.843	14803.4
524.21	14983.05
524.577	15138.53
524.943	15090.17
525.31	15271.63
525.676	15418.52
526.043	15523.83
526.409	15495.58
526.776	15747.55
527.142	15796.59
527.508	15899.86
527.874	16053.76
528.241	16234.54
528.607	16185.51
528.973	16476.8
529.339	16423.24
529.705	16670.24
530.071	16618.04
530.437	16737.81
530.803	16934.41
531.169	17060.06
531.535	16986.84
531.901	17050.12
532.267	17169.21
532.632	17442.2
532.998	17395.87
533.364	17507.96
533.73	17640.84
534.095	17729.42
534.461	17791.34
534.826	17941.62
535.192	18007.83
535.557	18147.94
535.923	18077.89
536.288	18310.87
536.653	18368.73
537.019	18385.9
537.384	18466.12
537.749	18626.12
538.114	18651.88
538.479	18731.65
538.845	18989.05
539.21	18887.13
539.575	18967.13
539.94	19006.9
540.305	19173.45
540.67	19154.02
541.034	19373.45
541.399	19423.84
541.764	19474.91
542.129	19554.68
542.494	19674
542.858	19789.93
543.223	19871.96
543.587	20018.85
543.952	20063.37
544.316	20015.46
544.681	20166.87
545.045	20304.72
545.41	20365.74
545.774	20566.86
546.138	20574.09
546.503	20650.02
546.867	20591.49
547.231	20952.84
547.595	21005.04
547.959	21038.26
548.324	21304.02
548.688	21160.29
549.052	21392.38
549.416	21402.32
549.779	21544.69
550.143	21671.24
550.507	21935.86
550.871	22046.37
551.235	22073.49
551.599	22261.05
551.962	22315.29
552.326	22548.28
552.689	22808.16
553.053	22645.68
553.417	22803.86
553.78	23087.7
554.143	23082.73
554.507	23392.32
554.87	23402.04
555.234	23857.4
555.597	23672.77
555.96	23966.09
556.323	24098.29
556.686	24161.79
557.05	24326.76
557.413	24476.36
557.776	24697.83
558.139	24939.4
558.502	25079.74
558.865	25168.1
559.228	25503.91
559.59	25683.56
559.953	25706.84
560.316	26152.7
560.679	26232.7
561.041	26528.96
561.404	26685.57
561.767	26936.86
562.129	27083.07
562.492	27414.36
562.854	27467.47
563.217	27608.71
563.579	28057.28
563.941	28179.99
564.304	28340.44
564.666	28695.23
565.028	28913.08
565.39	29055.68
565.753	29393.52
566.115	29552.39
566.477	29758.26
566.839	29882.77
567.201	30340.84
567.563	30534.28
567.925	30818.12
568.287	31163.64
568.648	31273.7
569.01	31562.96
569.372	31874.81
569.734	31908.26
570.095	32280.22
570.457	32609.48
570.819	32768.8
571.18	32939.64
571.542	33263.93
571.903	33538.72
572.265	33801.54
572.626	33945.04
572.987	34131.93
573.349	34469.32
573.71	34841.97
574.071	35023.88
574.432	35310.88
574.794	35669.29
575.155	35694.15
575.516	35756.29
575.877	36066.11
576.238	36344.07
576.599	36557.17
576.96	36713.1
577.32	36938.86
577.681	37381.11
578.042	37531.16
578.403	37735.67
578.763	37759.4
579.124	38131.37
579.485	38448.2
579.845	38454.75
580.206	38672.37
580.566	38819.71
580.927	38999.37
581.287	39433.26
581.648	39304.9
582.008	39629.86
582.368	39644.1
582.728	39914.15
583.089	40018.78
583.449	40034.37
583.809	40376.73
584.169	40590.51
584.529	40618.54
584.889	41048.13
585.249	40884.74
585.609	40998.19
585.969	41395.01
586.329	41349.82
586.688	41448.8
587.048	41674.78
587.408	41740.54
587.768	41835.91
588.127	42140.76
588.487	42112.28
588.846	42465.72
589.206	42371.03
589.565	42336.23
589.925	42729.67
590.284	42737.58
590.643	42979.6
591.003	43238.35
591.362	43438.12
591.721	43409.2
592.08	43591.11
592.44	43783.88
592.799	43773.48
593.158	44142.51
593.517	43992.91
593.876	44256.18
594.235	44207.14
594.593	44215.28
594.952	44705.66
595.311	44515.61
595.67	44704.98
596.029	45015.26
596.387	45169.15
596.746	45310.16
597.104	45285.31
597.463	45526.66
597.822	45603.72
598.18	45636.26
598.538	45715.58
598.897	46145.85
599.255	45794.45
599.613	46511.04
599.972	46292.29
600.33	46584.48
600.688	46534.77
601.046	46796.91
601.404	46855.43
601.762	47034.19
602.12	47330.68
602.478	47407.51
602.836	47494.51
603.194	47323.67
603.552	47540.61
603.91	47601.86
604.268	47721.63
604.625	47849.98
604.983	48012.47
605.341	47957.1
605.698	48360.93
606.056	48517.76
606.413	48511.66
606.771	48773.12
607.128	48835.27
607.485	48685.67
607.843	48808.15
608.2	49179.67
608.557	49334.92
608.914	49264.41
609.272	49521.58
609.629	49633.44
609.986	49840.89
610.343	49841.57
610.7	50174.22
611.057	50172.86
611.414	50225.29
611.771	50319.75
612.127	50518.62
612.484	50609.01
612.841	50741.89
613.198	50675.67
613.554	50684.03
613.911	51063.91
614.267	51080.63
614.624	51132.16
614.98	51197.92
615.337	51382.1
615.693	51347.07
616.05	51418.7
616.406	51758.81
616.762	51731.69
617.118	51627.74
617.475	51800.84
617.831	51960.39
618.187	52078.12
618.543	52119.93
618.899	52364.89
619.255	52376.87
619.611	52375.06
619.967	52543.19
620.323	52632.68
620.678	52524.21
621.034	52588.62
621.39	52590.2
621.746	52719.69
622.101	53053.92
622.457	52834.49
622.812	52902.28
623.168	53053.46
623.523	53155.83
623.879	53311.31
624.234	53125.1
624.589	53396.51
624.945	53389.05
625.3	53412.32
625.655	53528.93
626.01	53591.98
626.365	53620.23
626.72	53574.58
627.075	53687.12
627.43	53727.57
627.785	53648.02
628.14	53794.24
628.495	53838.53
628.85	53809.83
629.205	53726.44
629.559	53975.7
629.914	53846.44
630.269	53939.09
630.623	53950.16
630.978	53932.08
631.332	54121.91
631.687	54126.43
632.041	54024.96
632.396	54163.27
632.75	54072.19
633.104	54187.67
633.459	54111.97
633.813	54207.78
634.167	54106.54
634.521	54197.39
634.875	54313.32
635.229	54203.49
635.583	54084.17
635.937	54215.92
636.291	54250.49
636.645	54273.32
636.999	54212.76
637.352	54321
637.706	54206.43
638.06	54292.08
638.413	54284.39
638.767	54272.64
639.121	54400.1
639.474	54178.41
639.828	54325.07
640.181	54316.03
640.534	54372.75
640.888	54195.58
641.241	54256.82
641.594	54323.49
641.947	54483.71
642.301	54393.99
642.654	54443.03
643.007	54513.54
643.36	54406.87
643.713	54362.58
644.066	54557.15
644.419	54446.2
644.771	54469.47
645.124	54306.31
645.477	54231.74
645.83	54168.69
646.182	53856.61
646.535	53664.3
646.888	53740
647.24	53423.4
647.593	53741.81
647.945	53664.52
648.298	53510.4
648.65	53559.89
649.002	53573.68
649.355	53796.95
649.707	53767.8
650.059	54043.95
650.411	54500.88
650.763	54502.92
651.115	54742.23
651.467	54610.03
651.819	54652.29
652.171	54573.42
652.523	54684.38
652.875	54638.05
653.227	54649.58
653.578	54817.26
653.93	54701.33
654.282	54596.7
654.633	54489.13
654.985	54678.96
655.337	54656.81
655.688	54695.91
656.039	54790.14
656.391	54589.47
656.742	54742.01
657.094	54761.44
657.445	54903.36
657.796	54862.91
658.147	54794.66
658.498	54810.03
658.849	54826.98
659.2	54789.24
659.551	54778.84
659.902	54913.98
660.253	54892.29
660.604	55048.21
660.955	54820.87
661.306	54935.9
661.656	54943.13
662.007	54978.38
662.358	55059.29
662.708	54978.61
663.059	55065.16
663.409	54939.74
663.76	55071.04
664.11	55030.36
664.461	55164.59
664.811	55171.15
665.161	55190.58
665.511	55149
665.862	55184.26
666.212	55217.25
666.562	55229
666.912	55273.97
667.262	55296.57
667.612	55325.72
667.962	55343.57
668.312	55348.54
668.662	55428.54
669.011	55393.06
669.361	55373.18
669.711	55408.88
670.06	55276.23
670.41	55291.37
670.76	55344.93
671.109	55473.51
671.459	55398.49
671.808	55374.31
672.157	55485.72
672.507	55276.91
672.856	55389.9
673.205	55458.15
673.554	55586.28
673.904	55468.32
674.253	55598.93
674.602	55559.84
674.951	55233.97
675.3	55005.05
675.649	55594.41
675.998	55556
676.346	55587.86
676.695	55811.13
677.044	55519.61
677.393	55730.68
677.741	55712.6
678.09	55711.47
678.438	55660.17
678.787	55767.29
679.135	55713.28
679.484	55557.35
679.832	55653.17
680.181	55494.08
680.529	55649.33
680.877	55574.53
681.225	55531.82
681.573	55675.09
681.922	55473.97
682.27	55464.93
682.618	55562.1
682.966	55467.41
683.314	55629.89
683.661	55585.6
684.009	55483.46
684.357	55485.72
684.705	55481.2
685.053	55516.22
685.4	55463.34
685.748	55299.51
686.095	55301.54
686.443	55293.86
686.79	55268.55
687.138	55277.36
687.485	55221.77
687.832	55178.61
688.18	55285.5
688.527	55136.12
688.874	55204.14
689.221	55072.85
689.568	55054.99
689.915	55070.59
690.262	55115.78
690.609	55026.07
690.956	54971.61
691.303	54983.81
691.65	54907.2
691.997	54858.16
692.344	54740.2
692.69	54701.56
693.037	54823.13
693.383	54596.47
693.73	54695.45
694.077	54460.88
694.423	54526.19
694.769	54438.96
695.116	54450.72
695.462	54387.21
695.808	54372.75
696.155	54444.39
696.501	54200.78
696.847	54167.78
697.193	54032.2
697.539	54251.85
697.885	54043.27
698.231	53955.13
698.577	54049.6
698.923	53866.1
699.269	53971.86
699.614	53816.83
699.96	53793.78
700.306	53829.94
700.651	53692.32
700.997	53654.58
701.342	53596.05
701.688	53547.24
702.033	53435.6
702.379	53380.91
702.724	53389.95
703.069	53508.37
703.415	53194.7
703.76	53338.2
704.105	53298.2
704.45	53159.9
704.795	53044.88
705.14	53071.54
705.485	53121.94
705.83	52882.85
706.175	52959.23
706.52	52920.13
706.865	52845.56
707.209	52761.49
707.554	52661.16
707.899	52761.04
708.243	52622.06
708.588	52625.9
708.932	52453.48
709.277	52563.53
709.621	52468.39
709.966	52306.82
710.31	52474.95
710.654	52173.49
710.998	52238.57
711.342	52195.86
711.687	52165.8
712.031	52116.54
712.375	52145.01
712.719	52208.51
713.063	52123.32
713.407	52250.55
713.75	52039.03
714.094	51992.02
714.438	51931.01
714.782	52007.84
715.125	51918.13
715.469	51798.36
715.812	51772.37
716.156	51694.86
716.499	51692.82
716.843	51775.08
717.186	51590.23
717.53	51767.4
717.873	51803.33
718.216	51799.94
718.559	51689.88
718.902	51535.99
719.246	51566.95
719.589	51533.5
719.932	51317.24
720.275	51320.4
720.617	51422.32
720.96	51306.39
721.303	51382.1
721.646	51355.2
721.989	51182.78
722.331	51366.73
722.674	51149.56
723.016	51259.84
723.359	51193.17
723.701	51260.97
724.044	51097.58
724.386	50892.16
724.729	51079.96
725.071	51049
725.413	50984.14
725.755	51010.13
726.097	50898.72
726.439	50814.2
726.782	50952.05
727.124	51100.07
727.465	50878.15
727.807	50848.1
728.149	50783.24
728.491	50731.26
728.833	50781.66
729.175	50834.99
729.516	50768.55
729.858	50586.18
730.199	50724.03
730.541	50682.23
730.882	50594.77
731.224	50740.53
731.565	50634.09
731.906	50550.03
732.248	50668.67
732.589	50444.49
732.93	50365.4
733.271	50334.21
733.612	50543.93
733.953	50460.09
734.294	50298.51
734.635	50281.33
734.976	50405.17
735.317	50331.73
735.658	50292.41
735.999	50402.23
736.339	50183.48
736.68	50324.27
737.021	50246.98
737.361	49951.4
737.702	50287.66
738.042	50193.88
738.383	50139.64
738.723	50244.72
739.063	50186.87
739.404	50311.39
739.744	50330.37
740.084	50325.63
740.424	50164.27
740.764	49974.22
741.104	50135.12
741.444	49974.45
741.784	49941.23
742.124	50060.1
742.464	49922.92
742.804	49858.75
743.143	49893.09
743.483	49915.69
743.823	49732.87
744.162	49844.73
744.502	49934.68
744.841	49817.62
745.181	49960.21
745.52	49733.1
745.86	49846.54
746.199	49671.41
746.538	49717.28
746.877	49833.21
747.216	49636.83
747.556	49624.85
747.895	49663.04
748.234	49425.54
748.573	49395.03
748.911	49454.46
749.25	49509.15
749.589	49438.19
749.928	49391.19
750.267	49503.5
750.605	49291.08
750.944	49317.52
751.283	49322.26
751.621	49393
751.96	49095.15
752.298	49168.14
752.636	49176.73
752.975	48944.65
753.313	48996.17
753.651	49185.09
753.989	48951.42
754.327	48989.16
754.666	48840.02
755.004	48736.06
