Data from copper_heatsink_FLMS001491_012.txt Node
Date: Tue Feb 07 10:49:17 GMT 2017
User: dcchb
Spectrometer: FLMS00149
Trigger mode: 0
Integration Time (sec): 2.000000E-2
Scans to average: 10
Electric dark correction enabled: true
Nonlinearity correction enabled: false
Boxcar width: 0
XAxis mode: Wavelengths
Number of Pixels in Spectrum: 2048
>>>>>Begin Spectral Data<<<<<
341.393	1.54
341.776	1.54
342.16	1.54
342.543	-61.28
342.927	-59.25
343.31	-66.03
343.693	-88.4
344.077	-84.56
344.46	-48.85
344.843	-55.18
345.226	-53.83
345.61	-17.67
345.993	-25.8
346.376	-0.49
346.759	20.3
347.142	29.11
347.525	47.41
347.908	39.96
348.291	79.96
348.674	120.18
349.057	103.91
349.44	123.8
349.823	136
350.206	177.35
350.588	206.73
350.971	218.26
351.354	254.87
351.737	271.59
352.119	268.88
352.502	301.42
352.884	319.05
353.267	286.28
353.65	309.55
354.032	319.05
354.414	346.16
354.797	321.76
355.179	347.07
355.562	350
355.944	352.04
356.326	347.29
356.709	347.75
357.091	342.1
357.473	343.23
357.855	361.08
358.238	357.01
358.62	357.69
359.002	360.4
359.384	336.22
359.766	369.44
360.148	360.85
360.53	371.93
360.912	337.12
361.294	352.04
361.676	368.08
362.057	373.73
362.439	352.04
362.821	332.83
363.203	343.9
363.584	355.2
363.966	344.58
364.348	329.44
364.729	361.76
365.111	352.49
365.493	356.11
365.874	333.51
366.256	361.76
366.637	361.53
367.019	358.37
367.4	339.61
367.781	342.1
368.163	333.06
368.544	344.36
368.925	344.81
369.306	320.18
369.688	348.65
370.069	339.16
370.45	348.88
370.831	359.72
371.212	339.84
371.593	342.55
371.974	333.51
372.355	345.26
372.736	364.24
373.117	342.77
373.498	352.72
373.879	341.64
374.26	359.5
374.641	327.41
375.021	362.89
375.402	347.07
375.783	337.12
376.163	372.83
376.544	359.27
376.925	373.51
377.305	382.77
377.686	362.66
378.066	380.29
378.447	374.86
378.827	367.63
379.208	362.66
379.588	376.67
379.968	375.54
380.349	351.13
380.729	374.64
381.109	394.52
381.489	364.92
381.87	393.85
382.25	344.81
382.63	367.41
383.01	378.25
383.39	377.8
383.77	373.06
384.15	383
384.53	393.62
384.91	382.77
385.29	390.23
385.67	389.1
386.049	393.39
386.429	390.46
386.809	404.69
387.189	381.87
387.568	385.03
387.948	398.59
388.328	379.38
388.707	399.27
389.087	395.2
389.466	399.04
389.846	404.24
390.225	408.31
390.605	403.56
390.984	410.57
391.363	404.24
391.743	408.53
392.122	397.91
392.501	429.1
392.881	402.66
393.26	397.46
393.639	404.92
394.018	418.93
394.397	409.66
394.776	429.55
395.155	423.68
395.534	423.68
395.913	421.64
396.292	441.75
396.671	434.97
397.05	431.36
397.429	435.88
397.808	421.42
398.186	432.94
398.565	427.07
398.944	452.83
399.323	441.08
399.701	450.12
400.08	430.68
400.458	451.47
400.837	441.53
401.215	450.57
401.594	455.54
401.972	468.87
402.351	470.91
402.729	474.52
403.107	447.18
403.486	462.09
403.864	456.44
404.242	469.78
404.62	467.74
404.999	475.88
405.377	493.28
405.755	469.55
406.133	501.19
406.511	466.16
406.889	463
407.267	481.07
407.645	489.44
408.023	484.46
408.401	488.53
408.779	493.05
409.156	507.97
409.534	496.22
409.912	506.61
410.29	504.58
410.667	517.01
411.045	487.18
411.422	513.84
411.8	497.35
412.178	535.54
412.555	525.14
412.933	518.14
413.31	541.86
413.687	533.73
414.065	549.55
414.442	537.34
414.819	561.75
415.197	545.71
415.574	553.39
415.951	537.57
416.328	538.47
416.705	564.24
417.082	536.44
417.46	573.5
417.837	556.78
418.214	568.98
418.591	542.99
418.967	582.09
419.344	603.78
419.721	584.58
420.098	587.29
420.475	574.41
420.852	567.17
421.228	580.73
421.605	575.31
421.982	605.59
422.358	602.65
422.735	601.98
423.111	599.72
423.488	614.4
423.864	611.69
424.241	627.51
424.617	611.92
424.994	623.67
425.37	608.53
425.746	634.74
426.123	621.64
426.499	625.03
426.875	639.71
427.251	638.58
427.627	653.95
428.003	620.51
428.379	643.78
428.756	684.69
429.132	666.38
429.507	694.85
429.883	673.39
430.259	692.37
430.635	685.82
431.011	693.27
431.387	705.02
431.763	697.79
432.138	714.29
432.514	692.14
432.89	715.65
433.265	698.92
433.641	716.77
434.016	729.66
434.392	745.93
434.767	752.71
435.143	743.44
435.518	759.03
435.894	788.19
436.269	776.66
436.644	787.06
437.02	793.16
437.395	777.11
437.77	780.05
438.145	791.8
438.52	805.59
438.895	803.1
439.271	795.87
439.646	825.7
440.021	814.17
440.395	809.2
440.77	821.86
441.145	859.82
441.52	848.3
441.895	843.55
442.27	833.38
442.645	842.87
443.019	869.77
443.394	862.53
443.769	873.16
444.143	861.18
444.518	873.38
444.892	850.56
445.267	877.22
445.641	880.84
446.016	881.52
446.39	872.7
446.764	884.91
447.139	893.04
447.513	909.31
447.887	906.37
448.262	942.53
448.636	928.97
449.01	926.71
449.384	939.59
449.758	958.8
450.132	931.46
450.506	948.41
450.88	971.23
451.254	973.49
451.628	970.1
452.002	978.01
452.376	980.27
452.75	1012.36
453.123	992.47
453.497	1031.57
453.871	1031.12
454.244	1029.31
454.618	1040.38
454.992	1043.09
455.365	1073.15
455.739	1093.26
456.112	1085.35
456.486	1084.45
456.859	1124.22
457.232	1122.64
457.606	1094.84
457.979	1132.58
458.352	1156.31
458.725	1175.29
459.099	1168.51
459.472	1196.76
459.845	1210.77
460.218	1220.26
460.591	1206.71
460.964	1210.1
461.337	1207.61
461.71	1237.21
462.083	1273.37
462.456	1285.12
462.829	1286.48
463.201	1299.58
463.574	1301.62
463.947	1312.92
464.32	1338
464.692	1365.35
465.065	1352.01
465.438	1402.63
465.81	1426.36
466.183	1433.37
466.555	1436.53
466.928	1463.42
467.3	1469.52
467.672	1485.79
468.045	1530.99
468.417	1525.57
468.789	1548.84
469.161	1535.06
469.534	1586.81
469.906	1604.66
470.278	1603.53
470.65	1623.19
471.022	1636.98
471.394	1676.75
471.766	1698.22
472.138	1725.34
472.51	1738.22
472.882	1803.75
473.253	1789.52
473.625	1835.39
473.997	1898.66
474.369	1884.2
474.74	1909.51
475.112	1924.88
475.484	1965.56
475.855	2014.82
476.227	2010.53
476.598	2064.99
476.97	2083.29
477.341	2130.98
477.713	2193.57
478.084	2176.4
478.455	2287.13
478.827	2276.73
479.198	2334.13
479.569	2312.67
479.94	2388.6
480.311	2389.73
480.682	2450.97
481.053	2490.97
481.424	2543.17
481.795	2595.14
482.166	2633.11
482.537	2688.47
482.908	2717.17
483.279	2745.65
483.65	2731.64
484.021	2890.28
484.391	2905.42
484.762	2907.9
485.133	2959.65
485.503	2961.01
485.874	3055.02
486.244	3076.94
486.615	3172.98
486.985	3209.36
487.356	3236.48
487.726	3291.4
488.097	3338.85
488.467	3381.56
488.837	3452.97
489.207	3446.87
489.578	3535.91
489.948	3545.18
490.318	3624.04
490.688	3640.31
491.058	3694.32
491.428	3752.63
491.798	3796.24
492.168	3833.53
492.538	3892.06
492.908	3979.06
493.278	3989.68
493.648	3998.5
494.017	4105.39
494.387	4094.99
494.757	4167.08
495.126	4156.46
495.496	4235.78
495.866	4281.88
496.235	4303.35
496.605	4392.16
496.974	4391.03
497.344	4456.34
497.713	4481.42
498.082	4547.63
498.452	4605.49
498.821	4590.57
499.19	4626.73
499.559	4671.7
499.928	4699.95
500.298	4788.53
500.667	4808.64
501.036	4828.98
501.405	4894.07
501.774	4908.98
502.143	4960.96
502.512	4989.2
502.88	5034.85
503.249	5038.92
503.618	5104.68
503.987	5101.74
504.356	5218.35
504.724	5212.48
505.093	5249.76
505.462	5282.3
505.83	5354.62
506.199	5472.58
506.567	5451.11
506.936	5480.27
507.304	5520.26
507.672	5589.64
508.041	5612.47
508.409	5671.22
508.777	5677.1
509.145	5745.12
509.514	5760.48
509.882	5882.29
510.25	5852.01
510.618	5966.13
510.986	5978.33
511.354	6060.14
511.722	6098.1
512.09	6148.95
512.458	6145.78
512.826	6216.52
513.193	6272.56
513.561	6278.44
513.929	6385.1
514.297	6455.38
514.664	6466
515.032	6511.42
515.4	6571.76
515.767	6645.43
516.135	6692.44
516.502	6655.15
516.869	6780.57
517.237	6832.09
517.604	6874.58
517.972	6941.24
518.339	7018.76
518.706	7115.7
519.073	7069.83
519.44	7202.71
519.808	7290.61
520.175	7309.37
520.542	7357.73
520.909	7462.36
521.276	7469.82
521.643	7610.38
522.009	7689.25
522.376	7675.01
522.743	7823.93
523.11	7807.89
523.477	7924.5
523.843	7944.61
524.21	8065.96
524.577	8162.23
524.943	8208.56
525.31	8303.02
525.676	8349.34
526.043	8429.79
526.409	8491.49
526.776	8592.95
527.142	8639.05
527.508	8690.8
527.874	8743.68
528.241	8820.97
528.607	8893.28
528.973	8946.16
529.339	9060.06
529.705	9120.62
530.071	9186.16
530.437	9248.53
530.803	9370.33
531.169	9411.01
531.535	9435.19
531.901	9468.64
532.267	9588.86
532.632	9718.57
532.998	9737.1
533.364	9810.55
533.73	9873.14
534.095	10032.01
534.461	10034.5
534.826	10101.84
535.192	10127.6
535.557	10222.06
535.923	10186.58
536.288	10349.74
536.653	10405.56
537.019	10412.79
537.384	10495.05
537.749	10594.03
538.114	10625.67
538.479	10658.21
538.845	10696.4
539.21	10829.73
539.575	10914.02
539.94	10991.53
540.305	11079.67
540.67	11129.61
541.034	11236.72
541.399	11302.03
541.764	11314.01
542.129	11417.28
542.494	11447.57
542.858	11497.96
543.223	11629.26
543.587	11826.09
543.952	11781.12
544.316	11752.19
544.681	11841.45
545.045	12004.39
545.41	12085.29
545.774	12170.94
546.138	12273.99
546.503	12391.04
546.867	12326.64
547.231	12528.22
547.595	12640.53
547.959	12744.48
548.324	12758.04
548.688	12796.46
549.052	12986.06
549.416	13042.33
549.779	13068.54
550.143	13172.27
550.507	13367.74
550.871	13371.81
551.235	13502.43
551.599	13621.97
551.962	13758.92
552.326	13850.89
552.689	14033.49
553.053	14002.3
553.417	14133.37
553.78	14338.11
554.143	14341.95
554.507	14502.85
554.87	14626.24
555.234	14864.43
555.597	14870.08
555.96	15000.92
556.323	15134.25
556.686	15291.31
557.05	15417.18
557.413	15585.54
557.776	15695.36
558.139	15894.23
558.502	16012.19
558.865	16130.15
559.228	16325.18
559.59	16465.29
559.953	16618.05
560.316	16874.99
560.679	16978.72
561.041	17073.63
561.404	17363.57
561.767	17637.01
562.129	17590.68
562.492	17935.08
562.854	18017.34
563.217	18239.48
563.579	18318.8
563.941	18569.86
564.304	18723.53
564.666	18913.81
565.028	19117.65
565.39	19313.57
565.753	19491.87
566.115	19665.2
566.477	19956.04
566.839	20120.56
567.201	20215.7
567.563	20420.44
567.925	20647.78
568.287	20779.3
568.648	20917.37
569.01	21334.99
569.372	21401.88
569.734	21549.9
570.095	21762.55
570.457	21923.67
570.819	22208.41
571.18	22420.39
571.542	22571.12
571.903	22700.15
572.265	22888.85
572.626	23027.37
572.987	23263.53
573.349	23430.98
573.71	23659
574.071	23837.75
574.432	23959.33
574.794	24306.66
575.155	24391.18
575.516	24379.2
575.877	24640.44
576.238	24610.38
576.599	25097.38
576.96	25064.84
577.32	25284.49
577.681	25508.21
578.042	25587.53
578.403	25706.63
578.763	25799.96
579.124	26001.76
579.485	26231.36
579.845	26317.01
580.206	26349.32
580.566	26609.2
580.927	26573.95
581.287	26894.84
581.648	26901.62
582.008	27148.4
582.368	27003.09
582.728	27321.27
583.089	27202.18
583.449	27329.86
583.809	27481.49
584.169	27733.47
584.529	27713.58
584.889	27946.79
585.249	27768.49
585.609	27830.19
585.969	28044.19
586.329	28083.74
586.688	28228.14
587.048	28346.1
587.408	28375.26
587.768	28566.89
588.127	28484.63
588.487	28541.13
588.846	28967.56
589.206	28805.98
589.565	28870.16
589.925	28944.73
590.284	28878.52
590.643	29041.68
591.003	29222.24
591.362	29360.99
591.721	29465.17
592.08	29501.33
592.44	29470.37
592.799	29613.42
593.158	29670.36
593.517	29780.87
593.876	29891.38
594.235	29798.72
594.593	29975.44
594.952	30195.77
595.311	30148.32
595.67	30215.89
596.029	30502.88
596.387	30498.59
596.746	30485.71
597.104	30516.22
597.463	30572.26
597.822	30742.88
598.18	30737.91
598.538	30659.26
598.897	30961.4
599.255	30794.85
599.613	31327.95
599.972	31185.8
600.33	31261.06
600.688	31211.34
601.046	31446.81
601.404	31603.65
601.762	31614.49
602.12	31751.44
602.478	31819.91
602.836	31899.01
603.194	31685.68
603.552	31966.12
603.91	31823.98
604.268	32046.12
604.625	32024.88
604.983	32461.25
605.341	32232.33
605.698	32452.44
606.056	32493.34
606.413	32588.71
606.771	32658.31
607.128	32802.26
607.485	32777.17
607.843	32765.88
608.2	32975.14
608.557	33117.73
608.914	33176.71
609.272	33350.49
609.629	33463.94
609.986	33649.24
610.343	33390.49
610.7	33766.08
611.057	33762.91
611.414	33799.97
611.771	33840.88
612.127	33897.6
612.484	34117.03
612.841	34203.8
613.198	34074.99
613.554	34276.12
613.911	34457.81
614.267	34579.61
614.624	34437.7
614.98	34622.55
615.337	34731.25
615.693	34827.52
616.05	34944.35
616.406	35195.64
616.762	34950
617.118	35032.93
617.475	35015.99
617.831	35214.62
618.187	35286.94
618.543	35351.12
618.899	35681.05
619.255	35564.22
619.611	35545.46
619.967	35792.46
620.323	35851.44
620.678	35729.19
621.034	35728.51
621.39	35776.64
621.746	35818.68
622.101	36338.21
622.457	36043.08
622.812	36083.3
623.168	36309.29
623.523	36440.81
623.879	36449.62
624.234	36316.52
624.589	36465.44
624.945	36520.58
625.3	36630.18
625.655	36560.58
626.01	36691.42
626.365	36659.11
626.72	36693.23
627.075	36830.4
627.43	36763.28
627.785	36717.86
628.14	36968.7
628.495	36878.31
628.85	36867.46
629.205	36818.65
629.559	36984.75
629.914	36803.06
630.269	36944.75
630.623	36837.63
630.978	36725.77
631.332	36987.46
631.687	37182.48
632.041	36955.37
632.396	37192.43
632.75	36993.34
633.104	37205.76
633.459	36926.22
633.813	36866.33
634.167	36961.25
634.521	36873.34
634.875	37172.99
635.229	37076.27
635.583	36892.77
635.937	36949.04
636.291	37081.24
636.645	37040.34
636.999	37078.3
637.352	37149.94
637.706	36996.27
638.06	37112.2
638.413	36970.96
638.767	36827.92
639.121	37007.57
639.474	36841.47
639.828	36883.96
640.181	36934.35
640.534	37009.38
640.888	37001.47
641.241	36813.45
641.594	36845.09
641.947	37068.81
642.301	37017.74
642.654	37045.54
643.007	36984.52
643.36	37031.3
643.713	37023.39
644.066	37303.84
644.419	36956.05
644.771	36530.97
645.124	36148.61
645.477	35991.1
645.83	35955.62
646.182	35947.49
646.535	36054.38
646.888	36148.39
647.24	36234.26
647.593	36437.87
647.945	36453.69
648.298	36207.14
648.65	36143.64
649.002	36188.61
649.355	36305.22
649.707	36096.64
650.059	36159.91
650.411	36548.38
650.763	36777.97
651.115	37222.03
651.467	37094.12
651.819	37121.02
652.171	37066.78
652.523	37007.57
652.875	37020.91
653.227	36798.99
653.578	36989.72
653.93	37085.99
654.282	37035.82
654.633	36935.71
654.985	37198.3
655.337	37088.02
655.688	37101.13
656.039	37186.78
656.391	36902.49
656.742	36994.01
657.094	37106.78
657.445	37069.72
657.796	37123.28
658.147	37231.52
658.498	37230.39
658.849	37362.14
659.2	37224.06
659.551	37034.46
659.902	37276.04
660.253	37118.76
660.604	37220
660.955	37107.46
661.306	37364.17
661.656	37196.72
662.007	37171.41
662.358	37242.59
662.708	37212.31
663.059	37312.2
663.409	37049.83
663.76	37371.86
664.11	37389.03
664.461	37469.25
664.811	37553.77
665.161	37618.4
665.511	37372.53
665.862	37333.67
666.212	37550.38
666.562	37530.5
666.912	37581.12
667.262	37570.72
667.612	37518.75
667.962	37599.87
668.312	37572.08
668.662	37616.6
669.011	37676.71
669.361	37659.31
669.711	37718.06
670.06	37558.74
670.41	37495.69
670.76	37492.98
671.109	37681
671.459	37607.56
671.808	37650.49
672.157	37658.18
672.507	37547.22
672.856	37584.28
673.205	37760.32
673.554	37691.17
673.904	37696.37
674.253	37882.58
674.602	37733.43
674.951	37259.99
675.3	37115.37
675.649	37836.48
675.998	37791.96
676.346	37781.79
676.695	37990.37
677.044	37763.48
677.393	37878.06
677.741	37866.98
678.09	37831.73
678.438	37704.28
678.787	37855.46
679.135	37870.83
679.484	37591.51
679.832	37691.85
680.181	37487.56
680.529	37551.29
680.877	37505.86
681.225	37526.43
681.573	37838.51
681.922	37588.35
682.27	37529.14
682.618	37587.9
682.966	37506.09
683.314	37682.13
683.661	37375.25
684.009	37447.33
684.357	37325.76
684.705	37309.26
685.053	37232.42
685.4	37210.28
685.748	37107.23
686.095	37230.39
686.443	37142.26
686.79	37116.5
687.138	37171.64
687.485	36900.23
687.832	37120.79
688.18	37259.54
688.527	37068.59
688.874	36976.16
689.221	36825.88
689.568	36795.6
689.915	36679.22
690.262	36977.74
690.609	36648.49
690.956	36618.88
691.303	36669.95
691.65	36505.66
691.997	36415.95
692.344	36249.85
692.69	36312
693.037	36392.9
693.383	36027.48
693.73	36278.1
694.077	36134.83
694.423	36306.12
694.769	36184.32
695.116	36063.42
695.462	35913.36
695.808	35929.63
696.155	35953.59
696.501	35691.67
696.847	35505.69
697.193	35362.64
697.539	35614.39
697.885	35389.76
698.231	35273.83
698.577	35390.89
698.923	35295.3
699.269	35030
699.614	34938.7
699.96	35072.26
700.306	35087.17
700.651	35087.4
700.997	34923.79
701.342	35037.23
701.688	34851.92
702.033	34785.71
702.379	34802.88
702.724	34660.29
703.069	34824.35
703.415	34401.09
703.76	34550.01
704.105	34398.83
704.45	34571.7
704.795	34199.96
705.14	34183.47
705.485	34172.39
705.83	34044.03
706.175	34193.63
706.52	34020.76
706.865	34013.75
707.209	33865.96
707.554	33831.61
707.899	33973.98
708.243	33797.04
708.588	33842.46
708.932	33597.94
709.277	33561.11
709.621	33668.45
709.966	33490.38
710.31	33509.13
710.654	33306.88
710.998	33371.74
711.342	33464.84
711.687	33293.77
712.031	33225.07
712.375	33183.49
712.719	33302.81
713.063	33200.21
713.407	33397.05
713.75	33159.54
714.094	33252.19
714.438	32924.74
714.782	33056.72
715.125	33015.81
715.469	33127.67
715.812	32928.13
716.156	32754.35
716.499	32906.21
716.843	32911.63
717.186	32745.31
717.53	33021.91
717.873	32931.07
718.216	32782.37
718.559	32789.38
718.902	32541.47
719.246	32663.96
719.589	32494.7
719.932	32515.49
720.275	32464.19
720.617	32502.15
720.96	32388.48
721.303	32569.5
721.646	32462.38
721.989	32348.94
722.331	32469.84
722.674	32366.11
723.016	32374.25
723.359	32272.78
723.701	32358.65
724.044	32170.86
724.386	32208.6
724.729	32297.87
725.071	32223.29
725.413	32187.13
725.755	32104.88
726.097	31918.44
726.439	31924.09
726.782	31964.77
727.124	32098.1
727.465	31866.46
727.807	31939.46
728.149	31727.71
728.491	31794.83
728.833	31830.08
729.175	31685
729.516	31807.26
729.858	31591.67
730.199	31775.85
730.541	31704.89
730.882	31663.31
731.224	31838.89
731.565	31530.88
731.906	31719.35
732.248	31821.27
732.589	31509.64
732.93	31529.75
733.271	31614.95
733.612	31649.52
733.953	31689.97
734.294	31589.64
734.635	31628.28
734.976	31621.5
735.317	31426.48
735.658	31400.04
735.999	31469.64
736.339	31488.4
736.68	31682.06
737.021	31475.97
737.361	31409.98
737.702	31653.81
738.042	31357.1
738.383	31325.01
738.723	31411.79
739.063	31323.43
739.404	31389.41
739.744	31217.22
740.084	31145.35
740.424	31209.76
740.764	31197.1
741.104	31426.7
741.444	31202.53
741.784	31028.75
742.124	31142.64
742.464	31125.69
742.804	31040.5
743.143	31030.1
743.483	31037.79
743.823	30922.08
744.162	30943.32
744.502	31007.96
744.841	30892.03
745.181	31056.54
745.52	31022.42
745.86	30954.62
746.199	30860.39
746.538	30897.45
746.877	30830.11
747.216	30801.63
747.556	30978.58
747.895	30959.37
748.234	30744.23
748.573	30729.77
748.911	30713.27
749.25	30697.68
749.589	30546.27
749.928	30588.98
750.267	30738.58
750.605	30630.11
750.944	30480.29
751.283	30461.08
751.621	30541.53
751.96	30435.77
752.298	30249.33
752.636	30243.91
752.975	30270.35
753.313	30077.58
753.651	30283
753.989	30269.67
754.327	30210.91
754.666	30014.54
755.004	30118.71
755.342	30248.65
755.679	30039.39
756.017	30011.15
756.355	30073.52
756.693	29854.54
757.031	29897.02
757.368	29619.52
757.706	29822.22
758.044	29639.18
