Data from copper_heatsink_FLMS001491_087.txt Node
Date: Tue Feb 07 10:50:43 GMT 2017
User: dcchb
Spectrometer: FLMS00149
Trigger mode: 0
Integration Time (sec): 2.000000E-2
Scans to average: 10
Electric dark correction enabled: true
Nonlinearity correction enabled: false
Boxcar width: 0
XAxis mode: Wavelengths
Number of Pixels in Spectrum: 2048
>>>>>Begin Spectral Data<<<<<
341.393	2.94
341.776	2.94
342.16	2.94
342.543	-54.69
342.927	-67.57
343.31	-70.96
343.693	-66.89
344.077	-68.02
344.46	-56.72
344.843	-53.11
345.226	-32.09
345.61	-30.73
345.993	-17.63
346.376	-11.07
346.759	11.07
347.142	20.11
347.525	49.49
347.908	64.18
348.291	70.05
348.674	87
349.057	105.31
349.44	114.8
349.823	143.95
350.206	161.58
350.588	214.91
350.971	239.77
351.354	252.2
351.737	239.77
352.119	262.14
352.502	287.45
352.884	299.43
353.267	300.78
353.65	324.29
354.032	336.94
354.414	347.79
354.797	342.82
355.179	340.1
355.562	355.02
355.944	337.17
356.326	357.28
356.709	350.05
357.091	366.54
357.473	341.23
357.855	371.06
358.238	362.48
358.62	353.66
359.002	369.03
359.384	352.53
359.766	356.37
360.148	370.16
360.53	347.79
360.912	356.6
361.294	349.82
361.676	342.36
362.057	366.77
362.439	369.71
362.821	362.48
363.203	355.24
363.584	363.83
363.966	326.77
364.348	359.99
364.729	334
365.111	331.29
365.493	355.24
365.874	330.16
366.256	336.04
366.637	329.03
367.019	340.56
367.4	329.26
367.781	359.76
368.163	343.04
368.544	349.14
368.925	333.32
369.306	333.78
369.688	343.49
370.069	356.15
370.45	348.24
370.831	348.01
371.212	360.44
371.593	336.49
371.974	351.63
372.355	356.15
372.736	335.13
373.117	345.75
373.498	361.12
373.879	326.55
374.26	356.37
374.641	324.29
375.021	349.37
375.402	372.87
375.783	373.78
376.163	371.52
376.544	358.63
376.925	356.6
377.305	367.22
377.686	348.69
378.066	374.45
378.447	354.57
378.827	377.84
379.208	379.65
379.588	362.7
379.968	374.23
380.349	383.72
380.729	378.97
381.109	392.31
381.489	381.91
381.87	376.94
382.25	393.21
382.63	385.3
383.01	362.7
383.39	387.11
383.77	400.67
384.15	377.17
384.53	402.25
384.91	404.28
385.29	389.14
385.67	379.88
386.049	405.41
386.429	401.57
386.809	399.54
387.189	404.74
387.568	411.51
387.948	428.01
388.328	415.36
388.707	402.7
389.087	401.8
389.466	421.68
389.846	388.24
390.225	430.5
390.605	432.53
390.984	421.46
391.363	432.76
391.743	453.1
392.122	427.56
392.501	450.61
392.881	425.98
393.26	445.64
393.639	441.8
394.018	452.19
394.397	452.19
394.776	445.41
395.155	468.46
395.534	458.97
395.913	473.21
396.292	466.43
396.671	469.82
397.05	460.33
397.429	479.99
397.808	476.82
398.186	450.61
398.565	475.69
398.944	470.04
399.323	478.41
399.701	475.47
400.08	491.96
400.458	483.38
400.837	477.95
401.215	476.37
401.594	488.12
401.972	494.68
402.351	496.26
402.729	502.36
403.107	499.42
403.486	495.81
403.864	514.79
404.242	522.7
404.62	521.79
404.999	489.93
405.377	519.08
405.755	518.86
406.133	510.5
406.511	522.25
406.889	564.73
407.267	518.4
407.645	552.53
408.023	529.03
408.401	559.31
408.779	551.85
409.156	567.44
409.534	583.26
409.912	567.89
410.29	586.2
410.667	580.78
411.045	582.81
411.422	588.23
411.8	581.23
412.178	616.25
412.555	605.41
412.933	588.23
413.31	622.36
413.687	628.23
414.065	625.75
414.442	629.81
414.819	628.23
415.197	623.03
415.574	650.15
415.951	647.21
416.328	621.9
416.705	641.11
417.082	665.52
417.46	654.45
417.837	672.07
418.214	676.82
418.591	668.68
418.967	657.38
419.344	685.18
419.721	691.73
420.098	682.47
420.475	690.15
420.852	708.68
421.228	711.62
421.605	706.2
421.982	697.61
422.358	719.53
422.735	722.01
423.111	745.29
423.488	743.03
423.864	747.55
424.241	746.65
424.617	757.27
424.994	770.6
425.37	736.93
425.746	746.2
426.123	761.34
426.499	769.7
426.875	773.54
427.251	783.48
427.627	829.13
428.003	785.52
428.379	803.82
428.756	809.92
429.132	836.36
429.507	835.46
429.883	823.26
430.259	836.36
430.635	835.46
431.011	856.93
431.387	871.16
431.763	888.11
432.138	871.62
432.514	921.56
432.89	919.98
433.265	917.94
433.641	944.38
434.016	923.14
434.392	933.53
434.767	962.91
435.143	952.52
435.518	967.21
435.894	990.48
436.269	980.54
436.644	985.74
437.02	992.29
437.395	974.66
437.77	1039.07
438.145	1026.19
438.52	1050.37
438.895	1032.29
439.271	1029.35
439.646	1065.73
440.021	1037.49
440.395	1092.63
440.77	1057.37
441.145	1094.89
441.52	1080.42
441.895	1107.99
442.27	1075.23
442.645	1107.99
443.019	1112.29
443.394	1131.72
443.769	1131.5
444.143	1108.22
444.518	1129.01
444.892	1131.72
445.267	1151.16
445.641	1165.62
446.016	1166.97
446.39	1175.56
446.764	1190.25
447.139	1192.74
447.513	1172.4
447.887	1188.22
448.262	1187.09
448.636	1203.13
449.01	1234.09
449.384	1209.46
449.758	1242.45
450.132	1246.97
450.506	1272.96
450.88	1267.76
451.254	1273.41
451.628	1273.19
452.002	1296.69
452.376	1293.53
452.75	1325.16
453.123	1312.28
453.497	1316.58
453.871	1357.25
454.244	1368.1
454.618	1355.9
454.992	1371.94
455.365	1412.39
455.739	1420.98
456.112	1428.44
456.486	1436.12
456.859	1422.34
457.232	1472.28
457.606	1494.88
457.979	1503.69
458.352	1531.94
458.725	1549.11
459.099	1535.33
459.472	1581.65
459.845	1586.62
460.218	1589.11
460.591	1636.79
460.964	1594.99
461.337	1667.98
461.71	1694.42
462.083	1712.95
462.456	1681.99
462.829	1703.46
463.201	1711.37
463.574	1722.44
463.947	1755.43
464.32	1818.71
464.692	1793.63
465.065	1817.35
465.438	1841.76
465.81	1868.88
466.183	1924.92
466.555	1954.75
466.928	1925.37
467.3	1941.64
467.672	1935.77
468.045	2003.56
468.417	1995.88
468.789	2009.89
469.161	2070.68
469.534	2109.55
469.906	2101.87
470.278	2102.09
470.65	2155.88
471.022	2197.46
471.394	2218.47
471.766	2243.78
472.138	2277
472.51	2292.6
472.882	2349.54
473.253	2377.79
473.625	2375.98
473.997	2477.45
474.369	2466.83
474.74	2468.18
475.112	2565.81
475.484	2565.81
475.855	2615.52
476.227	2637.67
476.598	2704.56
476.97	2733.49
477.341	2773.03
477.713	2783.43
478.084	2840.83
478.455	2886.48
478.827	2947.49
479.198	3014.38
479.569	3041.05
479.94	3096.19
480.311	3115.85
480.682	3195.4
481.053	3293.47
481.424	3281.72
481.795	3358.33
482.166	3387.93
482.537	3421.38
482.908	3508.16
483.279	3516.97
483.65	3585.89
484.021	3661.37
484.391	3679.45
484.762	3722.39
485.133	3775.27
485.503	3825.21
485.874	3888.94
486.244	3931.42
486.615	4027.46
486.985	4018.43
487.356	4140.46
487.726	4170.74
488.097	4259.32
488.467	4226.56
488.837	4358.53
489.207	4399.66
489.578	4435.14
489.948	4475.14
490.318	4581.57
490.688	4574.34
491.058	4652.76
491.428	4728.24
491.798	4733.43
492.168	4874.45
492.538	4868.35
492.908	4950.38
493.278	5016.37
493.648	4950.15
494.017	5085.29
494.387	5113.31
494.757	5189.24
495.126	5234.89
495.496	5247.09
495.866	5323.7
496.235	5318.73
496.605	5433.76
496.974	5439.63
497.344	5466.3
497.713	5549.91
498.082	5584.03
498.452	5657.93
498.821	5707.87
499.19	5697.93
499.559	5766.85
499.928	5823.12
500.298	5874.87
500.667	5878.72
501.036	5924.36
501.405	6016.56
501.774	5985.83
502.143	6064.25
502.512	6072.83
502.88	6190.57
503.249	6168.88
503.618	6176.11
503.987	6250.01
504.356	6260.85
504.724	6362.32
505.093	6361.19
505.462	6433.05
505.83	6483.9
506.199	6560.05
506.567	6608.19
506.936	6607.51
507.304	6731.12
507.672	6774.06
508.041	6783.1
508.409	6888.63
508.777	6978.12
509.145	7003.21
509.514	6983.55
509.882	7023.09
510.25	7078.01
510.618	7143.99
510.986	7108.97
511.354	7299.47
511.722	7348.28
512.09	7414.27
512.458	7395.29
512.826	7484.55
513.193	7580.82
513.561	7600.7
513.929	7659.46
514.297	7724.99
514.664	7831.88
515.032	7854.48
515.4	7917.76
515.767	7974.03
516.135	8051.99
516.502	8033.46
516.869	8169.5
517.237	8179.67
517.604	8249.27
517.972	8289.27
518.339	8412.21
518.706	8411.53
519.073	8435.03
519.44	8513.67
519.808	8650.62
520.175	8696.49
520.542	8800.22
520.909	8837.96
521.276	8930.61
521.643	8967.67
522.009	9075.02
522.376	9152.3
522.743	9231.62
523.11	9363.14
523.477	9414.67
523.843	9437.72
524.21	9549.13
524.577	9715.45
524.943	9730.14
525.31	9808.78
525.676	9957.48
526.043	10014.2
526.409	10042.9
526.776	10142.56
527.142	10212.39
527.508	10314.98
527.874	10391.59
528.241	10476.33
528.607	10522.66
528.973	10665.26
529.339	10663.67
529.705	10738.02
530.071	10832.94
530.437	10926.49
530.803	11078.58
531.169	11082.42
531.535	11134.85
531.901	11244
532.267	11270.44
532.632	11360.38
532.998	11366.48
533.364	11485.57
533.73	11586.81
534.095	11719.69
534.461	11716.75
534.826	11906.35
535.192	11934.83
535.557	12042.62
535.923	12004.66
536.288	12181.83
536.653	12180.7
537.019	12167.14
537.384	12369.62
537.749	12394.93
538.114	12421.82
538.479	12546.79
538.845	12601.02
539.21	12637.86
539.575	12805.54
539.94	12828.59
540.305	12843.05
540.67	12855.26
541.034	13038.3
541.399	13118.75
541.764	13083.05
542.129	13250.5
542.494	13307.45
542.858	13389.03
543.223	13444.62
543.587	13537.27
543.952	13617.95
544.316	13670.38
544.681	13803.7
545.045	13905.85
545.41	14020.65
545.774	14150.59
546.138	14113.3
546.503	14189.91
546.867	14213.86
547.231	14436.68
547.595	14461.31
547.959	14558.49
548.324	14575.89
548.688	14709.22
549.052	14844.81
549.416	14969.1
549.779	15003.45
550.143	15117.57
550.507	15200.73
550.871	15334.29
551.235	15388.75
551.599	15561.4
551.962	15647.72
552.326	15786.03
552.689	15880.49
553.053	15962.07
553.417	16106.7
553.78	16355.95
554.143	16261.27
554.507	16496.06
554.87	16608.83
555.234	16775.83
555.597	16784.87
555.96	17050.17
556.323	17201.81
556.686	17282.94
557.05	17423.95
557.413	17605.41
557.776	17688.57
558.139	17910.72
558.502	17978.06
558.865	18110.26
559.228	18347.54
559.59	18510.7
559.953	18533.98
560.316	18947.3
560.679	19058.48
561.041	19198.82
561.404	19458.25
561.767	19656.43
562.129	19734.17
562.492	19946.82
562.854	20105.01
563.217	20224.33
563.579	20384.1
563.941	20574.15
564.304	20743.18
564.666	21056.17
565.028	21172.32
565.39	21329.16
565.753	21638.98
566.115	21815.47
566.477	22082.81
566.839	22215.01
567.201	22448
567.563	22449.81
567.925	22941.54
568.287	22939.06
568.648	23192.16
569.01	23372.94
569.372	23721.64
569.734	23712.82
570.095	23973.83
570.457	24277.78
570.819	24419.92
571.18	24509.41
571.542	24886.35
571.903	24871.66
572.265	25226.91
572.626	25442.04
572.987	25617.63
573.349	25912.31
573.71	26101.69
574.071	26295.81
574.432	26466.42
574.794	26779.18
575.155	26877.26
575.516	27007.65
575.877	27197.25
576.238	27410.58
576.599	27540.74
576.96	27684.02
577.32	27850.34
577.681	28098.24
578.042	28275.64
578.403	28510.21
578.763	28619.13
579.124	28737.32
579.485	28924.66
579.845	29189.06
580.206	29105.45
580.566	29278.1
580.927	29512.67
581.287	29824.07
581.648	29716.05
582.008	30121.92
582.368	29980.68
582.728	30167.34
583.089	30301.35
583.449	30507.45
583.809	30558.74
584.169	30844.39
584.529	30787.67
584.889	31264.26
585.249	31142.23
585.609	31104.49
585.969	31379.51
586.329	31409.34
586.688	31555.1
587.048	31753.97
587.408	31726.62
587.768	31712.16
588.127	31889.56
588.487	32111.25
588.846	32293.84
589.206	31999.16
589.565	32242.77
589.925	32589.43
590.284	32568.41
590.643	32703.55
591.003	32826.26
591.362	33033.03
591.721	33041.84
592.08	33022.18
592.44	33390.76
592.799	33297.2
593.158	33354.6
593.517	33413.81
593.876	33435.05
594.235	33604.09
594.593	33862.16
594.952	33971.31
595.311	34053.79
595.67	34181.02
596.029	34329.94
596.387	34311.41
596.746	34561.8
597.104	34487.45
597.463	34547.79
597.822	34816.26
598.18	34770.84
598.538	34940.32
598.897	35143.03
599.255	34924.73
599.613	35464.6
599.972	35199.75
600.33	35543.25
600.688	35333.31
601.046	35640.42
601.404	35954.31
601.762	35881.99
602.12	36158.15
602.478	36157.69
602.836	36237.92
603.194	36189.78
603.552	36268.65
603.91	36340.97
604.268	36605.59
604.625	36556.55
604.983	36821.86
605.341	36746.15
605.698	36971.68
606.056	37219.81
606.413	37097.56
606.771	37392.92
607.128	37539.13
607.485	37385.68
607.843	37573.93
608.2	37766.46
608.557	38120.81
608.914	37973.24
609.272	38223.85
609.629	38294.13
609.986	38575.48
610.343	38352.89
610.7	38770.28
611.057	38707.68
611.414	38671.75
611.771	38916.49
612.127	39071.97
612.484	39118.07
612.841	39321
613.198	39146.09
613.554	39267.44
613.911	39743.36
614.267	39677.37
614.624	39789.24
614.98	39903.81
615.337	40070.13
615.693	40077.82
616.05	40161.2
616.406	40526.62
616.762	40411.37
617.118	40339.28
617.475	40749.44
617.831	40786.5
618.187	40721.42
618.543	40999.83
618.899	41184.68
619.255	41176.54
619.611	41238.46
619.967	41383.32
620.323	41590.54
620.678	41577.66
621.034	41607.49
621.39	41487.04
621.746	41510.09
622.101	42025.34
622.457	41811.56
622.812	41975.39
623.168	42138.1
623.523	42200.25
623.879	42260.36
624.234	42125.45
624.589	42364.99
624.945	42343.29
625.3	42622.61
625.655	42550.75
626.01	42679.33
626.365	42572.89
626.72	42654.7
627.075	42688.14
627.43	42722.94
627.785	42644.08
628.14	42814.69
628.495	42923.84
628.85	42961.13
629.205	42753.68
629.559	43167.9
629.914	43022.37
630.269	43113.44
630.623	43128.58
630.978	42998.42
631.332	43175.36
631.687	43356.83
632.041	43276.6
632.396	43436.37
632.75	43208.58
633.104	43282.93
633.459	43275.25
633.813	43331.97
634.167	43275.7
634.521	43247.68
634.875	43524.05
635.229	43521.57
635.583	43371.74
635.937	43350.72
636.291	43345.07
636.645	43247
636.999	43483.15
637.352	43575.8
637.706	43504.17
638.06	43593.43
638.413	43392.76
638.767	43505.75
639.121	43585.29
639.474	43416.26
639.828	43479.76
640.181	43604.5
640.534	43467.78
640.888	43473.21
641.241	43478.4
641.594	43511.17
641.947	43681.11
642.301	43558.63
642.654	43659.87
643.007	43828.9
643.36	43615.8
643.713	43773.99
644.066	44013.53
644.419	43552.75
644.771	43458.29
645.124	43271.86
645.477	43169.49
645.83	43047.46
646.182	42813.79
646.535	42723.17
646.888	42845.43
647.24	42669.61
647.593	42995.71
647.945	42803.62
648.298	42633.91
648.65	42682.49
649.002	42631.65
649.355	42745.09
649.707	42707.13
650.059	43110.96
650.411	43526.99
650.763	43648.12
651.115	44114.77
651.467	43945.29
651.819	43969.24
652.171	43933.08
652.523	43868.9
652.875	43965.85
653.227	43912.97
653.578	44125.39
653.93	44128.33
654.282	43896.02
654.633	43888.11
654.985	43948.22
655.337	44000.2
655.688	44073.19
656.039	44313.41
656.391	43875.91
656.742	44206.07
657.094	44220.31
657.445	44378.72
657.796	44322.68
658.147	44245.62
658.498	44247.42
658.849	44467.08
659.2	44279.74
659.551	44316.8
659.902	44569.22
660.253	44361.32
660.604	44438.83
660.955	44262.56
661.306	44492.16
661.656	44621.43
662.007	44694.19
662.358	44686.28
662.708	44640.86
663.059	44676.11
663.409	44384.6
663.76	44783.46
664.11	44761.76
664.461	44954.75
664.811	44923.11
665.161	44874.53
665.511	44868.88
665.862	44783
666.212	44987.07
666.562	45144.8
666.912	45055.76
667.262	44879.5
667.612	45060.51
667.962	44983.45
668.312	45021.19
668.662	45265.48
669.011	45298.47
669.361	45111.58
669.711	45241.3
670.06	45315.64
670.41	45243.56
670.76	45387.73
671.109	45494.62
671.459	45307.51
671.808	45262.31
672.157	45397
672.507	45257.57
672.856	45250.11
673.205	45309.09
673.554	45550.44
673.904	45411.24
674.253	45595.41
674.602	45589.08
674.951	44950.68
675.3	44938.25
675.649	45536.88
675.998	45563.77
676.346	45767.61
676.695	45753.83
677.044	45541.85
677.393	45709.76
677.741	45730.32
678.09	45720.83
678.438	45746.14
678.787	45940.49
679.135	45847.16
679.484	45541.18
679.832	45827.95
680.181	45533.49
680.529	45747.05
680.877	45601.74
681.225	45705.92
681.573	45908.17
681.922	45689.42
682.27	45544.34
682.618	45638.12
682.966	45567.62
683.314	45726.48
683.661	45636.54
684.009	45462.31
684.357	45482.65
684.705	45367.62
685.053	45476.32
685.4	45340.73
685.748	45419.37
686.095	45484.23
686.443	45274.74
686.79	45335.98
687.138	45548.41
687.485	45436.55
687.832	45216.44
688.18	45413.27
688.527	45166.04
688.874	45246.95
689.221	45013.28
689.568	44974.18
689.915	44936.9
690.262	44954.07
690.609	44858.26
690.956	44893.73
691.303	45017.35
691.65	44834.08
691.997	44659.84
692.344	44560.64
692.69	44641.54
693.037	44678.6
693.383	44480.41
693.73	44418.04
694.077	44290.36
694.423	44299.17
694.769	44263.24
695.116	44357.7
695.462	44376.01
695.808	44161.1
696.155	44217.82
696.501	43850.82
696.847	43971.27
697.193	43728.34
697.539	43918.39
697.885	43663.03
698.231	43707.1
698.577	43581.9
698.923	43621.45
699.269	43290.39
699.614	43346.88
699.96	43327.45
700.306	43438.41
700.651	43255.13
700.997	43106.89
701.342	43127.23
701.688	43028.93
702.033	42957.51
702.379	42957.74
702.724	42846.33
703.069	43101.24
703.415	42687.69
703.76	42795.03
704.105	42735.15
704.45	42756.84
704.795	42608.6
705.14	42495.83
705.485	42524.08
705.83	42317.98
706.175	42414.48
706.52	42548.94
706.865	42387.59
707.209	42297.64
707.554	42190.3
707.899	42354.82
708.243	42132.68
708.588	42104.66
708.932	41975.17
709.277	41910.54
709.621	42072.34
709.966	41848.84
710.31	41828.05
710.654	41515.74
710.998	41768.62
711.342	41683.2
711.687	41786.92
712.031	41645.46
712.375	41505.58
712.719	41776.3
713.063	41583.09
713.407	41611.11
713.75	41395.52
714.094	41570.88
714.438	41419.48
714.782	41431
715.125	41269.2
715.469	41480.27
715.812	41295.64
716.156	41068.52
716.499	41102.2
716.843	41180.61
717.186	41102.87
717.53	41344.68
717.873	41215.87
718.216	41253.38
718.559	41097.9
718.902	40883.22
719.246	40859.94
719.589	40919.83
719.932	40769.55
720.275	40830.34
720.617	40795.31
720.96	40910.34
721.303	40800.06
721.646	40901.52
721.989	40722.55
722.331	41004.8
722.674	40847.51
723.016	40934.74
723.359	40872.82
723.701	40837.34
724.044	40549.22
724.386	40550.12
724.729	40576.56
725.071	40587.63
725.413	40364.14
725.755	40451.82
726.097	40216.8
726.439	40263.8
726.782	40318.26
727.124	40430.58
727.465	40327.3
727.807	40325.95
728.149	40188.55
728.491	40189.45
728.833	40266.96
729.175	40138.61
729.516	40149.23
729.858	40156.68
730.199	40161.88
730.541	40005.05
730.882	40022.9
731.224	40191.71
731.565	39981.77
731.906	40063.13
732.248	40154.42
732.589	40073.07
732.93	40035.78
733.271	39937.93
733.612	40162.79
733.953	40041.43
734.294	39890.7
734.635	39831.27
734.976	39930.93
735.317	39666.3
735.658	39760.99
735.999	39783.81
736.339	39708.11
736.68	39776.36
737.021	39757.15
737.361	39549.69
737.702	39841.89
738.042	39612.97
738.383	39753.98
738.723	39843.47
739.063	39720.31
739.404	39757.6
739.744	39583.37
740.084	39585.85
740.424	39742.46
740.764	39570.94
741.104	39716.7
741.444	39555.34
741.784	39443.26
742.124	39637.6
742.464	39598.28
742.804	39454.56
743.143	39523.71
743.483	39633.08
743.823	39483.48
744.162	39426.31
744.502	39301.11
744.841	39281.45
745.181	39603.03
745.52	39302.02
745.86	39428.12
746.199	39358.29
746.538	39422.92
746.877	39610.26
747.216	39302.24
747.556	39131.85
747.895	39158.07
748.234	39097.05
748.573	39176.15
748.911	39151.96
749.25	39281.45
749.589	39030.39
749.928	39174.56
750.267	39066.09
750.605	38933.67
750.944	39033.1
751.283	39128.91
751.621	39028.35
751.96	38919.88
752.298	38811.63
752.636	38882.14
752.975	38687.34
753.313	38435.37
753.651	38660
753.989	38458.88
754.327	38546.78
754.666	38327.58
755.004	38536.84
755.342	38464.3
755.679	38409.84
756.017	38126
756.355	38368.48
756.693	38083.97
