Data from copper_heatsink_FLMS001491_070.txt Node
Date: Tue Feb 07 10:50:23 GMT 2017
User: dcchb
Spectrometer: FLMS00149
Trigger mode: 0
Integration Time (sec): 2.000000E-2
Scans to average: 10
Electric dark correction enabled: true
Nonlinearity correction enabled: false
Boxcar width: 0
XAxis mode: Wavelengths
Number of Pixels in Spectrum: 2048
>>>>>Begin Spectral Data<<<<<
341.393	-8.01
341.776	-8.01
342.16	-8.01
342.543	-54.56
342.927	-67.89
343.31	-70.15
343.693	-82.58
344.077	-58.18
344.46	-65.18
344.843	-52.98
345.226	-36.71
345.61	-24.73
345.993	-22.7
346.376	0.58
346.759	25.89
347.142	27.02
347.525	44.19
347.908	66.57
348.291	57.53
348.674	88.26
349.057	103.18
349.44	125.32
349.823	146.11
350.206	152.44
350.588	190.86
350.971	203.51
351.354	243.74
351.737	250.74
352.119	267.24
352.502	271.08
352.884	271.76
353.267	281.93
353.65	274.24
354.032	287.8
354.414	286.67
354.797	294.13
355.179	332.77
355.562	317.41
355.944	316.28
356.326	329.61
356.709	319.89
357.091	341.59
357.473	325.09
357.855	337.29
358.238	303.85
358.62	344.52
359.002	339.1
359.384	336.84
359.766	340.01
360.148	347.91
360.53	341.81
360.912	351.08
361.294	350.17
361.676	342.94
362.057	316.05
362.439	327.12
362.821	333.45
363.203	338.2
363.584	329.84
363.966	335.94
364.348	320.57
364.729	327.8
365.111	332.1
365.493	301.14
365.874	315.15
366.256	299.1
366.637	309.05
367.019	324.19
367.4	311.08
367.781	304.3
368.163	311.98
368.544	316.28
368.925	321.93
369.306	310.85
369.688	315.6
370.069	308.14
370.45	295.49
370.831	319.21
371.212	296.16
371.593	310.63
371.974	326.9
372.355	319.89
372.736	326.45
373.117	330.29
373.498	330.74
373.879	299.33
374.26	307.46
374.641	330.06
375.021	318.54
375.402	305.2
375.783	334.81
376.163	322.15
376.544	329.16
376.925	340.68
377.305	317.86
377.686	337.97
378.066	320.8
378.447	321.25
378.827	336.84
379.208	301.14
379.588	344.75
379.968	328.93
380.349	335.03
380.729	339.33
381.109	331.87
381.489	334.36
381.87	339.55
382.25	325.54
382.63	328.03
383.01	334.81
383.39	357.41
383.77	332.32
384.15	304.07
384.53	336.39
384.91	339.55
385.29	337.29
385.67	355.15
386.049	353.34
386.429	330.97
386.809	352.89
387.189	344.75
387.568	341.14
387.948	360.34
388.328	350.63
388.707	352.66
389.087	348.14
389.466	357.86
389.846	352.89
390.225	339.33
390.605	362.15
390.984	376.61
391.363	380.46
391.743	352.89
392.122	352.89
392.501	351.3
392.881	381.36
393.26	368.48
393.639	375.94
394.018	385.43
394.397	373.68
394.776	375.26
395.155	380.23
395.534	377.52
395.913	362.83
396.292	371.87
396.671	394.69
397.05	384.52
397.429	374.35
397.808	377.97
398.186	405.31
398.565	390.4
398.944	400.79
399.323	383.17
399.701	388.82
400.08	380.46
400.458	391.3
400.837	403.05
401.215	380.23
401.594	386.33
401.972	413.45
402.351	410.96
402.729	386.33
403.107	414.35
403.486	412.09
403.864	413.9
404.242	413
404.62	400.79
404.999	416.39
405.377	416.84
405.755	428.36
406.133	409.61
406.511	415.48
406.889	407.57
407.267	420.68
407.645	420.46
408.023	425.2
408.401	433.56
408.779	424.97
409.156	412.55
409.534	416.16
409.912	442.15
410.29	448.93
410.667	445.77
411.045	430.85
411.422	418.2
411.8	426.56
412.178	418.65
412.555	434.92
412.933	445.77
413.31	447.35
413.687	442.83
414.065	455.71
414.442	451.19
414.819	481.92
415.197	471.53
415.574	457.74
415.951	457.52
416.328	466.56
416.705	452.77
417.082	479.21
417.46	462.04
417.837	492.54
418.214	448.48
418.591	483.05
418.967	460
419.344	491.87
419.721	474.24
420.098	477.18
420.475	494.58
420.852	495.03
421.228	486.67
421.605	488.02
421.982	480.34
422.358	481.47
422.735	497.52
423.111	502.49
423.488	497.29
423.864	513.79
424.241	513.11
424.617	503.16
424.994	507.68
425.37	497.74
425.746	495.03
426.123	512.2
426.499	514.01
426.875	512.43
427.251	509.04
427.627	546.55
428.003	523.73
428.379	544.29
428.756	529.83
429.132	552.43
429.507	539.77
429.883	560.79
430.259	561.69
430.635	553.56
431.011	561.47
431.387	553.33
431.763	584.97
432.138	573.22
432.514	595.59
432.89	572.32
433.265	578.87
433.641	589.94
434.016	578.19
434.392	592.65
434.767	578.64
435.143	596.5
435.518	587.23
435.894	590.85
436.269	609.83
436.644	625.65
437.02	613.9
437.395	639.43
437.77	612.09
438.145	637.62
438.52	625.87
438.895	645.31
439.271	664.29
439.646	647.12
440.021	627.23
440.395	667.68
440.77	661.58
441.145	655.03
441.52	663.84
441.895	668.81
442.27	663.61
442.645	668.81
443.019	685.76
443.394	662.03
443.769	703.39
444.143	660
444.518	662.03
444.892	681.69
445.267	683.05
445.641	676.49
446.016	698.87
446.39	695.48
446.764	719.66
447.139	710.84
447.513	709.71
447.887	722.82
448.262	703.84
448.636	690.05
449.01	699.77
449.384	750.16
449.758	750.16
450.132	749.03
450.506	735.48
450.88	733.22
451.254	724.4
451.628	755.59
452.002	775.93
452.376	754.46
452.75	743.16
453.123	777.96
453.497	784.74
453.871	765.76
454.244	806.43
454.618	770.05
454.992	780.45
455.365	766.89
455.739	807.11
456.112	819.54
456.486	798.98
456.859	822.03
457.232	814.57
457.606	825.64
457.979	833.55
458.352	861.57
458.725	866.32
459.099	849.6
459.472	850.95
459.845	879.88
460.218	874.45
460.591	903.83
460.964	879.43
461.337	905.19
461.71	907.22
462.083	945.19
462.456	894.57
462.829	927.79
463.201	922.81
463.574	952.19
463.947	956.49
464.32	969.82
464.692	980.89
465.065	1004.85
465.438	973.66
465.81	1025.18
466.183	1008.24
466.555	1020.67
466.928	1023.83
467.3	1040.78
467.672	1038.07
468.045	1069.03
468.417	1055.92
468.789	1074.45
469.161	1079.87
469.534	1101.57
469.906	1108.57
470.278	1118.06
470.65	1149.7
471.022	1173.66
471.394	1155.58
471.766	1165.97
472.138	1189.47
472.51	1196.93
472.882	1224.28
473.253	1230.83
473.625	1264.5
473.997	1283.71
474.369	1244.16
474.74	1276.03
475.112	1290.04
475.484	1313.99
475.855	1344.5
476.227	1331.17
476.598	1380.66
476.97	1378.85
477.341	1419.75
477.713	1443.25
478.084	1446.64
478.455	1472.4
478.827	1494.55
479.198	1521.9
479.569	1488.45
479.94	1548.56
480.311	1580.2
480.682	1596.7
481.053	1627.2
481.424	1664.94
481.795	1668.56
482.166	1688.9
482.537	1684.38
482.908	1725.51
483.279	1732.51
483.65	1791.94
484.021	1808.67
484.391	1833.75
484.762	1844.37
485.133	1832.4
485.503	1898.38
485.874	1919.85
486.244	1939.96
486.615	1973.18
486.985	1985.84
487.356	2026.06
487.726	2034.2
488.097	2058.15
488.467	2075.55
488.837	2126.85
489.207	2144.7
489.578	2163.46
489.948	2166.85
490.318	2209.11
490.688	2249.56
491.058	2259.05
491.428	2260.63
491.798	2304.7
492.168	2359.39
492.538	2372.49
492.908	2389.67
493.278	2412.49
493.648	2425.83
494.017	2470.12
494.387	2457.92
494.757	2478.48
495.126	2484.13
495.496	2523.68
495.866	2572.26
496.235	2566.84
496.605	2598.7
496.974	2615.65
497.344	2657.91
497.713	2652.49
498.082	2628.08
498.452	2685.48
498.821	2700.85
499.19	2718.7
499.559	2754.4
499.928	2753.5
500.298	2792.82
500.667	2830.56
501.036	2842.54
501.405	2844.57
501.774	2872.82
502.143	2906.72
502.512	2920.5
502.88	2910.56
503.249	2929.32
503.618	2968.86
503.987	2971.57
504.356	3003.44
504.724	3030.56
505.093	3048.18
505.462	3012.25
505.83	3111.01
506.199	3118.92
506.567	3122.3
506.936	3167.5
507.304	3167.73
507.672	3152.36
508.041	3195.75
508.409	3223.55
508.777	3306.93
509.145	3277.33
509.514	3298.8
509.882	3324.56
510.25	3341.51
510.618	3361.85
510.986	3404.11
511.354	3391.68
511.722	3447.72
512.09	3526.81
512.458	3497.44
512.826	3516.19
513.193	3583.08
513.561	3523.42
513.929	3561.62
514.297	3624.66
514.664	3629.18
515.032	3621.73
515.4	3655.17
515.767	3696.98
516.135	3720.48
516.502	3703.31
516.869	3844.09
517.237	3797.77
517.604	3822.17
517.972	3886.58
518.339	3901.04
518.706	3892.23
519.073	3920.48
519.44	3974.71
519.808	4012.68
520.175	4000.25
520.542	4056.52
520.909	4040.47
521.276	4096.97
521.643	4114.6
522.009	4173.8
522.376	4188.94
522.743	4253.12
523.11	4259.45
523.477	4321.14
523.843	4331.76
524.21	4341.93
524.577	4364.53
524.943	4443.17
525.31	4455.6
525.676	4498.54
526.043	4564.07
526.409	4547.13
526.776	4632.32
527.142	4640.46
527.508	4614.24
527.874	4727.46
528.241	4772.66
528.607	4728.59
528.973	4801.58
529.339	4841.58
529.705	4852.65
530.071	4906.21
530.437	4967.91
530.803	4927.23
531.169	5009.94
531.535	5023.95
531.901	5046.77
532.267	5074.57
532.632	5124.51
532.998	5155.92
533.364	5167.22
533.73	5210.16
534.095	5310.5
534.461	5261.68
534.826	5290.84
535.192	5313.89
535.557	5396.37
535.923	5343.49
536.288	5363.83
536.653	5427.78
537.019	5484.73
537.384	5503.03
537.749	5550.49
538.114	5526.08
538.479	5586.19
538.845	5548.91
539.21	5599.3
539.575	5641.11
539.94	5644.5
540.305	5696.25
540.67	5668.9
541.034	5763.37
541.399	5750.94
541.764	5781.44
542.129	5894.66
542.494	5820.09
542.858	5925.62
543.223	5985.28
543.587	6005.39
543.952	5999.74
544.316	6025.05
544.681	6030.03
545.045	6082.91
545.41	6164.94
545.774	6181.43
546.138	6226.63
546.503	6202.9
546.867	6268.66
547.231	6319.96
547.595	6336.01
547.959	6401.54
548.324	6381.2
548.688	6483.8
549.052	6494.87
549.416	6513.4
549.779	6560.86
550.143	6575.1
550.507	6647.64
550.871	6720.4
551.235	6648.31
551.599	6724.92
551.962	6845.6
552.326	6865.94
552.689	6922.2
553.053	6935.09
553.417	6964.69
553.78	7138.92
554.143	7060.28
554.507	7153.84
554.87	7200.84
555.234	7261.63
555.597	7297.34
555.96	7340.05
556.323	7398.12
556.686	7453.49
557.05	7549.53
557.413	7542.3
557.776	7653.03
558.139	7729.87
558.502	7794.72
558.865	7881.95
559.228	7931.67
559.59	8011.22
559.953	8044.66
560.316	8145.22
560.679	8166.47
561.041	8299.12
561.404	8351.77
561.767	8372.11
562.129	8450.53
562.492	8567.81
562.854	8681.93
563.217	8721.03
563.579	8758.09
563.941	8822.49
564.304	8957.63
564.666	9118.31
565.028	9178.87
565.39	9249.15
565.753	9345.64
566.115	9371.18
566.477	9478.97
566.839	9526.43
567.201	9634.45
567.563	9699.31
567.925	9852.98
568.287	9855.46
568.648	9970.71
569.01	10079.41
569.372	10148.11
569.734	10182.46
570.095	10344.26
570.457	10394.88
570.819	10526.18
571.18	10585.84
571.542	10633.97
571.903	10694.08
572.265	10802.33
572.626	10909.22
572.987	10916.68
573.349	11083.68
573.71	11158.25
574.071	11248.87
574.432	11305.37
574.794	11520.73
575.155	11500.62
575.516	11493.38
575.877	11644.34
576.238	11719.14
576.599	11885.69
576.96	11808.18
577.32	11964.33
577.681	12105.8
578.042	12192.35
578.403	12173.82
578.763	12264.89
579.124	12372.91
579.485	12430.99
579.845	12532.45
580.206	12528.16
580.566	12586.01
580.927	12659.91
581.287	12694.26
581.648	12824.2
582.008	12886.12
582.368	12831.65
582.728	12930.86
583.089	12932.67
583.449	13057.41
583.809	13078.88
584.169	13204.98
584.529	13160.01
584.889	13322.94
585.249	13316.61
585.609	13369.72
585.969	13506.21
586.329	13411.53
586.688	13518.42
587.048	13552.54
587.408	13626.44
587.768	13626.44
588.127	13724.74
588.487	13698.75
588.846	13800.44
589.206	13712.53
589.565	13901.23
589.925	13886.99
590.284	13922.02
590.643	14057.16
591.003	14028.23
591.362	14153.2
591.721	14221.45
592.08	14146.87
592.44	14270.03
592.799	14312.97
593.158	14242.46
593.517	14317.49
593.876	14412.63
594.235	14406.53
594.593	14480.2
594.952	14626.41
595.311	14528.33
595.67	14668.67
596.029	14688.1
596.387	14794.31
596.746	14823.24
597.104	14755.45
597.463	14851.26
597.822	14892.62
598.18	14882.22
598.538	14931.26
598.897	15036.79
599.255	14996.12
599.613	15150.24
599.972	15110.01
600.33	15249.67
600.688	15215.77
601.046	15260.52
601.404	15462.32
601.762	15418.25
602.12	15483.56
602.478	15446.05
602.836	15488.53
603.194	15406.95
603.552	15526.95
603.91	15536.67
604.268	15637.91
604.625	15557.23
604.983	15745.25
605.341	15700.96
605.698	15842.65
606.056	15884.23
606.413	15838.81
606.771	15971.68
607.128	16025.92
607.485	15947.5
607.843	16119.48
608.2	16193.15
608.557	16204.45
608.914	16154.73
609.272	16272.47
609.629	16382.52
609.986	16434.72
610.343	16414.61
610.7	16462.29
611.057	16460.49
611.414	16544.32
611.771	16593.82
612.127	16607.6
612.484	16667.26
612.841	16624.1
613.198	16825.22
613.554	16756.52
613.911	16861.38
614.267	16947.48
614.624	16968.49
614.98	16913.35
615.337	17081.03
615.693	17070.41
616.05	17072.67
616.406	17243.29
616.762	17212.33
617.118	17282.61
617.475	17218.21
617.831	17380.24
618.187	17341.37
618.543	17390.18
618.899	17489.84
619.255	17530.06
619.611	17599.21
619.967	17602.15
620.323	17523.73
620.678	17615.03
621.034	17557.86
621.39	17660.45
621.746	17661.13
622.101	17899.54
622.457	17818.42
622.812	17773.22
623.168	17846.21
623.523	17838.53
623.879	18005.76
624.234	17801.24
624.589	18021.35
624.945	17999.88
625.3	17989.94
625.655	18077.62
626.01	18078.75
626.365	18064.96
626.72	17994.91
627.075	18062.7
627.43	18086.21
627.785	18088.92
628.14	18142.02
628.495	18152.87
628.85	18119.88
629.205	18109.71
629.559	18151.51
629.914	18236.94
630.269	18220.89
630.623	18269.03
630.978	18142.93
631.332	18305.86
631.687	18369.14
632.041	18290.04
632.396	18282.36
632.75	18209.82
633.104	18384.5
633.459	18236.71
633.813	18261.57
634.167	18314.67
634.521	18366.65
634.875	18346.09
635.229	18286.65
635.583	18281.68
635.937	18330.27
636.291	18281.91
636.645	18292.3
636.999	18293.21
637.352	18396.48
637.706	18325.52
638.06	18476.03
638.413	18380.66
638.767	18314.22
639.121	18445.74
639.474	18292.75
639.828	18261.57
640.181	18424.05
640.534	18421.56
640.888	18260.89
641.241	18291.17
641.594	18317.16
641.947	18361
642.301	18347.89
642.654	18337.27
643.007	18303.83
643.36	18440.32
643.713	18369.81
644.066	18523.26
644.419	18298.63
644.771	18209.37
645.124	17950.16
645.477	17989.03
645.83	17795.14
646.182	17835.59
646.535	17911.97
646.888	17982.93
647.24	17978.64
647.593	18022.48
647.945	18033.55
648.298	17960.33
648.65	17857.96
649.002	17916.49
649.355	17972.54
649.707	17758.08
650.059	17863.84
650.411	18196.03
650.763	18177.5
651.115	18427.44
651.467	18347.22
651.819	18324.84
652.171	18384.95
652.523	18268.57
652.875	18298.4
653.227	18245.98
653.578	18490.71
653.93	18374.11
654.282	18150.84
654.633	18262.92
654.985	18288.23
655.337	18300.89
655.688	18360.77
656.039	18453.2
656.391	18258.18
656.742	18322.81
657.094	18341.79
657.445	18413.2
657.796	18445.07
658.147	18393.54
658.498	18452.52
658.849	18449.81
659.2	18459.08
659.551	18430.38
659.902	18468.34
660.253	18370.72
660.604	18451.39
660.955	18374.11
661.306	18541.79
661.656	18455.91
662.007	18523.26
662.358	18519.41
662.708	18454.33
663.059	18560.09
663.409	18499.3
663.76	18549.24
664.11	18566.64
664.461	18644.16
664.811	18555.35
665.161	18566.87
665.511	18630.82
665.862	18604.61
666.212	18707.43
666.562	18648.45
666.912	18631.95
667.262	18539.3
667.612	18707.88
667.962	18601.9
668.312	18703.59
668.662	18775
669.011	18836.02
669.361	18721.89
669.711	18769.35
670.06	18699.07
670.41	18624.04
670.76	18657.94
671.109	18714.44
671.459	18656.81
671.808	18675.12
672.157	18708.56
672.507	18526.87
672.856	18623.59
673.205	18734.78
673.554	18824.94
673.904	18683.48
674.253	18853.42
674.602	18756.92
674.951	18609.36
675.3	18432.41
675.649	18682.8
675.998	18806.19
676.346	18897.48
676.695	18915.79
677.044	18694.1
677.393	18809.35
677.741	18775.68
678.09	18775.9
678.438	18786.75
678.787	18783.81
679.135	18850.93
679.484	18695.68
679.832	18930.7
680.181	18738.39
680.529	18831.72
680.877	18782.01
681.225	18705.4
681.573	18939.97
681.922	18806.64
682.27	18780.42
682.618	18749.46
682.966	18667.43
683.314	18772.06
683.661	18781.78
684.009	18615.68
684.357	18674.21
684.705	18620.65
685.053	18622.01
685.4	18521.67
685.748	18618.85
686.095	18409.13
686.443	18458.85
686.79	18420.43
687.138	18560.77
687.485	18535.68
687.832	18466.99
688.18	18547.89
688.527	18374.79
688.874	18439.42
689.221	18349.25
689.568	18298.18
689.915	18399.64
690.262	18474.44
690.609	18319.19
690.956	18268.35
691.303	18254.79
691.65	18187.9
691.997	18293.66
692.344	18210.95
692.69	18146.99
693.037	18083.49
693.383	18055.7
693.73	18136.15
694.077	18020.44
694.423	17948.13
694.769	17976.38
695.116	17908.36
695.462	17931.86
695.808	17947.9
696.155	17922.37
696.501	17789.94
696.847	17810.51
697.193	17688.93
697.539	17819.77
697.885	17736.61
698.231	17724.18
698.577	17681.7
698.923	17591.53
699.269	17435.37
699.614	17559.44
699.96	17563.96
700.306	17547.46
700.651	17460.46
700.997	17424.08
701.342	17428.37
701.688	17384.75
702.033	17369.16
702.379	17362.61
702.724	17329.84
703.069	17358.77
703.415	17300.92
703.76	17159
704.105	17219.11
704.45	17107.47
704.795	17041.71
705.14	17038.32
705.485	17031.77
705.83	17027.93
706.175	17048.94
706.52	16976.4
706.865	16921.26
707.209	16920.59
707.554	16771.66
707.899	16814.6
708.243	16777.54
708.588	16930.08
708.932	16669.29
709.277	16680.59
709.621	16704.09
709.966	16608.73
710.31	16681.5
710.654	16641.5
710.998	16633.59
711.342	16533.93
711.687	16650.99
712.031	16535.74
712.375	16473.14
712.719	16528.51
713.063	16462.75
713.407	16570.76
713.75	16485.8
714.094	16465.91
714.438	16362.18
714.782	16421.39
715.125	16335.52
715.469	16427.27
715.812	16312.24
716.156	16239.47
716.499	16360.6
716.843	16319.92
717.186	16205.8
717.53	16332.35
717.873	16200.38
718.216	16200.61
718.559	16142.08
718.902	16088.52
719.246	16236.54
719.589	16155.86
719.932	16106.14
720.275	16100.49
720.617	16070.89
720.96	15985.24
721.303	16091.23
721.646	16114.05
721.989	15972.81
722.331	16106.6
722.674	16031.57
723.016	15990.67
723.359	15993.6
723.701	16047.84
724.044	15962.42
724.386	15867.28
724.729	15923.1
725.071	15826.38
725.413	15853.04
725.755	15836.77
726.097	15823.89
726.439	15825.93
726.782	15787.51
727.124	15911.8
727.465	15824.34
727.807	15734.85
728.149	15873.16
728.491	15797.9
728.833	15816.89
729.175	15756.32
729.516	15732.37
729.858	15654.4
730.199	15748.19
730.541	15818.24
730.882	15679.26
731.224	15753.39
731.565	15689.88
731.906	15684.01
732.248	15716.78
732.589	15716.32
732.93	15665.93
733.271	15593.84
733.612	15720.62
733.953	15717.23
734.294	15623.22
734.635	15572.37
734.976	15631.13
735.317	15558.81
735.658	15560.17
735.999	15558.81
736.339	15524.92
736.68	15495.99
737.021	15479.04
737.361	15457.57
737.702	15555.88
738.042	15437.91
738.383	15420.74
738.723	15483.79
739.063	15383.23
739.404	15452.6
739.744	15434.75
740.084	15357.69
740.424	15442.88
740.764	15464.13
741.104	15440.4
741.444	15386.62
741.784	15463.22
742.124	15455.99
742.464	15382.1
742.804	15359.5
743.143	15390.46
743.483	15411.25
743.823	15283.34
744.162	15308.2
744.502	15251.03
744.841	15246.73
745.181	15335.09
745.52	15220.52
745.86	15234.75
746.199	15136.68
746.538	15199.73
746.877	15210.8
747.216	15194.98
747.556	15176
747.895	15168.32
748.234	15086.28
748.573	15056
748.911	15088.77
749.25	15037.47
749.589	15125.38
749.928	15030.24
750.267	15083.8
750.605	15037.92
750.944	15003.35
751.283	14885.84
751.621	14906.85
751.96	14803.58
752.298	14830.92
752.636	14832.51
752.975	14838.38
753.313	14865.05
753.651	14950.24
753.989	14812.84
754.327	14805.16
754.666	14735.56
755.004	14787.31
755.342	14798.83
755.679	14756.58
756.017	14683.81
756.355	14744.15
756.693	14691.72
757.031	14700.08
757.368	14686.97
757.706	14649.46
758.044	14547.77
758.381	14630.48
758.719	14528.11
759.056	14538.95
759.394	14518.16
759.731	14377.38
760.068	14389.58
760.405	14412.4
