Data from copper_heatsink_FLMS001491_035.txt Node
Date: Tue Feb 07 10:49:50 GMT 2017
User: dcchb
Spectrometer: FLMS00149
Trigger mode: 0
Integration Time (sec): 2.000000E-2
Scans to average: 10
Electric dark correction enabled: true
Nonlinearity correction enabled: false
Boxcar width: 0
XAxis mode: Wavelengths
Number of Pixels in Spectrum: 2048
>>>>>Begin Spectral Data<<<<<
341.393	-18.22
341.776	-18.22
342.16	-18.22
342.543	-67.48
342.927	-61.83
343.31	-69.97
343.693	-44.89
344.077	-65.68
344.46	-40.37
344.843	-53.47
345.226	-25.68
345.61	-25.45
345.993	-26.58
346.376	-20.03
346.759	17.94
347.142	15
347.525	60.2
347.908	44.38
348.291	56.58
348.674	79.4
349.057	98.61
349.44	124.38
349.823	151.72
350.206	138.84
350.588	212.96
350.971	206.63
351.354	236.91
351.737	256.35
352.119	262.68
352.502	276.91
352.884	277.82
353.267	295.22
353.65	310.81
354.032	300.19
354.414	313.52
354.797	338.83
355.179	319.62
355.562	334.54
355.944	349.23
356.326	361.43
356.709	344.48
357.091	346.97
357.473	355.33
357.855	367.53
358.238	367.53
358.62	366.18
359.002	368.89
359.384	346.52
359.766	340.41
360.148	346.74
360.53	367.08
360.912	323.92
361.294	345.16
361.676	349.91
362.057	346.74
362.439	348.32
362.821	354.65
363.203	355.78
363.584	343.58
363.966	343.35
364.348	344.93
364.729	346.52
365.111	345.84
365.493	339.51
365.874	345.16
366.256	337.7
366.637	349.23
367.019	329.57
367.4	354.43
367.781	335.22
368.163	339.06
368.544	353.97
368.925	337.48
369.306	344.71
369.688	328.89
370.069	325.5
370.45	344.71
370.831	348.55
371.212	310.36
371.593	322.79
371.974	347.42
372.355	348.55
372.736	350.81
373.117	351.94
373.498	337.93
373.879	358.95
374.26	332.73
374.641	325.05
375.021	349.23
375.402	326.18
375.783	349
376.163	355.33
376.544	352.17
376.925	370.7
377.305	347.19
377.686	357.82
378.066	346.97
378.447	351.49
378.827	361.21
379.208	354.65
379.588	336.57
379.968	346.97
380.349	378.61
380.729	342.45
381.109	364.82
381.489	349.91
381.87	374.99
382.25	379.28
382.63	358.72
383.01	389.45
383.39	363.24
383.77	396.68
384.15	364.82
384.53	386.74
384.91	372.28
385.29	385.61
385.67	382.45
386.049	381.77
386.429	388.1
386.809	389.45
387.189	383.58
387.568	375.22
387.948	399.17
388.328	396.68
388.707	400.98
389.087	391.49
389.466	404.37
389.846	392.62
390.225	388.32
390.605	409.11
390.984	417.47
391.363	403.69
391.743	408.89
392.122	430.36
392.501	401.66
392.881	389.68
393.26	422.67
393.639	428.55
394.018	417.02
394.397	434.88
394.776	435.55
395.155	418.83
395.534	406.85
395.913	429.68
396.292	434.65
396.671	457.02
397.05	452.5
397.429	444.37
397.808	432.62
398.186	457.25
398.565	459.73
398.944	459.06
399.323	459.28
399.701	456.57
400.08	454.99
400.458	464.48
400.837	451.37
401.215	481.2
401.594	473.74
401.972	480.75
402.351	458.6
402.729	480.52
403.107	477.13
403.486	476
403.864	474.2
404.242	481.43
404.62	499.51
404.999	478.72
405.377	454.99
405.755	483.46
406.133	480.07
406.511	489.34
406.889	484.59
407.267	489.34
407.645	511.48
408.023	507.19
408.401	506.29
408.779	502.9
409.156	528.21
409.534	512.61
409.912	529.11
410.29	555.55
410.667	514.87
411.045	525.72
411.422	550.58
411.8	560.3
412.178	536.12
412.555	567.53
412.933	555.1
413.31	561.88
413.687	591.48
414.065	569.79
414.442	566.4
414.819	562.78
415.197	581.99
415.574	570.24
415.951	595.78
416.328	584.93
416.705	571.14
417.082	595.78
417.46	597.81
417.837	603.91
418.214	594.87
418.591	613.18
418.967	596.68
419.344	614.98
419.721	623.8
420.098	618.15
420.475	618.83
420.852	634.42
421.228	634.42
421.605	631.03
421.982	634.19
422.358	654.3
422.735	645.49
423.111	668.32
423.488	626.51
423.864	655.21
424.241	669.45
424.617	686.39
424.994	673.51
425.37	683.46
425.746	708.54
426.123	718.03
426.499	701.08
426.875	678.94
427.251	701.99
427.627	711.7
428.003	722.1
428.379	725.72
428.756	743.34
429.132	748.31
429.507	759.84
429.883	767.97
430.259	774.98
430.635	767.07
431.011	769.33
431.387	757.35
431.763	775.88
432.138	796.22
432.514	800.74
432.89	803
433.265	813.85
433.641	827.63
434.016	832.15
434.392	827.41
434.767	857.01
435.143	871.25
435.518	839.61
435.894	868.99
436.269	871.7
436.644	886.62
437.02	869.21
437.395	879.16
437.77	908.76
438.145	909.21
438.52	919.83
438.895	925.26
439.271	924.81
439.646	945.6
440.021	937.69
440.395	948.08
440.77	920.74
441.145	926.16
441.52	950.12
441.895	954.41
442.27	971.58
442.645	951.47
443.019	992.6
443.394	968.87
443.769	971.36
444.143	991.47
444.518	991.25
444.892	1004.8
445.267	1019.49
445.641	1013.62
446.016	1009.32
446.39	1004.58
446.764	1025.14
447.139	1015.43
447.513	1052.94
447.887	1072.15
448.262	1045.26
448.636	1031.24
449.01	1036.44
449.384	1083.67
449.758	1093.62
450.132	1079.6
450.506	1086.84
450.88	1122.32
451.254	1102.65
451.628	1114.18
452.002	1108.3
452.376	1141.07
452.75	1105.37
453.123	1130.9
453.497	1166.61
453.871	1162.77
454.244	1182.88
454.618	1161.18
454.992	1205.7
455.365	1229.2
455.739	1237.57
456.112	1246.61
456.486	1267.85
456.859	1265.14
457.232	1271.01
457.606	1290.45
457.979	1314.4
458.352	1329.99
458.725	1322.08
459.099	1370.67
459.472	1397.56
459.845	1381.07
460.218	1420.16
460.591	1399.82
460.964	1403.66
461.337	1432.36
461.71	1474.17
462.083	1461.74
462.456	1470.33
462.829	1483.89
463.201	1518.24
463.574	1493.6
463.947	1553.04
464.32	1543.77
464.692	1539.25
465.065	1566.6
465.438	1581.96
465.81	1624.9
466.183	1630.32
466.555	1658.57
466.928	1695.41
467.3	1651.34
467.672	1714.62
468.045	1747.61
468.417	1751.23
468.789	1766.82
469.161	1797.1
469.534	1807.04
469.906	1853.37
470.278	1862.86
470.65	1875.29
471.022	1919.36
471.394	1958
471.766	1960.49
472.138	1995.06
472.51	2008.39
472.882	2087.71
473.253	2068.73
473.625	2128.16
473.997	2144.44
474.369	2140.59
474.74	2155.28
475.112	2188.05
475.484	2285.9
475.855	2298.78
476.227	2316.18
476.598	2343.07
476.97	2365.45
477.341	2457.65
477.713	2444.09
478.084	2491.54
478.455	2534.93
478.827	2563.63
479.198	2652.67
479.569	2682.73
479.94	2758.66
480.311	2740.58
480.682	2811.99
481.053	2868.03
481.424	2921.14
481.795	2929.73
482.166	2978.76
482.537	3027.8
482.908	3071.64
483.279	3127.91
483.65	3217.4
484.021	3245.88
484.391	3262.6
484.762	3355.25
485.133	3385.53
485.503	3412.88
485.874	3499.88
486.244	3519.09
486.615	3552.08
486.985	3648.12
487.356	3711.4
487.726	3741.91
488.097	3814
488.467	3866.88
488.837	3920.43
489.207	3925.41
489.578	3993.88
489.948	4073.88
490.318	4140.54
490.688	4152.29
491.058	4214.66
491.428	4301.44
491.798	4337.37
492.168	4407.43
492.538	4484.03
492.908	4489.01
493.278	4552.73
493.648	4555.22
494.017	4637.7
494.387	4663.24
494.757	4739.85
495.126	4797.7
495.496	4833.63
495.866	4884.02
496.235	4907.53
496.605	5001.08
496.974	5037.24
497.344	5070.46
497.713	5092.38
498.082	5220.06
498.452	5222.55
498.821	5265.71
499.19	5239.04
499.559	5328.76
499.928	5366.05
500.298	5382.77
500.667	5530.79
501.036	5524.69
501.405	5559.03
501.774	5601.52
502.143	5659.14
502.512	5687.39
502.88	5706.83
503.249	5812.36
503.618	5838.58
503.987	5854.39
504.356	5937.56
504.724	5992.47
505.093	6006.71
505.462	6012.81
505.83	6127.38
506.199	6185.91
506.567	6299.35
506.936	6306.13
507.304	6355.17
507.672	6394.04
508.041	6422.51
508.409	6454.15
508.777	6537.31
509.145	6599.69
509.514	6666.58
509.882	6689.85
510.25	6759.91
510.618	6836.06
510.986	6881.71
511.354	6958.55
511.722	7001.71
512.09	7091.2
512.458	7079.22
512.826	7230.4
513.193	7212.55
513.561	7314.47
513.929	7407.12
514.297	7433.34
514.664	7507.68
515.032	7625.42
515.4	7628.13
515.767	7680.11
516.135	7763.27
516.502	7725.53
516.869	7887.33
517.237	7945.64
517.604	7957.84
517.972	8104.5
518.339	8166.88
518.706	8154.9
519.073	8262.69
519.44	8352.63
519.808	8417.26
520.175	8479.64
520.542	8594.66
520.909	8666.07
521.276	8749.01
521.643	8800.08
522.009	8826.97
522.376	8976.35
522.743	8996.68
523.11	9154.19
523.477	9267.64
523.843	9334.3
524.21	9475.99
524.577	9454.53
524.943	9583.79
525.31	9659.72
525.676	9801.41
526.043	9803.44
526.409	9867.62
526.776	10045.02
527.142	10138.58
527.508	10148.97
527.874	10285.69
528.241	10337.44
528.607	10423.09
528.973	10541.95
529.339	10588.73
529.705	10706.02
530.071	10888.39
530.437	10855.39
530.803	10879.8
531.169	10976.97
531.535	11139.9
531.901	11114.37
532.267	11311.43
532.632	11360.92
532.998	11471.42
533.364	11540.35
533.73	11464.42
534.095	11700.12
534.461	11700.57
534.826	11848.36
535.192	11847.68
535.557	11993.67
535.923	12028.92
536.288	12152.99
536.653	12221.91
537.019	12251.06
537.384	12317.95
537.749	12478.85
538.114	12469.14
538.479	12572.41
538.845	12656.25
539.21	12775.79
539.575	12730.82
539.94	12893.76
540.305	12919.97
540.67	12958.39
541.034	13206.97
541.399	13246.97
541.764	13309.57
542.129	13394.08
542.494	13440.86
542.858	13448.54
543.223	13592.27
543.587	13693.06
543.952	13731.02
544.316	13839.49
544.681	13877.69
545.045	14039.72
545.41	14125.82
545.774	14107.51
546.138	14274.29
546.503	14341.85
546.867	14352.48
547.231	14561.28
547.595	14654.39
547.959	14663.43
548.324	14735.52
548.688	14930.09
549.052	15111.1
549.416	15094.15
549.779	15173.47
550.143	15294.6
550.507	15439.23
550.871	15499.11
551.235	15655.94
551.599	15780.01
551.962	15802.61
552.326	16093.67
552.689	16222.26
553.053	16220.22
553.417	16332.54
553.78	16518.29
554.143	16612.53
554.507	16843.48
554.87	16858.4
555.234	17192.4
555.597	17125.74
555.96	17302.23
556.323	17497.25
556.686	17545.84
557.05	17720.52
557.413	17879.61
557.776	18142.66
558.139	18195.31
558.502	18441.86
558.865	18478.02
559.228	18757.78
559.59	18893.15
559.953	19104.44
560.316	19312.35
560.679	19501.27
561.041	19660.13
561.404	19942.39
561.767	20104.87
562.129	20079.1
562.492	20536.72
562.854	20602.25
563.217	20811.29
563.579	20957.95
563.941	21168.34
564.304	21458.28
564.666	21694.2
565.028	21911.6
565.39	22032.95
565.753	22253.74
566.115	22598.59
566.477	22727.62
566.839	23029.99
567.201	23196.99
567.563	23479.92
567.925	23734.6
568.287	23872.45
568.648	24029.06
569.01	24347.24
569.372	24614.13
569.734	24787
570.095	24936.38
570.457	25228.8
570.819	25428.79
571.18	25633.31
571.542	25890.48
571.903	26129.34
572.265	26363.46
572.626	26591.93
572.987	26797.8
573.349	27079.37
573.71	27327.73
574.071	27508.06
574.432	27759.35
574.794	28032.57
575.155	28195.05
575.516	28298.78
575.877	28594.14
576.238	28890.85
576.599	28929.49
576.96	29188.24
577.32	29474.56
577.681	29699.64
578.042	29858.06
578.403	30001.1
578.763	30170.59
579.124	30556.57
579.485	30716.11
579.845	30857.58
580.206	31068.87
580.566	31113.84
580.927	31391.8
581.287	31697.33
581.648	31612.36
582.008	32027.94
582.368	32141.39
582.728	32259.8
583.089	32256.86
583.449	32448.27
583.809	32631.77
584.169	32899.78
584.529	32919.67
584.889	33152.43
585.249	33326.44
585.609	33323.5
585.969	33664.28
586.329	33507.45
586.688	33867.67
587.048	33938.85
587.408	34044.84
587.768	34173.2
588.127	34317.15
588.487	34442.12
588.846	34813.18
589.206	34614.54
589.565	34756.23
589.925	34996.9
590.284	34945.83
590.643	35217.92
591.003	35493.16
591.362	35557.12
591.721	35730.22
592.08	35747.62
592.44	36002.3
592.799	36155.07
593.158	36141.96
593.517	36212.69
593.876	36389.41
594.235	36413.36
594.593	36696.07
594.952	36818.78
595.311	36803.18
595.67	37054.93
596.029	37348.26
596.387	37413.34
596.746	37627.12
597.104	37563.84
597.463	37761.8
597.822	37896.26
598.18	37846.77
598.538	37879.54
598.897	38242.24
599.255	38198.18
599.613	38864.83
599.972	38796.35
600.33	38801.32
600.688	38771.49
601.046	39043.8
601.404	39151.37
601.762	39174.42
602.12	39441.08
602.478	39545.94
602.836	39721.07
603.194	39535.99
603.552	39784.35
603.91	39861.41
604.268	40184.79
604.625	39990.9
604.983	40224.56
605.341	40296.43
605.698	40665
606.056	40737.09
606.413	40778.45
606.771	41126.91
607.128	41146.8
607.485	41112.22
607.843	41275.84
608.2	41554.02
608.557	41631.76
608.914	41685.09
609.272	41973.9
609.629	42026.32
609.986	42298.63
610.343	42241.23
610.7	42637.83
611.057	42695.01
611.414	42640.09
611.771	42680.77
612.127	43100.19
612.484	43267.2
612.841	43461.31
613.198	43343.13
613.554	43443.69
613.911	43682.1
614.267	43747.41
614.624	43776.56
614.98	43985.59
615.337	44280.28
615.693	44302.87
616.05	44403.89
616.406	44739.93
616.762	44651.79
617.118	44827.83
617.475	44722.98
617.831	45028.28
618.187	45038.22
618.543	45182.63
618.899	45411.77
619.255	45521.37
619.611	45522.05
619.967	45669.62
620.323	45747.36
620.678	45909.39
621.034	45807.47
621.39	45803.4
621.746	45926.79
622.101	46357.96
622.457	46161.81
622.812	46228.7
623.168	46422.82
623.523	46514.34
623.879	46631.4
624.234	46591.85
624.589	46703.04
624.945	46793.88
625.3	46813.09
625.655	46768.57
626.01	47010.15
626.365	47072.75
626.72	47076.59
627.075	47108
627.43	47151.84
627.785	47173.76
628.14	47280.65
628.495	47358.39
628.85	47362.91
629.205	47319.07
629.559	47703.46
629.914	47454.66
630.269	47639.06
630.623	47480.42
630.978	47612.62
631.332	47815.32
631.687	47600.19
632.041	47629.11
632.396	47668.66
632.75	47684.93
633.104	47804.25
633.459	47647.19
633.813	47726.97
634.167	47752.28
634.521	47917.24
634.875	47938.94
635.229	47949.56
635.583	47758.38
635.937	48010.57
636.291	48028.2
636.645	48038.82
636.999	47967.19
637.352	47971.93
637.706	47763.8
638.06	48108.65
638.413	47924.02
638.767	48131.47
639.121	48030.46
639.474	48027.75
639.828	48109.78
640.181	48067.3
640.534	48126.95
640.888	48093.96
641.241	47989.56
641.594	48086.96
641.947	48231.58
642.301	48098.48
642.654	48144.36
643.007	48144.13
643.36	48201.53
643.713	48258.02
644.066	48370.34
644.419	48111.59
644.771	48024.58
645.124	47661.43
645.477	47575.56
645.83	47415.79
646.182	47297.82
646.535	47383.92
646.888	47392.28
647.24	47353.19
647.593	47685.61
647.945	47649.68
648.298	47468.89
648.65	47430.25
649.002	47303.7
649.355	47480.19
649.707	47354.55
650.059	47538.27
650.411	47965.38
650.763	48120.18
651.115	48503.67
651.467	48397.23
651.819	48504.8
652.171	48393.39
652.523	48405.82
652.875	48477.23
653.227	48299.83
653.578	48637
653.93	48458.7
654.282	48516.78
654.633	48501.41
654.985	48526.04
655.337	48637.68
655.688	48525.14
656.039	48703.44
656.391	48298.48
656.742	48596.55
657.094	48587.28
657.445	48856.88
657.796	48809.2
658.147	48751.57
658.498	48747.73
658.849	48985.92
659.2	48756.09
659.551	48778.92
659.902	49022.52
660.253	48886.03
660.604	48921.74
660.955	48837.22
661.306	48923.77
661.656	48846.71
662.007	48963.77
662.358	48889.19
662.708	48893.26
663.059	48959.93
663.409	48804.45
663.76	49138
664.11	49071.56
664.461	49129.64
664.811	49124.22
665.161	49039.02
665.511	49076.08
665.862	49179.13
666.212	49205.34
666.562	49177.55
666.912	49146.82
667.262	49239.92
667.612	49256.19
667.962	49335.96
668.312	49115.63
668.662	49533.7
669.011	49401.5
669.361	49522.4
669.711	49439.69
670.06	49421.84
670.41	49313.14
670.76	49210.77
671.109	49547.48
671.459	49520.36
671.808	49555.39
672.157	49767.59
672.507	49401.95
672.856	49408.05
673.205	49475.62
673.554	49551.55
673.904	49394.94
674.253	49658.21
674.602	49517.2
674.951	49124.44
675.3	48974.16
675.649	49560.14
675.998	49509.74
676.346	49709.51
676.695	49795.39
677.044	49363.76
677.393	49637.65
677.741	49612.34
678.09	49591.55
678.438	49644.66
678.787	49736.63
679.135	49698.44
679.484	49575.5
679.832	49596.07
680.181	49465.45
680.529	49619.57
680.877	49427.03
681.225	49443.76
681.573	49625.45
681.922	49467.71
682.27	49327.15
682.618	49363.98
682.966	49383.42
683.314	49441.04
683.661	49250.54
684.009	49171.67
684.357	49096.42
684.705	49085.8
685.053	49285.57
685.4	48994.5
685.748	49157.66
686.095	49200.82
686.443	48946.14
686.79	48919.7
687.138	49055.52
687.485	49094.84
687.832	49101.84
688.18	49075.18
688.527	48831.34
688.874	48855.75
689.221	48810.1
689.568	48601.74
689.915	48652.36
690.262	48697.34
690.609	48541.86
690.956	48538.47
691.303	48478.36
691.65	48225.03
691.997	48263.45
692.344	48100.74
692.69	48110.91
693.037	48183.9
693.383	47923.34
693.73	48069.1
694.077	47792.27
694.423	47924.47
694.769	47994.08
695.116	47860.97
695.462	47672.05
695.808	47749.11
696.155	47692.84
696.501	47455.79
696.847	47411.49
697.193	47271.16
697.539	47398.61
697.885	47129.02
698.231	47107.32
698.577	47136.47
698.923	47146.19
699.269	46864.84
699.614	46792.75
699.96	46802.7
700.306	46820.32
700.651	46698.97
700.997	46487.68
701.342	46621.01
701.688	46430.28
702.033	46381.46
702.379	46418.75
702.724	46227.12
703.069	46389.15
703.415	45904.41
703.76	45845.21
704.105	45804.3
704.45	45804.98
704.795	45809.5
705.14	45813.34
705.485	45631.88
705.83	45368.61
706.175	45508.49
706.52	45531.99
706.865	45327.48
707.209	45413.81
707.554	45230.08
707.899	45330.19
708.243	45127.71
708.588	45171.33
708.932	44895.18
709.277	44823.99
709.621	44902.41
709.966	44626.48
710.31	44683.43
710.654	44511
710.998	44657.44
711.342	44650.66
711.687	44588.74
712.031	44448.18
712.375	44465.81
712.719	44412.02
713.063	44261.52
713.407	44440.27
713.75	44226.94
714.094	44216.32
714.438	44237.11
714.782	44210.22
715.125	43910.34
715.469	44000.74
715.812	43922.55
716.156	43736.79
716.499	43758.71
716.843	43798.26
717.186	43537.47
717.53	43906.5
717.873	43938.82
718.216	43553.29
718.559	43629.45
718.902	43262.9
719.246	43358.04
719.589	43267.65
719.932	43240.53
720.275	43180.42
720.617	43179.97
720.96	43118.27
721.303	43074.88
721.646	43192.62
721.989	43170.25
722.331	43236.91
722.674	43032.63
723.016	43076.47
723.359	43045.05
723.701	43057.48
724.044	42735.91
724.386	42738.4
724.729	42879.86
725.071	42641.68
725.413	42714.89
725.755	42668.34
726.097	42538.63
726.439	42471.51
726.782	42385.86
727.124	42613.43
727.465	42496.82
727.807	42486.65
728.149	42391.29
728.491	42355.81
728.833	42387.44
729.175	42157.62
729.516	42109.71
729.858	42167.34
730.199	42215.02
730.541	42035.82
730.882	41892.99
731.224	42100.22
731.565	41749.27
731.906	42071.07
732.248	42014.35
732.589	41957.63
732.93	41814.13
733.271	41775.26
733.612	41851.19
733.953	41895.25
734.294	41815.03
734.635	41746.56
734.976	41677.18
735.317	41608.03
735.658	41603.28
735.999	41424.53
736.339	41420.24
736.68	41377.08
737.021	41251.2
737.361	41204.88
737.702	41328.72
738.042	41192.9
738.383	41276.74
738.723	41373.01
739.063	41162.39
739.404	41297.98
739.744	41281.71
740.084	41166.46
740.424	41142.28
740.764	41047.59
741.104	41196.97
741.444	40986.8
741.784	40779.13
742.124	41017.99
742.464	40822.29
742.804	40860.93
743.143	40791.78
743.483	40820.71
743.823	40586.81
744.162	40693.48
744.502	40764.89
744.841	40665.46
745.181	40918.33
745.52	40661.61
745.86	40599.7
746.199	40508.4
746.538	40457.1
746.877	40555.4
747.216	40466.82
747.556	40375.07
747.895	40356.76
748.234	40229.54
748.573	40184.56
748.911	40098.92
749.25	40207.84
749.589	39962.42
749.928	39919.94
750.267	40028.86
750.605	39899.37
750.944	39874.06
751.283	39766.04
751.621	39962.65
751.96	39852.37
752.298	39731.92
752.636	39729.89
752.975	39497.13
753.313	39522.89
753.651	39388.88
753.989	39340.75
754.327	39371.7
754.666	39040.87
755.004	39256.68
755.342	39193.4
755.679	39053.52
756.017	38877.03
756.355	39099.4
756.693	38982.56
757.031	38876.12
757.368	38718.16
