Data from copper_heatsink_FLMS001491_094.txt Node
Date: Tue Feb 07 10:50:52 GMT 2017
User: dcchb
Spectrometer: FLMS00149
Trigger mode: 0
Integration Time (sec): 2.000000E-2
Scans to average: 10
Electric dark correction enabled: true
Nonlinearity correction enabled: false
Boxcar width: 0
XAxis mode: Wavelengths
Number of Pixels in Spectrum: 2048
>>>>>Begin Spectral Data<<<<<
341.393	-18.57
341.776	-18.57
342.16	-18.57
342.543	-54.73
342.927	-65.13
343.31	-64.22
343.693	-80.04
344.077	-63.77
344.46	-48.85
344.843	-32.58
345.226	-40.72
345.61	-36.65
345.993	-28.29
346.376	-22.64
346.759	8.54
347.142	27.98
347.525	47.64
347.908	74.31
348.291	85.61
348.674	79.96
349.057	93.74
349.44	107.75
349.823	131.93
350.206	185.49
350.588	193.85
350.971	214.87
351.354	249.67
351.737	242.21
352.119	274.07
352.502	262.78
352.884	269.56
353.267	280.85
353.65	281.76
354.032	292.61
354.414	307.75
354.797	307.97
355.179	307.52
355.562	325.37
355.944	309.1
356.326	348.42
356.709	339.84
357.091	337.12
357.473	337.35
357.855	347.75
358.238	319.72
358.62	341.42
359.002	340.74
359.384	317.24
359.766	348.65
360.148	346.84
360.53	321.98
360.912	346.84
361.294	346.62
361.676	336.9
362.057	350.46
362.439	326.95
362.821	338.48
363.203	329.67
363.584	324.69
363.966	318.82
364.348	326.73
364.729	314.53
365.111	311.59
365.493	337.35
365.874	310.46
366.256	315.43
366.637	339.38
367.019	321.08
367.4	311.36
367.781	310.91
368.163	309.33
368.544	323.56
368.925	314.53
369.306	307.07
369.688	306.84
370.069	330.57
370.45	321.53
370.831	324.02
371.212	325.37
371.593	310.68
371.974	327.86
372.355	334.41
372.736	334.41
373.117	328.54
373.498	335.09
373.879	321.76
374.26	336.45
374.641	321.76
375.021	329.44
375.402	325.82
375.783	323.79
376.163	333.73
376.544	340.97
376.925	331.02
377.305	342.32
377.686	325.6
378.066	347.75
378.447	339.84
378.827	323.34
379.208	347.75
379.588	338.03
379.968	332.83
380.349	342.1
380.729	331.47
381.109	322.66
381.489	334.41
381.87	343.45
382.25	356.33
382.63	347.97
383.01	343.9
383.39	345.94
383.77	363.34
384.15	342.1
384.53	351.59
384.91	358.82
385.29	358.14
385.67	377.12
386.049	366.73
386.429	361.76
386.809	374.64
387.189	345.03
387.568	364.92
387.948	368.99
388.328	386.61
388.707	352.94
389.087	370.57
389.466	374.64
389.846	378.48
390.225	362.43
390.605	366.05
390.984	368.54
391.363	381.19
391.743	375.31
392.122	404.24
392.501	374.41
392.881	379.61
393.26	388.87
393.639	393.62
394.018	400.85
394.397	390
394.776	388.87
395.155	402.21
395.534	401.08
395.913	398.82
396.292	387.29
396.671	409.21
397.05	395.88
397.429	423
397.808	417.12
398.186	394.52
398.565	410.57
398.944	427.74
399.323	410.12
399.701	418.93
400.08	437.46
400.458	429.55
400.837	420.51
401.215	441.98
401.594	415.09
401.972	427.07
402.351	428.19
402.729	430.23
403.107	423.9
403.486	434.52
403.864	425.26
404.242	433.17
404.62	438.59
404.999	445.82
405.377	438.36
405.755	418.25
406.133	453.73
406.511	429.55
406.889	450.57
407.267	461.41
407.645	455.09
408.023	470.91
408.401	465.93
408.779	459.38
409.156	463.22
409.534	488.31
409.912	476.56
410.29	483.11
410.667	476.33
411.045	474.97
411.422	470.68
411.8	473.39
412.178	491.47
412.555	516.55
412.933	482.43
413.31	498.02
413.687	496.22
414.065	523.56
414.442	493.5
414.819	531.47
415.197	491.7
415.574	520.85
415.951	532.37
416.328	532.15
416.705	533.95
417.082	517.91
417.46	538.47
417.837	525.14
418.214	524.01
418.591	533.95
418.967	512.49
419.344	549.55
419.721	551.81
420.098	549.1
420.475	557.68
420.852	548.64
421.228	571.92
421.605	540.51
421.982	568.76
422.358	562.88
422.735	575.08
423.111	590
423.488	585.7
423.864	566.27
424.241	573.28
424.617	578.02
424.994	591.81
425.37	582.77
425.746	594.52
426.123	588.42
426.499	603.33
426.875	603.11
427.251	615.76
427.627	618.25
428.003	616.89
428.379	637
428.756	636.1
429.132	640.62
429.507	635.87
429.883	633.39
430.259	648.08
430.635	661.86
431.011	653.95
431.387	669.54
431.763	676.1
432.138	674.29
432.514	676.78
432.89	670.45
433.265	725.36
433.641	712.48
434.016	693.27
434.392	712.26
434.767	715.42
435.143	723.33
435.518	720.39
435.894	735.98
436.269	725.81
436.644	740.05
437.02	744.8
437.395	753.38
437.77	763.78
438.145	753.61
438.52	756.1
438.895	780.95
439.271	775.08
439.646	775.98
440.021	771.46
440.395	771.69
440.77	793.84
441.145	795.87
441.52	795.64
441.895	815.08
442.27	810.33
442.645	806.94
443.019	816.66
443.394	820.28
443.769	831.35
444.143	835.64
444.518	831.57
444.892	846.94
445.267	852.36
445.641	849.88
446.016	837
446.39	838.35
446.764	842.65
447.139	857.11
447.513	869.09
447.887	853.95
448.262	853.04
448.636	865.92
449.01	884.45
449.384	887.84
449.758	883.78
450.132	866.6
450.506	906.83
450.88	918.13
451.254	907.96
451.628	933.49
452.002	930.33
452.376	952.47
452.75	951.12
453.123	954.96
453.497	977.33
453.871	963.55
454.244	958.35
454.618	986.82
454.992	981.4
455.365	977.11
455.739	1015.75
456.112	1022.98
456.486	1022.53
456.859	1025.24
457.232	1053.04
457.606	1045.58
457.979	1063.88
458.352	1048.97
458.725	1058.23
459.099	1068.63
459.472	1114.05
459.845	1107.95
460.218	1135.52
460.591	1156.99
460.964	1137.33
461.337	1180.04
461.71	1160.38
462.083	1181.85
462.456	1184.11
462.829	1221.85
463.201	1201.73
463.574	1229.76
463.947	1240.38
464.32	1247.16
464.692	1260.94
465.065	1267.49
465.438	1284.44
465.81	1288.74
466.183	1310.21
466.555	1336.19
466.928	1351.56
467.3	1360.83
467.672	1368.74
468.045	1376.87
468.417	1390.88
468.789	1384.55
469.161	1422.97
469.534	1442.63
469.906	1473.37
470.278	1487.38
470.65	1496.19
471.022	1503.42
471.394	1521.5
471.766	1524.21
472.138	1557.66
472.51	1611.67
472.882	1620.48
473.253	1611.44
473.625	1645.56
473.997	1677.65
474.369	1689.4
474.74	1706.13
475.112	1731.66
475.484	1779.12
475.855	1794.94
476.227	1827.93
476.598	1840.36
476.97	1883.52
477.341	1887.14
477.713	1923.52
478.084	1913.13
478.455	1979.57
478.827	1995.39
479.198	2058.21
479.569	2048.72
479.94	2110.86
480.311	2114.48
480.682	2160.8
481.053	2186.34
481.424	2239.67
481.795	2221.14
482.166	2271.54
482.537	2292.78
482.908	2372.55
483.279	2381.36
483.65	2413
484.021	2441.93
484.391	2497.75
484.762	2532.32
485.133	2521.25
485.503	2565.99
485.874	2611.64
486.244	2628.14
486.615	2708.59
486.985	2703.84
487.356	2768.92
487.726	2803.73
488.097	2859.09
488.467	2839.21
488.837	2888.24
489.207	2899.54
489.578	3014.79
489.948	3011.86
490.318	3038.52
490.688	3095.92
491.058	3140.89
491.428	3187.44
491.798	3184.28
492.168	3259.53
492.538	3254.56
492.908	3339.3
493.278	3311.96
493.648	3342.02
494.017	3397.83
494.387	3429.92
494.757	3423.14
495.126	3478.51
495.496	3496.81
495.866	3544.72
496.235	3565.51
496.605	3602.12
496.974	3605.51
497.344	3645.96
497.713	3679.41
498.082	3704.27
498.452	3744.04
498.821	3756.24
499.19	3773.42
499.559	3833.08
499.928	3845.73
500.298	3875.11
500.667	3931.61
501.036	3919.18
501.405	3994.2
501.774	3962.79
502.143	4012.51
502.512	4040.76
502.88	4024.71
503.249	4092.96
503.618	4121.21
503.987	4149.23
504.356	4178.83
504.724	4190.36
505.093	4232.16
505.462	4255.44
505.83	4265.83
506.199	4301.31
506.567	4379.73
506.936	4422.21
507.304	4412.72
507.672	4434.42
508.041	4471.48
508.409	4537.01
508.777	4568.65
509.145	4589.67
509.514	4531.82
509.882	4620.63
510.25	4633.96
510.618	4700.17
510.986	4744.01
511.354	4784.69
511.722	4820.85
512.09	4870.79
512.458	4848.87
512.826	4976.32
513.193	4930.9
513.561	4966.15
513.929	5020.62
514.297	5030.11
514.664	5114.63
515.032	5114.17
515.4	5132.03
515.767	5221.29
516.135	5287.73
516.502	5209.09
516.869	5247.5
517.237	5400.04
517.604	5343.55
517.972	5428.29
518.339	5443.66
518.706	5480.49
519.073	5553.48
519.44	5555.52
519.808	5663.31
520.175	5640.49
520.542	5709.41
520.909	5759.13
521.276	5793.93
521.643	5836.19
522.009	5832.8
522.376	5850.65
522.743	5925.23
523.11	5994.15
523.477	6103.3
523.843	6094.94
524.21	6203.41
524.577	6241.15
524.943	6303.75
525.31	6305.78
525.676	6412.44
526.043	6456.51
526.409	6514.14
526.776	6563.63
527.142	6536.06
527.508	6655.6
527.874	6747.8
528.241	6739.67
528.607	6718.88
528.973	6828.93
529.339	6838.65
529.705	6871.64
530.071	6966.78
530.437	7017.63
530.803	7071.64
531.169	7149.37
531.535	7103.73
531.901	7188.92
532.267	7238.86
532.632	7330.16
532.998	7365.41
533.364	7410.84
533.73	7390.27
534.095	7473.43
534.461	7555.24
534.826	7606.99
535.192	7636.59
535.557	7686.31
535.923	7705.97
536.288	7719.08
536.653	7840.43
537.019	7782.8
537.384	7898.73
537.749	7955.23
538.114	7945.74
538.479	7956.58
538.845	8035
539.21	8008.11
539.575	8132.63
539.94	8131.72
540.305	8272.51
540.67	8218.72
541.034	8241.55
541.399	8383.47
541.764	8346.63
542.129	8443.35
542.494	8449.45
542.858	8554.76
543.223	8540.98
543.587	8675.66
543.952	8719.5
544.316	8734.19
544.681	8768.77
545.045	8822.1
545.41	8857.58
545.774	8898.93
546.138	8935.77
546.503	8975.77
546.867	9078.14
547.231	9134.41
547.595	9176.67
547.959	9245.14
548.324	9302.54
548.688	9275.65
549.052	9367.17
549.416	9437.45
549.779	9478.8
550.143	9511.57
550.507	9626.6
550.871	9725.35
551.235	9778.01
551.599	9878.12
551.962	9912.01
552.326	9988.85
552.689	10073.14
553.053	9987.72
553.417	10193.36
553.78	10300.03
554.143	10226.58
554.507	10382.06
554.87	10474.71
555.234	10581.37
555.597	10617.08
555.96	10668.15
556.323	10780.92
556.686	10833.35
557.05	11001.02
557.413	11055.94
557.776	11156.27
558.139	11235.37
558.502	11364.63
558.865	11354.69
559.228	11536.38
559.59	11590.16
559.953	11732.76
560.316	11838.74
560.679	11911.06
561.041	12014.56
561.404	12099.53
561.767	12242.57
562.129	12317.83
562.492	12537.03
562.854	12552.85
563.217	12747.87
563.579	12779.06
563.941	13001.42
564.304	13102.89
564.666	13261.53
565.028	13293.62
565.39	13405.25
565.753	13587.4
566.115	13671.46
566.477	13831.68
566.839	13923.89
567.201	14090.21
567.563	14116.42
567.925	14318.68
568.287	14366.36
568.648	14506.92
569.01	14763.41
569.372	14854.03
569.734	14806.8
570.095	15060.13
570.457	15241.36
570.819	15341.02
571.18	15432.77
571.542	15528.59
571.903	15721.58
572.265	15830.95
572.626	15934.45
572.987	16091.74
573.349	16222.13
573.71	16362.24
574.071	16495.12
574.432	16564.49
574.794	16779.18
575.155	16841.55
575.516	16966.52
575.877	17071.15
576.238	17175.33
576.599	17348.43
576.96	17395.88
577.32	17466.39
577.681	17661.41
578.042	17759.49
578.403	17826.16
578.763	17991.57
579.124	18042.42
579.485	18229.53
579.845	18331.9
580.206	18420.04
580.566	18451.68
580.927	18511.34
581.287	18656.64
581.648	18704.1
582.008	18827.94
582.368	18875.85
582.728	19042.62
583.089	19041.72
583.449	19128.95
583.809	19198.77
584.169	19318.32
584.529	19413.91
584.889	19586.34
585.249	19605.09
585.609	19638.76
585.969	19738.65
586.329	19738.42
586.688	19807.35
587.048	19891.19
587.408	19865.65
587.768	20043.95
588.127	19970.05
588.487	20076.72
588.846	20300.67
589.206	20230.39
589.565	20358.74
589.925	20443.71
590.284	20496.37
590.643	20518.51
591.003	20631.05
591.362	20828.11
591.721	20807.09
592.08	20880.09
592.44	20950.37
592.799	20961.67
593.158	21051.61
593.517	21117.59
593.876	21126.41
594.235	21159.4
594.593	21286.4
594.952	21303.35
595.311	21391.49
595.67	21380.64
596.029	21586.73
596.387	21616.34
596.746	21719.39
597.104	21589.67
597.463	21699.95
597.822	21941.98
598.18	21957.35
598.538	21890
598.897	22131.81
599.255	22178.58
599.613	22360.05
599.972	22231.46
600.33	22439.14
600.688	22293.83
601.046	22474.85
601.404	22505.35
601.762	22552.58
602.12	22687.27
602.478	22680.04
602.836	22887.49
603.194	22764.1
603.552	22932.24
603.91	22769.3
604.268	23085.45
604.625	23044.32
604.983	23188.05
605.341	23090.2
605.698	23290.64
606.056	23442.05
606.413	23350.76
606.771	23526.34
607.128	23552.78
607.485	23510.53
607.843	23642.73
608.2	23805.89
608.557	23756.62
608.914	23782.84
609.272	24120.45
609.629	24126.78
609.986	24123.39
610.343	24102.37
610.7	24305.99
611.057	24432.08
611.414	24453.33
611.771	24540.78
612.127	24599.31
612.484	24740.78
612.841	24756.82
613.198	24772.64
613.554	24780.55
613.911	25034.1
614.267	24991.39
614.624	25027.55
614.98	25077.04
615.337	25280.65
615.693	25236.36
616.05	25273.19
616.406	25461.89
616.762	25357.26
617.118	25372.62
617.475	25536.69
617.831	25563.58
618.187	25632.5
618.543	25752.95
618.899	25855.32
619.255	25871.37
619.611	25921.08
619.967	25997.69
620.323	26179.83
620.678	26076.33
621.034	26100.97
621.39	26155.43
621.746	26182.77
622.101	26453.27
622.457	26169.67
622.812	26229.55
623.168	26440.62
623.523	26438.81
623.879	26587.06
624.234	26425.7
624.589	26382.09
624.945	26568.98
625.3	26624.79
625.655	26607.62
626.01	26683.78
626.365	26730.1
626.72	26676.32
627.075	26717.9
627.43	26787.28
627.785	26772.36
628.14	26936.2
628.495	26889.65
628.85	26871.57
629.205	26932.36
629.559	27004.45
629.914	26912.24
630.269	27070.88
630.623	27091.67
630.978	27088.74
631.332	27156.31
631.687	27297.54
632.041	26904.79
632.396	27217.77
632.75	27194.95
633.104	27247.6
633.459	27135.29
633.813	27239.69
634.167	27195.4
634.521	27218.9
634.875	27321.27
635.229	27216.42
635.583	27012.58
635.937	27079.25
636.291	27101.17
636.645	27217.32
636.999	27082.64
637.352	27258.68
637.706	27103.65
638.06	27233.59
638.413	27141.16
638.767	27258.45
639.121	27319.69
639.474	27211.45
639.828	27378.9
640.181	27335.96
640.534	27237.89
640.888	27115.18
641.241	27105.69
641.594	27189.53
641.947	27205.12
642.301	27354.04
642.654	27471.78
643.007	27277.43
643.36	27347.04
643.713	27353.81
644.066	27434.94
644.419	27166.93
644.771	27052.35
645.124	26859.82
645.477	26673.15
645.83	26531.92
646.182	26619.6
646.535	26431.81
646.888	26669.99
647.24	26539.37
647.593	26825.47
647.945	26718.58
648.298	26659.6
648.65	26609.43
649.002	26636.55
649.355	26615.98
649.707	26685.13
650.059	26707.96
650.411	26900.49
650.763	27032.69
651.115	27413.93
651.467	27334.15
651.819	27343.42
652.171	27318.56
652.523	27149.75
652.875	27331.67
653.227	27157.66
653.578	27353.81
653.93	27382.29
654.282	27126.7
654.633	27149.98
654.985	27226.81
655.337	27194.5
655.688	27155.4
656.039	27406.02
656.391	27143.88
656.742	27339.8
657.094	27282.4
657.445	27504.77
657.796	27446.69
658.147	27238.56
658.498	27369.41
658.849	27435.85
659.2	27300.48
659.551	27246.7
659.902	27396.53
660.253	27382.06
660.604	27474.26
660.955	27375.28
661.306	27422.06
661.656	27417.77
662.007	27412.12
662.358	27569.18
662.708	27518.56
663.059	27504.09
663.409	27421.84
663.76	27613.69
664.11	27645.11
664.461	27579.12
664.811	27667.93
665.161	27609.63
665.511	27559.46
665.862	27596.75
666.212	27774.14
666.562	27777.53
666.912	27648.72
667.262	27806.68
667.612	27809.62
667.962	27880.35
668.312	27750.64
668.662	28016.62
669.011	27820.24
669.361	27892.78
669.711	27866.34
670.06	27789.06
670.41	27701.15
670.76	27723.52
671.109	27872.45
671.459	27918.32
671.808	27806.01
672.157	27819.11
672.507	27706.57
672.856	27798.1
673.205	27977.98
673.554	27872.22
673.904	27795.16
674.253	28068.82
674.602	28010.29
674.951	27499.57
675.3	27383.42
675.649	28052.1
675.998	27995.83
676.346	27995.83
676.695	28001.71
677.044	27868.6
677.393	27993.8
677.741	28027.47
678.09	28064.53
678.438	28029.73
678.787	28079.67
679.135	27952.22
679.484	27704.54
679.832	27850.75
680.181	27862.28
680.529	27890.75
680.877	27930.07
681.225	27895.27
681.573	27968.94
681.922	27785.67
682.27	27821.15
682.618	27870.19
682.966	27863.18
683.314	27824.31
683.661	27688.5
684.009	27664.54
684.357	27556.75
684.705	27526.92
685.053	27649.85
685.4	27563.3
685.748	27676.97
686.095	27595.16
686.443	27392.68
686.79	27453.7
687.138	27487.14
687.485	27463.19
687.832	27402.85
688.18	27403.3
688.527	27312.23
688.874	27428.61
689.221	27224.78
689.568	27310.43
689.915	27169.19
690.262	27216.42
690.609	27188.4
690.956	27037.66
691.303	26972.13
691.65	26903.21
691.997	26977.55
692.344	26796.09
692.69	26842.19
693.037	26903.21
693.383	26518.81
693.73	26770.55
694.077	26516.77
694.423	26596.55
694.769	26615.98
695.116	26667.51
695.462	26384.35
695.808	26472.93
696.155	26452.37
696.501	26339.83
696.847	26336.21
697.193	26097.58
697.539	26240.4
697.885	26132.6
698.231	26033.4
698.577	26077.24
698.923	25919.73
699.269	26025.26
699.614	25868.88
699.96	25897.58
700.306	25936.22
700.651	25741.2
700.997	25729.9
701.342	25776.46
701.688	25679.51
702.033	25664.59
702.379	25673.63
702.724	25547.31
703.069	25543.24
703.415	25244.94
703.76	25334.21
704.105	25356.13
704.45	25396.8
704.795	25206.75
705.14	25147.09
705.485	25211.95
705.83	25190.03
706.175	25258.28
706.52	25097.38
706.865	25044.95
707.209	24976.7
707.554	24950.94
707.899	24837.95
708.243	24860.32
708.588	24861.9
708.932	24707.1
709.277	24663.26
709.621	24673.21
709.966	24709.82
710.31	24590.95
710.654	24426.43
710.998	24477.51
711.342	24680.44
711.687	24565.41
712.031	24409.49
712.375	24394.12
712.719	24431.86
713.063	24295.59
713.407	24391.86
713.75	24307.79
714.094	24284.52
714.438	24271.64
714.782	24311.86
715.125	24119.78
715.469	24359.32
715.812	23974.02
716.156	23987.8
716.499	23988.93
716.843	23962.94
717.186	23900.35
717.53	23934.92
717.873	24009.04
718.216	23904.19
718.559	23962.94
718.902	23750.52
719.246	23898.09
719.589	23770.63
719.932	23763.85
720.275	23826.68
720.617	23783.51
720.96	23751.88
721.303	23804.08
721.646	23769.73
721.989	23670.52
722.331	23655.15
722.674	23564.54
723.016	23701.71
723.359	23634.14
723.701	23658.32
724.044	23485.44
724.386	23361.15
724.729	23522.95
725.071	23404.99
725.413	23492.9
725.755	23459.68
726.097	23370.87
726.439	23283.64
726.782	23437.99
727.124	23443.41
727.465	23272.11
727.807	23313.02
728.149	23265.79
728.491	23324.09
728.833	23375.39
729.175	23253.58
729.516	23214.94
729.858	23103.53
730.199	23311.66
730.541	23131.33
730.882	23171.78
731.224	23177.65
731.565	23111.67
731.906	23157.54
732.248	23192.12
732.589	23083.87
732.93	23109.86
733.271	23034.15
733.612	23090.88
733.953	23104.66
734.294	23045.45
734.635	23047.04
734.976	23063.31
735.317	22864.44
735.658	22993.93
735.999	22868.28
736.339	22870.09
736.68	22828.06
737.021	22699.02
737.361	22725.69
737.702	22953.48
738.042	22812.69
738.383	22704.67
738.723	22732.02
739.063	22712.58
739.404	22780.38
739.744	22700.15
740.084	22557.56
740.424	22765.91
740.764	22641.17
741.104	22777.66
741.444	22585.13
741.784	22584.9
742.124	22620.15
742.464	22726.14
742.804	22658.8
743.143	22567.5
743.483	22529.99
743.823	22409.76
744.162	22482.3
744.502	22501.06
744.841	22459.03
745.181	22448.18
745.52	22414.28
745.86	22385.81
746.199	22304.23
746.538	22310.33
746.877	22332.48
747.216	22393.95
747.556	22372.02
747.895	22279.82
748.234	22255.64
748.573	22118.47
748.911	22207.96
749.25	22288.19
749.589	22207.28
749.928	22137
750.267	22184.69
750.605	21951.47
750.944	21938.59
751.283	21795.32
751.621	21998.02
751.96	21818.82
752.298	21860.4
752.636	21814.53
752.975	21865.82
753.313	21661.99
753.651	21850.23
753.989	21626.73
754.327	21669.67
754.666	21611.59
755.004	21679.84
755.342	21672.61
755.679	21665.15
756.017	21542.67
756.355	21732.49
756.693	21486.62
757.031	21503.57
757.368	21381.77
757.706	21496.57
758.044	21356.01
758.381	21370.92
758.719	21349.9
