Data from copper_heatsink_FLMS001491_079.txt Node
Date: Tue Feb 07 10:50:34 GMT 2017
User: dcchb
Spectrometer: FLMS00149
Trigger mode: 0
Integration Time (sec): 2.000000E-2
Scans to average: 10
Electric dark correction enabled: true
Nonlinearity correction enabled: false
Boxcar width: 0
XAxis mode: Wavelengths
Number of Pixels in Spectrum: 2048
>>>>>Begin Spectral Data<<<<<
341.393	-8.97
341.776	-8.97
342.16	-8.97
342.543	-79.93
342.927	-72.02
343.31	-73.15
343.693	-49.65
344.077	-75.18
344.46	-48.74
344.843	-45.35
345.226	-44
345.61	-42.41
345.993	-8.97
346.376	4.59
346.759	-4.22
347.142	29.67
347.525	24.93
347.908	63.12
348.291	83.46
348.674	69.9
349.057	116
349.44	114.19
349.823	126.62
350.206	158.26
350.588	223.79
350.971	218.6
351.354	259.05
351.737	261.53
352.119	290.46
352.502	286.39
352.884	317.58
353.267	303.34
353.65	322.55
354.032	307.18
354.414	331.36
354.797	335.43
355.179	337.24
355.562	347.63
355.944	372.72
356.326	345.6
356.709	349.67
357.091	400.06
357.473	382.66
357.855	355.54
358.238	370.23
358.62	351.25
359.002	374.3
359.384	368.87
359.766	379.5
360.148	347.18
360.53	372.72
360.912	350.8
361.294	373.17
361.676	377.46
362.057	349.21
362.439	364.58
362.821	361.87
363.203	375.65
363.584	361.64
363.966	352.38
364.348	350.34
364.729	342.66
365.111	361.19
365.493	367.97
365.874	357.35
366.256	364.58
366.637	336.11
367.019	353.06
367.4	356.67
367.781	346.05
368.163	348.54
368.544	347.86
368.925	348.54
369.306	355.77
369.688	352.6
370.069	378.37
370.45	352.6
370.831	342.43
371.212	354.86
371.593	343.11
371.974	373.39
372.355	370
372.736	331.59
373.117	368.65
373.498	361.19
373.879	364.58
374.26	334.07
374.641	358.48
375.021	356.67
375.402	348.08
375.783	372.94
376.163	384.92
376.544	366.84
376.925	387.41
377.305	388.31
377.686	377.24
378.066	398.25
378.447	379.95
378.827	373.17
379.208	391.02
379.588	394.86
379.968	396.67
380.349	419.04
380.729	417.69
381.109	373.85
381.489	381.08
381.87	398.7
382.25	407.97
382.63	421.3
383.01	391.25
383.39	388.76
383.77	404.81
384.15	421.53
384.53	402.77
384.91	409.55
385.29	407.52
385.67	420.85
386.049	431.92
386.429	416.56
386.809	423.11
387.189	431.92
387.568	427.4
387.948	452.26
388.328	435.99
388.707	445.93
389.087	468.76
389.466	455.2
389.846	446.39
390.225	439.16
390.605	447.52
390.984	448.65
391.363	457.46
391.743	463.34
392.122	456.56
392.501	482.09
392.881	460.4
393.26	475.99
393.639	460.85
394.018	476.22
394.397	480.96
394.776	493.39
395.155	495.2
395.534	473.96
395.913	492.49
396.292	498.59
396.671	509.21
397.05	501.98
397.429	499.94
397.808	503.56
398.186	508.76
398.565	497.23
398.944	484.35
399.323	515.09
399.701	509.44
400.08	518.7
400.458	535.65
400.837	529.32
401.215	534.75
401.594	525.03
401.972	542.2
402.351	558.93
402.729	513.73
403.107	556.21
403.486	524.58
403.864	565.03
404.242	558.47
404.62	578.59
404.999	567.97
405.377	590.56
405.755	586.04
406.133	576.33
406.511	584.69
406.889	591.92
407.267	631.92
407.645	607.29
408.023	615.87
408.401	619.04
408.779	626.49
409.156	628.98
409.534	632.82
409.912	645.93
410.29	634.18
410.667	666.72
411.045	665.14
411.422	660.17
411.8	683.22
412.178	669.43
412.555	673.73
412.933	710.56
413.31	694.74
413.687	683.22
414.065	699.26
414.442	720.5
414.819	718.92
415.197	708.07
415.574	730.67
415.951	741.52
416.328	748.75
416.705	744.46
417.082	758.02
417.46	766.83
417.837	759.37
418.214	764.57
418.591	795.98
418.967	790.78
419.344	804.12
419.721	796.89
420.098	798.69
420.475	811.8
420.852	834.17
421.228	814.96
421.605	848.18
421.982	836.43
422.358	826.49
422.735	838.24
423.111	850.9
423.488	855.64
423.864	861.97
424.241	878.01
424.617	887.05
424.994	866.49
425.37	906.71
425.746	886.6
426.123	942.19
426.499	916.2
426.875	930.22
427.251	951.46
427.627	950.1
428.003	978.35
428.379	982.64
428.756	1003.66
429.132	998.01
429.507	990.55
429.883	1011.12
430.259	1022.19
430.635	1024.68
431.011	1043.43
431.387	1042.08
431.763	1082.08
432.138	1099.25
432.514	1121.17
432.89	1122.75
433.265	1142.87
433.641	1132.24
434.016	1145.58
434.392	1163.88
434.767	1211.11
435.143	1198.68
435.518	1214.05
435.894	1207.04
436.269	1255.63
436.644	1231
437.02	1265.12
437.395	1242.98
437.77	1269.64
438.145	1282.3
438.52	1274.16
438.895	1297.21
439.271	1314.39
439.646	1333.59
440.021	1341.28
440.395	1350.54
440.77	1343.99
441.145	1369.75
441.52	1422.41
441.895	1364.1
442.27	1436.42
442.645	1434.16
443.019	1442.74
443.394	1421.95
443.769	1430.32
444.143	1463.31
444.518	1469.18
444.892	1470.31
445.267	1478
445.641	1507.15
446.016	1490.2
446.39	1542.85
446.764	1529.3
447.139	1526.13
447.513	1553.7
447.887	1541.27
448.262	1576.07
448.636	1560.93
449.01	1604.32
449.384	1598.9
449.758	1621.5
450.132	1639.8
450.506	1651.1
450.88	1630.08
451.254	1671.21
451.628	1642.74
452.002	1701.72
452.376	1709.4
452.75	1750.08
453.123	1752.79
453.497	1758.67
453.871	1779.23
454.244	1786.46
454.618	1821.04
454.992	1861.94
455.365	1830.53
455.739	1901.72
456.112	1912.79
456.486	1933.58
456.859	1926.12
457.232	1957.08
457.606	1988.27
457.979	1999.34
458.352	2047.93
458.725	2097.19
459.099	2092.9
459.472	2134.7
459.845	2161.82
460.218	2163.18
460.591	2188.49
460.964	2207.02
461.337	2253.34
461.71	2260.12
462.083	2312.33
462.456	2367.92
462.829	2332.44
463.201	2369.5
463.574	2395.94
463.947	2429.39
464.32	2465.09
464.692	2474.36
465.065	2490.63
465.438	2534.92
465.81	2585.99
466.183	2612.21
466.555	2642.04
466.928	2665.54
467.3	2670.96
467.672	2726.55
468.045	2808.36
468.417	2777.85
468.789	2803.39
469.161	2866.66
469.534	2922.93
469.906	2941.01
470.278	2969.71
470.65	3007
471.022	3092.64
471.394	3111.85
471.766	3118.86
472.138	3172.87
472.51	3221.23
472.882	3292.64
473.253	3344.62
473.625	3391.17
473.997	3444.27
474.369	3454.22
474.74	3496.7
475.112	3550.03
475.484	3691.5
475.855	3697.83
476.227	3781.89
476.598	3803.81
476.97	3842.91
477.341	3958.16
477.713	3977.14
478.084	4004.94
478.455	4104.14
478.827	4207.19
479.198	4302.78
479.569	4320.41
479.94	4406.28
480.311	4479.95
480.682	4540.74
481.053	4659.38
481.424	4701.19
481.795	4728.31
482.166	4832.03
482.537	4891.24
482.908	4977.11
483.279	5055.08
483.65	5142.31
484.021	5189.31
484.391	5277.9
484.762	5369.87
485.133	5382.75
485.503	5436.54
485.874	5567.38
486.244	5641.5
486.615	5739.35
486.985	5824.32
487.356	5975.73
487.726	5918.56
488.097	6079.01
488.467	6129.85
488.837	6242.17
489.207	6334.14
489.578	6364.2
489.948	6465.66
490.318	6554.25
490.688	6573.01
491.058	6698.65
491.428	6850.51
491.798	6855.03
492.168	7049.83
492.538	7089.38
492.908	7125.31
493.278	7222.71
493.648	7212.31
494.017	7292.31
494.387	7497.73
494.757	7499.76
495.126	7593.09
495.496	7683.94
495.866	7752.18
496.235	7743.6
496.605	7869.02
496.974	7919.18
497.344	7990.37
497.713	8049.12
498.082	8127.77
498.452	8205.73
498.821	8292.06
499.19	8332.51
499.559	8413.41
499.928	8406.4
500.298	8505.84
500.667	8618.15
501.036	8643.23
501.405	8706.28
501.774	8809.56
502.143	8810.69
502.512	8911.93
502.88	8972.72
503.249	8993.73
503.618	9119.15
503.987	9086.84
504.356	9212.26
504.724	9271.69
505.093	9323.67
505.462	9390.78
505.83	9510.78
506.199	9551.01
506.567	9656.77
506.936	9693.38
507.304	9808.4
507.672	9880.49
508.041	10009.98
508.409	10016.98
508.777	10114.83
509.145	10298.78
509.514	10193.7
509.882	10389.4
510.25	10462.17
510.618	10538.32
510.986	10523.86
511.354	10621.03
511.722	10775.38
512.09	10896.51
512.458	10934.92
512.826	10995.94
513.193	11070.74
513.561	11104.19
513.929	11280
514.297	11357.74
514.664	11479.09
515.032	11509.15
515.4	11660.78
515.767	11708.46
516.135	11810.38
516.502	11730.84
516.869	12096.48
517.237	12117.94
517.604	12113.42
517.972	12274.1
518.339	12382.12
518.706	12449.91
519.073	12510.93
519.44	12601.32
519.808	12736.91
520.175	12811.94
520.542	13038.37
520.909	13221.64
521.276	13162.66
521.643	13258.93
522.009	13424.8
522.376	13511.35
522.743	13596.55
523.11	13818.24
523.477	13907.5
523.843	14042.64
524.21	14227.04
524.577	14417.54
524.943	14401.5
525.31	14567.82
525.676	14778.89
526.043	14790.42
526.409	14914.93
526.776	15084.87
527.142	15181.82
527.508	15296.17
527.874	15471.08
528.241	15538.42
528.607	15620.68
528.973	15808.47
529.339	15923.04
529.705	16083.04
530.071	16146.99
530.437	16367.55
530.803	16466.76
531.169	16521.67
531.535	16517.15
531.901	16685.06
532.267	16780.19
532.632	16997.14
532.998	16966.63
533.364	17200.75
533.73	17324.81
534.095	17406.17
534.461	17450.23
534.826	17661.3
535.192	17761.19
535.557	17976.55
535.923	17962.54
536.288	18078.01
536.653	18238.46
537.019	18292.92
537.384	18405.69
537.749	18408.85
538.114	18564.33
538.479	18685.23
538.845	18852.23
539.21	18937.2
539.575	19050.64
539.94	19110.75
540.305	19301.48
540.67	19301.94
541.034	19405.89
541.399	19540.8
541.764	19695.6
542.129	19787.57
542.494	19861.92
542.858	20123.38
543.223	20127.9
543.587	20320.89
543.952	20430.27
544.316	20617.16
544.681	20672.07
545.045	20812.4
545.41	20864.83
545.774	21109.35
546.138	21235.22
546.503	21182.79
546.867	21313.63
547.231	21695.09
547.595	21790.23
547.959	21891.7
548.324	21986.61
548.688	22036.33
549.052	22357.67
549.416	22426.15
549.779	22533.04
550.143	22686.03
550.507	22929.64
550.871	23068.84
551.235	23247.59
551.599	23373.02
551.962	23603.29
552.326	23766.68
552.689	23938.65
553.053	23970.06
553.417	24143.39
553.78	24605.53
554.143	24458.18
554.507	24754.22
554.87	24920.32
555.234	25344.49
555.597	25214.1
555.96	25646.18
556.323	25789.9
556.686	25842.55
557.05	26242.77
557.413	26414.29
557.776	26676.21
558.139	26844.56
558.502	27154.84
558.865	27289.3
559.228	27659.46
559.59	27922.73
559.953	28031.88
560.316	28403.84
560.679	28697.62
561.041	28987.78
561.404	29208.79
561.767	29581.67
562.129	29562.46
562.492	30128.09
562.854	30313.4
563.217	30509.78
563.579	30900.05
563.941	31234.73
564.304	31479.47
564.666	31827.03
565.028	31988.61
565.39	32295.27
565.753	32692.54
566.115	32955.14
566.477	33207.79
566.839	33562.58
567.201	34010.7
567.563	34092.06
567.925	34543.57
568.287	34840.51
568.648	35008.87
569.01	35352.59
569.372	35814.04
569.734	35889.07
570.095	36322.73
570.457	36803.85
570.819	36971.08
571.18	37119.77
571.542	37502.59
571.903	37785.29
572.265	38223.25
572.626	38430.92
572.987	38675.89
573.349	38955.66
573.71	39414.4
574.071	39709.76
574.432	40059.81
574.794	40355.39
575.155	40611.88
575.516	40749.73
575.877	41064.75
576.238	41364.63
576.599	41640.56
576.96	41917.84
577.32	42193.54
577.681	42486.19
578.042	42708.1
578.403	42863.8
578.763	43168.88
579.124	43430.34
579.485	43869.88
579.845	43984
580.206	44183.32
580.566	44322.3
580.927	44591.44
581.287	44905.56
581.648	44895.39
582.008	45293.79
582.368	45430.51
582.728	45748.7
583.089	45769.94
583.449	45957.28
583.809	46118.18
584.169	46522.24
584.529	46493.09
584.889	46871.61
585.249	46757.94
585.609	46861.89
585.969	47233.63
586.329	47254.2
586.688	47417.13
587.048	47707.52
587.408	47764.46
587.768	47895.76
588.127	47978.7
588.487	48173.95
588.846	48395.41
589.206	48381.4
589.565	48535.07
589.925	48860.48
590.284	48812.35
590.643	48986.58
591.003	49254.82
591.362	49466.79
591.721	49468.15
592.08	49494.81
592.44	49702.72
592.799	49782.94
593.158	49960.34
593.517	49989.94
593.876	50178.86
594.235	50247.56
594.593	50313.78
594.952	50539.76
595.311	50544.5
595.67	50670.15
596.029	51090.93
596.387	51144.26
596.746	51269.23
597.104	51186.3
597.463	51314.65
597.822	51577.7
598.18	51563.91
598.538	51629.67
598.897	51840.06
599.255	51761.65
599.613	52286.15
599.972	52059.94
600.33	52172.03
600.688	52377
601.046	52492.02
601.404	52748.97
601.762	52720.27
602.12	52866.03
602.478	52969.53
602.836	53067.6
603.194	53051.56
603.552	53195.06
603.91	53256.52
604.268	53418.55
604.625	53512.34
604.983	53645.89
605.341	53550.08
605.698	53791.2
606.056	53987.35
606.413	54068.93
606.771	54135.14
607.128	54330.85
607.485	54260.79
607.843	54290.62
608.2	54585.53
608.557	54725.64
608.914	54735.58
609.272	54866.88
609.629	55051.28
609.986	55168.34
610.343	55165.85
610.7	55334.21
611.057	55366.75
611.414	55440.19
611.771	55555.9
612.127	55707.31
612.484	55832.95
612.841	55921.31
613.198	55906.17
613.554	56006.96
613.911	56215.99
614.267	56263.22
614.624	56290.79
614.98	56345.93
615.337	56573.95
615.693	56606.27
616.05	56609.2
616.406	56846.03
616.762	56764.68
617.118	56884.45
617.475	56975.3
617.831	57036.76
618.187	57175.06
618.543	57270.66
618.899	57432.91
619.255	57384.55
619.611	57410.99
619.967	57536.18
620.323	57690.53
620.678	57594.94
621.034	57639.91
621.39	57711.77
621.746	57746.57
622.101	58047.58
622.457	57832
622.812	57938.89
623.168	58097.53
623.523	58072.89
623.879	58284.64
624.234	58180.01
624.589	58323.96
624.945	58396.5
625.3	58496.39
625.655	58467.46
626.01	58552.88
626.365	58590.17
626.72	58713.56
627.075	58692.76
627.43	58708.58
627.785	58784.06
628.14	58858.41
628.495	58963.27
628.85	58908.8
629.205	58872.87
629.559	58977.05
629.914	58947
630.269	59025.64
630.623	59050.27
630.978	58988.8
631.332	59235.35
631.687	59310.38
632.041	59252.75
632.396	59236.93
632.75	59261.34
633.104	59328.45
633.459	59240.55
633.813	59267.89
634.167	59339.08
634.521	59354.89
634.875	59418.17
635.229	59392.18
635.583	59404.84
635.937	59361.67
636.291	59463.37
636.645	59445.06
636.999	59503.36
637.352	59567.32
637.706	59467.43
638.06	59695.9
638.413	59658.39
638.767	59622.46
639.121	59686.86
639.474	59533.42
639.828	59585.62
640.181	59748.56
640.534	59823.13
640.888	59730.93
641.241	59681.89
641.594	59754.88
641.947	59882.34
642.301	59827.88
642.654	59888.67
643.007	59897.7
643.36	59898.16
643.713	59890.7
644.066	59984.48
644.419	59909.23
644.771	59902.68
645.124	59818.38
645.477	59742.23
645.83	59685.51
646.182	59476.02
646.535	59411.62
646.888	59450.48
647.24	59304.27
647.593	59536.13
647.945	59464.27
648.298	59452.74
648.65	59411.84
649.002	59390.15
649.355	59614.55
649.707	59605.96
650.059	59757.37
650.411	60103.12
650.763	60180.86
651.115	60440.06
651.467	60338.37
651.819	60458.37
652.171	60423.34
652.523	60384.02
652.875	60419.72
653.227	60367.75
653.578	60553.51
653.93	60530
654.282	60516.9
654.633	60433.96
654.985	60578.59
655.337	60568.42
655.688	60657.91
656.039	60774.07
656.391	60591.7
656.742	60698.36
657.094	60683.9
657.445	60818.81
657.796	60760.96
658.147	60816.78
658.498	60847.06
658.849	60931.35
659.2	60866.72
659.551	60872.82
659.902	60968.19
660.253	60990.78
660.604	61028.52
660.955	61007.96
661.306	61076.66
661.656	61007.96
662.007	61068.97
662.358	61139.25
662.708	61165.47
663.059	61166.15
663.409	61065.58
663.76	61284.79
664.11	61312.81
664.461	61404.11
664.811	61294.28
665.161	61393.71
665.511	61321.85
665.862	61354.16
666.212	61479.13
666.562	61531.33
666.912	61476.87
667.262	61528.17
667.612	61529.75
667.962	61525.23
668.312	61567.27
668.662	61725.23
669.011	61744.21
669.361	61743.98
669.711	61822.4
670.06	61737.66
670.41	61770.2
670.76	61776.3
671.109	61873.92
671.459	61887.48
671.808	61873.25
672.157	62022.62
672.507	61839.57
672.856	61937.65
673.205	61953.47
673.554	62039.57
673.904	61948.95
674.253	62143.97
674.602	62102.84
674.951	61852
675.3	61683.87
675.649	62188.04
675.998	62139.91
676.346	62182.39
676.695	62299.45
677.044	62146.01
677.393	62316.85
677.741	62318.43
678.09	62263.97
678.438	62299.68
678.787	62339.67
679.135	62319.79
679.484	62266.91
679.832	62420.35
680.181	62336.28
680.529	62350.07
680.877	62317.3
681.225	62322.05
681.573	62517.07
681.922	62280.01
682.27	62271.2
682.618	62349.17
682.966	62341.71
683.314	62509.16
683.661	62388.26
684.009	62322.27
684.357	62306.68
684.705	62299.9
685.053	62379
685.4	62399.56
685.748	62352.56
686.095	62411.31
686.443	62343.97
686.79	62350.52
687.138	62365.89
687.485	62421.93
687.832	62394.36
688.18	62428.49
688.527	62296.06
688.874	62352.78
689.221	62398.88
689.568	62294.48
689.915	62254.25
690.262	62326.12
690.609	62242.5
690.956	62213.12
691.303	62225.33
691.65	62127.48
691.997	62114.37
692.344	62107.36
692.69	62067.59
693.037	62117.31
693.383	61975.39
693.73	62033.24
694.077	61960.25
694.423	61989.85
694.769	61948.27
695.116	61939.23
695.462	61972.9
695.808	61830.76
696.155	61964.99
696.501	61807.03
696.847	61837.09
697.193	61801.84
697.539	61902.85
697.885	61809.29
698.231	61781.27
698.577	61749.63
698.923	61834.15
699.269	61712.8
699.614	61657.21
699.96	61592.8
700.306	61612.01
700.651	61495.4
700.997	61446.36
701.342	61465.35
701.688	61468.28
702.033	61408.4
702.379	61469.41
702.724	61482.3
703.069	61565.91
703.415	61336.54
703.76	61422.86
704.105	61464.9
704.45	61403.43
704.795	61283.21
705.14	61290.44
705.485	61232.36
705.83	61172.25
706.175	61249.31
706.52	61180.61
706.865	61199.37
707.209	61154.62
707.554	61077.56
707.899	61201.4
708.243	61086.15
708.588	61112.81
708.932	61053.83
709.277	61004.79
709.621	61057.22
709.966	61001.18
710.31	61106.94
710.654	60835.08
710.998	60956.43
711.342	60959.37
711.687	60947.17
712.031	60863.78
712.375	60852.93
712.719	60885.93
713.063	60918.69
713.407	61012.7
713.75	60763.9
714.094	60829.66
714.438	60681.19
714.782	60856.32
715.125	60760.73
715.469	60802.54
715.812	60718.93
716.156	60679.83
716.499	60653.39
716.843	60738.13
717.186	60666.27
717.53	60785.36
717.873	60789.66
718.216	60772.26
718.559	60664.92
718.902	60490.68
719.246	60605.71
719.589	60614.3
719.932	60583.34
720.275	60520.97
720.617	60625.37
720.96	60590.12
721.303	60620.62
721.646	60660.4
721.989	60477.58
722.331	60572.04
722.674	60547.63
723.016	60573.39
723.359	60529.78
723.701	60552.38
724.044	60457.01
724.386	60334.3
724.729	60516.67
725.071	60430.35
725.413	60474.64
725.755	60487.07
726.097	60434.64
726.439	60320.29
726.782	60398.03
727.124	60473.73
727.465	60455.2
727.807	60399.84
728.149	60382.21
728.491	60376.56
728.833	60438.26
729.175	60387.18
729.516	60318.71
729.858	60398.93
730.199	60510.57
730.541	60377.92
730.882	60415.21
731.224	60474.86
731.565	60280.52
731.906	60273.74
732.248	60353.96
732.589	60303.8
732.93	60229.45
733.271	60342.44
733.612	60377.24
733.953	60427.41
734.294	60339.5
734.635	60325.72
734.976	60425.15
735.317	60268.09
735.658	60293.63
735.999	60245.04
736.339	60287.98
736.68	60356.68
737.021	60231.48
737.361	60223.35
737.702	60315.55
738.042	60241.88
738.383	60184.48
738.723	60345.83
739.063	60151.26
739.404	60353.96
739.744	60208.66
740.084	60257.92
740.424	60328.65
740.764	60306.28
741.104	60386.28
741.444	60264.93
741.784	60193.74
742.124	60283.01
742.464	60164.59
742.804	60233.74
743.143	60152.39
743.483	60200.52
743.823	60044.82
744.162	60174.76
744.502	60143.35
744.841	60094.54
745.181	60212.05
745.52	60140.64
745.86	60237.81
746.199	60190.8
746.538	60167.08
746.877	60202.56
747.216	60252.05
747.556	60174.08
747.895	60164.59
748.234	60156.91
748.573	60094.99
748.911	60156
749.25	60116.23
749.589	60030.58
749.928	60081.88
750.267	60116.91
750.605	60084.59
750.944	59997.59
751.283	59928.21
751.621	60032.84
751.96	59821.77
752.298	59817.03
752.636	59913.07
752.975	59792.62
753.313	59824.26
753.651	59897.03
753.989	59762.12
754.327	59725.73
754.666	59633.76
755.004	59730.03
755.342	59836.01
755.679	59735.9
