Data from copper_heatsink_FLMS001491_071.txt Node
Date: Tue Feb 07 10:50:32 GMT 2017
User: dcchb
Spectrometer: FLMS00149
Trigger mode: 0
Integration Time (sec): 2.000000E-2
Scans to average: 10
Electric dark correction enabled: true
Nonlinearity correction enabled: false
Boxcar width: 0
XAxis mode: Wavelengths
Number of Pixels in Spectrum: 2048
>>>>>Begin Spectral Data<<<<<
341.393	-13.76
341.776	-13.76
342.16	-13.76
342.543	-60.76
342.927	-56.92
343.31	-63.7
343.693	-61.89
344.077	-66.18
344.46	-53.08
344.843	-48.56
345.226	-39.97
345.61	-42.91
345.993	-9.46
346.376	-8.11
346.759	13.59
347.142	25.34
347.525	35.73
347.908	47.03
348.291	84.77
348.674	73.02
349.057	114.38
349.44	131.78
349.823	133.36
350.206	184.2
350.588	236.86
350.971	247.71
351.354	266.24
351.737	270.08
352.119	290.87
352.502	291.32
352.884	308.49
353.267	305.33
353.65	308.27
354.032	335.16
354.414	320.25
354.797	336.52
355.179	350.75
355.562	370.19
355.944	332.22
356.326	372.45
356.709	374.93
357.091	359.11
357.473	386.91
357.855	376.06
358.238	378.55
358.62	372.22
359.002	377.65
359.384	366.57
359.766	375.39
360.148	393.46
360.53	359.57
360.912	368.61
361.294	363.41
361.676	355.73
362.057	382.17
362.439	369.74
362.821	356.18
363.203	381.26
363.584	365.89
363.966	379.45
364.348	383.52
364.729	362.05
365.111	366.35
365.493	366.35
365.874	369.74
366.256	350.98
366.637	345.78
367.019	350.53
367.4	367.7
367.781	362.28
368.163	338.55
368.544	347.59
368.925	362.28
369.306	359.79
369.688	354.6
370.069	347.36
370.45	369.74
370.831	373.35
371.212	356.63
371.593	359.79
371.974	359.57
372.355	328.38
372.736	367.93
373.117	343.3
373.498	367.48
373.879	367.93
374.26	358.89
374.641	371.09
375.021	377.65
375.402	363.63
375.783	346.69
376.163	387.14
376.544	382.17
376.925	390.75
377.305	372.45
377.686	384.65
378.066	389.85
378.447	379.23
378.827	395.5
379.208	398.44
379.588	388.94
379.968	393.69
380.349	408.38
380.729	408.83
381.109	398.66
381.489	394.59
381.87	401.6
382.25	392.79
382.63	398.89
383.01	375.16
383.39	419.68
383.77	427.36
384.15	408.15
384.53	418.55
384.91	407.7
385.29	418.32
385.67	429.17
386.049	435.95
386.429	413.12
386.809	433.46
387.189	441.15
387.568	431.66
387.948	414.71
388.328	455.16
388.707	428.04
389.087	452.45
389.466	445.67
389.846	458.55
390.225	464.65
390.605	454.25
390.984	441.82
391.363	452.67
391.743	481.15
392.122	458.77
392.501	459.23
392.881	481.6
393.26	458.55
393.639	464.87
394.018	461.26
394.397	483.41
394.776	489.73
395.155	470.3
395.534	501.48
395.913	481.37
396.292	491.54
396.671	510.75
397.05	508.49
397.429	507.36
397.808	522.05
398.186	496.51
398.565	498.55
398.944	505.78
399.323	501.71
399.701	513.24
400.08	512.78
400.458	541.26
400.837	529.51
401.215	539.68
401.594	529.51
401.972	567.92
402.351	537.87
402.729	559.56
403.107	552.78
403.486	551.88
403.864	569.05
404.242	566.57
404.62	573.57
404.999	581.48
405.377	552.33
405.755	577.19
406.133	572.67
406.511	590.07
406.889	595.04
407.267	591.65
407.645	595.04
408.023	599.11
408.401	615.83
408.779	602.72
409.156	638.66
409.534	623.06
409.912	644.98
410.29	644.98
410.667	673.46
411.045	639.79
411.422	656.06
411.8	665.77
412.178	676.62
412.555	684.53
412.933	703.29
413.31	677.3
413.687	724.3
414.065	719.11
414.442	736.05
414.819	720.69
415.197	755.49
415.574	736.28
415.951	752.1
416.328	727.24
416.705	741.93
417.082	738.99
417.46	763.62
417.837	763.4
418.214	751.42
418.591	808.59
418.967	814.7
419.344	793.91
419.721	798.88
420.098	809.95
420.475	820.12
420.852	814.02
421.228	808.14
421.605	850.85
421.982	822.61
422.358	811.76
422.735	848.82
423.111	859.21
423.488	867.58
423.864	885.65
424.241	890.17
424.617	892.89
424.994	906.9
425.37	919.78
425.746	911.42
426.123	934.47
426.499	938.99
426.875	961.58
427.251	953
427.627	951.42
428.003	968.36
428.379	979.21
428.756	983.51
429.132	1002.71
429.507	1015.14
429.883	1008.36
430.259	1044.97
430.635	1064.41
431.011	1041.58
431.387	1072.99
431.763	1105.31
432.138	1116.61
432.514	1081.81
432.89	1096.5
433.265	1124.07
433.641	1143.73
434.016	1139.43
434.392	1197.74
434.767	1193.44
435.143	1213.56
435.518	1209.94
435.894	1205.19
436.269	1236.61
436.644	1231.18
437.02	1246.1
437.395	1265.98
437.77	1280.22
438.145	1293.1
438.52	1321.8
438.895	1290.39
439.271	1319.99
439.646	1353.21
440.021	1352.08
440.395	1356.83
440.77	1383.72
441.145	1379.65
441.52	1385.08
441.895	1378.07
442.27	1430.5
442.645	1438.18
443.019	1436.37
443.394	1422.36
443.769	1464.4
444.143	1457.17
444.518	1475.7
444.892	1474.79
445.267	1474.11
445.641	1488.8
446.016	1512.98
446.39	1503.72
446.764	1508.01
447.139	1501.68
447.513	1543.72
447.887	1541.91
448.262	1550.04
448.636	1567.22
449.01	1602.47
449.384	1588.24
449.758	1625.52
450.132	1659.87
450.506	1616.03
450.88	1672.53
451.254	1644.73
451.628	1716.59
452.002	1704.39
452.376	1691.28
452.75	1738.29
453.123	1739.64
453.497	1779.19
453.871	1804.73
454.244	1813.09
454.618	1806.76
454.992	1856.02
455.365	1827.32
455.739	1883.59
456.112	1912.75
456.486	1916.81
456.859	1964.27
457.232	2002.69
457.606	1956.36
457.979	2027.55
458.352	2023.93
458.725	2055.79
459.099	2080.88
459.472	2137.6
459.845	2151.61
460.218	2158.84
460.591	2200.65
460.964	2183.47
461.337	2243.13
461.71	2282.23
462.083	2347.99
462.456	2304.37
462.829	2340.76
463.201	2356.35
463.574	2373.98
463.947	2418.5
464.32	2463.01
464.692	2466.86
465.065	2486.52
465.438	2549.11
465.81	2599.06
466.183	2629.11
466.555	2644.48
466.928	2657.59
467.3	2649.45
467.672	2696.23
468.045	2798.6
468.417	2767.64
468.789	2809.22
469.161	2825.04
469.534	2880.18
469.906	2958.37
470.278	2977.13
470.65	3010.8
471.022	3029.78
471.394	3119.27
471.766	3162.88
472.138	3204.01
472.51	3268.64
472.882	3290.56
473.253	3336.66
473.625	3390.9
473.997	3412.14
474.369	3471.8
474.74	3507.73
475.112	3539.6
475.484	3657.79
475.855	3695.98
476.227	3709.76
476.598	3831.11
476.97	3864.79
477.341	3952.24
477.713	3994.5
478.084	4000.83
478.455	4045.8
478.827	4152.24
479.198	4286.02
479.569	4301.16
479.94	4388.39
480.311	4455.73
480.682	4523.07
481.053	4646.46
481.424	4707.48
481.795	4748.6
482.166	4825.21
482.537	4889.39
482.908	4987.24
483.279	5006
483.65	5111.53
484.021	5243.05
484.391	5304.52
484.762	5322.6
485.133	5378.19
485.503	5477.17
485.874	5600.11
486.244	5684.85
486.615	5733.66
486.985	5843.49
487.356	5946.99
487.726	5973.66
488.097	6091.39
488.467	6176.81
488.837	6204.61
489.207	6343.82
489.578	6369.13
489.948	6497.94
490.318	6554.21
490.688	6611.61
491.058	6677.37
491.428	6843.24
491.798	6846.18
492.168	7032.61
492.538	7056.79
492.908	7102.67
493.278	7203.91
493.648	7268.99
494.017	7387.4
494.387	7457.23
494.757	7521.41
495.126	7543.56
495.496	7643.22
495.866	7687.06
496.235	7832.36
496.605	7936.77
496.974	7944.68
497.344	8010.44
497.713	8036.65
498.082	8097.44
498.452	8264.44
498.821	8249.08
499.19	8261.96
499.559	8333.14
499.928	8399.81
500.298	8543.53
500.667	8668.5
501.036	8556.87
501.405	8704.43
501.774	8735.39
502.143	8808.84
502.512	8884.99
502.88	9004.76
503.249	9009.28
503.618	9106.46
503.987	9122.73
504.356	9216.06
504.724	9309.84
505.093	9371.53
505.462	9431.64
505.83	9475.94
506.199	9573.11
506.567	9598.87
506.936	9689.27
507.304	9842.93
507.672	9927.45
508.041	9933.1
508.409	10057.62
508.777	10161.12
509.145	10195.24
509.514	10226.2
509.882	10388
510.25	10429.36
510.618	10491.73
510.986	10541.67
511.354	10705.96
511.722	10721.1
512.09	10845.39
512.458	10883.13
512.826	10958.38
513.193	11106.4
513.561	11138.72
513.929	11251.03
514.297	11404.02
514.664	11476.34
515.032	11537.8
515.4	11589.33
515.767	11696.9
516.135	11722.88
516.502	11772.37
516.869	12001.07
517.237	12100.95
517.604	12033.16
517.972	12250.55
518.339	12396.99
518.706	12432.47
519.073	12530.32
519.44	12639.7
519.808	12768.73
520.175	12821.39
520.542	13010.76
520.909	13122.4
521.276	13141.6
521.643	13256.85
522.009	13417.3
522.376	13562.38
522.743	13650.29
523.11	13806.9
523.477	13929.61
523.843	14037.63
524.21	14205.08
524.577	14218.86
524.943	14309.26
525.31	14516.03
525.676	14685.29
526.043	14802.8
526.409	14915.34
526.776	15073.76
527.142	15091.61
527.508	15278.72
527.874	15435.1
528.241	15495.67
528.607	15596
528.973	15822.66
529.339	15864.24
529.705	15990.79
530.071	16231.69
530.437	16215.65
530.803	16403.89
531.169	16584.9
531.535	16544.9
531.901	16689.31
532.267	16801.39
532.632	16894.05
532.998	16884.56
533.364	17204.1
533.73	17181.05
534.095	17410.19
534.461	17484.99
534.826	17692.9
535.192	17715.72
535.557	17928.14
535.923	18030.97
536.288	18089.04
536.653	18191.64
537.019	18279.55
537.384	18302.6
537.749	18529.03
538.114	18578.52
538.479	18825.52
538.845	18834.79
539.21	18884.28
539.575	18953.43
539.94	19070.04
540.305	19232.06
540.67	19315
541.034	19483.81
541.399	19602.68
541.764	19653.3
542.129	19800.19
542.494	20017.36
542.858	20103.68
543.223	20168.99
543.587	20389.77
543.952	20422.09
544.316	20523.33
544.681	20659.37
545.045	20784.57
545.41	20961.06
545.774	21068.63
546.138	21087.61
546.503	21277.66
546.867	21370.54
547.231	21564.88
547.595	21789.74
547.959	21852.79
548.324	21981.6
548.688	22202.38
549.052	22351.3
549.416	22382.26
549.779	22500.91
550.143	22713.1
550.507	23004.4
550.871	23099.76
551.235	23165.52
551.599	23420.88
551.962	23539.52
552.326	23638.73
552.689	23943.13
553.053	23947.87
553.417	24177.7
553.78	24479.61
554.143	24487.29
554.507	24753.5
554.87	25044.79
555.234	25275.3
555.597	25228.29
555.96	25637.32
556.323	25887.26
556.686	25894.04
557.05	26198.66
557.413	26421.25
557.776	26710.51
558.139	26919.77
558.502	27039.54
558.865	27384.17
559.228	27619.64
559.59	27770.82
559.953	28103.7
560.316	28545.27
560.679	28592.95
561.041	28896.22
561.404	29302.08
561.767	29620.04
562.129	29599.02
562.492	30113.59
562.854	30246.69
563.217	30550.86
563.579	30766
563.941	31176.16
564.304	31523.72
564.666	31823.37
565.028	32080.09
565.39	32336.58
565.753	32540.87
566.115	32859.5
566.477	33190.12
566.839	33521.63
567.201	33895.41
567.563	34155.06
567.925	34620.59
568.287	34793.69
568.648	35047.69
569.01	35500.34
569.372	35884.51
569.734	35886.32
570.095	36251.28
570.457	36671.83
570.819	36917.7
571.18	37011.94
571.542	37606.5
571.903	37783.22
572.265	38006.94
572.626	38474.27
572.987	38778.22
573.349	39286.45
573.71	39348.82
574.071	39570.74
574.432	39976.6
574.794	40375.92
575.155	40605.97
575.516	40827.43
575.877	41066.75
576.238	41367.3
576.599	41557.81
576.96	41821.53
577.32	42261.74
577.681	42461.06
578.042	42653.6
578.403	42848.62
578.763	43135.17
579.124	43399.11
579.485	43768.82
579.845	44089.26
580.206	44252.2
580.566	44497.84
580.927	44611.96
581.287	44750.94
581.648	44866.19
582.008	45272.74
582.368	45412.62
582.728	45668.66
583.089	45709.79
583.449	45867.07
583.809	46173.05
584.169	46361.97
584.529	46448.98
584.889	46807.84
585.249	46735.97
585.609	46962.18
585.969	47117.43
586.329	47245.11
586.688	47577.76
587.048	47706.12
587.408	47637.65
587.768	47802.16
588.127	48064.53
588.487	48050.74
588.846	48418.87
589.206	48410.28
589.565	48527.11
589.925	48790.16
590.284	48852.08
590.643	48962.13
591.003	49135.46
591.362	49356.7
591.721	49481.21
592.08	49564.83
592.44	49777.48
592.799	49822.67
593.158	49947.87
593.517	50009.79
593.876	50146.96
594.235	50295.43
594.593	50422.21
594.952	50573.84
595.311	50603.22
595.67	50726.15
596.029	51026.48
596.387	51049.08
596.746	51265.8
597.104	51158.91
597.463	51379.92
597.822	51586.69
598.18	51447.94
598.538	51543.76
598.897	51869.85
599.255	51719.12
599.613	52286.79
599.972	52191.65
600.33	52290.63
600.688	52223.51
601.046	52460.8
601.404	52718.64
601.762	52735.14
602.12	52942.37
602.478	53004.51
602.836	53122.02
603.194	53053.1
603.552	53216.03
603.91	53207.89
604.268	53393.65
604.625	53452.63
604.983	53709.35
605.341	53607.21
605.698	53821.44
606.056	54001.55
606.413	53947.31
606.771	54120.87
607.128	54312.27
607.485	54205.16
607.843	54326.74
608.2	54620.74
608.557	54700.51
608.914	54764.46
609.272	54868.19
609.629	54925.14
609.986	55163.55
610.343	55043.78
610.7	55371.23
611.057	55396.09
611.414	55378.91
611.771	55513.6
612.127	55653.48
612.484	55729.86
612.841	55892.12
613.198	55915.17
613.554	55934.38
613.911	56231.09
614.267	56188.61
614.624	56278.55
614.98	56391.99
615.337	56590.86
615.693	56610.74
616.05	56622.95
616.406	56761.93
616.762	56823.17
617.118	56888.7
617.475	56953.56
617.831	57161.01
618.187	57132.31
618.543	57209.37
618.899	57375.02
619.255	57398.07
619.611	57448.46
619.967	57513.32
620.323	57681.9
620.678	57619.98
621.034	57677.61
621.39	57757.83
621.746	57718.28
622.101	58085.73
622.457	57891.61
622.812	57943.82
623.168	58141.78
623.523	58161.21
623.879	58307.65
624.234	58136.58
624.589	58313.52
624.945	58441.88
625.3	58493.86
625.655	58469.23
626.01	58558.49
626.365	58615.44
626.72	58658.15
627.075	58701.76
627.43	58716.68
627.785	58808.88
628.14	58902.89
628.495	58865.15
628.85	58914.41
629.205	58897.46
629.559	59091.13
629.914	58964.35
630.269	59051.58
630.623	59030.34
630.978	59032.6
631.332	59180.62
631.687	59252.26
632.041	59204.12
632.396	59303.78
632.75	59230.11
633.104	59289.54
633.459	59261.52
633.813	59296.55
634.167	59335.42
634.521	59344.46
634.875	59488.63
635.229	59430.78
635.583	59304.46
635.937	59447.05
636.291	59397.11
636.645	59562.08
636.999	59431.23
637.352	59644.11
637.706	59524.56
638.06	59701.06
638.413	59657.44
638.767	59599.37
639.121	59654.73
639.474	59562.76
639.828	59635.75
640.181	59795.74
640.534	59778.8
640.888	59744.9
641.241	59729.31
641.594	59823.54
641.947	59905.57
642.301	59816.08
642.654	59926.59
643.007	59899.92
643.36	59999.13
643.713	59871.9
644.066	60027.6
644.419	59861.96
644.771	59885.91
645.124	59774.5
645.477	59772.47
645.83	59653.6
646.182	59487.5
646.535	59417.9
646.888	59459.93
647.24	59313.5
647.593	59561.63
647.945	59554.62
648.298	59461.52
648.65	59405.7
649.002	59374.74
649.355	59555.52
649.707	59584.22
650.059	59864.67
650.411	60071.67
650.763	60142.4
651.115	60485.22
651.467	60367.25
651.819	60440.25
652.171	60383.75
652.523	60478.44
652.875	60388.04
653.227	60375.39
653.578	60548.49
653.93	60575.16
654.282	60509.4
654.633	60440.7
654.985	60582.39
655.337	60631.65
655.688	60641.37
656.039	60809.5
656.391	60594.59
656.742	60626.68
657.094	60709.39
657.445	60849.05
657.796	60820.12
658.147	60805.21
658.498	60844.98
658.849	60839.11
659.2	60905.09
659.551	60837.75
659.902	60965.43
660.253	60939.89
660.604	61118.65
660.955	60987.13
661.306	61078.2
661.656	61032.55
662.007	61151.19
662.358	61125.88
662.708	61144.64
663.059	61261.47
663.409	61047.91
663.76	61276.84
664.11	61287.46
664.461	61307.12
664.811	61340.56
665.161	61391.41
665.511	61348.02
665.862	61422.14
666.212	61523.83
666.562	61520.67
666.912	61594.34
667.262	61484.97
667.612	61551.18
667.962	61645.86
668.312	61599.09
668.662	61795.47
669.011	61761.12
669.361	61724.28
669.711	61809.93
670.06	61791.62
670.41	61756.6
670.76	61772.42
671.109	61905.07
671.459	61868.46
671.808	61924.95
672.157	61993.2
672.507	61816.26
672.856	61945.07
673.205	61986.42
673.554	62074.1
673.904	62038.17
674.253	62172.4
674.602	62046.76
674.951	61800.89
675.3	61742.36
675.649	62086.98
675.998	62129.69
676.346	62140.09
676.695	62272.29
677.044	62166.08
677.393	62251.95
677.741	62292.85
678.09	62229.13
678.438	62256.02
678.787	62349.12
679.135	62324.04
679.484	62326.3
679.832	62376.69
680.181	62296.92
680.529	62379.63
680.877	62293.53
681.225	62324.94
681.573	62475.67
681.922	62302.8
682.27	62326.3
682.618	62357.26
682.966	62325.85
683.314	62478.84
683.661	62353.87
684.009	62387.99
684.357	62278.16
684.705	62366.07
685.053	62393.64
685.4	62381.89
685.748	62334.43
686.095	62404.26
686.443	62389.12
686.79	62359.07
687.138	62375.11
687.485	62455.79
687.832	62396.58
688.18	62392.96
688.527	62336.02
688.874	62357.71
689.221	62387.31
689.568	62305.96
689.915	62242.01
690.262	62307.99
690.609	62263.7
690.956	62279.75
691.303	62282.91
691.65	62115.23
691.997	62123.14
692.344	62007.89
692.69	62073.65
693.037	62064.61
693.383	61975.8
693.73	62067.32
694.077	61943.71
694.423	61902.36
694.769	61959.3
695.116	61936.25
695.462	61971.73
695.808	61873.88
696.155	61944.16
696.501	61846.99
696.847	61824.17
697.193	61807.89
697.539	61919.76
697.885	61816.93
698.231	61771.74
698.577	61769.48
698.923	61834.56
699.269	61735.58
699.614	61650.61
699.96	61549.37
700.306	61620.1
700.651	61535.36
700.997	61501.24
701.342	61498.52
701.688	61458.53
702.033	61505.53
702.379	61483.61
702.724	61503.27
703.069	61599.99
703.415	61359.32
703.76	61392.09
704.105	61380.11
704.45	61404.06
704.795	61272.77
705.14	61203.39
705.485	61303.73
705.83	61139.66
706.175	61229.83
706.52	61221.02
706.865	61191.19
707.209	61145.09
707.554	61100.79
707.899	61204.52
708.243	61119.33
708.588	61119.55
708.932	61037.97
709.277	61039.78
709.621	61094.69
709.966	60964.3
710.31	61071.42
710.654	60865.77
710.998	60998.65
711.342	61014.92
711.687	60937.86
712.031	60850.86
712.375	60886.56
712.719	60883.4
713.063	60932.66
713.407	61029.16
713.75	60804.08
714.094	60849.5
714.438	60684.08
714.782	60820.8
715.125	60788.03
715.469	60809.5
715.812	60775.83
716.156	60631.88
716.499	60641.37
716.843	60761.82
717.186	60660.13
717.53	60791.65
717.873	60821.93
718.216	60765.21
718.559	60633.01
718.902	60512.34
719.246	60599.34
719.589	60600.02
719.932	60549.85
720.275	60611.09
720.617	60572.45
720.96	60575.38
721.303	60589.85
721.646	60651.99
721.989	60519.34
722.331	60549.85
722.674	60513.69
723.016	60631.43
723.359	60586.23
723.701	60584.42
724.044	60458.55
724.386	60376.75
724.729	60508.95
725.071	60431.66
725.413	60475.73
725.755	60470.08
726.097	60399.34
726.439	60282.29
726.782	60340.59
727.124	60478.89
727.465	60325.67
727.807	60345.11
728.149	60405.22
728.491	60374.71
728.833	60467.14
729.175	60435.5
729.516	60352.34
729.858	60383.75
730.199	60434.15
730.541	60375.84
730.882	60381.04
731.224	60458.78
731.565	60198.45
731.906	60277.99
732.248	60384.43
732.589	60379.68
732.93	60236.64
733.271	60316.63
733.612	60287.03
733.953	60422.85
734.294	60334.94
734.635	60284.54
734.976	60362.28
735.317	60254.72
735.658	60290.87
735.999	60228.28
736.339	60309.85
736.68	60333.36
737.021	60256.75
737.361	60179.46
737.702	60292.23
738.042	60205
738.383	60212.23
738.723	60315.96
739.063	60253.13
739.404	60258.33
739.744	60341.27
740.084	60273.25
740.424	60381.94
740.764	60254.72
741.104	60357.31
741.444	60223.08
741.784	60234.6
742.124	60260.82
742.464	60170.65
742.804	60194.83
743.143	60161.61
743.483	60176.3
743.823	60065.34
744.162	60187.37
744.502	60199.12
744.841	60098.56
745.181	60232.12
745.52	60139.69
745.86	60233.25
746.199	60172.23
746.538	60150.99
746.877	60166.58
747.216	60186.92
747.556	60183.53
747.895	60190.76
748.234	60112.57
748.573	60144.44
748.911	60125.68
749.25	60143.76
749.589	60061.05
749.928	60123.65
750.267	60190.08
750.605	60135.17
750.944	60064.66
751.283	59972.91
751.621	60016.53
751.96	59878.91
752.298	59809.76
752.636	59894.95
752.975	59858.57
753.313	59820.38
753.651	59922.29
753.989	59786.93
754.327	59753.71
754.666	59682.3
755.004	59815.86
755.342	59787.16
