Data from copper_heatsink_FLMS001491_097.txt Node
Date: Tue Feb 07 10:50:53 GMT 2017
User: dcchb
Spectrometer: FLMS00149
Trigger mode: 0
Integration Time (sec): 2.000000E-2
Scans to average: 10
Electric dark correction enabled: true
Nonlinearity correction enabled: false
Boxcar width: 0
XAxis mode: Wavelengths
Number of Pixels in Spectrum: 2048
>>>>>Begin Spectral Data<<<<<
341.393	-18.59
341.776	-18.59
342.16	-18.59
342.543	-58.13
342.927	-73.05
343.31	-65.59
343.693	-57.68
344.077	-63.33
344.46	-51.35
344.843	-41.41
345.226	-46.38
345.61	-37.57
345.993	-30.56
346.376	-11.58
346.759	16.21
347.142	26.38
347.525	29.32
347.908	58.02
348.291	79.26
348.674	73.39
349.057	122.88
349.44	111.58
349.823	140.96
350.206	172.82
350.588	204.46
350.971	235.42
351.354	228.86
351.737	240.16
352.119	238.81
352.502	260.28
352.884	277.9
353.267	272.7
353.65	288.3
354.032	296.88
354.414	286.72
354.797	302.53
355.179	308.41
355.562	310.22
355.944	331.23
356.326	322.19
356.709	342.31
357.091	346.15
357.473	326.71
357.855	349.31
358.238	325.81
358.62	342.99
359.002	327.17
359.384	349.99
359.766	338.69
360.148	358.13
360.53	344.34
360.912	332.59
361.294	330.78
361.676	339.6
362.057	333.72
362.439	335.08
362.821	324.23
363.203	330.78
363.584	305.02
363.966	354.96
364.348	316.32
364.729	330.33
365.111	321.07
365.493	332.82
365.874	332.36
366.256	322.19
366.637	323.32
367.019	300.27
367.4	319.71
367.781	307.73
368.163	305.02
368.544	339.82
368.925	314.96
369.306	323.55
369.688	328.07
370.069	335.3
370.45	320.84
370.831	327.62
371.212	308.86
371.593	300.5
371.974	333.04
372.355	307.51
372.736	317
373.117	319.71
373.498	312.93
373.879	311.8
374.26	324
374.641	330.78
375.021	301.63
375.402	322.87
375.783	325.36
376.163	319.03
376.544	324.45
376.925	312.25
377.305	342.76
377.686	322.42
378.066	316.09
378.447	331.91
378.827	337.34
379.208	325.13
379.588	343.89
379.968	347.28
380.349	340.95
380.729	354.51
381.109	337.11
381.489	340.73
381.87	354.06
382.25	351.57
382.63	339.82
383.01	342.53
383.39	350.22
383.77	329.88
384.15	368.07
384.53	360.16
384.91	350.22
385.29	344.12
385.67	357
386.049	374.62
386.429	355.19
386.809	358.58
387.189	359.48
387.568	355.41
387.948	349.31
388.328	362.65
388.707	369.88
389.087	374.62
389.466	390.89
389.846	367.84
390.225	382.98
390.605	392.93
390.984	382.08
391.363	380.5
391.743	378.92
392.122	383.89
392.501	385.92
392.881	399.26
393.26	414.17
393.639	376.2
394.018	401.97
394.397	396.54
394.776	408.97
395.155	411.23
395.534	385.92
395.913	420.72
396.292	419.82
396.671	410.55
397.05	398.35
397.429	391.12
397.808	405.36
398.186	386.83
398.565	396.77
398.944	422.98
399.323	406.71
399.701	428.86
400.08	392.02
400.458	432.25
400.837	444.9
401.215	437.22
401.594	408.75
401.972	417.11
402.351	434.51
402.729	431.34
403.107	442.42
403.486	427.05
403.864	432.47
404.242	438.58
404.62	422.31
404.999	435.19
405.377	448.29
405.755	456.43
406.133	429.76
406.511	454.17
406.889	436.09
407.267	451.68
407.645	454.85
408.023	450.78
408.401	458.24
408.779	486.71
409.156	464.56
409.534	469.31
409.912	474.73
410.29	484.9
410.667	500.95
411.045	490.55
411.422	498.69
411.8	487.16
412.178	476.32
412.555	496.2
412.933	497.11
413.31	489.65
413.687	504.79
414.065	512.92
414.442	498.24
414.819	509.99
415.197	533.49
415.574	528.29
415.951	506.6
416.328	524.22
416.705	532.81
417.082	515.64
417.46	525.13
417.837	534.62
418.214	547.27
418.591	525.81
418.967	519.48
419.344	533.49
419.721	554.51
420.098	536.88
420.475	535.52
420.852	539.59
421.228	557.89
421.605	545.47
421.982	554.73
422.358	571
422.735	558.8
423.111	572.58
423.488	565.8
423.864	580.72
424.241	586.14
424.617	561.74
424.994	592.24
425.37	567.39
425.746	591.34
426.123	595.41
426.499	616.65
426.875	617.33
427.251	589.31
427.627	629.98
428.003	620.49
428.379	610.1
428.756	639.02
429.132	625.69
429.507	639.47
429.883	648.29
430.259	634.5
430.635	637.89
431.011	634.96
431.387	650.77
431.763	660.27
432.138	672.02
432.514	679.47
432.89	703.88
433.265	699.59
433.641	692.81
434.016	684.67
434.392	693.94
434.767	714.28
435.143	697.78
435.518	731.68
435.894	713.15
436.269	727.38
436.644	738.68
437.02	738.23
437.395	767.83
437.77	761.28
438.145	767.83
438.52	756.08
438.895	781.39
439.271	766.03
439.646	773.03
440.021	778.68
440.395	780.71
440.77	776.42
441.145	809.41
441.52	790.21
441.895	771
442.27	790.43
442.645	785.01
443.019	813.48
443.394	811.9
443.769	809.41
444.143	790.88
444.518	826.14
444.892	822.97
445.267	830.66
445.641	850.99
446.016	858.45
446.39	857.77
446.764	840.83
447.139	825.23
447.513	863.42
447.887	859.13
448.262	887.38
448.636	875.85
449.01	865.46
449.384	894.61
449.758	920.82
450.132	883.76
450.506	897.77
450.88	920.6
451.254	904.1
451.628	915.17
452.002	917.66
452.376	920.82
452.75	942.74
453.123	936.64
453.497	936.19
453.871	956.53
454.244	949.07
454.618	978.67
454.992	986.13
455.365	978
455.739	983.87
456.112	1036.3
456.486	1030.42
456.859	1044.89
457.232	1064.55
457.606	1046.92
457.979	1051.22
458.352	1081.5
458.725	1081.72
459.099	1108.16
459.472	1135.51
459.845	1100.93
460.218	1119.91
460.591	1148.61
460.964	1134.15
461.337	1139.12
461.71	1162.17
462.083	1189.06
462.456	1184.09
462.829	1186.58
463.201	1207.14
463.574	1235.39
463.947	1240.14
464.32	1251.66
464.692	1248.05
465.065	1272.45
465.438	1290.31
465.81	1305.22
466.183	1326.24
466.555	1334.15
466.928	1309.97
467.3	1335.28
467.672	1351.77
468.045	1385.67
468.417	1411.21
468.789	1403.52
469.161	1440.36
469.534	1429.96
469.906	1444.65
470.278	1492.33
470.65	1495.5
471.022	1497.98
471.394	1543.18
471.766	1530.3
472.138	1551.54
472.51	1582.27
472.882	1628.6
473.253	1642.39
473.625	1625.21
473.997	1662.27
474.369	1676.06
474.74	1695.49
475.112	1727.81
475.484	1754.25
475.855	1770.97
476.227	1796.05
476.598	1849.61
476.97	1869.27
477.341	1890.74
477.713	1938.42
478.084	1928.71
478.455	1990.63
478.827	2001.47
479.198	2053.45
479.569	2064.97
479.94	2092.77
480.311	2124.63
480.682	2157.17
481.053	2208.7
481.424	2232.88
481.795	2238.3
482.166	2306.78
482.537	2331.63
482.908	2372.76
483.279	2401.01
483.65	2438.07
484.021	2481.46
484.391	2521.69
484.762	2492.76
485.133	2562.59
485.503	2579.76
485.874	2620.89
486.244	2650.72
486.615	2698.86
486.985	2768.68
487.356	2773.43
487.726	2809.36
488.097	2867.89
488.467	2859.98
488.837	2895.46
489.207	2935.91
489.578	2961.67
489.948	3000.54
490.318	3052.74
490.688	3047.55
491.058	3118.96
491.428	3134.32
491.798	3204.38
492.168	3255.9
492.538	3260.2
492.908	3306.3
493.278	3307.43
493.648	3330.93
494.017	3388.33
494.387	3433.3
494.757	3469.23
495.126	3516.91
495.496	3472.85
495.866	3557.36
496.235	3563.24
496.605	3595.78
496.974	3640.98
497.344	3651.82
497.713	3732.95
498.082	3688.43
498.452	3736.79
498.821	3767.75
499.19	3773.18
499.559	3796
499.928	3865.38
500.298	3864.47
500.667	3919.39
501.036	3948.31
501.405	3950.35
501.774	3998.03
502.143	4029.22
502.512	4012.49
502.88	4091.36
503.249	4092.04
503.618	4092.94
503.987	4154.18
504.356	4159.83
504.724	4223.79
505.093	4217.46
505.462	4269.44
505.83	4278.25
506.199	4320.06
506.567	4378.81
506.936	4410.45
507.304	4439.6
507.672	4446.61
508.041	4461.52
508.409	4533.38
508.777	4582.65
509.145	4579.71
509.514	4547.39
509.882	4630.1
510.25	4679.37
510.618	4704
510.986	4719.82
511.354	4784.22
511.722	4803.66
512.09	4891.79
512.458	4867.84
512.826	4879.36
513.193	4934.73
513.561	4974.28
513.929	5029.42
514.297	5045.91
514.664	5082.97
515.032	5114.39
515.4	5142.86
515.767	5190.54
516.135	5252.91
516.502	5225.57
516.869	5290.88
517.237	5359.35
517.604	5352.8
517.972	5406.58
518.339	5434.38
518.706	5456.07
519.073	5532.45
519.44	5586.92
519.808	5591.66
520.175	5632.79
520.542	5705.78
520.909	5756.18
521.276	5762.28
521.643	5866
522.009	5923.63
522.376	5913.69
522.743	5941.48
523.11	6067.35
523.477	6058.99
523.843	6062.38
524.21	6187.35
524.577	6294.69
524.943	6240.01
525.31	6279.1
525.676	6383.05
526.043	6415.82
526.409	6489.94
526.776	6531.3
527.142	6518.19
527.508	6672.76
527.874	6700.56
528.241	6783.27
528.607	6736.72
528.973	6799.09
529.339	6852.19
529.705	6928.57
530.071	6981.45
530.437	7041.79
530.803	7063.49
531.169	7125.86
531.535	7110.27
531.901	7121.56
532.267	7232.75
532.632	7324.5
532.998	7297.6
533.364	7394.33
533.73	7376.02
534.095	7515.9
534.461	7564.04
534.826	7541.21
535.192	7625.51
535.557	7656.24
535.923	7745.73
536.288	7759.74
536.653	7898.94
537.019	7849.91
537.384	7917.48
537.749	7945.5
538.114	7953.18
538.479	7976.23
538.845	8059.84
539.21	7987.53
539.575	8115.89
539.94	8128.54
540.305	8219.39
540.67	8214.64
541.034	8236.11
541.399	8359.5
541.764	8383.68
542.129	8446.05
542.494	8448.99
542.858	8530.34
543.223	8557.01
543.587	8668.87
543.952	8678.13
544.316	8699.15
544.681	8699.6
545.045	8770.33
545.41	8875.87
545.774	8923.78
546.138	8948.41
546.503	8998.8
546.867	9034.96
547.231	9186.37
547.595	9186.82
547.959	9193.15
548.324	9307.5
548.688	9374.61
549.052	9397.44
549.416	9445.34
549.779	9469.3
550.143	9502.07
550.507	9646.47
550.871	9660.25
551.235	9712.23
551.599	9839.23
551.962	9861.15
552.326	9956.29
552.689	10091.2
553.053	9994.93
553.417	10104.76
553.78	10279.22
554.143	10253.01
554.507	10379.56
554.87	10490.74
555.234	10566.9
555.597	10599.21
555.96	10675.6
556.323	10812.54
556.686	10818.64
557.05	10871.3
557.413	11048.92
557.776	11083.95
558.139	11240.33
558.502	11261.34
558.865	11387.21
559.228	11558.74
559.59	11543.14
559.953	11685.06
560.316	11767.54
560.679	11852.74
561.041	12052.28
561.404	12137.93
561.767	12343.8
562.129	12309.9
562.492	12501.54
562.854	12579.27
563.217	12657.69
563.579	12825.59
563.941	12967.06
564.304	13008.87
564.666	13282.76
565.028	13289.31
565.39	13429.42
565.753	13543.32
566.115	13636.2
566.477	13842.52
566.839	13942.85
567.201	14133.36
567.563	14169.51
567.925	14378.55
568.287	14425.55
568.648	14526.79
569.01	14729.5
569.372	14841.59
569.734	14856.05
570.095	15103.05
570.457	15161.13
570.819	15329.03
571.18	15329.26
571.542	15663.94
571.903	15654.45
572.265	15913.88
572.626	15970.15
572.987	16087.88
573.349	16222.34
573.71	16285.62
574.071	16444.71
574.432	16596.8
574.794	16755.44
575.155	16922.21
575.516	16874.08
575.877	17101.19
576.238	17257.34
576.599	17363.1
576.96	17285.82
577.32	17505.02
577.681	17585.02
578.042	17743.66
578.403	17830.66
578.763	17979.58
579.124	18040.6
579.485	18180.71
579.845	18317.88
580.206	18347.48
580.566	18353.36
580.927	18509.51
581.287	18694.59
581.648	18710.19
582.008	18870.86
582.368	18861.37
582.728	19020.01
583.089	19125.77
583.449	19085.09
583.809	19233.11
584.169	19311.07
584.529	19372.77
584.889	19697.5
585.249	19557.17
585.609	19661.12
585.969	19810.27
586.329	19752.19
586.688	19876.71
587.048	19897.05
587.408	20003.03
587.768	20013.88
588.127	20038.51
588.487	20121.22
588.846	20343.59
589.206	20293.42
589.565	20306.75
589.925	20440.99
590.284	20423.59
590.643	20564.83
591.003	20678.5
591.362	20838.94
591.721	20796.23
592.08	20878.72
592.44	20963.46
592.799	20911.03
593.158	21076.45
593.517	21125.94
593.876	21160.07
594.235	21188.99
594.593	21260.63
594.952	21358.7
595.311	21358.7
595.67	21517.57
596.029	21668.3
596.387	21678.47
596.746	21699.26
597.104	21664.23
597.463	21818.13
597.822	21883.21
598.18	21831.01
598.538	21831.46
598.897	22127.27
599.255	22013.6
599.613	22354.38
599.972	22244.56
600.33	22318.45
600.688	22368.85
601.046	22524.1
601.404	22591.89
601.762	22557.32
602.12	22778.78
602.478	22868.72
602.836	22835.95
603.194	22780.81
603.552	22873.92
603.91	22833.92
604.268	23016.29
604.625	23119.56
604.983	23185.55
605.341	23153.01
605.698	23367.24
606.056	23470.29
606.413	23395.94
606.771	23519.1
607.128	23600
607.485	23466.67
607.843	23630.51
608.2	23835.25
608.557	23941.69
608.914	23898.07
609.272	24037.96
609.629	24168.12
609.986	24207.22
610.343	24124.96
610.7	24413.31
611.057	24417.83
611.414	24478.4
611.771	24492.41
612.127	24616.92
612.484	24694.44
612.841	24747.09
613.198	24829.57
613.554	24793.64
613.911	24919.74
614.267	25003.58
614.624	24989.34
614.98	25160.19
615.337	25232.27
615.693	25154.54
616.05	25295.55
616.406	25406.51
616.762	25394.3
617.118	25394.98
617.475	25546.16
617.831	25667.29
618.187	25663.9
618.543	25720.4
618.899	25905.03
619.255	25933.5
619.611	25849.43
619.967	25992.03
620.323	26107.05
620.678	26083.33
621.034	26109.54
621.39	26101.4
621.746	26084.46
622.101	26517.89
622.457	26312.25
622.812	26373.26
623.168	26436.08
623.523	26349.99
623.879	26542.07
624.234	26415.97
624.589	26456.65
624.945	26598.34
625.3	26658.9
625.655	26665.68
626.01	26664.33
626.365	26718.34
626.72	26733.03
627.075	26761.73
627.43	26740.03
627.785	26777.54
628.14	26827.03
628.495	26992.23
628.85	26861.38
629.205	26856.64
629.559	27001.72
629.914	26998.56
630.269	26976.86
630.623	27017.76
630.978	27048.95
631.332	27127.82
631.687	27246.68
632.041	27069.06
632.396	27195.39
632.75	27201.94
633.104	27261.15
633.459	27060.93
633.813	27155.16
634.167	27163.07
634.521	27099.57
634.875	27186.12
635.229	27134.82
635.583	27019.8
635.937	27105.22
636.291	27096.41
636.645	27186.57
636.999	27297.3
637.352	27137.99
637.706	27085.78
638.06	27329.62
638.413	27195.16
638.767	27168.95
639.121	27273.12
639.474	27186.57
639.828	27225.89
640.181	27295.05
640.534	27377.98
640.888	27292.56
641.241	27221.83
641.594	27184.77
641.947	27212.11
642.301	27237.65
642.654	27349.28
643.007	27283.75
643.36	27224.54
643.713	27303.86
644.066	27432.22
644.419	27266.8
644.771	27177.76
645.124	26812.12
645.477	26804.44
645.83	26494.61
646.182	26461.62
646.535	26499.36
646.888	26614.61
647.24	26494.39
647.593	26743.87
647.945	26648.73
648.298	26616.64
648.65	26639.7
649.002	26444.67
649.355	26608.96
649.707	26566.7
650.059	26593.37
650.411	27025.45
650.763	26998.1
651.115	27394.7
651.467	27256.18
651.819	27181.6
652.171	27169.4
652.523	27264.99
652.875	27304.76
653.227	27124.43
653.578	27390.41
653.93	27284.65
654.282	27115.84
654.633	27220.47
654.985	27279.68
655.337	27295.27
655.688	27276.97
656.039	27462.72
656.391	27171.66
656.742	27310.41
657.094	27420.01
657.445	27536.39
657.796	27547.02
658.147	27390.41
658.498	27284.2
658.849	27306.57
659.2	27379.56
659.551	27256.4
659.902	27388.15
660.253	27293.24
660.604	27541.82
660.955	27366.46
661.306	27437.87
661.656	27374.59
662.007	27500.01
662.358	27551.54
662.708	27513.12
663.059	27539.78
663.409	27484.64
663.76	27750.4
664.11	27666.11
664.461	27758.08
664.811	27635.83
665.161	27654.13
665.511	27619.56
665.862	27682.83
666.212	27708.82
666.562	27705.2
666.912	27652.32
667.262	27737.07
667.612	27734.81
667.962	27899.55
668.312	27737.52
668.662	27890.96
669.011	27848.48
669.361	27862.49
669.711	27990.17
670.06	27894.35
670.41	27726.67
670.76	27681.25
671.109	28000.34
671.459	27813.22
671.808	27747.01
672.157	27840.79
672.507	27740.23
672.856	27723.06
673.205	27798.08
673.554	27972.32
673.904	27845.77
674.253	28016.38
674.602	27917.4
674.951	27591.53
675.3	27505.66
675.649	28003.05
675.998	27989.04
676.346	28028.59
676.695	27983.61
677.044	27842.83
677.393	27916.05
677.741	27989.26
678.09	27881.7
678.438	27957.17
678.787	28066.1
679.135	27951.75
679.484	27780.46
679.832	27918.53
680.181	27888.93
680.529	27982.71
680.877	27794.92
681.225	27854.13
681.573	27987
681.922	27777.97
682.27	27825.2
682.618	27836.5
682.966	27782.94
683.314	27749.72
683.661	27668.82
684.009	27718.31
684.357	27536.62
684.705	27599.67
685.053	27522.16
685.4	27669.72
685.748	27556.06
686.095	27612.55
686.443	27484.19
686.79	27439.9
687.138	27448.94
687.485	27548.15
687.832	27403.74
688.18	27464.53
688.527	27369.62
688.874	27304.31
689.221	27280.13
689.568	27135.95
689.915	27306.12
690.262	27350.41
690.609	27278.1
690.956	27050.31
691.303	27001.04
691.65	26844.21
691.997	26944.32
692.344	26856.41
692.69	26928.73
693.037	26817.32
693.383	26594.95
693.73	26718.11
694.077	26596.76
694.423	26590.66
694.769	26541.39
695.116	26567.38
695.462	26566.25
695.808	26361.28
696.155	26518.79
696.501	26234.51
696.847	26305.47
697.193	26142.31
697.539	26346.6
697.885	26104.57
698.231	26086.04
698.577	25990.45
698.923	25903.67
699.269	25946.15
699.614	25844.24
699.96	25911.8
700.306	25933.95
700.651	25839.94
700.997	25769.66
701.342	25723.79
701.688	25715.65
702.033	25578.48
702.379	25570.12
702.724	25526.28
703.069	25718.82
703.415	25283.35
703.76	25383.23
704.105	25438.6
704.45	25318.6
704.795	25212.16
705.14	25160.19
705.485	25237.25
705.83	25199.28
706.175	25117.25
706.52	25145.05
706.865	25008.55
707.209	24981.43
707.554	24916.12
707.899	24875
708.243	24890.59
708.588	24811.49
708.932	24661.67
709.277	24645.85
709.621	24848.33
709.966	24689.69
710.31	24742.12
710.654	24420.54
710.998	24602.23
711.342	24598.62
711.687	24533.76
712.031	24468.68
712.375	24300.77
712.719	24421.22
713.063	24272.53
713.407	24349.13
713.75	24303.71
714.094	24286.08
714.438	24219.65
714.782	24275.01
715.125	24244.28
715.469	24168.8
715.812	23951.63
716.156	23992.98
716.499	23875.25
716.843	23924.74
717.186	23855.14
717.53	23996.37
717.873	23929.03
718.216	23956.83
718.559	23879.09
718.902	23715.03
719.246	23834.8
719.589	23751.18
719.932	23720.68
720.275	23734.69
720.617	23802.48
720.96	23763.16
721.303	23785.31
721.646	23833.22
721.989	23593
722.331	23660.79
722.674	23570.4
723.016	23708.25
723.359	23470.51
723.701	23583.28
724.044	23359.33
724.386	23334.92
724.729	23529.04
725.071	23415.6
725.413	23434.81
725.755	23392.55
726.097	23401.81
726.439	23233.23
726.782	23331.99
727.124	23377.18
727.465	23242.27
727.807	23251.31
728.149	23213.34
728.491	23290.4
728.833	23291.31
729.175	23256.51
729.516	23123.4
729.858	23214.7
730.199	23223.74
730.541	23169.73
730.882	23041.37
731.224	23258.09
731.565	23129.5
731.906	23110.97
732.248	23142.16
732.589	23048.83
732.93	22971.77
733.271	23001.6
733.612	23113.46
733.953	23098.32
734.294	23050.41
734.635	23034.37
734.976	22958.21
735.317	22879.34
735.658	22903.3
735.999	22900.13
736.339	22762.73
736.68	22840.47
737.021	22797.08
737.361	22625.34
737.702	22812.45
738.042	22764.54
738.383	22671.89
738.723	22744.88
739.063	22691.1
739.404	22769.29
739.744	22741.04
740.084	22572.91
740.424	22721.83
740.764	22663.53
741.104	22713.24
741.444	22698.33
741.784	22640.48
742.124	22691.1
742.464	22672.57
742.804	22562.51
743.143	22568.62
743.483	22560.71
743.823	22521.16
744.162	22331.33
744.502	22458.34
744.841	22360.71
745.181	22427.15
745.52	22325.91
745.86	22375.63
746.199	22370.88
746.538	22269.19
746.877	22354.61
747.216	22271.45
747.556	22196.87
747.895	22306.48
748.234	22321.62
748.573	22301.28
748.911	22110.77
749.25	22226.03
749.589	22090.44
749.928	22132.47
750.267	22071.23
750.605	21974.28
750.944	21997.11
751.283	21921.63
751.621	21901.06
751.96	21798.24
752.298	21826.94
752.636	21922.3
752.975	21847.73
753.313	21718.92
753.651	21832.59
753.989	21780.16
754.327	21650.45
754.666	21511.92
755.004	21632.14
755.342	21672.14
755.679	21657
756.017	21514.63
756.355	21694.51
756.693	21591.69
757.031	21566.83
757.368	21296.78
757.706	21381.98
758.044	21326.16
758.381	21410.91
758.719	21253.4
759.056	21256.56
759.394	21128.65
