Data from copper_heatsink_FLMS001491_063.txt Node
Date: Tue Feb 07 10:50:21 GMT 2017
User: dcchb
Spectrometer: FLMS00149
Trigger mode: 0
Integration Time (sec): 2.000000E-2
Scans to average: 10
Electric dark correction enabled: true
Nonlinearity correction enabled: false
Boxcar width: 0
XAxis mode: Wavelengths
Number of Pixels in Spectrum: 2048
>>>>>Begin Spectral Data<<<<<
341.393	-19.04
341.776	-19.04
342.16	-19.04
342.543	-63.56
342.927	-40.28
343.31	-60.17
343.693	-80.05
344.077	-61.52
344.46	-57
344.843	-43.22
345.226	-28.3
345.61	-41.86
345.993	-16.55
346.376	-4.12
346.759	18.93
347.142	14.63
347.525	36.33
347.908	50.79
348.291	78.59
348.674	78.59
349.057	114.97
349.44	137.57
349.823	136.89
350.206	154.29
350.588	180.96
350.971	193.84
351.354	216.43
351.737	224.34
352.119	251.69
352.502	253.27
352.884	261.41
353.267	272.03
353.65	295.53
354.032	321.29
354.414	299.37
354.797	308.18
355.179	341.18
355.562	315.19
355.944	326.71
356.326	326.71
356.709	331.69
357.091	347.5
357.473	358.13
357.855	331.23
358.238	345.47
358.62	355.41
359.002	350.44
359.384	354.96
359.766	350.67
360.148	352.7
360.53	312.03
360.912	346.6
361.294	320.16
361.676	326.04
362.057	314.51
362.439	316.32
362.821	326.71
363.203	329.2
363.584	326.04
363.966	345.02
364.348	341.86
364.729	322.42
365.111	321.29
365.493	324.68
365.874	319.03
366.256	339.6
366.637	311.8
367.019	316.09
367.4	306.38
367.781	309.31
368.163	314.96
368.544	317
368.925	302.08
369.306	351.8
369.688	319.71
370.069	349.54
370.45	319.26
370.831	319.94
371.212	309.99
371.593	315.42
371.974	302.76
372.355	316.77
372.736	326.94
373.117	333.27
373.498	312.25
373.879	324.68
374.26	300.5
374.641	318.58
375.021	299.6
375.402	319.03
375.783	317.68
376.163	322.65
376.544	326.26
376.925	313.61
377.305	338.69
377.686	309.09
378.066	328.3
378.447	329.2
378.827	359.93
379.208	329.43
379.588	326.71
379.968	338.01
380.349	335.08
380.729	337.34
381.109	342.53
381.489	314.06
381.87	350.89
382.25	330.56
382.63	338.01
383.01	333.72
383.39	337.11
383.77	333.72
384.15	344.12
384.53	340.5
384.91	339.14
385.29	345.02
385.67	338.92
386.049	362.65
386.429	351.12
386.809	342.31
387.189	357.45
387.568	358.35
387.948	329.88
388.328	334.85
388.707	355.19
389.087	370.1
389.466	360.84
389.846	360.61
390.225	376.66
390.605	375.53
390.984	368.07
391.363	364.91
391.743	364.68
392.122	361.52
392.501	367.62
392.881	361.52
393.26	372.14
393.639	354.96
394.018	381.4
394.397	349.54
394.776	373.72
395.155	352.93
395.534	361.52
395.913	376.2
396.292	391.35
396.671	373.04
397.05	394.74
397.429	382.08
397.808	385.92
398.186	379.82
398.565	389.09
398.944	385.02
399.323	381.4
399.701	395.64
400.08	382.08
400.458	391.35
400.837	400.16
401.215	397
401.594	410.33
401.972	404.68
402.351	398.35
402.729	412.36
403.107	420.27
403.486	383.89
403.864	391.8
404.242	410.33
404.62	414.17
404.999	414.4
405.377	386.15
405.755	405.36
406.133	406.71
406.511	407.84
406.889	408.97
407.267	415.07
407.645	441.97
408.023	414.85
408.401	431.12
408.779	425.02
409.156	435.86
409.534	439.93
409.912	445.36
410.29	429.54
410.667	444.9
411.045	446.03
411.422	455.98
411.8	444.45
412.178	445.13
412.555	421.4
412.933	439.93
413.31	459.37
413.687	453.26
414.065	456.88
414.442	452.14
414.819	457.56
415.197	455.3
415.574	446.94
415.951	464.11
416.328	462.53
416.705	457.33
417.082	475.41
417.46	465.02
417.837	462.76
418.214	454.85
418.591	470.21
418.967	467.95
419.344	471.34
419.721	474.51
420.098	481.51
420.475	485.13
420.852	501.17
421.228	505.01
421.605	499.37
421.982	519.25
422.358	493.94
422.735	492.36
423.111	491.23
423.488	513.83
423.864	480.83
424.241	507.95
424.617	503.21
424.994	522.19
425.37	505.01
425.746	509.31
426.123	521.74
426.499	530.55
426.875	520.16
427.251	537.33
427.627	540.95
428.003	550.89
428.379	527.16
428.756	519.25
429.132	552.47
429.507	541.17
429.883	550.44
430.259	553.83
430.635	568.06
431.011	559.48
431.387	569.65
431.763	581.4
432.138	584.33
432.514	593.6
432.89	589.31
433.265	578.01
433.641	580.72
434.016	592.02
434.392	585.01
434.767	572.58
435.143	609.42
435.518	598.8
435.894	601.74
436.269	611.23
436.644	625.01
437.02	594.05
437.395	596.09
437.77	600.83
438.145	645.12
438.52	622.53
438.895	604.67
439.271	665.91
439.646	681.73
440.021	654.84
440.395	662.3
440.77	661.4
441.145	648.06
441.52	673.6
441.895	651.68
442.27	645.58
442.645	653.49
443.019	682.19
443.394	656.2
443.769	666.59
444.143	643.99
444.518	689.87
444.892	683.09
445.267	685.8
445.641	669.3
446.016	696.87
446.39	692.13
446.764	701.85
447.139	704.11
447.513	721.05
447.887	696.65
448.262	710.66
448.636	714.28
449.01	705.24
449.384	717.44
449.758	726.93
450.132	734.84
450.506	721.28
450.88	722.18
451.254	727.16
451.628	761.51
452.002	755.4
452.376	775.52
452.75	766.48
453.123	726.7
453.497	772.8
453.871	754.27
454.244	781.84
454.618	799.24
454.992	790.66
455.365	776.65
455.739	813.26
456.112	814.39
456.486	796.76
456.859	817.78
457.232	829.53
457.606	826.36
457.979	826.36
458.352	853.71
458.725	865.46
459.099	856.87
459.472	861.62
459.845	875.17
460.218	883.08
460.591	895.06
460.964	899.58
461.337	910.65
461.71	907.26
462.083	927.6
462.456	909.98
462.829	932.35
463.201	918.79
463.574	918.79
463.947	947.94
464.32	965.79
464.692	958.56
465.065	970.99
465.438	985.23
465.81	1006.47
466.183	1024.32
466.555	1010.54
466.928	1028.17
467.3	1034.94
467.672	1043.98
468.045	1061.61
468.417	1088.95
468.789	1083.98
469.161	1098.45
469.534	1090.31
469.906	1128.28
470.278	1163.08
470.65	1128.5
471.022	1173.7
471.394	1163.3
471.766	1167.37
472.138	1180.03
472.51	1210.99
472.882	1232.23
473.253	1265.22
473.625	1234.49
473.997	1264.77
474.369	1281.94
474.74	1295.95
475.112	1326.69
475.484	1318.33
475.855	1342.51
476.227	1352
476.598	1356.29
476.97	1375.73
477.341	1420.92
477.713	1436.06
478.084	1429.28
478.455	1471.77
478.827	1490.98
479.198	1506.34
479.569	1515.84
479.94	1555.83
480.311	1554.03
480.682	1583.63
481.053	1634.7
481.424	1655.49
481.795	1653.46
482.166	1666.11
482.537	1686.45
482.908	1746.11
483.279	1752.89
483.65	1759.9
484.021	1772.78
484.391	1839.67
484.762	1817.52
485.133	1833.12
485.503	1823.62
485.874	1910.4
486.244	1941.59
486.615	1987.69
486.985	1991.3
487.356	2030.17
487.726	2038.76
488.097	2068.14
488.467	2070.85
488.837	2124.86
489.207	2155.37
489.578	2154.92
489.948	2186.1
490.318	2201.02
490.688	2196.95
491.058	2286.21
491.428	2297.96
491.798	2306.78
492.168	2377.96
492.538	2349.49
492.908	2351.97
493.278	2413.89
493.648	2431.97
494.017	2448.24
494.387	2480.1
494.757	2501.8
495.126	2512.19
495.496	2518.52
495.866	2555.13
496.235	2565.53
496.605	2608.46
496.974	2575.24
497.344	2647.78
497.713	2666.31
498.082	2638.52
498.452	2681.23
498.821	2718.74
499.19	2703.6
499.559	2743.37
499.928	2782.47
500.298	2807.33
500.667	2801.9
501.036	2825.41
501.405	2849.59
501.774	2869.02
502.143	2871.96
502.512	2917.83
502.88	2922.8
503.249	2932.3
503.618	2979.98
503.987	3008.45
504.356	2986.76
504.724	3053.65
505.093	2996.93
505.462	3073.54
505.83	3069.92
506.199	3106.08
506.567	3116.02
506.936	3144.49
507.304	3206.86
507.672	3230.59
508.041	3193.31
508.409	3200.31
508.777	3270.37
509.145	3282.8
509.514	3292.96
509.882	3286.64
510.25	3332.96
510.618	3358.73
510.986	3354.66
511.354	3435.79
511.722	3469.23
512.09	3513.52
512.458	3450.7
512.826	3510.13
513.193	3562.34
513.561	3570.25
513.929	3577.48
514.297	3612.96
514.664	3658.38
515.032	3684.59
515.4	3677.81
515.767	3718.72
516.135	3726.17
516.502	3748.09
516.869	3802.1
517.237	3807.08
517.604	3812.95
517.972	3877.58
518.339	3862.21
518.706	3865.6
519.073	3907.19
519.44	3927.52
519.808	3984.02
520.175	4005.71
520.542	4054.75
520.909	4109.21
521.276	4131.59
521.643	4119.61
522.009	4143.34
522.376	4235.09
522.743	4224.69
523.11	4256.78
523.477	4282.77
523.843	4303.11
524.21	4385.14
524.577	4428.3
524.943	4447.74
525.31	4425.82
525.676	4514.63
526.043	4589.43
526.409	4584.91
526.776	4620.84
527.142	4642.99
527.508	4700.38
527.874	4696.09
528.241	4735.86
528.607	4761.85
528.973	4775.19
529.339	4794.85
529.705	4904.67
530.071	4898.35
530.437	4941.51
530.803	4943.09
531.169	5008.85
531.535	4975.63
531.901	5033.94
532.267	5032.35
532.632	5105.12
532.998	5150.77
533.364	5094.72
533.73	5181.95
534.095	5212.46
534.461	5289.52
534.826	5303.98
535.192	5337.66
535.557	5356.19
535.923	5332.23
536.288	5379.24
536.653	5474.38
537.019	5421.04
537.384	5475.96
537.749	5527.26
538.114	5554.15
538.479	5542.4
538.845	5615.84
539.21	5591.21
539.575	5593.92
539.94	5638.89
540.305	5701.71
540.67	5753.46
541.034	5752.11
541.399	5829.17
541.764	5797.53
542.129	5860.58
542.494	5903.29
542.858	5861.26
543.223	5895.61
543.587	5979.45
543.952	5979.9
544.316	6029.39
544.681	6074.81
545.045	6075.26
545.41	6129.27
545.774	6141.02
546.138	6174.7
546.503	6234.13
546.867	6239.1
547.231	6296.95
547.595	6368.36
547.959	6341.25
548.324	6406.1
548.688	6437.51
549.052	6460.79
549.416	6512.09
549.779	6562.03
550.143	6583.05
550.507	6678.41
550.871	6685.19
551.235	6665.98
551.599	6771.29
551.962	6803.38
552.326	6827.56
552.689	6837.5
553.053	6893.55
553.417	6980.32
553.78	7105.29
554.143	7076.14
554.507	7057.61
554.87	7155.69
555.234	7255.8
555.597	7257.38
555.96	7401.56
556.323	7392.29
556.686	7446.3
557.05	7571.27
557.413	7574.43
557.776	7641.32
558.139	7690.59
558.502	7760.42
558.865	7854.2
559.228	7936.91
559.59	8006.51
559.953	8057.58
560.316	8159.73
560.679	8193.17
561.041	8284.92
561.404	8357.01
561.767	8406.5
562.129	8433.39
562.492	8589.77
562.854	8601.75
563.217	8643.78
563.579	8715.87
563.941	8796.32
564.304	8968.52
564.666	9044.9
565.028	9129.65
565.39	9158.8
565.753	9310.43
566.115	9443.09
566.477	9507.49
566.839	9610.31
567.201	9613.48
567.563	9693.25
567.925	9814.6
568.287	9923.07
568.648	9915.84
569.01	10068.15
569.372	10175.04
569.734	10124.2
570.095	10305.66
570.457	10372.78
570.819	10479.89
571.18	10485.54
571.542	10642.15
571.903	10698.87
572.265	10833.56
572.626	10924.18
572.987	10933.89
573.349	11027.68
573.71	11148.58
574.071	11218.63
574.432	11318.06
574.794	11414.33
575.155	11494.1
575.516	11492.75
575.877	11609.81
576.238	11724.16
576.599	11859.52
576.96	11893.64
577.32	11859.52
577.681	12115.11
578.042	12091.83
578.403	12119.85
578.763	12244.82
579.124	12311.26
579.485	12429.22
579.845	12534.3
580.206	12607.3
580.566	12569.78
580.927	12621.76
581.287	12730.46
581.648	12751.25
582.008	12821.08
582.368	12852.94
582.728	13002.77
583.089	12980.85
583.449	12982.65
583.809	13067.17
584.169	13091.35
584.529	13189.65
584.889	13363.89
585.249	13319.37
585.609	13311.68
585.969	13435.07
586.329	13499.93
586.688	13537.44
587.048	13600.94
587.408	13628.06
587.768	13656.99
588.127	13685.23
588.487	13647.27
588.846	13822.4
589.206	13761.84
589.565	13921.39
589.925	13935.62
590.284	13849.75
590.643	13994.15
591.003	14051.1
591.362	14114.15
591.721	14125.22
592.08	14227.37
592.44	14278.21
592.799	14295.16
593.158	14332.67
593.517	14365.89
593.876	14396.4
594.235	14356.18
594.593	14476.85
594.952	14535.83
595.311	14530.63
595.67	14626.45
596.029	14709.16
596.387	14669.39
596.746	14817.41
597.104	14775.6
597.463	14766.56
597.822	14942.83
598.18	14880.46
598.538	14970.62
598.897	15068.47
599.255	14929.04
599.613	15148.7
599.972	15041.58
600.33	15159.09
600.688	15228.7
601.046	15312.31
601.404	15373.78
601.762	15267.56
602.12	15463.72
602.478	15491.06
602.836	15505.07
603.194	15429.37
603.552	15467.33
603.91	15432.31
604.268	15569.93
604.625	15613.54
604.983	15752.98
605.341	15654.45
605.698	15835.46
606.056	15881.33
606.413	15957.94
606.771	16009.69
607.128	16019.41
607.485	15954.55
607.843	16101.22
608.2	16118.16
608.557	16165.62
608.914	16162
609.272	16246.52
609.629	16375.33
609.986	16447.19
610.343	16366.52
610.7	16601.09
611.057	16552.05
611.414	16554.99
611.771	16611.71
612.127	16643.35
612.484	16675.66
612.841	16724.93
613.198	16717.92
613.554	16759.05
613.911	16862.1
614.267	16843.79
614.624	16901.19
614.98	16909.33
615.337	17043.11
615.693	17108.65
616.05	17152.49
616.406	17199.27
616.762	17139.38
617.118	17227.29
617.475	17229.1
617.831	17278.81
618.187	17274.97
618.543	17307.96
618.899	17511.12
619.255	17442.42
619.611	17522.65
619.967	17572.59
620.323	17615.53
620.678	17505.02
621.034	17618.24
621.39	17687.61
621.746	17685.35
622.101	17771.68
622.457	17802.87
622.812	17764
623.168	17854.16
623.523	17903.88
623.879	17882.19
624.234	17780.72
624.589	17973.48
624.945	17883.32
625.3	18013.26
625.655	18013.93
626.01	17976.42
626.365	18035.63
626.72	17959.47
627.075	17989.53
627.43	18028.17
627.785	18010.54
628.14	18149.3
628.495	18123.08
628.85	18102.74
629.205	18192.01
629.559	18203.98
629.914	18151.33
630.269	18227.94
630.623	18137.55
630.978	18247.6
631.332	18314.49
631.687	18410.31
632.041	18302.29
632.396	18383.41
632.75	18287.82
633.104	18432.91
633.459	18260.71
633.813	18297.09
634.167	18253.02
634.521	18324.89
634.875	18321.95
635.229	18259.35
635.583	18293.47
635.937	18280.59
636.291	18348.16
636.645	18262.74
636.999	18264.32
637.352	18367.14
637.706	18322.17
638.06	18398.56
638.413	18362.62
638.767	18320.59
639.121	18399.01
639.474	18308.16
639.828	18300.25
640.181	18355.62
640.534	18427.26
640.888	18393.36
641.241	18258.9
641.594	18296.86
641.947	18417.76
642.301	18282.17
642.654	18401.04
643.007	18334.15
643.36	18366.47
643.713	18417.99
644.066	18500.25
644.419	18426.35
644.771	18220.71
645.124	17959.02
645.477	17863.88
645.83	17786.37
646.182	17819.36
646.535	17905.46
646.888	17993.37
647.24	17899.13
647.593	18065.23
647.945	18024.55
648.298	17952.01
648.65	17944.1
649.002	17913.37
649.355	17878.8
649.707	17805.35
650.059	17877.89
650.411	18117.43
650.763	18147.49
651.115	18432.45
651.467	18386.8
651.819	18384.09
652.171	18395.84
652.523	18344.32
652.875	18342.06
653.227	18256.19
653.578	18439.01
653.93	18363.08
654.282	18289.41
654.633	18274.94
654.985	18338.9
655.337	18344.77
655.688	18389.29
656.039	18403.75
656.391	18282.17
656.742	18349.97
657.094	18391.55
657.445	18472.9
657.796	18427.03
658.147	18410.53
658.498	18399.23
658.849	18389.29
659.2	18448.95
659.551	18265.68
659.902	18412.79
660.253	18351.78
660.604	18444.88
660.955	18399.69
661.306	18409.4
661.656	18438.33
662.007	18465.9
662.358	18531.21
662.708	18522.85
663.059	18541.38
663.409	18438.1
663.76	18613.24
664.11	18537.31
664.461	18637.42
664.811	18621.6
665.161	18523.52
665.511	18545.44
665.862	18623.41
666.212	18720.13
666.562	18662.96
666.912	18656.4
667.262	18577.08
667.612	18638.78
667.962	18664.99
668.312	18647.59
668.662	18718.32
669.011	18782.73
669.361	18654.82
669.711	18703.63
670.06	18809.84
670.41	18616.18
670.76	18641.49
671.109	18765.33
671.459	18723.74
671.808	18769.39
672.157	18711.99
672.507	18645.78
672.856	18632.22
673.205	18749.28
673.554	18705.67
673.904	18746.8
674.253	18802.84
674.602	18712.9
674.951	18479.46
675.3	18462.73
675.649	18771.2
675.998	18848.49
676.346	18873.8
676.695	18898.43
677.044	18667.25
677.393	18789.96
677.741	18891.42
678.09	18803.97
678.438	18802.16
678.787	18840.13
679.135	18917.19
679.484	18846.68
679.832	18828.6
680.181	18800.35
680.529	18766.46
680.877	18697.76
681.225	18792.22
681.573	18838.32
681.922	18651.2
682.27	18737.76
682.618	18799
682.966	18751.99
683.314	18750.41
683.661	18624.54
684.009	18601.94
684.357	18551.32
684.705	18579.57
685.053	18664.76
685.4	18667.93
685.748	18537.76
686.095	18530.76
686.443	18474.94
686.79	18491.21
687.138	18539.12
687.485	18540.02
687.832	18524.65
688.18	18496.63
688.527	18439.23
688.874	18437.65
689.221	18414.15
689.568	18364.43
689.915	18502.06
690.262	18333.7
690.609	18383.41
690.956	18263.64
691.303	18171.9
691.65	18126.25
691.997	18247.15
692.344	18175.28
692.69	18170.09
693.037	18135.74
693.383	18000.83
693.73	18078.56
694.077	17958.12
694.423	18128.05
694.769	17938
695.116	17944.56
695.462	17852.36
695.808	17773.26
696.155	17935.52
696.501	17814.62
696.847	17831.34
697.193	17749.53
697.539	17881.96
697.885	17677.9
698.231	17652.13
698.577	17750.89
698.923	17660.27
699.269	17544.11
699.614	17469.31
699.96	17491.91
700.306	17591.12
700.651	17457.11
700.997	17418.47
701.342	17405.14
701.688	17394.51
702.033	17248.76
702.379	17385.93
702.724	17279.72
703.069	17399.03
703.415	17178.25
703.76	17184.35
704.105	17161.53
704.45	17199.04
704.795	17064.81
705.14	17046.5
705.485	17059.83
705.83	17025.48
706.175	17009.89
706.52	16960.18
706.865	16916.79
707.209	16847.64
707.554	16886.28
707.899	16942.55
708.243	16811.93
708.588	16848.31
708.932	16639.05
709.277	16658.94
709.621	16679.28
709.966	16666.62
710.31	16735.1
710.654	16551.82
710.998	16658.94
711.342	16727.87
711.687	16544.14
712.031	16558.83
712.375	16438.38
712.719	16506.63
713.063	16513.18
713.407	16504.14
713.75	16472.05
714.094	16478.15
714.438	16369.68
714.782	16423.24
715.125	16383.69
715.469	16374.43
715.812	16280.87
716.156	16202.68
716.499	16293.3
716.843	16323.58
717.186	16222.12
717.53	16284.49
717.873	16171.72
718.216	16184.6
718.559	16093.76
718.902	16084.27
719.246	16170.59
719.589	16145.96
719.932	16157.26
720.275	16093.31
720.617	16049.92
720.96	16080.42
721.303	16093.98
721.646	16195.68
721.989	15968.34
722.331	16049.01
722.674	15916.59
723.016	15987.32
723.359	15972.18
723.701	15955.23
724.044	15907.77
724.386	15777.16
724.729	15913.42
725.071	15822.8
725.413	15856.93
725.755	15779.19
726.097	15861.45
726.439	15742.81
726.782	15774.67
727.124	15859.87
727.465	15760.89
727.807	15817.61
728.149	15827.32
728.491	15782.81
728.833	15836.82
729.175	15783.94
729.516	15695.12
729.858	15750.49
730.199	15736.93
730.541	15768.79
730.882	15776.48
731.224	15807.44
731.565	15633.66
731.906	15683.6
732.248	15733.32
732.589	15672.53
732.93	15557.95
733.271	15668.46
733.612	15699.87
733.953	15658.29
734.294	15528.8
734.635	15604.96
734.976	15637.27
735.317	15607.89
735.658	15575.81
735.999	15602.25
736.339	15551.17
736.68	15553.66
737.021	15512.08
737.361	15405.87
737.702	15520.21
738.042	15498.52
738.383	15374.45
738.723	15451.97
739.063	15516.15
739.404	15479.31
739.744	15445.64
740.084	15385.08
740.424	15504.85
740.764	15478.41
741.104	15426.43
741.444	15317.73
741.784	15348.01
742.124	15415.36
742.464	15412.87
742.804	15381.91
743.143	15388.47
743.483	15331.07
743.823	15279.09
744.162	15275.7
744.502	15358.64
744.841	15234.8
745.181	15299.65
745.52	15286.1
745.86	15219.88
746.199	15147.34
746.538	15186.21
746.877	15185.76
747.216	15188.47
747.556	15165.87
747.895	15174.23
748.234	15146.21
748.573	15145.31
748.911	15013.11
749.25	15083.84
749.589	15083.39
749.928	15099.21
750.267	15037.06
750.605	15080.22
750.944	15031.64
751.283	14923.84
751.621	14975.82
751.96	14815.15
752.298	14805.66
752.636	14864.86
752.975	14856.05
753.313	14787.58
753.651	14908.7
753.989	14825.54
754.327	14823.06
754.666	14804.75
755.004	14799.33
755.342	14795.49
755.679	14729.05
756.017	14717.75
756.355	14765.2
756.693	14698.09
757.031	14715.26
757.368	14654.02
757.706	14606.57
758.044	14653.34
758.381	14617.41
758.719	14550.07
759.056	14537.64
759.394	14402.95
759.731	14492.22
760.068	14346.68
760.405	14391.88
