Data from copper_heatsink_FLMS001491_031.txt Node
Date: Tue Feb 07 10:49:49 GMT 2017
User: dcchb
Spectrometer: FLMS00149
Trigger mode: 0
Integration Time (sec): 2.000000E-2
Scans to average: 10
Electric dark correction enabled: true
Nonlinearity correction enabled: false
Boxcar width: 0
XAxis mode: Wavelengths
Number of Pixels in Spectrum: 2048
>>>>>Begin Spectral Data<<<<<
341.393	19.39
341.776	19.39
342.16	19.39
342.543	-71.68
342.927	-108.29
343.31	-58.57
343.693	-72.13
344.077	-50.89
344.46	-64
344.843	-45.69
345.226	-63.32
345.61	-39.36
345.993	-12.47
346.376	1.09
346.759	7.19
347.142	25.95
347.525	54.65
347.908	66.85
348.291	69.56
348.674	70.69
349.057	110.46
349.44	116.79
349.823	135.32
350.206	170.12
350.588	192.49
350.971	206.05
351.354	229.33
351.737	246.28
352.119	257.35
352.502	270.46
352.884	278.59
353.267	280.63
353.65	310.46
354.032	305.94
354.414	300.51
354.797	313.62
355.179	345.03
355.562	324.69
355.944	350.23
356.326	336.45
356.709	334.86
357.091	375.09
357.473	337.58
357.855	360.17
358.238	345.94
358.62	335.99
359.002	339.84
359.384	341.64
359.766	346.39
360.148	353.17
360.53	361.53
360.912	332.83
361.294	347.52
361.676	347.52
362.057	325.82
362.439	358.37
362.821	362.66
363.203	323.79
363.584	349.33
363.966	337.12
364.348	325.15
364.729	328.76
365.111	343.45
365.493	344.13
365.874	342.1
366.256	329.67
366.637	327.63
367.019	320.4
367.4	323.34
367.781	342.55
368.163	331.02
368.544	325.37
368.925	332.83
369.306	337.35
369.688	337.12
370.069	334.64
370.45	325.37
370.831	334.19
371.212	333.06
371.593	348.88
371.974	344.58
372.355	323.11
372.736	321.08
373.117	319.05
373.498	345.49
373.879	326.05
374.26	332.15
374.641	327.18
375.021	340.29
375.402	344.58
375.783	329.21
376.163	360.4
376.544	344.36
376.925	354.3
377.305	342.55
377.686	336.45
378.066	351.81
378.447	361.3
378.827	352.04
379.208	342.1
379.588	372.83
379.968	356.33
380.349	372.15
380.729	354.52
381.109	378.7
381.489	359.72
381.87	380.51
382.25	385.26
382.63	350
383.01	366.5
383.39	347.52
383.77	363.34
384.15	384.13
384.53	387.74
384.91	372.83
385.29	379.61
385.67	383.68
386.049	367.41
386.429	398.59
386.809	361.98
387.189	385.94
387.568	361.53
387.948	390.46
388.328	390
388.707	400.85
389.087	404.92
389.466	404.47
389.846	380.06
390.225	414.86
390.605	387.29
390.984	394.98
391.363	402.43
391.743	405.82
392.122	371.47
392.501	405.6
392.881	413.28
393.26	429.55
393.639	415.54
394.018	416.9
394.397	406.05
394.776	412.83
395.155	427.74
395.534	431.81
395.913	431.81
396.292	429.1
396.671	427.74
397.05	440.85
397.429	430.45
397.808	439.04
398.186	443.11
398.565	448.99
398.944	455.31
399.323	463
399.701	465.48
400.08	432.71
400.458	430.91
400.837	440.4
401.215	483.11
401.594	464.58
401.972	471.13
402.351	442.21
402.729	444.92
403.107	454.41
403.486	470.68
403.864	478.82
404.242	475.65
404.62	463.9
404.999	488.76
405.377	485.59
405.755	480.17
406.133	508.19
406.511	489.21
406.889	500.96
407.267	513.16
407.645	516.78
408.023	510.23
408.401	500.06
408.779	501.87
409.156	516.55
409.534	501.19
409.912	517.01
410.29	508.19
410.667	535.54
411.045	523.79
411.422	533.95
411.8	523.11
412.178	543.9
412.555	539.83
412.933	564.69
413.31	542.09
413.687	580.51
414.065	571.92
414.442	555.2
414.819	572.82
415.197	573.28
415.574	551.58
415.951	575.99
416.328	586.16
416.705	597.23
417.082	612.14
417.46	586.83
417.837	596.1
418.214	602.88
418.591	592.03
418.967	604.91
419.344	614.86
419.721	593.61
420.098	619.6
420.475	625.93
420.852	632.94
421.228	645.14
421.605	620.28
421.982	656.44
422.358	628.42
422.735	655.08
423.111	636.1
423.488	666.83
423.864	658.7
424.241	672.71
424.617	658.47
424.994	659.6
425.37	665.02
425.746	674.74
426.123	671.13
426.499	692.37
426.875	693.27
427.251	708.19
427.627	704.57
428.003	724.01
428.379	727.62
428.756	719.94
429.132	720.16
429.507	745.7
429.883	734.4
430.259	754.06
430.635	768.98
431.011	777.56
431.387	787.51
431.763	790.67
432.138	789.77
432.514	775.3
432.89	794.06
433.265	773.04
433.641	807.85
434.016	811.01
434.392	823.89
434.767	831.12
435.143	827.73
435.518	834.06
435.894	864.79
436.269	880.61
436.644	879.26
437.02	885.58
437.395	876.77
437.77	907.73
438.145	887.39
438.52	886.94
438.895	903.89
439.271	937.79
439.646	921.74
440.021	935.3
440.395	948.41
440.77	965.13
441.145	946.83
441.52	977.33
441.895	949.76
442.27	954.51
442.645	965.36
443.019	987.05
443.394	991.8
443.769	994.28
444.143	973.04
444.518	986.82
444.892	963.77
445.267	1002.19
445.641	1004.23
446.016	1020.72
446.39	1013.49
446.764	1038.57
447.139	1030.89
447.513	1044.45
447.887	1058.69
448.262	1038.12
448.636	1041.74
449.01	1060.04
449.384	1073.38
449.758	1086.71
450.132	1086.71
450.506	1099.36
450.88	1100.95
451.254	1109.08
451.628	1113.15
452.002	1107.5
452.376	1128.74
452.75	1130.55
453.123	1162.86
453.497	1165.58
453.871	1165.12
454.244	1192.47
454.618	1199.7
454.992	1203.32
455.365	1230.66
455.739	1238.34
456.112	1254.16
456.486	1264.33
456.859	1263.88
457.232	1287.83
457.606	1267.49
457.979	1290.77
458.352	1321.73
458.725	1323.76
459.099	1355.85
459.472	1366.7
459.845	1372.58
460.218	1360.37
460.591	1398.34
460.964	1407.38
461.337	1465.23
461.71	1454.38
462.083	1475.17
462.456	1463.87
462.829	1475.17
463.201	1486.02
463.574	1512.23
463.947	1551.1
464.32	1557.43
464.692	1533.48
465.065	1571.44
465.438	1622.06
465.81	1652.12
466.183	1650.99
466.555	1666.13
466.928	1678.11
467.3	1677.88
467.672	1699.8
468.045	1744.77
468.417	1764.21
468.789	1763.3
469.161	1750.19
469.534	1813.02
469.906	1831.55
470.278	1844.2
470.65	1880.36
471.022	1906.12
471.394	1930.08
471.766	2015.05
472.138	1983.41
472.51	2037.64
472.882	2052.11
473.253	2042.62
473.625	2074.71
473.997	2160.35
474.369	2148.83
474.74	2192.44
475.112	2212.78
475.484	2262.95
475.855	2332.55
476.227	2325.32
476.598	2387.47
476.97	2411.19
477.341	2453
477.713	2464.3
478.084	2499.1
478.455	2585.43
478.827	2570.51
479.198	2644.63
479.569	2660.9
479.94	2731.41
480.311	2756.72
480.682	2829.49
481.053	2856.15
481.424	2914.91
481.795	2976.38
482.166	2995.13
482.537	3022.03
482.908	3093.66
483.279	3153.1
483.65	3206.65
484.021	3260.21
484.391	3289.59
484.762	3324.16
485.133	3334.33
485.503	3400.55
485.874	3489.36
486.244	3515.8
486.615	3574.78
486.985	3637.6
487.356	3711.27
487.726	3734.77
488.097	3782.68
488.467	3824.26
488.837	3892.96
489.207	3974.32
489.578	4009.57
489.948	4082.79
490.318	4120.08
490.688	4142
491.058	4209.11
491.428	4285.95
491.798	4301.77
492.168	4387.19
492.538	4478.26
492.908	4499.95
493.278	4580.4
493.648	4585.6
494.017	4632.6
494.387	4735.2
494.757	4777.69
495.126	4825.82
495.496	4859.94
495.866	4886.83
496.235	4891.81
496.605	4999.83
496.974	5066.27
497.344	5085.25
497.713	5134.06
498.082	5142.2
498.452	5259.03
498.821	5223.1
499.19	5290.21
499.559	5297.22
499.928	5392.36
500.298	5414.73
500.667	5514.84
501.036	5546.93
501.405	5543.77
501.774	5596.19
502.143	5699.24
502.512	5737.66
502.88	5759.13
503.249	5756.19
503.618	5819.24
503.987	5871.44
504.356	5913.7
504.724	6014.26
505.093	6021.72
505.462	6089.97
505.83	6127.48
506.199	6180.36
506.567	6281.37
506.936	6259.45
507.304	6336.06
507.672	6382.61
508.041	6508.71
508.409	6530.41
508.777	6584.19
509.145	6664.42
509.514	6675.94
509.882	6676.17
510.25	6769.72
510.618	6836.16
510.986	6863.51
511.354	6994.35
511.722	7043.39
512.09	7110.28
512.458	7071.41
512.826	7165.42
513.193	7232.31
513.561	7333.32
513.929	7366.54
514.297	7459.42
514.664	7522.02
515.032	7595.92
515.4	7642.69
515.767	7703.48
516.135	7738.06
516.502	7798.4
516.869	7938.96
517.237	7972.18
517.604	8039.75
517.972	8056.69
518.339	8184.38
518.706	8188.67
519.073	8331.94
519.44	8317.25
519.808	8513.18
520.175	8454.65
520.542	8667.3
520.909	8715.43
521.276	8693.29
521.643	8894.64
522.009	8893.96
522.376	9084.01
522.743	9046.5
523.11	9149.1
523.477	9304.57
523.843	9388.64
524.21	9473.15
524.577	9531.46
524.943	9530.33
525.31	9669.53
525.676	9773.03
526.043	9859.13
526.409	9907.04
526.776	10003.76
527.142	10129.63
527.508	10135.51
527.874	10369.18
528.241	10404.2
528.607	10372.57
528.973	10570.08
529.339	10632.22
529.705	10672.9
530.071	10858.66
530.437	10919.9
530.803	10981.59
531.169	11097.52
531.535	11064.3
531.901	11163.28
532.267	11275.82
532.632	11332.32
532.998	11533.21
533.364	11514.23
533.73	11557.17
534.095	11692.31
534.461	11772.76
534.826	11887.55
535.192	11960.32
535.557	12080.09
535.923	12139.75
536.288	12123.93
536.653	12248.68
537.019	12255.45
537.384	12400.54
537.749	12414.55
538.114	12521.21
538.479	12551.04
538.845	12661.55
539.21	12697.02
539.575	12805.04
539.94	12918.26
540.305	12999.39
540.67	13005.04
541.034	13137.24
541.399	13217.69
541.764	13278.7
542.129	13376.1
542.494	13444.8
542.858	13574.52
543.223	13629.2
543.587	13726.38
543.952	13800.95
544.316	13921.17
544.681	13883.21
545.045	14014.73
545.41	14136.31
545.774	14112.81
546.138	14308.51
546.503	14381.27
546.867	14453.81
547.231	14609.52
547.595	14622.62
547.959	14699.01
548.324	14812.9
548.688	15014.7
549.052	15084.76
549.416	15234.59
549.779	15188.26
550.143	15358.65
550.507	15508.25
550.871	15629.38
551.235	15642.26
551.599	15779.2
551.962	15901.23
552.326	16025.98
552.689	16205.86
553.053	16285.41
553.417	16359.53
553.78	16637.03
554.143	16624.38
554.507	16720.2
554.87	16945.05
555.234	17225.49
555.597	17138.72
555.96	17407.86
556.323	17436.56
556.686	17623
557.05	17945.7
557.413	17996.55
557.776	18142.98
558.139	18325.58
558.502	18425.69
558.865	18611.67
559.228	18859.57
559.59	18940.02
559.953	19057.08
560.316	19411.2
560.679	19533.23
561.041	19799.89
561.404	19930.96
561.767	20183.16
562.129	20247.33
562.492	20526.65
562.854	20611.85
563.217	20784.72
563.579	21010.7
563.941	21277.36
564.304	21530.01
564.666	21711.03
565.028	21905.6
565.39	22064.24
565.753	22358.69
566.115	22553.94
566.477	22821.96
566.839	22986.25
567.201	23125.23
567.563	23454.93
567.925	23781.93
568.287	23825.32
568.648	24199.55
569.01	24490.16
569.372	24748.01
569.734	24671.63
570.095	25054.89
570.457	25222.12
570.819	25476.8
571.18	25642.45
571.542	25998.6
571.903	26094.19
572.265	26398.13
572.626	26638.81
572.987	26929.19
573.349	27117.21
573.71	27227.94
574.071	27546.8
574.432	27775.05
574.794	28227.01
575.155	28379.1
575.516	28415.48
575.877	28691.63
576.238	28850.05
576.599	29190.15
576.96	29256.36
577.32	29618.61
577.681	29735.22
578.042	29895.67
578.403	30081.2
578.763	30293.4
579.124	30534.07
579.485	30885.7
579.845	31028.97
580.206	31071.01
580.566	31250.21
580.927	31348.74
581.287	31708.73
581.648	31743.3
582.008	32009.96
582.368	32126.12
582.728	32245.89
583.089	32405.89
583.449	32608.14
583.809	32701.7
584.169	32920
584.529	33112.08
584.889	33348.69
585.249	33242.47
585.609	33532.41
585.969	33735.12
586.329	33689.02
586.688	33919.74
587.048	34013.98
587.408	34101.89
587.768	34248.55
588.127	34337.81
588.487	34533.74
588.846	34766.05
589.206	34711.59
589.565	34831.36
589.925	35145.02
590.284	35177.79
590.643	35351.12
591.003	35539.14
591.362	35678.12
591.721	35753.14
592.08	35934.83
592.44	36087.37
592.799	36200.14
593.158	36229.51
593.517	36304.77
593.876	36416.85
594.235	36555.15
594.593	36801.93
594.952	36869.72
595.311	36916.5
595.67	37175.03
596.029	37395.13
596.387	37399.65
596.746	37744.28
597.104	37619.99
597.463	37769.81
597.822	37985.4
598.18	38009.35
598.538	37946.3
598.897	38399.63
599.255	38213.87
599.613	38750.58
599.972	38700.86
600.33	38884.36
600.688	38790.12
601.046	39040.06
601.404	39293.16
601.762	39254.97
602.12	39510.78
602.478	39525.92
602.836	39750.1
603.194	39654.06
603.552	39806.82
603.91	39882.3
604.268	40215.62
604.625	40328.84
604.983	40512.79
605.341	40428.05
605.698	40511.89
606.056	40755.5
606.413	40906.9
606.771	41176.28
607.128	41278.87
607.485	41263.96
607.843	41329.49
608.2	41671.63
608.557	41815.81
608.914	41757.05
609.272	41980.77
609.629	41996.14
609.986	42282.24
610.343	42213.76
610.7	42603.58
611.057	42698.72
611.414	42774.88
611.771	42842.22
612.127	43218.71
612.484	43321.98
612.841	43482.43
613.198	43448.08
613.554	43503.22
613.911	43823.66
614.267	43787.73
614.624	43947.05
614.98	44006.26
615.337	44355.63
615.693	44397.21
616.05	44581.61
616.406	44722.17
616.762	44705.45
617.118	44782.28
617.475	44817.99
617.831	45106.79
618.187	44993.12
618.543	45246.45
618.899	45458.65
619.255	45608.7
619.611	45489.61
619.967	45794.01
620.323	45804.85
620.678	45783.61
621.034	45863.16
621.39	45893.21
621.746	45949.26
622.101	46485.52
622.457	46225.86
622.812	46431.51
623.168	46565.96
623.523	46659.75
623.879	46860.87
624.234	46742.01
624.589	46890.7
624.945	46770.93
625.3	47028.55
625.655	46818.84
626.01	46914.43
626.365	47094.54
626.72	47127.31
627.075	47104.48
627.43	47189
627.785	47158.27
628.14	47469.67
628.495	47459.05
628.85	47470.12
629.205	47421.99
629.559	47822.43
629.914	47511.25
630.269	47741.3
630.623	47595.77
630.978	47593.51
631.332	47796.44
631.687	47896.33
632.041	47723
632.396	47876.44
632.75	47762.09
633.104	47876.89
633.459	47779.27
633.813	47864.46
634.167	47854.74
634.521	47903.78
634.875	48075.53
635.229	48020.62
635.583	47851.35
635.937	47978.13
636.291	48036.66
636.645	48128.64
636.999	48141.06
637.352	48204.11
637.706	47998.92
638.06	48189.88
638.413	48177.67
638.767	48132.25
639.121	48267.39
639.474	47968.64
639.828	48143.32
640.181	48065.81
640.534	48235.3
640.888	48208.86
641.241	48068.98
641.594	48188.52
641.947	48233.94
642.301	48217.45
642.654	48172.02
643.007	48227.62
643.36	48276.88
643.713	48363.88
644.066	48395.52
644.419	48135.64
644.771	48042.99
645.124	47767.74
645.477	47642.32
645.83	47415.43
646.182	47381.31
646.535	47412.72
646.888	47588.31
647.24	47381.76
647.593	47737.01
647.945	47756.22
648.298	47577.24
648.65	47485.49
649.002	47433.51
649.355	47405.72
649.707	47621.3
650.059	47448.2
650.411	48080.05
650.763	48101.97
651.115	48594.39
651.467	48576.31
651.819	48557.32
652.171	48495.86
652.523	48454.05
652.875	48467.61
653.227	48262.19
653.578	48611.56
653.93	48535.86
654.282	48388.06
654.633	48472.81
654.985	48542.18
655.337	48686.14
655.688	48648.62
656.039	48728.62
656.391	48431.23
656.742	48567.49
657.094	48793.25
657.445	48891.78
657.796	48821.27
658.147	48712.12
658.498	48964.09
658.849	48904.21
659.2	48795.74
659.551	48877.77
659.902	48939.91
660.253	48849.29
660.604	48972.23
660.955	48835.96
661.306	48997.99
661.656	48967.48
662.007	48985.34
662.358	48979.69
662.708	48899.69
663.059	49069.4
663.409	48934.49
663.76	49156.18
664.11	48915.96
664.461	49102.85
664.811	49211.09
665.161	49076.41
665.511	49076.63
665.862	49159.79
666.212	49308.27
666.562	49184.2
666.912	49136.07
667.262	49157.76
667.612	49353.46
667.962	49211.77
668.312	49334.48
668.662	49571.76
669.011	49475.04
669.361	49516.85
669.711	49484.76
670.06	49491.09
670.41	49387.36
670.76	49337.19
671.109	49541.48
671.459	49516.85
671.808	49511.88
672.157	49566.11
672.507	49397.08
672.856	49593
673.205	49447.47
673.554	49650.18
673.904	49566.34
674.253	49748.48
674.602	49598.2
674.951	49169.96
675.3	48911.67
675.649	49540.8
675.998	49643.17
676.346	49626.45
676.695	49826.9
677.044	49455.83
677.393	49689.5
677.741	49662.38
678.09	49600.01
678.438	49688.59
678.787	49798.87
679.135	49753.23
679.484	49558.43
679.832	49643.4
680.181	49501.71
680.529	49587.35
680.877	49522.72
681.225	49414.93
681.573	49652.66
681.922	49453.35
682.27	49476.85
682.618	49459.22
682.966	49472.1
683.314	49571.76
683.661	49414.93
684.009	49207.7
684.357	49207.48
684.705	49129.51
685.053	49254.71
685.4	49248.15
685.748	49071.44
686.095	49090.87
686.443	49053.81
686.79	48947.15
687.138	49185.33
687.485	49187.59
687.832	48984.88
688.18	49035.28
688.527	48875.73
688.874	48894.27
689.221	48827.6
689.568	48799.13
689.915	48717.09
690.262	48783.08
690.609	48663.54
690.956	48553.48
691.303	48573.37
691.65	48359.14
691.997	48398.91
692.344	48059.71
692.69	48130.9
693.037	48271.46
693.383	47845.03
693.73	48234.62
694.077	47879.6
694.423	47910.79
694.769	47865.59
695.116	47875.53
695.462	47812.03
695.808	47708.31
696.155	47902.65
696.501	47589.67
696.847	47510.57
697.193	47292.73
697.539	47442.55
697.885	47097.93
698.231	47074.2
698.577	47138.38
698.923	47144.71
699.269	47067.19
699.614	46903.36
699.96	46796.92
700.306	46847.77
700.651	46669.69
700.997	46597.83
701.342	46551.05
701.688	46506.08
702.033	46501.79
702.379	46336.82
702.724	46315.35
703.069	46373.43
703.415	45855.7
703.76	45857.96
704.105	45861.12
704.45	45844.18
704.795	45737.51
705.14	45699.55
705.485	45595.82
705.83	45380.01
706.175	45646.44
706.52	45594.24
706.865	45557.63
707.209	45437.63
707.554	45222.27
707.899	45478.54
708.243	45222.05
708.588	45301.37
708.932	44962.84
709.277	44845.11
709.621	45111.99
709.966	44659.35
710.31	44855.5
710.654	44390.43
710.998	44532.57
711.342	44695.96
711.687	44618.45
712.031	44455.29
712.375	44251
712.719	44613.47
713.063	44417.77
713.407	44505.68
713.75	44417.77
714.094	44348.17
714.438	44253.94
714.782	44221.39
715.125	43948.41
715.469	44061.85
715.812	44131.45
716.156	43768.52
716.499	43797.45
716.843	43820.95
717.186	43708.86
717.53	43930.55
717.873	43877.9
718.216	43731.69
718.559	43577.12
718.902	43290.8
719.246	43459.15
719.589	43246.96
719.932	43242.66
720.275	43208.99
720.617	43241.08
720.96	43333.96
721.303	43261.42
721.646	43461.19
721.989	43079.73
722.331	43276.56
722.674	43106.17
723.016	43133.51
723.359	43138.03
723.701	43039.96
724.044	42755.67
724.386	42608.33
724.729	42849.68
725.071	42673.64
725.413	42658.5
725.755	42684.94
726.097	42618.27
726.439	42421.22
726.782	42452.4
727.124	42729.23
727.465	42388
727.807	42482
728.149	42498.5
728.491	42441.55
728.833	42562.23
729.175	42346.64
729.516	42185.52
729.858	42066.65
730.199	42181.45
730.541	42002.7
730.882	41917.05
731.224	42158.4
731.565	41723.38
731.906	42003.6
732.248	42126.08
732.589	41889.48
732.93	41804.28
733.271	41808.58
733.612	41911.62
733.953	41797.05
734.294	41856.94
734.635	41566.77
734.976	41779.65
735.317	41423.05
735.658	41670.73
735.999	41546.44
736.339	41399.1
736.68	41448.59
737.021	41378.76
737.361	41301.92
737.702	41179.44
738.042	41267.57
738.383	41183.28
738.723	41269.61
739.063	41309.83
739.404	41385.99
739.744	41236.84
740.084	41132.89
740.424	41124.53
740.764	41015.83
741.104	41218.08
741.444	40765.67
741.784	40807.25
742.124	41010.63
742.464	40857.64
742.804	40779.22
743.143	40838.88
743.483	40839.34
743.823	40631.43
744.162	40658.78
744.502	40747.13
744.841	40621.94
745.181	40842.27
745.52	40482.73
745.86	40612.22
746.199	40531.77
746.538	40336.07
746.877	40548.5
747.216	40432.34
747.556	40501.04
747.895	40330.2
748.234	40261.27
748.573	40087.49
748.911	40221.05
749.25	40137.66
749.589	39864.9
749.928	40175.17
750.267	40118.9
750.605	39969.75
750.944	39865.58
751.283	39916.87
751.621	39913.94
751.96	39773.15
752.298	39777.22
752.636	39730.66
752.975	39511.91
753.313	39510.78
753.651	39564.34
753.989	39478.24
754.327	39333.84
754.666	39153.96
755.004	39274.18
755.342	39209.55
755.679	39161.41
756.017	38944.24
756.355	39166.39
756.693	39010.01
757.031	38979.27
757.368	38827.86
757.706	38783.12
