Data from copper_heatsink_FLMS001491_051.txt Node
Date: Tue Feb 07 10:50:11 GMT 2017
User: dcchb
Spectrometer: FLMS00149
Trigger mode: 0
Integration Time (sec): 2.000000E-2
Scans to average: 10
Electric dark correction enabled: true
Nonlinearity correction enabled: false
Boxcar width: 0
XAxis mode: Wavelengths
Number of Pixels in Spectrum: 2048
>>>>>Begin Spectral Data<<<<<
341.393	4.87
341.776	4.87
342.16	4.87
342.543	-57.05
342.927	-90.94
343.31	-82.13
343.693	-91.17
344.077	-74
344.46	-58.85
344.843	-37.84
345.226	-35.8
345.61	-29.02
345.993	-25.41
346.376	-14.79
346.759	7.81
347.142	60.01
347.525	34.02
347.908	55.49
348.291	76.06
348.674	98.66
349.057	116.96
349.44	148.37
349.823	152.21
350.206	161.25
350.588	215.26
350.971	220.46
351.354	230.18
351.737	244.87
352.119	258.2
352.502	266.79
352.884	292.1
353.267	293.23
353.65	292.55
354.032	307.24
354.414	325.54
354.797	328.25
355.179	319.21
355.562	331.19
355.944	313.57
356.326	349.04
356.709	341.36
357.091	353.79
357.473	338.42
357.855	345.65
358.238	349.95
358.62	361.02
359.002	365.54
359.384	365.09
359.766	360.34
360.148	351.76
360.53	340.01
360.912	351.53
361.294	331.42
361.676	353.56
362.057	351.08
362.439	334.13
362.821	342.72
363.203	344.3
363.584	340.46
363.966	361.7
364.348	360.34
364.729	350.17
365.111	334.13
365.493	354.69
365.874	335.94
366.256	336.84
366.637	339.1
367.019	320.34
367.4	327.58
367.781	330.06
368.163	346.78
368.544	327.8
368.925	331.42
369.306	342.72
369.688	345.65
370.069	335.71
370.45	319.44
370.831	342.49
371.212	301.36
371.593	337.97
371.974	338.42
372.355	333
372.736	336.39
373.117	336.84
373.498	340.23
373.879	354.92
374.26	361.25
374.641	320.8
375.021	345.43
375.402	357.63
375.783	361.25
376.163	358.76
376.544	368.93
376.925	351.76
377.305	338.42
377.686	357.41
378.066	361.25
378.447	347.69
378.827	371.19
379.208	379.55
379.588	390.85
379.968	372.77
380.349	360.57
380.729	371.87
381.109	368.93
381.489	356.28
381.87	356.5
382.25	371.42
382.63	363.28
383.01	366.9
383.39	352.89
383.77	395.37
384.15	374.81
384.53	384.75
384.91	374.58
385.29	354.24
385.67	392.66
386.049	402.38
386.429	392.21
386.809	398.76
387.189	377.07
387.568	392.43
387.948	395.14
388.328	416.84
388.707	412.09
389.087	402.6
389.466	417.29
389.846	391.98
390.225	401.7
390.605	421.36
390.984	410.51
391.363	421.13
391.743	409.83
392.122	432.88
392.501	424.07
392.881	416.84
393.26	457.29
393.639	431.3
394.018	432.66
394.397	428.59
394.776	418.42
395.155	446.67
395.534	436.95
395.913	462.49
396.292	456.39
396.671	459.55
397.05	456.16
397.429	446.22
397.808	453.67
398.186	459.32
398.565	448.25
398.944	455.03
399.323	450.96
399.701	461.81
400.08	462.49
400.458	471.53
400.837	474.24
401.215	472.43
401.594	479.89
401.972	467.69
402.351	467.23
402.729	495.93
403.107	486.89
403.486	507.46
403.864	484.63
404.242	497.74
404.62	511.75
404.999	478.08
405.377	505.65
405.755	534.8
406.133	508.81
406.511	515.14
406.889	527.12
407.267	510.17
407.645	521.7
408.023	531.41
408.401	528.93
408.779	522.15
409.156	518.98
409.534	522.37
409.912	537.51
410.29	555.59
410.667	554.24
411.045	568.25
411.422	551.07
411.8	549.04
412.178	561.69
412.555	549.04
412.933	581.35
413.31	590.85
413.687	578.64
414.065	611.86
414.442	587.46
414.819	612.77
415.197	602.37
415.574	612.31
415.951	623.39
416.328	634.23
416.705	637.4
417.082	622.71
417.46	628.36
417.837	647.79
418.214	641.24
418.591	617.74
418.967	671.75
419.344	637.62
419.721	635.82
420.098	665.87
420.475	678.98
420.852	649.15
421.228	671.75
421.605	657.28
421.982	680.79
422.358	675.36
422.735	673.56
423.111	697.96
423.488	695.48
423.864	719.43
424.241	698.41
424.617	702.93
424.994	741.35
425.37	710.62
425.746	718.98
426.123	723.5
426.499	703.16
426.875	754.01
427.251	734.35
427.627	787.68
428.003	742.48
428.379	764.17
428.756	744.51
429.132	765.76
429.507	809.37
429.883	785.42
430.259	805.3
430.635	808.92
431.011	818.86
431.387	837.39
431.763	827.22
432.138	821.35
432.514	832.87
432.89	850.73
433.265	843.95
433.641	878.07
434.016	891.86
434.392	866.09
434.767	886.43
435.143	903.15
435.518	888.01
435.894	903.83
436.269	912.65
436.644	935.47
437.02	922.59
437.395	941.57
437.77	922.36
438.145	946.99
438.52	951.97
438.895	955.81
439.271	978.86
439.646	1010.5
440.021	1002.59
440.395	1007.56
440.77	997.39
441.145	1009.14
441.52	1004.17
441.895	1017.73
442.27	1015.47
442.645	1031.74
443.019	1050.49
443.394	1052.53
443.769	1031.51
444.143	1037.39
444.518	1051.17
444.892	1046.65
445.267	1081.68
445.641	1072.42
446.016	1070.16
446.39	1104.96
446.764	1096.37
447.139	1121.68
447.513	1101.57
447.887	1106.54
448.262	1135.92
448.636	1127.33
449.01	1131.62
449.384	1166.2
449.758	1116.03
450.132	1139.76
450.506	1148.8
450.88	1178.18
451.254	1183.37
451.628	1199.87
452.002	1196.03
452.376	1189.02
452.75	1217.04
453.123	1239.87
453.497	1247.33
453.871	1261.79
454.244	1289.36
454.618	1315.35
454.992	1286.65
455.365	1289.81
455.739	1296.36
456.112	1335.23
456.486	1364.61
456.859	1367.55
457.232	1349.7
457.606	1377.49
457.979	1390.15
458.352	1418.62
458.725	1433.31
459.099	1439.64
459.472	1462.69
459.845	1488.22
460.218	1495.23
460.591	1492.52
460.964	1541.1
461.337	1521.22
461.71	1559.63
462.083	1575
462.456	1602.8
462.829	1561.67
463.201	1621.55
463.574	1619.29
463.947	1648.67
464.32	1675.56
464.692	1695.45
465.065	1715.79
465.438	1745.39
465.81	1781.32
466.183	1771.61
466.555	1765.05
466.928	1810.7
467.3	1820.64
467.672	1822.9
468.045	1871.26
468.417	1896.8
468.789	1870.13
469.161	1922.11
469.534	1918.27
469.906	2002.33
470.278	1992.62
470.65	2010.02
471.022	2037.14
471.394	2102.9
471.766	2115.78
472.138	2090.02
472.51	2132.95
472.882	2185.38
473.253	2222.89
473.625	2219.28
473.997	2280.07
474.369	2278.49
474.74	2304.25
475.112	2323.91
475.484	2359.84
475.855	2460.85
476.227	2452.27
476.598	2503.56
476.97	2557.35
477.341	2550.12
477.713	2649.1
478.084	2636.44
478.455	2675.54
478.827	2661.07
479.198	2791.69
479.569	2789.88
479.94	2867.62
480.311	2903.33
480.682	2955.98
481.053	2972.48
481.424	3042.08
481.795	3108.97
482.166	3157.11
482.537	3156.43
482.908	3190.78
483.279	3285.69
483.65	3294.73
484.021	3388.96
484.391	3433.94
484.762	3456.53
485.133	3473.48
485.503	3547.6
485.874	3636.87
486.244	3630.54
486.615	3726.13
486.985	3720.71
487.356	3820.14
487.726	3829.4
488.097	3898.1
488.467	3910.31
488.837	3980.59
489.207	4040.47
489.578	4116.4
489.948	4161.83
490.318	4208.83
490.688	4247.02
491.058	4243.41
491.428	4343.97
491.798	4370.41
492.168	4515.26
492.538	4543.96
492.908	4537.63
493.278	4618.08
493.648	4618.31
494.017	4651.98
494.387	4754.8
494.757	4773.56
495.126	4834.35
495.496	4868.25
495.866	4909.83
496.235	4918.42
496.605	5000.67
496.974	5035.02
497.344	5078.19
497.713	5103.04
498.082	5147.34
498.452	5210.39
498.821	5216.94
499.19	5216.26
499.559	5332.19
499.928	5334.9
500.298	5360.44
500.667	5460.77
501.036	5456.93
501.405	5490.6
501.774	5542.58
502.143	5597.49
502.512	5606.76
502.88	5661
503.249	5663.71
503.618	5731.28
503.987	5798.39
504.356	5806.3
504.724	5817.6
505.093	5863.7
505.462	5902.34
505.83	5924.04
506.199	6060.53
506.567	6109.35
506.936	6049.46
507.304	6132.4
507.672	6231.83
508.041	6235.67
508.409	6276.35
508.777	6376.46
509.145	6384.82
509.514	6435.44
509.882	6437.25
510.25	6502.33
510.618	6543.91
510.986	6562.89
511.354	6687.41
511.722	6756.56
512.09	6803.34
512.458	6809.89
512.826	6844.01
513.193	6950.45
513.561	6901.19
513.929	7013.73
514.297	7077
514.664	7173.05
515.032	7183.22
515.4	7244.91
515.767	7297.34
516.135	7319.03
516.502	7389.31
516.869	7446.48
517.237	7513.38
517.604	7507.95
517.972	7640.15
518.339	7702.75
518.706	7702.3
519.073	7786.82
519.44	7816.42
519.808	7975.06
520.175	7949.52
520.542	8079.24
520.909	8119.69
521.276	8160.82
521.643	8292.11
522.009	8284.2
522.376	8372.56
522.743	8458.21
523.11	8566.46
523.477	8569.85
523.843	8671.76
524.21	8765.55
524.577	8871.31
524.943	8925.77
525.31	8972.32
525.676	9037.63
526.043	9115.37
526.409	9211.41
526.776	9282.37
527.142	9360.33
527.508	9377.51
527.874	9529.82
528.241	9565.3
528.607	9589.03
528.973	9696.82
529.339	9727.78
529.705	9869.02
530.071	9931.39
530.437	9986.76
530.803	10095.23
531.169	10163.02
531.535	10131.39
531.901	10249.35
532.267	10230.37
532.632	10379.29
532.998	10391.94
533.364	10531.38
533.73	10511.72
534.095	10735.66
534.461	10756.23
534.826	10776.79
535.192	10842.1
535.557	10945.38
535.923	11023.11
536.288	11102.21
536.653	11068.99
537.019	11090.01
537.384	11236.44
537.749	11245.93
538.114	11335.65
538.479	11397.12
538.845	11410.45
539.21	11513.95
539.575	11626.26
539.94	11647.05
540.305	11812.47
540.67	11694.73
541.034	11768.41
541.399	11932.24
541.764	11967.04
542.129	12078
542.494	12110.54
542.858	12145.34
543.223	12242.07
543.587	12381.72
543.952	12439.8
544.316	12406.58
544.681	12531.78
545.045	12582.62
545.41	12681.15
545.774	12796.63
546.138	12770.86
546.503	12873.01
546.867	12936.96
547.231	13144.64
547.595	13190.06
547.959	13320.45
548.324	13289.27
548.688	13391.41
549.052	13476.83
549.416	13445.88
549.779	13620.56
550.143	13659.2
550.507	13829.82
550.871	13966.31
551.235	14048.35
551.599	14178.96
551.962	14142.58
552.326	14282.46
552.689	14517.94
553.053	14417.15
553.417	14576.02
553.78	14794.09
554.143	14785.28
554.507	14834.54
554.87	15037.92
555.234	15239.73
555.597	15185.72
555.96	15407.18
556.323	15486.95
556.686	15545.03
557.05	15814.17
557.413	15810.33
557.776	16006.26
558.139	16124.45
558.502	16258.68
558.865	16373.71
559.228	16592.91
559.59	16712.46
559.953	16703.64
560.316	16996.97
560.679	17115.84
561.041	17361.48
561.404	17458.65
561.767	17690.28
562.129	17681.02
562.492	18056.83
562.854	18167.33
563.217	18240.1
563.579	18422.92
563.941	18663.37
564.304	18775.45
564.666	18986.07
565.028	19134.09
565.39	19234.42
565.753	19512.83
566.115	19707.63
566.477	19812.26
566.839	20064.91
567.201	20279.82
567.563	20372.25
567.925	20630.77
568.287	20658.79
568.648	20852.91
569.01	21054.04
569.372	21351.88
569.734	21371.09
570.095	21586.23
570.457	21860.8
570.819	22025.76
571.18	22141.24
571.542	22411.06
571.903	22503.94
572.265	22774.67
572.626	22929.02
572.987	22988.9
573.349	23186.86
573.71	23425.5
574.071	23541.43
574.432	23867.52
574.794	24002.21
575.155	24180.51
575.516	24227.96
575.877	24458.92
576.238	24712.25
576.599	24808.06
576.96	24967.15
577.32	25063.87
577.681	25316.07
578.042	25401.49
578.403	25512
578.763	25728.26
579.124	25831.54
579.485	26001.25
579.845	26211.64
580.206	26235.37
580.566	26421.81
580.927	26521.24
581.287	26786.54
581.648	26708.13
582.008	27049.36
582.368	27106.98
582.728	27155.8
583.089	27243.03
583.449	27278.51
583.809	27419.52
584.169	27659.51
584.529	27689.79
584.889	27883.69
585.249	27986.96
585.609	28054.76
585.969	28312.38
586.329	28134.98
586.688	28299.27
587.048	28487.51
587.408	28425.14
587.768	28771.8
588.127	28764.57
588.487	28804.79
588.846	28938.8
589.206	28986.48
589.565	29151.45
589.925	29232.35
590.284	29340.6
590.643	29255.86
591.003	29522.51
591.362	29743.98
591.721	29767.48
592.08	29738.55
592.44	29943.52
592.799	29920.02
593.158	30006.57
593.517	30202.27
593.876	30317.97
594.235	30342.83
594.593	30407.24
594.952	30476.61
595.311	30600.23
595.67	30751.41
596.029	30981.69
596.387	31024.62
596.746	31286.99
597.104	31117.28
597.463	31209.93
597.822	31408.57
598.18	31442.01
598.538	31326.08
598.897	31629.35
599.255	31514.33
599.613	31881.1
599.972	31849.46
600.33	32033.18
600.688	32014.65
601.046	32243.12
601.404	32401.99
601.762	32495.09
602.12	32579.84
602.478	32685.82
602.836	32762.43
603.194	32743.67
603.552	32763.11
603.91	32825.48
604.268	33088.3
604.625	32968.07
604.983	33214.85
605.341	33103.21
605.698	33509.08
606.056	33626.36
606.413	33561.5
606.771	33789.97
607.128	33943.87
607.485	33768.96
607.843	34017.54
608.2	34129.63
608.557	34408.26
608.914	34261.6
609.272	34628.14
609.629	34633.11
609.986	34845.09
610.343	34650.29
610.7	34995.37
611.057	34968.7
611.414	35036.72
611.771	35192.42
612.127	35379.54
612.484	35458.63
612.841	35627.21
613.198	35352.64
613.554	35622.92
613.911	35889.35
614.267	35833.08
614.624	35974.32
614.98	36184.03
615.337	36439.62
615.693	36325.05
616.05	36405.72
616.406	36504.48
616.762	36443.24
617.118	36697.69
617.475	36794.19
617.831	36874.86
618.187	37004.58
618.543	37063.11
618.899	37210
619.255	37253.61
619.611	37142.43
619.967	37274.4
620.323	37630.78
620.678	37608.4
621.034	37498.35
621.39	37619.02
621.746	37641.85
622.101	38054.04
622.457	38004.1
622.812	38014.27
623.168	38131.78
623.523	38104.21
623.879	38244.09
624.234	38093.59
624.589	38264.43
624.945	38416.97
625.3	38557.98
625.655	38522.28
626.01	38723.85
626.365	38654.7
626.72	38666.68
627.075	38755.04
627.43	38761.14
627.785	38720.01
628.14	38814.47
628.495	39008.59
628.85	38930.18
629.205	38937.18
629.559	39276.16
629.914	38983.51
630.269	39043.85
630.623	38962.49
630.978	39004.07
631.332	39289.94
631.687	39296.72
632.041	39310.73
632.396	39345.53
632.75	39116.84
633.104	39314.35
633.459	39214.46
633.813	39146.44
634.167	39201.58
634.521	39437.28
634.875	39432.99
635.229	39348.25
635.583	39351.18
635.937	39382.59
636.291	39322.93
636.645	39577.62
636.999	39321.13
637.352	39618.75
637.706	39309.15
638.06	39547.34
638.413	39410.84
638.767	39407.45
639.121	39534.45
639.474	39404.74
639.828	39486.09
640.181	39579.43
640.534	39590.27
640.888	39539.2
641.241	39548.69
641.594	39612.64
641.947	39835.46
642.301	39616.03
642.654	39583.49
643.007	39715.24
643.36	39781.68
643.713	39609.03
644.066	39828.46
644.419	39637.73
644.771	39470.5
645.124	39196.38
645.477	39248.59
645.83	39043.17
646.182	38870.74
646.535	38713.69
646.888	38815.38
647.24	38687.02
647.593	38953.91
647.945	38899.44
648.298	38754.36
648.65	38644.53
649.002	38760.92
649.355	38802.27
649.707	38790.52
650.059	38878.88
650.411	39513.21
650.763	39590.72
651.115	39957.49
651.467	39890.6
651.819	40093.99
652.171	39936.25
652.523	39917.72
652.875	39937.61
653.227	40020.09
653.578	40255.34
653.93	40146.87
654.282	40004.5
654.633	39927.89
654.985	40095.34
655.337	40156.81
655.688	40149.35
656.039	40303.93
656.391	39865.29
656.742	40012.63
657.094	40172.4
657.445	40345.05
657.796	40250.14
658.147	40167.43
658.498	40259.86
658.849	40308.67
659.2	40290.37
659.551	40343.02
659.902	40567.42
660.253	40272.29
660.604	40501.44
660.955	40258.05
661.306	40549.34
661.656	40395.22
662.007	40430.25
662.358	40578.95
662.708	40685.84
663.059	40731.03
663.409	40524.49
663.76	40685.61
664.11	40654.2
664.461	40907.98
664.811	40898.71
665.161	40804.03
665.511	40708.21
665.862	40847.19
666.212	41005.6
666.562	41116.33
666.912	41004.92
667.262	40911.37
667.612	40910.24
667.962	41063.23
668.312	41156.11
668.662	41287.63
669.011	41334.41
669.361	41313.62
669.711	41232.26
670.06	41226.16
670.41	41076.34
670.76	41135.32
671.109	41246.05
671.459	41286.27
671.808	41104.81
672.157	41431.35
672.507	41153.85
672.856	41364.46
673.205	41396.33
673.554	41437
673.904	41358.81
674.253	41689.65
674.602	41638.58
674.951	40990.24
675.3	40896.45
675.649	41433.39
675.998	41575.08
676.346	41675.64
676.695	41768.75
677.044	41561.52
677.393	41751.8
677.741	41889.2
678.09	41663.44
678.438	41601.75
678.787	41710.44
679.135	41707.51
679.484	41450.79
679.832	41658.47
680.181	41413.95
680.529	41768.97
680.877	41673.16
681.225	41603.1
681.573	41889.65
681.922	41648.07
682.27	41515.65
682.618	41660.95
682.966	41585.7
683.314	41705.92
683.661	41586.6
684.009	41458.25
684.357	41461.86
684.705	41363.79
685.053	41421.86
685.4	41430.9
685.748	41262.77
686.095	41294.63
686.443	41224.35
686.79	41198.14
687.138	41434.29
687.485	41252.6
687.832	41282.66
688.18	41357.01
688.527	41136.67
688.874	41135.32
689.221	41007.64
689.568	40957.69
689.915	40923.8
690.262	40842.22
690.609	40751.82
690.956	40762.67
691.303	40690.58
691.65	40602.22
691.997	40546.18
692.344	40445.84
692.69	40621.43
693.037	40531.94
693.383	40479.06
693.73	40625.95
694.077	40527.65
694.423	40402
694.769	40335.11
695.116	40300.54
695.462	40211.73
695.808	40087.89
696.155	40135.12
696.501	39861.45
696.847	39934.67
697.193	39655.36
697.539	39803.6
697.885	39665.3
698.231	39589.59
698.577	39663.72
698.923	39620.33
699.269	39624.62
699.614	39377.4
699.96	39244.29
700.306	39410.16
700.651	39223.5
700.997	39080.23
701.342	39099.44
701.688	39165.2
702.033	39098.76
702.379	39128.59
702.724	38894.47
703.069	39133.79
703.415	38692.22
703.76	38772.21
704.105	38788.94
704.45	38930.4
704.795	38682.5
705.14	38509.17
705.485	38600.02
705.83	38445.22
706.175	38408.16
706.52	38399.57
706.865	38264.43
707.209	38257.2
707.554	38271.89
707.899	38470.98
708.243	38202.06
708.588	38218.56
708.932	38094.04
709.277	38080.71
709.621	38099.24
709.966	37965.23
710.31	37898.11
710.654	37680.49
710.998	37770.43
711.342	37822.41
711.687	37884.1
712.031	37635.07
712.375	37820.6
712.719	37615.18
713.063	37689.76
713.407	37800.04
713.75	37685.46
714.094	37560.27
714.438	37265.36
714.782	37435.75
715.125	37291.8
715.469	37433.49
715.812	37269.43
716.156	37105.37
716.499	37141.98
716.843	37304.46
717.186	37063.33
717.53	37287.96
717.873	37313.72
718.216	37204.12
718.559	37229.66
718.902	36967.29
719.246	37100.62
719.589	36846.62
719.932	36912.38
720.275	36904.69
720.617	36816.11
720.96	36912.15
721.303	36844.81
721.646	36935.65
721.989	36828.76
722.331	37031.47
722.674	36857.24
723.016	36772.27
723.359	37011.36
723.701	36894.98
724.044	36625.38
724.386	36485.04
724.729	36734.75
725.071	36655.66
725.413	36727.75
725.755	36762.1
726.097	36515.55
726.439	36310.58
726.782	36353.3
727.124	36601.2
727.465	36327.76
727.807	36378.38
728.149	36357.59
728.491	36382
728.833	36396.46
729.175	36260.87
729.516	36229.68
729.858	36217.71
730.199	36216.12
730.541	36130.93
730.882	36161.44
731.224	36224.26
731.565	36053.19
731.906	36124.83
732.248	36290.25
732.589	35888.22
732.93	35974.55
733.271	35988.33
733.612	35957.83
733.953	36129.12
734.294	36010.48
734.635	35878.96
734.976	35946.98
735.317	35781.33
735.658	35959.18
735.999	35814.1
736.339	35904.49
736.68	35921.22
737.021	35901.78
737.361	35733.88
737.702	36073.53
738.042	35816.13
738.383	35850.03
738.723	35738.17
739.063	35650.94
739.404	35608.91
739.744	35556.93
740.084	35573.66
740.424	35714.89
740.764	35651.85
741.104	35841.67
741.444	35569.59
741.784	35466.54
742.124	35687.78
742.464	35613.43
742.804	35598.97
743.143	35416.15
743.483	35484.17
743.823	35354.23
744.162	35361.23
744.502	35415.02
744.841	35304.96
745.181	35453.43
745.52	35339.76
745.86	35478.29
746.199	35286.2
746.538	35327.11
746.877	35370.04
747.216	35278.07
747.556	35499.53
747.895	35472.19
748.234	35279.88
748.573	35236.49
748.911	35116.49
749.25	35238.75
749.589	35279.2
749.928	35250.95
750.267	35289.82
750.605	35100
750.944	35070.17
751.283	34868.81
751.621	35022.94
751.96	34857.29
752.298	34814.8
752.636	35005.99
752.975	34889.61
753.313	34761.25
753.651	34977.51
753.989	34649.84
754.327	34597.64
754.666	34620.91
755.004	34660.91
755.342	34752.89
755.679	34624.98
756.017	34380.47
756.355	34530.07
756.693	34380.92
757.031	34420.01
