Data from copper_heatsink_FLMS001491_020.txt Node
Date: Tue Feb 07 10:49:19 GMT 2017
User: dcchb
Spectrometer: FLMS00149
Trigger mode: 0
Integration Time (sec): 2.000000E-2
Scans to average: 10
Electric dark correction enabled: true
Nonlinearity correction enabled: false
Boxcar width: 0
XAxis mode: Wavelengths
Number of Pixels in Spectrum: 2048
>>>>>Begin Spectral Data<<<<<
341.393	-8.04
341.776	-8.04
342.16	-8.04
342.543	-48.71
342.927	-79
343.31	-57.07
343.693	-64.98
344.077	-65.21
344.46	-60.01
344.843	-41.26
345.226	-47.58
345.61	-32.44
345.993	15.69
346.376	4.84
346.759	5.52
347.142	13.66
347.525	22.25
347.908	40.78
348.291	74.67
348.674	91.85
349.057	99.31
349.44	136.82
349.823	145.41
350.206	168.68
350.588	224.73
350.971	248.23
351.354	249.36
351.737	270.15
352.119	276.25
352.502	280.09
352.884	270.6
353.267	305.4
353.65	309.24
354.032	315.12
354.414	326.87
354.797	330.03
355.179	339.07
355.562	323.93
355.944	334.33
356.326	356.7
356.709	367.55
357.091	374.33
357.473	351.05
357.855	366.42
358.238	362.8
358.62	346.53
359.002	369.58
359.384	342.91
359.766	365.06
360.148	367.77
360.53	358.51
360.912	354.89
361.294	363.48
361.676	352.86
362.057	340.65
362.439	349.24
362.821	354.67
363.203	362.12
363.584	356.25
363.966	354.21
364.348	353.76
364.729	353.54
365.111	358.73
365.493	347.43
365.874	370.48
366.256	344.72
366.637	334.78
367.019	335.01
367.4	345.85
367.781	344.5
368.163	345.4
368.544	341.78
368.925	319.41
369.306	337.04
369.688	354.67
370.069	355.57
370.45	342.01
370.831	327.55
371.212	339.52
371.593	336.14
371.974	304.95
372.355	337.72
372.736	337.04
373.117	328.23
373.498	362.58
373.879	353.99
374.26	345.17
374.641	356.25
375.021	343.14
375.402	335.68
375.783	352.41
376.163	356.47
376.544	349.92
376.925	360.77
377.305	361.9
377.686	350.6
378.066	360.54
378.447	372.97
378.827	360.77
379.208	381.11
379.588	378.62
379.968	339.52
380.349	368.9
380.729	371.16
381.109	370.26
381.489	368.68
381.87	349.02
382.25	363.25
382.63	348.34
383.01	351.28
383.39	384.27
383.77	364.38
384.15	382.69
384.53	388.11
384.91	368.22
385.29	388.56
385.67	390.15
386.049	412.07
386.429	394.89
386.809	403.48
387.189	394.89
387.568	378.17
387.948	363.25
388.328	377.49
388.707	385.63
389.087	411.61
389.466	396.92
389.846	384.04
390.225	404.61
390.605	419.75
390.984	398.73
391.363	383.82
391.743	428.79
392.122	403.03
392.501	428.79
392.881	422.46
393.26	405.74
393.639	404.61
394.018	408
394.397	421.33
394.776	404.61
395.155	433.76
395.534	414.1
395.913	419.97
396.292	433.99
396.671	420.2
397.05	412.52
397.429	424.49
397.808	421.78
398.186	438.28
398.565	444.15
398.944	457.26
399.323	459.52
399.701	445.28
400.08	427.66
400.458	450.03
400.837	467.21
401.215	443.48
401.594	443.03
401.972	472.63
402.351	466.53
402.729	453.65
403.107	448.45
403.486	472.4
403.864	451.16
404.242	481.89
404.62	458.17
404.999	471.27
405.377	486.19
405.755	486.41
406.133	489.8
406.511	485.06
406.889	474.89
407.267	466.3
407.645	487.32
408.023	485.74
408.401	488.9
408.779	493.65
409.156	501.55
409.534	502.68
409.912	490.71
410.29	513.08
410.667	511.27
411.045	501.55
411.422	512.4
411.8	511.72
412.178	526.41
412.555	522.12
412.933	537.71
413.31	539.97
413.687	510.59
414.065	542.68
414.442	562.34
414.819	562.57
415.197	540.42
415.574	534.32
415.951	544.27
416.328	573.19
416.705	542.91
417.082	542.91
417.46	559.63
417.837	579.74
418.214	581.55
418.591	570.25
418.967	562.34
419.344	583.59
419.721	579.29
420.098	602.12
420.475	584.94
420.852	596.92
421.228	558.95
421.605	599.86
421.982	590.14
422.358	604.83
422.735	615
423.111	591.27
423.488	612.06
423.864	617.94
424.241	602.34
424.617	617.71
424.994	626.98
425.37	617.48
425.746	644.6
426.123	614.55
426.499	620.87
426.875	649.8
427.251	641.66
427.627	655.22
428.003	687.99
428.379	660.87
428.756	645.96
429.132	695.22
429.507	680.98
429.883	662.68
430.259	701.1
430.635	671.49
431.011	709.91
431.387	695.45
431.763	721.89
432.138	709.46
432.514	712.62
432.89	721.66
433.265	742.68
433.641	736.12
434.016	742.45
434.392	737.93
434.767	753.3
435.143	757.82
435.518	747.2
435.894	755.79
436.269	789
436.644	779.51
437.02	780.42
437.395	767.08
437.77	775.45
438.145	786.97
438.52	803.24
438.895	814.09
439.271	786.29
439.646	840.53
440.021	833.3
440.395	837.59
440.77	817.7
441.145	838.27
441.52	859.51
441.895	829
442.27	876.46
442.645	863.58
443.019	876.46
443.394	853.41
443.769	854.54
444.143	852.73
444.518	877.36
444.892	864.03
445.267	897.02
445.641	899.74
446.016	898.15
446.39	897.93
446.764	898.15
447.139	905.16
447.513	922.33
447.887	917.81
448.262	928.21
448.636	926.4
449.01	947.19
449.384	944.25
449.758	957.59
450.132	950.58
450.506	961.2
450.88	962.33
451.254	954.65
451.628	996.23
452.002	993.52
452.376	1000.52
452.75	1010.24
453.123	1004.37
453.497	1024.25
453.871	1026.74
454.244	1051.6
454.618	1031.03
454.992	1051.6
455.365	1058.83
455.739	1079.84
456.112	1100.41
456.486	1085.72
456.859	1106.96
457.232	1125.04
457.606	1129.33
457.979	1129.11
458.352	1156.9
458.725	1160.52
459.099	1171.82
459.472	1213.17
459.845	1184.02
460.218	1229.9
460.591	1208.88
460.964	1217.69
461.337	1258.37
461.71	1249.11
462.083	1258.14
462.456	1275.32
462.829	1282.33
463.201	1304.02
463.574	1303.57
463.947	1332.95
464.32	1337.01
464.692	1367.07
465.065	1378.59
465.438	1392.83
465.81	1419.04
466.183	1430.12
466.555	1431.25
466.928	1469.89
467.3	1455.65
467.672	1469.21
468.045	1537.69
468.417	1537.91
468.789	1527.97
469.161	1534.3
469.534	1585.14
469.906	1602.77
470.278	1596.67
470.65	1643.67
471.022	1666.27
471.394	1688.87
471.766	1692.94
472.138	1722.99
472.51	1761.41
472.882	1780.62
473.253	1827.4
473.625	1833.95
473.997	1838.24
474.369	1873.5
474.74	1867.62
475.112	1925.25
475.484	1990.33
475.855	2013.61
476.227	2012.7
476.598	2049.76
476.97	2081.85
477.341	2133.6
477.713	2167.05
478.084	2186.03
478.455	2256.76
478.827	2287.72
479.198	2311.22
479.569	2345.8
479.94	2391.9
480.311	2409.75
480.682	2473.93
481.053	2507.6
481.424	2532.01
481.795	2607.26
482.166	2577.43
482.537	2636.41
482.908	2724.77
483.279	2726.13
483.65	2807.93
484.021	2859.68
484.391	2892
484.762	2881.15
485.133	2972.68
485.503	2988.72
485.874	3052
486.244	3042.05
486.615	3139.68
486.985	3171.09
487.356	3222.61
487.726	3256.96
488.097	3335.38
488.467	3361.37
488.837	3454.7
489.207	3450.86
489.578	3497.63
489.948	3549.84
490.318	3615.6
490.688	3603.62
491.058	3724.75
491.428	3778.53
491.798	3792.77
492.168	3887.68
492.538	3894.69
492.908	3934.91
493.278	3962.93
493.648	3950.28
494.017	4082.25
494.387	4092.87
494.757	4111.63
495.126	4171.51
495.496	4199.99
495.866	4260.55
496.235	4325.18
496.605	4367.89
496.974	4398.85
497.344	4423.26
497.713	4450.38
498.082	4501
498.452	4548.91
498.821	4597.72
499.19	4643.14
499.559	4704.83
499.928	4750.93
500.298	4747.32
500.667	4762.01
501.036	4866.64
501.405	4877.03
501.774	4899.41
502.143	4956.35
502.512	4969.23
502.88	5039.06
503.249	5058.27
503.618	5061.21
503.987	5126.52
504.356	5126.74
504.724	5232.28
505.093	5300.3
505.462	5282.22
505.83	5333.07
506.199	5373.06
506.567	5467.07
506.936	5460.29
507.304	5521.54
507.672	5538.48
508.041	5618.03
508.409	5678.82
508.777	5665.71
509.145	5753.17
509.514	5747.29
509.882	5849.44
510.25	5901.19
510.618	5909.55
510.986	5971.47
511.354	6054.4
511.722	6109.54
512.09	6137.11
512.458	6175.98
512.826	6235.19
513.193	6277.22
513.561	6307.73
513.929	6345.69
514.297	6441.51
514.664	6493.04
515.032	6515.41
515.4	6572.81
515.767	6650.77
516.135	6645.8
516.502	6672.01
516.869	6764.89
517.237	6846.47
517.604	6834.95
517.972	6942.52
518.339	7041.5
518.706	7048.05
519.073	7088.27
519.44	7127.6
519.808	7212.79
520.175	7237.65
520.542	7386.57
520.909	7368.49
521.276	7423.18
521.643	7528.71
522.009	7657.98
522.376	7686
522.743	7763.96
523.11	7856.84
523.477	7916.95
523.843	7962.38
524.21	8054.35
524.577	8147.46
524.943	8133.9
525.31	8270.62
525.676	8364.85
526.043	8431.97
526.409	8520.78
526.776	8603.04
527.142	8650.49
527.508	8671.28
527.874	8758.96
528.241	8823.14
528.607	8896.14
528.973	8996.25
529.339	8992.18
529.705	9114.66
530.071	9236.69
530.437	9227.65
530.803	9352.4
531.169	9484.6
531.535	9466.52
531.901	9447.53
532.267	9561.88
532.632	9617.93
532.998	9768.2
533.364	9830.12
533.73	9814.98
534.095	9968.42
534.461	9991.93
534.826	10059.5
535.192	10125.26
535.557	10177.46
535.923	10291.81
536.288	10321.18
536.653	10452.48
537.019	10456.32
537.384	10493.38
537.749	10533.83
538.114	10631.68
538.479	10703.55
538.845	10765.92
539.21	10767.95
539.575	10857.44
539.94	10991.67
540.305	11018.11
540.67	11080.03
541.034	11151.67
541.399	11249.29
541.764	11350.31
542.129	11399.12
542.494	11420.82
542.858	11501.72
543.223	11553.69
543.587	11705.33
543.952	11693.8
544.316	11846.34
544.681	11846.34
545.045	11930.18
545.41	12001.59
545.774	12161.59
546.138	12226.67
546.503	12275.93
546.867	12352.99
547.231	12458.3
547.595	12547.34
547.959	12753.89
548.324	12740.33
548.688	12782.81
549.052	12900.1
549.416	13034.56
549.779	13058.29
550.143	13160.2
550.507	13305.74
550.871	13391.39
551.235	13543.25
551.599	13661.89
551.962	13720.87
552.326	13890.13
552.689	14074.31
553.053	13895.78
553.417	14105.26
553.78	14351.13
554.143	14269.1
554.507	14499.15
554.87	14631.35
555.234	14827.05
555.597	14776.43
555.96	15039.25
556.323	15129.64
556.686	15274.73
557.05	15475.62
557.413	15546.36
557.776	15644.66
558.139	15875.61
558.502	16047.59
558.865	16186.79
559.228	16302.72
559.59	16367.58
559.953	16587.69
560.316	16861.8
560.679	16958.97
561.041	17126.43
561.404	17296.37
561.767	17572.74
562.129	17614.1
562.492	17913.07
562.854	17938.61
563.217	18136.35
563.579	18279.62
563.941	18524.13
564.304	18743.79
564.666	18901.97
565.028	19029.88
565.39	19309.87
565.753	19471
566.115	19745.57
566.477	19915.51
566.839	20075.73
567.201	20257.19
567.563	20363.86
567.925	20616.05
568.287	20827.57
568.648	20882.94
569.01	21168.81
569.372	21451.96
569.734	21466.65
570.095	21788.45
570.457	21880.88
570.819	22120.87
571.18	22293.07
571.542	22456.01
571.903	22612.16
572.265	22872.27
572.626	22973.96
572.987	23210.34
573.349	23450.56
573.71	23604.9
574.071	23648.97
574.432	23993.59
574.794	24237.65
575.155	24299.12
575.516	24392.68
575.877	24502.28
576.238	24778.66
576.599	24865.21
576.96	25038.99
577.32	25163.05
577.681	25324.86
578.042	25429.49
578.403	25607.56
578.763	25815.69
579.124	25857.27
579.485	26117.15
579.845	26317.15
580.206	26302.91
580.566	26549.46
580.927	26518.05
581.287	26832.16
581.648	26878.94
582.008	27037.81
582.368	27073.51
582.728	27112.61
583.089	27191.93
583.449	27388.31
583.809	27372.71
584.169	27631.91
584.529	27570.67
584.889	27858.58
585.249	27755.98
585.609	27850.21
585.969	28037.78
586.329	27977.44
586.688	28134.05
587.048	28269.86
587.408	28370.65
587.768	28499.46
588.127	28469.86
588.487	28522.51
588.846	28780.13
589.206	28741.04
589.565	28792.56
589.925	28960.24
590.284	28972.9
590.643	29072.33
591.003	29136.51
591.362	29341.02
591.721	29163.4
592.08	29533.11
592.44	29505.09
592.799	29562.26
593.158	29646.1
593.517	29652.43
593.876	29769.03
594.235	29792.76
594.593	29845.64
594.952	30101.68
595.311	30091.06
595.67	30185.75
596.029	30327.21
596.387	30397.94
596.746	30435
597.104	30505.96
597.463	30500.31
597.822	30724.04
598.18	30599.97
598.538	30569.69
598.897	30969.23
599.255	30816.24
599.613	31128.55
599.972	31025.5
600.33	31309.56
600.688	31172.39
601.046	31385.04
601.404	31550.46
601.762	31540.29
602.12	31781.64
602.478	31767.63
602.836	31845.14
603.194	31734.41
603.552	31780.73
603.91	31821.18
604.268	32029.99
604.625	31994.51
604.983	32170.33
605.341	32159.48
605.698	32407.61
606.056	32471.11
606.413	32495.29
606.771	32581.62
607.128	32754.27
607.485	32602.41
607.843	32757.43
608.2	32957.2
608.557	33098.44
608.914	33079.68
609.272	33364.65
609.629	33353.35
609.986	33542.95
610.343	33458.88
610.7	33785.2
611.057	33639.21
611.414	33691.42
611.771	33813.45
612.127	33873.11
612.484	33937.74
612.841	34152.2
613.198	34090.73
613.554	34140.67
613.911	34243.04
614.267	34429.93
614.624	34516.71
614.98	34503.37
615.337	34633.76
615.693	34655.46
616.05	34832.18
616.406	35067.43
616.762	35000.31
617.118	34940.88
617.475	35094.77
617.831	35181.09
618.187	35345.38
618.543	35338.6
618.899	35509.67
619.255	35496.79
619.611	35497.24
619.967	35630.57
620.323	35663.79
620.678	35636.45
621.034	35704.24
621.39	35711.7
621.746	35784.02
622.101	36278.69
622.457	35997.8
622.812	36144.69
623.168	36218.81
623.523	36282.08
623.879	36394.85
624.234	36134.97
624.589	36427.16
624.945	36389.42
625.3	36680.49
625.655	36517.56
626.01	36550.55
626.365	36473.49
626.72	36676.65
627.075	36684.33
627.43	36634.62
627.785	36623.99
628.14	36684.11
628.495	36737.66
628.85	36789.64
629.205	36666.25
629.559	36833.71
629.914	36738.57
630.269	36835.29
630.623	36800.94
630.978	36783.09
631.332	36896.3
631.687	37028.96
632.041	36987.83
632.396	37051.78
632.75	37003.87
633.104	37045.9
633.459	36812.69
633.813	37028.05
634.167	36908.96
634.521	36998.45
634.875	37048.62
635.229	37092.68
635.583	36826.48
635.937	37000.03
636.291	36956.87
636.645	37001.84
636.999	36980.6
637.352	37059.69
637.706	36945.57
638.06	37105.56
638.413	36967.49
638.767	36791.22
639.121	36909.41
639.474	36851.33
639.828	36870.54
640.181	36914.38
640.534	37061.5
640.888	36961.16
641.241	36835.29
641.594	36846.36
641.947	37002.52
642.301	36832.58
642.654	36930.43
643.007	36986.47
643.36	37133.81
643.713	37038.45
644.066	37076.41
644.419	36804.55
644.771	36552.36
645.124	36090.22
645.477	36034.18
645.83	35793.73
646.182	35845.94
646.535	36014.29
646.888	36263.1
647.24	36119.83
647.593	36316.21
647.945	36274.4
648.298	36259.03
648.65	36113.73
649.002	36200.73
649.355	36278.92
649.707	36074.4
650.059	36234.63
650.411	36520.27
650.763	36570.66
651.115	37137.43
651.467	36934.72
651.819	37060.37
652.171	36915.51
652.523	36916.87
652.875	36909.41
653.227	36766.36
653.578	37122.96
653.93	36943.99
654.282	36842.07
654.633	36899.24
654.985	36934.72
655.337	37002.97
655.688	36967.71
656.039	37147.6
656.391	36786.02
656.742	36977.21
657.094	36885.46
657.445	37143.53
657.796	37046.36
658.147	37116.41
658.498	37098.33
658.849	37146.01
659.2	36988.05
659.551	36925
659.902	37219.91
660.253	37060.59
660.604	37159.8
660.955	37047.71
661.306	37098.78
661.656	37015.85
662.007	37067.37
662.358	37232.11
662.708	37125.22
663.059	37112.34
663.409	36995.51
663.76	37232.57
664.11	37346.01
664.461	37529.06
664.811	37517.3
665.161	37358.66
665.511	37139.01
665.862	37260.14
666.212	37300.81
666.562	37473.69
666.912	37378.1
667.262	37252.23
667.612	37349.4
667.962	37446.12
668.312	37351.66
668.662	37619.45
669.011	37549.17
669.361	37621.48
669.711	37657.64
670.06	37479.34
670.41	37515.04
670.76	37454.71
671.109	37567.7
671.459	37635.95
671.808	37458.1
672.157	37654.02
672.507	37529.96
672.856	37563.86
673.205	37672.78
673.554	37763.17
673.904	37602.73
674.253	37891.31
674.602	37848.6
674.951	37111.67
675.3	37113.25
675.649	37662.16
675.998	37719.79
676.346	37656.28
676.695	37956.61
677.044	37478.89
677.393	37695.15
677.741	37765.21
678.09	37686.57
678.438	37822.38
678.787	37732.67
679.135	37593.91
679.484	37524.31
679.832	37565.21
680.181	37424.43
680.529	37460.36
680.877	37491.77
681.225	37473.46
681.573	37740.58
681.922	37530.19
682.27	37494.71
682.618	37535.61
682.966	37181.27
683.314	37486.8
683.661	37273.47
684.009	37155.51
684.357	37077.32
684.705	37303.98
685.053	37290.42
685.4	37183.08
685.748	37086.36
686.095	37183.53
686.443	37071.21
686.79	37007.49
687.138	37106.69
687.485	36993.25
687.832	36950.54
688.18	37008.17
688.527	36891.56
688.874	36929.98
689.221	36755.29
689.568	36787.38
689.915	36623.32
690.262	36670.55
690.609	36555.97
690.956	36603.66
691.303	36582.64
691.65	36461.51
691.997	36490.89
692.344	36157.11
692.69	36266.49
693.037	36442.08
693.383	35967.74
693.73	36229.88
694.077	36067.63
694.423	36219.03
694.769	36001.41
695.116	35849.78
695.462	35940.85
695.808	35677.8
696.155	35848.65
696.501	35476
696.847	35620.63
697.193	35339.96
697.539	35491.82
697.885	35188.55
698.231	35203.24
698.577	35317.81
698.923	35270.81
699.269	35048.67
699.614	34943.59
699.96	34969.35
700.306	35044.38
700.651	35001.66
700.997	34867.88
701.342	34885.06
701.688	34765.96
702.033	34561.9
702.379	34774.55
702.724	34628.34
703.069	34748.34
703.415	34434
703.76	34468.57
704.105	34584.27
704.45	34338.41
704.795	34127.79
705.14	34130.27
705.485	34186.32
705.83	34039.2
706.175	34130.73
706.52	33957.62
706.865	33885.76
707.209	33833.79
707.554	33798.98
707.899	33885.08
708.243	33722.83
708.588	33743.17
708.932	33475.15
709.277	33571.87
709.621	33626.79
709.966	33477.86
710.31	33519.44
710.654	33284.42
710.998	33318.77
711.342	33436.73
711.687	33198.77
712.031	33242.39
712.375	33061.83
712.719	33129.4
713.063	33154.26
713.407	33265.21
713.75	32983.64
714.094	33239.45
714.438	33089.17
714.782	33083.07
715.125	32847.6
715.469	33018.21
715.812	32832.46
716.156	32696.41
716.499	32731.89
716.843	32883.3
717.186	32635.4
717.53	32802.4
717.873	32896.86
718.216	32800.37
718.559	32730.99
718.902	32520.37
719.246	32568.96
719.589	32557.89
719.932	32372.81
720.275	32490.32
720.617	32501.84
720.96	32368.97
721.303	32388.63
721.646	32400.38
721.989	32317.67
722.331	32373.03
722.674	32192.25
723.016	32308.85
723.359	32294.16
723.701	32382.75
724.044	32148.63
724.386	32045.13
724.729	32071.12
725.071	32116.32
725.413	32151.12
725.755	32120.38
726.097	31973.04
726.439	31917.45
726.782	31940.5
727.124	32006.04
727.465	31805.59
727.807	31851.46
728.149	31725.82
728.491	31726.5
728.833	31819.83
729.175	31664.13
729.516	31720.62
729.858	31640.17
730.199	31661.41
730.541	31571.02
730.882	31577.8
731.224	31639.27
731.565	31529.44
731.906	31623.22
732.248	31644.69
732.589	31581.87
732.93	31418.71
733.271	31546.39
733.612	31647.18
733.953	31573.51
734.294	31361.53
734.635	31517.46
734.976	31574.18
735.317	31426.62
735.658	31350.24
735.999	31500.29
736.339	31383.23
736.68	31445.37
737.021	31504.81
737.361	31384.36
737.702	31507.52
738.042	31341.65
738.383	31188.88
738.723	31325.38
739.063	31211.48
739.404	31211.71
739.744	31132.39
740.084	31180.3
740.424	31268.66
740.764	31102.33
741.104	31256.9
741.444	31110.02
741.784	31027.53
742.124	31094.87
742.464	30993.86
742.804	31026.18
743.143	30972.84
743.483	30942.79
743.823	30768.1
744.162	30918.83
744.502	30949.79
744.841	30780.08
745.181	30979.85
745.52	30854.88
745.86	30950.47
746.199	30849.91
746.538	30786.63
746.877	30934.65
747.216	30792.51
747.556	30870.25
747.895	30834.09
748.234	30759.29
748.573	30625.96
748.911	30613.08
749.25	30607.88
749.589	30513.42
749.928	30544.83
750.267	30558.84
750.605	30500.09
750.944	30591.38
751.283	30591.84
751.621	30490.37
751.96	30242.24
752.298	30268.46
752.636	30308.91
752.975	30073.43
753.313	29854.68
753.651	30270.26
753.989	30077.95
754.327	30095.13
754.666	29871.4
755.004	30068.91
755.342	30014.45
755.679	30002.7
756.017	29981.01
756.355	30055.35
756.693	29820.33
757.031	29739.43
757.368	29588.47
757.706	29636.61
758.044	29615.37
