Data from copper_heatsink_FLMS001491_003.txt Node
Date: Tue Feb 07 10:49:03 GMT 2017
User: dcchb
Spectrometer: FLMS00149
Trigger mode: 0
Integration Time (sec): 2.000000E-2
Scans to average: 10
Electric dark correction enabled: true
Nonlinearity correction enabled: false
Boxcar width: 0
XAxis mode: Wavelengths
Number of Pixels in Spectrum: 2048
>>>>>Begin Spectral Data<<<<<
341.393	-18.09
341.776	-18.09
342.16	-18.09
342.543	-59
342.927	-68.26
343.31	-63.06
343.693	-85.89
344.077	-81.14
344.46	-49.5
344.843	-25.78
345.226	-52.44
345.61	-32.78
345.993	-25.32
346.376	-8.6
346.759	12.41
347.142	39.98
347.525	52.87
347.908	60.55
348.291	78.4
348.674	67.78
349.057	112.53
349.44	141
349.823	129.02
350.206	162.02
350.588	237.27
350.971	249.47
351.354	272.97
351.737	284.72
352.119	289.7
352.502	296.48
352.884	313.42
353.267	333.31
353.65	344.84
354.032	349.58
354.414	343.71
354.797	349.13
355.179	376.25
355.562	363.37
355.944	384.38
356.326	374.21
356.709	373.08
357.091	381.22
357.473	410.6
357.855	380.09
358.238	384.16
358.62	391.39
359.002	396.13
359.384	389.58
359.766	381.44
360.148	374.44
360.53	402.91
360.912	401.11
361.294	379.18
361.676	373.31
362.057	380.77
362.439	399.3
362.821	353.2
363.203	362.01
363.584	373.54
363.966	388.68
364.348	362.69
364.729	382.35
365.111	377.38
365.493	363.59
365.874	380.54
366.256	375.12
366.637	368.34
367.019	365.17
367.4	363.82
367.781	391.16
368.163	376.7
368.544	379.41
368.925	363.82
369.306	381.9
369.688	380.99
370.069	371.95
370.45	380.77
370.831	382.35
371.212	392.74
371.593	366.98
371.974	373.08
372.355	370.15
372.736	376.93
373.117	387.77
373.498	369.47
373.879	386.19
374.26	379.86
374.641	389.35
375.021	372.86
375.402	377.6
375.783	382.57
376.163	393.2
376.544	409.47
376.925	399.52
377.305	399.52
377.686	424.38
378.066	413.08
378.447	387.55
378.827	410.37
379.208	411.05
379.588	419.64
379.968	429.35
380.349	415.79
380.729	416.02
381.109	411.05
381.489	418.05
381.87	454.66
382.25	440.65
382.63	426.64
383.01	433.19
383.39	451.5
383.77	435.91
384.15	453.99
384.53	452.63
384.91	454.21
385.29	451.05
385.67	449.01
386.049	458.5
386.429	470.26
386.809	446.53
387.189	444.95
387.568	449.69
387.948	453.99
388.328	476.58
388.707	471.39
389.087	468.45
389.466	467.77
389.846	472.52
390.225	482.69
390.605	491.27
390.984	483.81
391.363	488.11
391.743	502.8
392.122	484.94
392.501	517.26
392.881	482.69
393.26	493.53
393.639	502.12
394.018	506.87
394.397	521.1
394.776	520.65
395.155	522.46
395.534	504.15
395.913	516.58
396.292	526.53
396.671	523.59
397.05	527.2
397.429	547.09
397.808	525.17
398.186	543.25
398.565	541.89
398.944	553.87
399.323	561.55
399.701	554.77
400.08	554.55
400.458	561.33
400.837	569.01
401.215	567.2
401.594	570.59
401.972	548.67
402.351	577.15
402.729	572.4
403.107	585.51
403.486	581.21
403.864	590.25
404.242	609.01
404.62	593.19
404.999	613.53
405.377	606.98
405.755	589.35
406.133	603.81
406.511	627.77
406.889	650.82
407.267	626.41
407.645	665.28
408.023	642.23
408.401	623.25
408.779	652.17
409.156	653.53
409.534	660.99
409.912	663.47
410.29	663.25
410.667	659.63
411.045	679.52
411.422	673.41
411.8	668.67
412.178	683.36
412.555	708.89
412.933	709.12
413.31	720.87
413.687	732.62
414.065	724.49
414.442	719.06
414.819	726.07
415.197	726.97
415.574	755.9
415.951	737.82
416.328	758.61
416.705	759.51
417.082	757.25
417.46	743.7
417.837	780.53
418.214	790.25
418.591	775.56
418.967	792.96
419.344	801.32
419.721	819.85
420.098	834.09
420.475	828.44
420.852	833.86
421.228	823.92
421.605	832.73
421.982	831.15
422.358	841.32
422.735	837.25
423.111	861.43
423.488	850.13
423.864	860.53
424.241	881.54
424.617	910.92
424.994	903.24
425.37	879.28
425.746	856.23
426.123	876.8
426.499	933.52
426.875	926.06
427.251	936.01
427.627	947.31
428.003	939.4
428.379	954.31
428.756	975.55
429.132	962.45
429.507	983.46
429.883	997.02
430.259	1009
430.635	1011.03
431.011	1036.12
431.387	1054.65
431.763	1044.93
432.138	1040.86
432.514	1057.59
432.89	1075.21
433.265	1092.84
433.641	1086.74
434.016	1105.72
434.392	1098.26
434.767	1143.23
435.143	1128.09
435.518	1140.97
435.894	1142.55
436.269	1135.78
436.644	1165.15
437.02	1162.44
437.395	1191.59
437.77	1204.02
438.145	1205.83
438.52	1248.54
438.895	1209.22
439.271	1249.22
439.646	1236.34
440.021	1245.38
440.395	1271.36
440.77	1281.31
441.145	1265.72
441.52	1302.78
441.895	1290.35
442.27	1300.29
442.645	1310.91
443.019	1330.35
443.394	1310.69
443.769	1318.37
444.143	1296.22
444.518	1357.46
444.892	1305.26
445.267	1336.22
445.641	1352.72
446.016	1376.45
446.39	1370.12
446.764	1366.96
447.139	1370.35
447.513	1404.47
447.887	1393.17
448.262	1413.06
448.636	1406.73
449.01	1443.56
449.384	1465.94
449.758	1463.45
450.132	1475.88
450.506	1497.8
450.88	1470.91
451.254	1497.35
451.628	1507.97
452.002	1527.18
452.376	1533.96
452.75	1546.61
453.123	1560.4
453.497	1566.95
453.871	1599.94
454.244	1607.63
454.618	1632.71
454.992	1680.85
455.365	1671.81
455.739	1681.98
456.112	1695.08
456.486	1717
456.859	1718.13
457.232	1749.54
457.606	1733.95
457.979	1766.72
458.352	1792.03
458.725	1806.04
459.099	1841.29
459.472	1844.01
459.845	1869.32
460.218	1846.72
460.591	1893.5
460.964	1897.79
461.337	1982.76
461.71	2000.16
462.083	1988.86
462.456	2022.08
462.829	2022.08
463.201	2056.65
463.574	2056.2
463.947	2062.08
464.32	2096.2
464.692	2104.56
465.065	2149.31
465.438	2168.52
465.81	2228.18
466.183	2208.29
466.555	2264.56
466.928	2300.94
467.3	2267.27
467.672	2340.94
468.045	2371.67
468.417	2370.32
468.789	2400.83
469.161	2389.75
469.534	2464.78
469.906	2463.88
470.278	2492.12
470.65	2523.54
471.022	2582.06
471.394	2614.38
471.766	2621.39
472.138	2638.56
472.51	2716.75
472.882	2775.28
473.253	2819.12
473.625	2807.37
473.997	2856.86
474.369	2893.92
474.74	2909.29
475.112	2972.34
475.484	3014.6
475.855	3067.25
476.227	3049.4
476.598	3193.8
476.97	3199
477.341	3262.5
477.713	3305.89
478.084	3298.88
478.455	3385.21
478.827	3389.5
479.198	3528.48
479.569	3561.93
479.94	3573.68
480.311	3625.88
480.682	3702.49
481.053	3783.84
481.424	3846.21
481.795	3890.05
482.166	3944.74
482.537	4008.92
482.908	4025.19
483.279	4050.95
483.65	4178.63
484.021	4243.04
484.391	4275.58
484.762	4298.63
485.133	4337.05
485.503	4419.3
485.874	4490.04
486.244	4570.04
486.615	4611.39
486.985	4647.32
487.356	4772.97
487.726	4775.68
488.097	4851.84
488.467	4911.95
488.837	4987.65
489.207	5041.44
489.578	5098.16
489.948	5116.01
490.318	5242.56
490.688	5222.22
491.058	5308.09
491.428	5427.87
491.798	5436.68
492.168	5508.32
492.538	5557.13
492.908	5597.58
493.278	5674.19
493.648	5706.73
494.017	5818.14
494.387	5809.55
494.757	5826.05
495.126	5949.89
495.496	5981.07
495.866	5956.89
496.235	6042.76
496.605	6145.36
496.974	6198.47
497.344	6242.99
497.713	6265.81
498.082	6273.04
498.452	6348.07
498.821	6383.55
499.19	6470.55
499.559	6462.87
499.928	6525.46
500.298	6562.3
500.667	6617.89
501.036	6599.36
501.405	6633.71
501.774	6724.1
502.143	6774.72
502.512	6757.77
502.88	6829.41
503.249	6840.48
503.618	6876.19
503.987	6960.25
504.356	7051.1
504.724	7092.68
505.093	7095.39
505.462	7160.7
505.83	7203.41
506.199	7285.44
506.567	7388.72
506.936	7367.48
507.304	7410.19
507.672	7468.94
508.041	7540.8
508.409	7565.21
508.777	7643.85
509.145	7722.72
509.514	7727.47
509.882	7794.36
510.25	7843.17
510.618	7887.69
510.986	7915.48
511.354	8054.01
511.722	8052.43
512.09	8182.37
512.458	8164.06
512.826	8284.74
513.193	8320.45
513.561	8309.82
513.929	8424.4
514.297	8475.7
514.664	8553.89
515.032	8564.51
515.4	8715.01
515.767	8795.69
516.135	8778.96
516.502	8717.27
516.869	8950.03
517.237	8967.89
517.604	8997.04
517.972	9110.03
518.339	9163.59
518.706	9212.85
519.073	9272.74
519.44	9399.51
519.808	9416.24
520.175	9451.49
520.542	9609.22
520.909	9656.46
521.276	9681.09
521.643	9785.94
522.009	9889.67
522.376	9919.73
522.743	10095.31
523.11	10193.39
523.477	10223.9
523.843	10302.31
524.21	10416.44
524.577	10461.41
524.943	10609.42
525.31	10569.88
525.676	10747.5
526.043	10819.36
526.409	10883.09
526.776	11094.84
527.142	11054.38
527.508	11234.72
527.874	11273.14
528.241	11295.06
528.607	11365.79
528.973	11541.83
529.339	11540.25
529.705	11660.47
530.071	11711.99
530.437	11882.84
530.803	11951.31
531.169	11990.41
531.535	12054.13
531.901	12093.45
532.267	12266.78
532.632	12309.27
532.998	12380.68
533.364	12522.59
533.73	12514.23
534.095	12687.56
534.461	12749.71
534.826	12772.08
535.192	12864.96
535.557	12946.31
535.923	13031.51
536.288	13116.03
536.653	13168.23
537.019	13219.98
537.384	13281.9
537.749	13355.79
538.114	13416.58
538.479	13526.64
538.845	13622.68
539.21	13675.78
539.575	13747.2
539.94	13809.79
540.305	13927.76
540.67	14054.31
541.034	14039.84
541.399	14047.75
541.764	14185.83
542.129	14311.7
542.494	14383.79
542.858	14482.77
543.223	14569.55
543.587	14629.43
543.952	14687.28
544.316	14774.74
544.681	14849.09
545.045	14930.44
545.41	15047.5
545.774	15222.41
546.138	15225.12
546.503	15296.31
546.867	15376.3
547.231	15634.38
547.595	15671.66
547.959	15819
548.324	15787.59
548.688	15913.24
549.052	15998.89
549.416	16135.61
549.779	16222.16
550.143	16310.52
550.507	16478.65
550.871	16615.82
551.235	16761.58
551.599	16860.56
551.962	16899.43
552.326	17061.91
552.689	17311.4
553.053	17325.86
553.417	17400.21
553.78	17713.64
554.143	17729.92
554.507	17915.45
554.87	18037.48
555.234	18316.79
555.597	18233.18
555.96	18420.74
556.323	18590.46
556.686	18728.08
557.05	19016.66
557.413	19081.29
557.776	19287.61
558.139	19538
558.502	19657.55
558.865	19706.36
559.228	19965.79
559.59	20163.75
559.953	20324.42
560.316	20644.87
560.679	20770.06
561.041	21030.85
561.404	21125.76
561.767	21510.15
562.129	21512.87
562.492	21996.47
562.854	22072.17
563.217	22191.94
563.579	22470.58
563.941	22697.92
564.304	22910.57
564.666	23302.2
565.028	23277.11
565.39	23731.57
565.753	23972.46
566.115	24139.01
566.477	24396.41
566.839	24669.17
567.201	24986
567.563	25137.18
567.925	25439.32
568.287	25732.19
568.648	25882.24
569.01	26197.49
569.372	26485.84
569.734	26547.54
570.095	26944.36
570.457	27280.17
570.819	27608.3
571.18	27724.45
571.542	28017.1
571.903	28117.66
572.265	28526.02
572.626	28636.3
572.987	29070.86
573.349	29204.19
573.71	29584.97
574.071	29867
574.432	30021.12
574.794	30444.84
575.155	30533.19
575.516	30700.42
575.877	31051.15
576.238	31362.55
576.599	31615.43
576.96	31583.79
577.32	31970.22
577.681	32309.87
578.042	32596.64
578.403	32784.66
578.763	33033.92
579.124	33131.09
579.485	33484.76
579.845	33790.06
580.206	33860.79
580.566	34102.37
580.927	34208.58
581.287	34741.22
581.648	34675.46
582.008	34984.38
582.368	35050.82
582.728	35361.77
583.089	35467.3
583.449	35575.32
583.809	35800.17
584.169	36105.48
584.529	36056.44
584.889	36619.14
585.249	36631.34
585.609	36707.27
585.969	37175.28
586.329	37079.01
586.688	37403.07
587.048	37539.79
587.408	37664.76
587.768	37780.46
588.127	37978.65
588.487	38019.33
588.846	38516.71
589.206	38306.1
589.565	38555.58
589.925	38849.59
590.284	38918.51
590.643	39149.69
591.003	39400.08
591.362	39742.22
591.721	39680.98
592.08	39753.74
592.44	40039.16
592.799	40159.61
593.158	40215.88
593.517	40541.97
593.876	40660.16
594.235	40788.97
594.593	40971.11
594.952	41220.14
595.311	41329.75
595.67	41549.85
596.029	41725.67
596.387	41883.18
596.746	41986.9
597.104	42094.7
597.463	42220.34
597.822	42679.99
598.18	42523.84
598.538	42679.09
598.897	43150.72
599.255	42850.38
599.613	43629.57
599.972	43242.69
600.33	43589.12
600.688	43639.29
601.046	43878.61
601.404	44107.3
601.762	44141.65
602.12	44547.29
602.478	44710.22
602.836	44717.23
603.194	44802.88
603.552	44971.46
603.91	44942.98
604.268	45211.9
604.625	45345.91
604.983	45639.46
605.341	45547.49
605.698	45972.11
606.056	46210.3
606.413	46214.14
606.771	46455.71
607.128	46608.03
607.485	46597.4
607.843	46808.25
608.2	47060.44
608.557	47311.28
608.914	47291.17
609.272	47510.15
609.629	47765.96
609.986	47810.25
610.343	47749.92
610.7	48303.35
611.057	48342.67
611.414	48360.97
611.771	48507.19
612.127	48735.65
612.484	48810.45
612.841	49102.65
613.198	49039.15
613.554	49006.61
613.911	49279.37
614.267	49417.67
614.624	49593.94
614.98	49753.93
615.337	50042.74
615.693	50144.88
616.05	50030.08
616.406	50326.8
616.762	50302.84
617.118	50491.09
617.475	50514.59
617.831	50791.42
618.187	50843.85
618.543	51047.01
618.899	51185.76
619.255	51277.96
619.611	51294.68
619.967	51557.5
620.323	51623.94
620.678	51598.63
621.034	51573.32
621.39	51671.62
621.746	51781
622.101	52239.52
622.457	52082.23
622.812	52228.9
623.168	52296.69
623.523	52327.42
623.879	52558.83
624.234	52418.04
624.589	52610.13
624.945	52665.49
625.3	52808.99
625.655	52718.37
626.01	52751.14
626.365	53011.25
626.72	53108.65
627.075	53128.53
627.43	53189.32
627.785	53119.95
628.14	53292.14
628.495	53346.38
628.85	53371.01
629.205	53190.45
629.559	53512.25
629.914	53422.08
630.269	53547.96
630.623	53534.62
630.978	53596.77
631.332	53750.89
631.687	53832.47
632.041	53702.53
632.396	53872.47
632.75	53789.08
633.104	53945.91
633.459	53858.46
633.813	53836.76
634.167	53838.57
634.521	53963.76
634.875	54082.41
635.229	54040.37
635.583	53914.27
635.937	54086.02
636.291	54071.33
636.645	54145
636.999	54107.26
637.352	54306.58
637.706	54182.74
638.06	54306.58
638.413	54268.39
638.767	54268.39
639.121	54415.96
639.474	54294.83
639.828	54355.84
640.181	54477.42
640.534	54474.71
640.888	54488.5
641.241	54305.68
641.594	54451.89
641.947	54571.66
642.301	54526.24
642.654	54520.13
643.007	54676.51
643.36	54745.21
643.713	54738.66
644.066	54920.12
644.419	54719.45
644.771	54416.86
645.124	54083.99
645.477	54076.3
645.83	53950.88
646.182	54011.67
646.535	54135.51
646.888	54253.7
647.24	54183.87
647.593	54475.84
647.945	54421.38
648.298	54305.68
648.65	54405.34
649.002	54402.85
649.355	54494.37
649.707	54429.97
650.059	54476.97
650.411	54721.48
650.763	54956.96
651.115	55283.05
651.467	55181.81
651.819	55254.35
652.171	55220.91
652.523	55177.97
652.875	55163.96
653.227	55140
653.578	55405.31
653.93	55253.9
654.282	55231.75
654.633	55246.67
654.985	55327.57
655.337	55450.51
655.688	55546.77
656.039	55606.66
656.391	55431.52
656.742	55502.93
657.094	55530.73
657.445	55750.38
657.796	55677.84
658.147	55607.56
658.498	55643.95
658.849	55727.79
659.2	55750.84
659.551	55725.3
659.902	55830.38
660.253	55748.12
660.604	55822.47
660.955	55741.12
661.306	55875.8
661.656	55889.82
662.007	55917.39
662.358	55893.43
662.708	55872.19
663.059	56005.07
663.409	55863.15
663.76	56124.16
664.11	56125.74
664.461	56159.19
664.811	56230.15
665.161	56245.29
665.511	56098.62
665.862	56202.58
666.212	56412.51
666.562	56381.78
666.912	56412.74
667.262	56343.59
667.612	56452.06
667.962	56396.92
668.312	56411.38
668.662	56521.89
669.011	56516.92
669.361	56474.21
669.711	56500.87
670.06	56591.72
670.41	56510.82
670.76	56631.04
671.109	56716.01
671.459	56651.6
671.808	56690.7
672.157	56794.65
672.507	56671.94
672.856	56641.21
673.205	56727.76
673.554	56846.17
673.904	56738.16
674.253	56833.75
674.602	56846.63
674.951	56477.6
675.3	56401.67
675.649	56935.66
675.998	56886.85
676.346	56963.91
676.695	57087.3
677.044	56935.21
677.393	56940.86
677.741	57057.02
678.09	56949.67
678.438	56850.24
678.787	57086.17
679.135	57041.65
679.484	56899.51
679.832	56988.54
680.181	56863.35
680.529	56918.72
680.877	56891.82
681.225	56822.45
681.573	57094.98
681.922	57074.19
682.27	56966.85
682.618	57035.77
682.966	56946.96
683.314	57025.15
683.661	56944.48
684.009	56849.79
684.357	56850.92
684.705	56883.24
685.053	56876
685.4	56974.08
685.748	56880.07
686.095	56922.33
686.443	56901.09
686.79	56830.13
687.138	56917.13
687.485	56841.66
687.832	56821.54
688.18	56866.29
688.527	56788.78
688.874	56854.54
689.221	56731.38
689.568	56671.49
689.915	56642.56
690.262	56621.55
690.609	56566.63
690.956	56559.18
691.303	56644.15
691.65	56562.34
691.997	56509.23
692.344	56413.42
692.69	56391.95
693.037	56539.52
693.383	56263.59
693.73	56375.9
694.077	56319.86
694.423	56328.9
694.769	56272.86
695.116	56164.38
695.462	56162.8
695.808	56192.41
696.155	56162.8
696.501	56002.81
696.847	56048.68
697.193	55814.11
697.539	55938.63
697.885	55737.5
698.231	55688.24
698.577	55719.65
698.923	55793.1
699.269	55708.8
699.614	55624.29
699.96	55644.17
700.306	55650.27
700.651	55640.78
700.997	55574.12
701.342	55553.78
701.688	55470.39
702.033	55519.43
702.379	55365.54
702.724	55429.26
703.069	55523.5
703.415	55221.81
703.76	55214.81
704.105	55240.79
704.45	55193.79
704.795	55072.44
705.14	55070.85
705.485	55114.02
705.83	55020.91
706.175	55103.62
706.52	55061.36
706.865	54970.29
707.209	54904.98
707.554	54794.93
707.899	54896.17
708.243	54796.29
708.588	54850.75
708.932	54686.01
709.277	54755.38
709.621	54838.54
709.966	54628.15
710.31	54830.41
710.654	54411.44
710.998	54533.92
711.342	54474.94
711.687	54505.67
712.031	54426.8
712.375	54339.12
712.719	54395.62
713.063	54341.61
713.407	54414.6
713.75	54291.89
714.094	54328.5
714.438	54183.65
714.782	54331.21
715.125	54176.64
715.469	54285.79
715.812	54092.57
716.156	53960.15
716.499	54161.95
716.843	54214.15
717.186	53992.46
717.53	54168.73
717.873	54146.13
718.216	54029.53
718.559	53938.45
718.902	53842.19
719.246	53973.26
719.589	53869.08
719.932	53735.52
720.275	53762.19
720.617	53714.28
720.96	53808.06
721.303	53817.33
721.646	53851
721.989	53622.3
722.331	53834.28
722.674	53638.12
723.016	53658.46
723.359	53583.44
723.701	53738.46
724.044	53567.62
724.386	53467.73
724.729	53617.56
725.071	53569.88
725.413	53606.71
725.755	53552.7
726.097	53434.97
726.439	53293.5
726.782	53301.64
727.124	53544.79
727.465	53322.65
727.807	53411.69
728.149	53293.5
728.491	53285.36
728.833	53433.38
729.175	53297.57
729.516	53214.18
729.858	53132.15
730.199	53324.46
730.541	53156.33
730.882	53143.67
731.224	53270.68
731.565	53124.69
731.906	53218.7
732.248	53390.22
732.589	53124.69
732.93	52989.78
733.271	53063
733.612	53059.38
733.953	53170.34
734.294	53042.21
734.635	52987.75
734.976	53141.19
735.317	52978.93
735.658	52907.75
735.999	53017.8
736.339	52975.99
736.68	53028.42
737.021	52936.45
737.361	52815.77
737.702	53014.64
738.042	52927.18
738.383	52865.49
738.723	52901.87
739.063	52755.43
739.404	52847.64
739.744	52831.59
740.084	52673.18
740.424	52838.82
740.764	52589.11
741.104	52749.79
741.444	52612.84
741.784	52603.57
742.124	52678.83
742.464	52470.92
742.804	52512.73
743.143	52536.68
743.483	52492.84
743.823	52386.86
744.162	52411.04
744.502	52496.46
744.841	52354.77
745.181	52498.94
745.52	52456.46
745.86	52491.94
746.199	52470.47
746.538	52392.05
746.877	52403.13
747.216	52423.47
747.556	52397.93
747.895	52394.99
748.234	52277.48
748.573	52287.88
748.911	52237.03
749.25	52306.18
749.589	52096.47
749.928	52163.81
750.267	52290.36
750.605	52214.21
750.944	52114.32
751.283	51953.87
751.621	52105.06
751.96	51814.44
752.298	51804.95
752.636	51784.39
752.975	51643.37
753.313	51554.34
753.651	51747.1
753.989	51633.88
754.327	51531.74
754.666	51461.91
755.004	51419.42
755.342	51548.23
755.679	51463.27
756.017	51381.23
