Data from copper_heatsink_FLMS001491_064.txt Node
Date: Tue Feb 07 10:50:21 GMT 2017
User: dcchb
Spectrometer: FLMS00149
Trigger mode: 0
Integration Time (sec): 2.000000E-2
Scans to average: 10
Electric dark correction enabled: true
Nonlinearity correction enabled: false
Boxcar width: 0
XAxis mode: Wavelengths
Number of Pixels in Spectrum: 2048
>>>>>Begin Spectral Data<<<<<
341.393	2.37
341.776	2.37
342.16	2.37
342.543	-70.17
342.927	-81.47
343.31	-61.58
343.693	-70.85
344.077	-82.14
344.46	-59.32
344.843	-48.93
345.226	-12.77
345.61	-49.83
345.993	-31.52
346.376	-5.54
346.759	7.34
347.142	43.28
347.525	46.67
347.908	50.28
348.291	77.85
348.674	87.57
349.057	109.49
349.44	123.95
349.823	135.93
350.206	158.53
350.588	186.77
350.971	234.46
351.354	234.46
351.737	237.85
352.119	236.26
352.502	259.77
352.884	255.93
353.267	282.82
353.65	271.97
354.032	264.51
354.414	293.66
354.797	291.18
355.179	306.32
355.562	310.84
355.944	323.95
356.326	317.84
356.709	325.3
357.091	326.66
357.473	338.18
357.855	324.62
358.238	342.7
358.62	342.48
359.002	315.13
359.384	335.47
359.766	346.77
360.148	320.56
360.53	324.62
360.912	334.12
361.294	337.28
361.676	334.57
362.057	322.36
362.439	330.95
362.821	312.87
363.203	322.59
363.584	315.81
363.966	316.94
364.348	307.68
364.729	310.39
365.111	318.3
365.493	344.06
365.874	316.94
366.256	318.52
366.637	304.06
367.019	300.9
367.4	314.68
367.781	331.4
368.163	322.14
368.544	303.38
368.925	322.82
369.306	313.78
369.688	297.51
370.069	284.4
370.45	306.55
370.831	312.42
371.212	300.22
371.593	302.7
371.974	318.52
372.355	327.34
372.736	325.53
373.117	321.01
373.498	327.34
373.879	328.01
374.26	305.42
374.641	315.36
375.021	305.42
375.402	308.58
375.783	328.47
376.163	330.73
376.544	318.3
376.925	333.21
377.305	334.12
377.686	326.21
378.066	325.53
378.447	309.71
378.827	339.54
379.208	326.88
379.588	336.38
379.968	321.23
380.349	336.6
380.729	328.24
381.109	342.93
381.489	332.08
381.87	324.62
382.25	335.25
382.63	333.89
383.01	324.4
383.39	340.89
383.77	337.28
384.15	318.3
384.53	325.53
384.91	345.19
385.29	324.4
385.67	341.57
386.049	362.82
386.429	341.8
386.809	347.22
387.189	355.58
387.568	363.49
387.948	337.73
388.328	351.97
388.707	338.86
389.087	366.66
389.466	354
389.846	347.22
390.225	350.84
390.605	357.17
390.984	354.91
391.363	374.11
391.743	343.83
392.122	364.62
392.501	356.49
392.881	355.36
393.26	356.49
393.639	361.91
394.018	356.94
394.397	374.79
394.776	355.13
395.155	374.57
395.534	374.79
395.913	372.08
396.292	372.08
396.671	363.04
397.05	373.21
397.429	379.31
397.808	385.87
398.186	350.61
398.565	393.32
398.944	371.63
399.323	381.57
399.701	380.44
400.08	371.4
400.458	403.49
400.837	410.05
401.215	396.71
401.594	386.54
401.972	391.97
402.351	397.62
402.729	391.29
403.107	390.61
403.486	400.55
403.864	396.03
404.242	389.93
404.62	384.51
404.999	401.01
405.377	407.11
405.755	424.96
406.133	405.75
406.511	402.81
406.889	401.46
407.267	393.1
407.645	416.15
408.023	387.22
408.401	408.92
408.779	422.02
409.156	404.85
409.534	409.14
409.912	431.06
410.29	428.12
410.667	440.78
411.045	453.66
411.422	441.68
411.8	434.23
412.178	467.22
412.555	429.25
412.933	452.3
413.31	441.23
413.687	444.85
414.065	465.86
414.442	450.95
414.819	462.25
415.197	454.34
415.574	459.31
415.951	450.5
416.328	444.62
416.705	451.17
417.082	463.38
417.46	459.76
417.837	476.71
418.214	468.35
418.591	463.15
418.967	477.84
419.344	462.02
419.721	479.65
420.098	459.54
420.475	492.3
420.852	489.82
421.228	476.94
421.605	468.58
421.982	497.05
422.358	502.25
422.735	487.11
423.111	489.82
423.488	498.4
423.864	484.85
424.241	486.43
424.617	499.31
424.994	503.15
425.37	522.81
425.746	526.88
426.123	508.8
426.499	523.94
426.875	528.69
427.251	499.76
427.627	540.66
428.003	519.2
428.379	518.74
428.756	542.92
429.132	520.55
429.507	530.49
429.883	544.96
430.259	546.99
430.635	551.96
431.011	556.48
431.387	547.9
431.763	571.17
432.138	568.69
432.514	567.1
432.89	567.33
433.265	560.78
433.641	566.2
434.016	596.26
434.392	586.09
434.767	591.96
435.143	594
435.518	623.37
435.894	581.34
436.269	613.43
436.644	590.83
437.02	619.76
437.395	606.65
437.77	618.4
438.145	607.78
438.52	649.36
438.895	636.25
439.271	635.35
439.646	653.2
440.021	648.91
440.395	647.78
440.77	630.38
441.145	648.01
441.52	652.07
441.895	662.24
442.27	655.46
442.645	645.52
443.019	673.99
443.394	657.27
443.769	676.03
444.143	678.29
444.518	685.74
444.892	669.47
445.267	678.51
445.641	673.99
446.016	685.29
446.39	715.35
446.764	691.85
447.139	685.52
447.513	691.62
447.887	708.57
448.262	714.67
448.636	694.56
449.01	715.8
449.384	702.47
449.758	708.57
450.132	703.6
450.506	732.98
450.88	732.98
451.254	725.52
451.628	738.62
452.002	732.52
452.376	754.22
452.75	755.8
453.123	765.52
453.497	746.08
453.871	782.01
454.244	784.73
454.618	784.05
454.992	789.47
455.365	793.99
455.739	786.76
456.112	800.09
456.486	829.7
456.859	805.29
457.232	828.57
457.606	841.22
457.979	827.21
458.352	838.96
458.725	839.19
459.099	879.64
459.472	876.7
459.845	885.29
460.218	882.35
460.591	875.34
460.964	884.16
461.337	925.74
461.71	894.55
462.083	904.95
462.456	934.1
462.829	930.26
463.201	948.56
463.574	943.59
463.947	933.87
464.32	959.41
464.692	964.61
465.065	971.39
465.438	978.17
465.81	970.71
466.183	982.91
466.555	1022.91
466.928	1026.3
467.3	1045.06
467.672	1040.31
468.045	1051.84
468.417	1049.58
468.789	1059.97
469.161	1066.98
469.534	1090.25
469.906	1095.9
470.278	1110.59
470.65	1099.52
471.022	1139.52
471.394	1150.14
471.766	1140.87
472.138	1154.88
472.51	1172.06
472.882	1222.45
473.253	1222.23
473.625	1230.59
473.997	1269.46
474.369	1281.21
474.74	1313.52
475.112	1304.94
475.484	1274.43
475.855	1347.2
476.227	1335.9
476.598	1355.56
476.97	1385.61
477.341	1410.47
477.713	1419.28
478.084	1440.3
478.455	1480.53
478.827	1487.31
479.198	1520.3
479.569	1531.6
479.94	1541.54
480.311	1550.35
480.682	1588.09
481.053	1640.52
481.424	1641.65
481.795	1647.3
482.166	1680.97
482.537	1706.06
482.908	1719.62
483.279	1753.97
483.65	1752.84
484.021	1823.57
484.391	1793.29
484.762	1803.68
485.133	1874.41
485.503	1867.18
485.874	1918.25
486.244	1940.85
486.615	1959.38
486.985	1959.61
487.356	1995.09
487.726	2042.09
488.097	2064.24
488.467	2098.36
488.837	2118.48
489.207	2150.11
489.578	2160.06
489.948	2167.29
490.318	2205.03
490.688	2235.76
491.058	2229.66
491.428	2303.1
491.798	2332.03
492.168	2317.79
492.538	2319.15
492.908	2363.67
493.278	2407.96
493.648	2398.02
494.017	2438.69
494.387	2487.28
494.757	2475.08
495.126	2509.2
495.496	2547.39
495.866	2554.62
496.235	2476.21
496.605	2597.78
496.974	2605.69
497.344	2616.99
497.713	2642.53
498.082	2622.87
498.452	2678.23
498.821	2717.56
499.19	2713.26
499.559	2770.21
499.928	2784.67
500.298	2804.56
500.667	2794.84
501.036	2839.81
501.405	2842.3
501.774	2826.03
502.143	2880.49
502.512	2925.46
502.88	2910.54
503.249	2926.59
503.618	2928.85
503.987	2963.65
504.356	3044.1
504.724	3008.62
505.093	3018.34
505.462	3047.94
505.83	3049.52
506.199	3093.82
506.567	3150.99
506.936	3143.53
507.304	3126.81
507.672	3160.03
508.041	3193.93
508.409	3243.87
508.777	3229.63
509.145	3265.56
509.514	3282.96
509.882	3315.73
510.25	3351.89
510.618	3378.1
510.986	3384.88
511.354	3396.63
511.722	3445.22
512.09	3457.88
512.458	3438.67
512.826	3508.5
513.193	3515.95
513.561	3543.75
513.929	3560.02
514.297	3590.08
514.664	3653.8
515.032	3704.42
515.4	3674.14
515.767	3691.32
516.135	3759.79
516.502	3723.4
516.869	3829.16
517.237	3811.31
517.604	3800.92
517.972	3843.85
518.339	3891.08
518.706	3901.25
519.073	3868.03
519.44	3938.99
519.808	3992.1
520.175	3981.25
520.542	4067.35
520.909	4073.23
521.276	4096.5
521.643	4121.81
522.009	4161.81
522.376	4209.72
522.743	4258.31
523.11	4232.54
523.477	4250.4
523.843	4297.4
524.21	4350.06
524.577	4384.18
524.943	4424.86
525.31	4454.69
525.676	4543.04
526.043	4527.68
526.409	4536.26
526.776	4656.26
527.142	4622.14
527.508	4646.32
527.874	4670.27
528.241	4765.41
528.607	4732.19
528.973	4770.84
529.339	4795.47
529.705	4839.53
530.071	4900.32
530.437	4889.7
530.803	4953.2
531.169	4997.27
531.535	5036.82
531.901	5054.67
532.267	5044.05
532.632	5152.97
532.998	5134.89
533.364	5188.45
533.73	5164.95
534.095	5197.49
534.461	5263.03
534.826	5261.67
535.192	5318.84
535.557	5338.96
535.923	5421.89
536.288	5415.11
536.653	5453.08
537.019	5423.93
537.384	5524.71
537.749	5485.39
538.114	5553.19
538.479	5540.98
538.845	5578.95
539.21	5583.92
539.575	5629.57
539.94	5690.58
540.305	5701.88
540.67	5696.69
541.034	5710.02
541.399	5794.08
541.764	5811.71
542.129	5869.56
542.494	5847.19
542.858	5892.39
543.223	5922.9
543.587	5941.65
543.952	5991.14
544.316	6036.11
544.681	6009.22
545.045	6107.75
545.41	6146.17
545.774	6140.74
546.138	6167.63
546.503	6216.9
546.867	6225.03
547.231	6324.92
547.595	6289.67
547.959	6339.83
548.324	6292.38
548.688	6407.4
549.052	6479.49
549.416	6505.25
549.779	6547.51
550.143	6616.44
550.507	6678.58
550.871	6717
551.235	6659.82
551.599	6767.39
551.962	6857.56
552.326	6883.77
552.689	6914.51
553.053	6921.51
553.417	6980.04
553.78	7124.9
554.143	7083.54
554.507	7167.16
554.87	7165.35
555.234	7251
555.597	7259.58
555.96	7341.39
556.323	7429.52
556.686	7482.18
557.05	7608.95
557.413	7554.72
557.776	7654.15
558.139	7763.98
558.502	7726.24
558.865	7805.11
559.228	7898.21
559.59	7991.09
559.953	8026.12
560.316	8126.23
560.679	8187.24
561.041	8251.87
561.404	8352.89
561.767	8425.43
562.129	8474.69
562.492	8574.8
562.854	8591.3
563.217	8690.73
563.579	8774.35
563.941	8913.1
564.304	8930.95
564.666	9084.39
565.028	9137.05
565.39	9226.54
565.753	9348.34
566.115	9378.4
566.477	9479.41
566.839	9560.54
567.201	9650.93
567.563	9719.18
567.925	9824.49
568.287	9881.66
568.648	9881.44
569.01	10010.92
569.372	10172.73
569.734	10164.37
570.095	10316.23
570.457	10405.72
570.819	10476.67
571.18	10567.52
571.542	10650
571.903	10708.08
572.265	10814.07
572.626	10851.35
572.987	11056.32
573.349	11052.93
573.71	11138.35
574.071	11180.84
574.432	11277.33
574.794	11455.41
575.155	11532.92
575.516	11563.42
575.877	11597.55
576.238	11729.75
576.599	11798.67
576.96	11917.77
577.32	11915.28
577.681	12146.23
578.042	12056.97
578.403	12157.31
578.763	12307.59
579.124	12352.78
579.485	12456.51
579.845	12496.51
580.206	12525.66
580.566	12507.13
580.927	12628.71
581.287	12714.13
581.648	12795.26
582.008	12863.73
582.368	12872.77
582.728	12934.24
583.089	13011.3
583.449	13090.39
583.809	13064.85
584.169	13181.91
584.529	13191.4
584.889	13347.78
585.249	13296.26
585.609	13375.13
585.969	13514.79
586.329	13445.86
586.688	13553.2
587.048	13600.89
587.408	13609.7
587.768	13595.69
588.127	13705.29
588.487	13677.49
588.846	13903.25
589.206	13750.26
589.565	13875.23
589.925	13970.82
590.284	13857.38
590.643	13978.28
591.003	14062.34
591.362	14147.76
591.721	14156.58
592.08	14202
592.44	14241.32
592.799	14295.33
593.158	14289.91
593.517	14352.96
593.876	14390.47
594.235	14363.13
594.593	14488.77
594.952	14548.66
595.311	14535.55
595.67	14516.79
596.029	14669.11
596.387	14723.34
596.746	14733.96
597.104	14747.07
597.463	14783.23
597.822	14869.1
598.18	14910
598.538	14904.13
598.897	14971.24
599.255	14910.23
599.613	15130.79
599.972	15084.91
600.33	15203.78
600.688	15169.43
601.046	15255.08
601.404	15319.03
601.762	15326.49
602.12	15454.62
602.478	15502.3
602.836	15553.15
603.194	15421.4
603.552	15488.97
603.91	15494.62
604.268	15646.03
604.625	15675.41
604.983	15745.01
605.341	15655.52
605.698	15769.64
606.056	15896.42
606.413	15948.39
606.771	15905.23
607.128	16013.93
607.485	15906.36
607.843	15984.55
608.2	16107.49
608.557	16192.91
608.914	16186.13
609.272	16338.67
609.629	16347.48
609.986	16423.86
610.343	16384.99
610.7	16551.32
611.057	16493.01
611.414	16621.82
611.771	16512.9
612.127	16627.92
612.484	16650.3
612.841	16743.63
613.198	16723.29
613.554	16723.52
613.911	16890.52
614.267	16899.56
614.624	16896.84
614.98	16930.74
615.337	17094.35
615.693	17154.69
616.05	17105.2
616.406	17207.8
616.762	17104.3
617.118	17213.9
617.475	17209.15
617.831	17252.99
618.187	17357.17
618.543	17351.52
618.899	17508.35
619.255	17503.38
619.611	17501.12
619.967	17564.17
620.323	17634
620.678	17683.94
621.034	17479.43
621.39	17687.78
621.746	17566.2
622.101	17829.25
622.457	17718.74
622.812	17813.88
623.168	17867.67
623.523	17854.33
623.879	17969.36
624.234	17832.86
624.589	17942.01
624.945	18053.65
625.3	17949.92
625.655	17970.71
626.01	17938.17
626.365	18089.13
626.72	18004.61
627.075	18054.1
627.43	18089.58
627.785	18022.01
628.14	18156.02
628.495	18123.25
628.85	18151.27
629.205	18134.78
629.559	18198.73
629.914	18146.98
630.269	18166.19
630.623	18287.09
630.978	18224.27
631.332	18266.3
631.687	18373.87
632.041	18385.17
632.396	18337.71
632.75	18310.82
633.104	18303.36
633.459	18231.72
633.813	18196.92
634.167	18276.24
634.521	18242.35
634.875	18336.13
635.229	18367.09
635.583	18182.01
635.937	18296.81
636.291	18263.36
636.645	18341.78
636.999	18316.02
637.352	18384.26
637.706	18289.12
638.06	18439.63
638.413	18348.33
638.767	18296.13
639.121	18396.69
639.474	18387.88
639.828	18226.53
640.181	18281.21
640.534	18359.18
640.888	18326.41
641.241	18304.49
641.594	18345.39
641.947	18360.76
642.301	18276.02
642.654	18396.01
643.007	18356.69
643.36	18382.23
643.713	18321.89
644.066	18444.15
644.419	18387.65
644.771	18244.83
645.124	17987.66
645.477	17951.51
645.83	17855.24
646.182	17793.32
646.535	17921.22
646.888	17985.18
647.24	17928.91
647.593	17937.72
647.945	18009.81
648.298	17987.21
648.65	17929.13
649.002	17837.16
649.355	17920.77
649.707	17898.85
650.059	17858.63
650.411	18050.26
650.763	18115.79
651.115	18400.99
651.467	18328.67
651.819	18373.19
652.171	18387.88
652.523	18298.16
652.875	18336.35
653.227	18207.09
653.578	18399.18
653.93	18363.92
654.282	18305.62
654.633	18221.33
654.985	18404.15
655.337	18350.14
655.688	18382.23
656.039	18357.6
656.391	18282.57
656.742	18328.22
657.094	18470.14
657.445	18421.78
657.796	18461.32
658.147	18343.81
658.498	18469.23
658.849	18418.61
659.2	18438.05
659.551	18305.85
659.902	18487.76
660.253	18337.94
660.604	18482.11
660.955	18366.64
661.306	18496.58
661.656	18401.44
662.007	18489.12
662.358	18469.91
662.708	18491.83
663.059	18438.72
663.409	18388.33
663.76	18542.45
664.11	18549
664.461	18571.15
664.811	18600.75
665.161	18590.36
665.511	18574.31
665.862	18630.81
666.212	18697.02
666.562	18646.18
666.912	18658.38
667.262	18539.06
667.612	18616.12
667.962	18776.79
668.312	18717.36
668.662	18758.94
669.011	18687.98
669.361	18753.74
669.711	18686.18
670.06	18692.5
670.41	18696.12
670.76	18662.45
671.109	18728.43
671.459	18675.33
671.808	18683.01
672.157	18768.21
672.507	18704.71
672.856	18687.31
673.205	18760.3
673.554	18757.81
673.904	18733.63
674.253	18894.98
674.602	18761.2
674.951	18534.99
675.3	18473.98
675.649	18771.6
675.998	18774.08
676.346	18825.83
676.695	18912.38
677.044	18703.58
677.393	18786.06
677.741	18849.79
678.09	18844.59
678.438	18794.42
678.787	18897.47
679.135	18899.5
679.484	18789.45
679.832	18822.67
680.181	18760.3
680.529	18810.69
680.877	18806.62
681.225	18737.93
681.573	18838.71
681.922	18727.76
682.27	18676.01
682.618	18771.37
682.966	18689.57
683.314	18792.84
683.661	18767.98
684.009	18656.57
684.357	18614.09
684.705	18665.84
685.053	18608.89
685.4	18648.89
685.748	18529.34
686.095	18529.57
686.443	18488.89
686.79	18439.63
687.138	18493.64
687.485	18554.88
687.832	18472.4
688.18	18519.85
688.527	18442.34
688.874	18464.49
689.221	18371.16
689.568	18300.87
689.915	18400.53
690.262	18358.95
690.609	18354.66
690.956	18318.5
691.303	18312.17
691.65	18182.23
691.997	18233.08
692.344	18138.39
692.69	18135.46
693.037	18288.45
693.383	18089.13
693.73	18081.22
694.077	18082.8
694.423	18020.66
694.769	17905.86
695.116	17916.48
695.462	17979.08
695.808	17874.45
696.155	17970.71
696.501	17840.77
696.847	17831.96
697.193	17718.97
697.539	17788.35
697.885	17800.32
698.231	17634
698.577	17642.36
698.923	17589.93
699.269	17592.19
699.614	17445.08
699.96	17531.63
700.306	17575.92
700.651	17415.02
700.997	17359.2
701.342	17389.49
701.688	17473.1
702.033	17367.57
702.379	17380.45
702.724	17291.41
703.069	17270.17
703.415	17206.67
703.76	17125.09
704.105	17166.67
704.45	17206.44
704.795	17035.15
705.14	17026.56
705.485	17041.92
705.83	16948.37
706.175	17022.04
706.52	16931.87
706.865	16999.21
707.209	16897.07
707.554	16816.85
707.899	16841.25
708.243	16827.47
708.588	16891.65
708.932	16681.93
709.277	16728.03
709.621	16711.31
709.966	16649.17
710.31	16679
710.654	16571.65
710.998	16615.95
711.342	16625.66
711.687	16638.32
712.031	16596.96
712.375	16558.77
712.719	16584.99
713.063	16527.59
713.407	16527.14
713.75	16510.41
714.094	16496.63
714.438	16356.97
714.782	16438.32
715.125	16414.37
715.469	16399.91
715.812	16325.11
716.156	16268.39
716.499	16400.36
716.843	16313.81
717.186	16263.19
717.53	16239.01
717.873	16268.39
718.216	16156.07
718.559	16185.22
718.902	16159.24
719.246	16171.21
719.589	16177.31
719.932	16057.09
720.275	16030.43
720.617	16122.4
720.96	16092.8
721.303	16038.56
721.646	16050.99
721.989	15909.53
722.331	15997.21
722.674	15931.45
723.016	15950.88
723.359	15944.33
723.701	16063.87
724.044	15968.05
724.386	15770.09
724.729	15902.75
725.071	15871.33
725.413	15885.57
725.755	15869.07
726.097	15799.92
726.439	15725.58
726.782	15821.84
727.124	15919.47
727.465	15848.74
727.807	15821.84
728.149	15810.54
728.491	15797.66
728.833	15793.6
729.175	15766.48
729.516	15730.09
729.858	15654.16
730.199	15735.97
730.541	15697.1
730.882	15728.06
731.224	15828.85
731.565	15639.02
731.906	15700.27
732.248	15666.37
732.589	15662.07
732.93	15630.21
733.271	15615.75
733.612	15700.49
733.953	15718.12
734.294	15561.51
734.635	15515.41
734.976	15579.14
735.317	15528.29
735.658	15548.63
735.999	15531.91
736.339	15459.82
736.68	15524.9
737.021	15481.97
737.361	15428.18
737.702	15555.64
738.042	15494.85
738.383	15448.52
738.723	15499.14
739.063	15396.09
739.404	15420.5
739.744	15443.1
740.084	15378.24
740.424	15500.72
740.764	15422.98
741.104	15500.27
741.444	15255.98
741.784	15287.39
742.124	15390.67
742.464	15367.17
742.804	15406.94
743.143	15371.69
743.483	15455.75
743.823	15302.08
744.162	15334.17
744.502	15296.66
744.841	15260.73
745.181	15243.55
745.52	15216.66
745.86	15219.15
746.199	15203.33
746.538	15172.37
746.877	15210.11
747.216	15192.03
747.556	15110.9
747.895	15116.33
748.234	15029.55
748.573	15116.55
748.911	15059.38
749.25	15118.36
749.589	15061.64
749.928	15077.68
750.267	14995.2
750.605	14988.19
750.944	14985.93
751.283	14870.23
751.621	14977.8
751.96	14817.8
752.298	14863.23
752.636	14908.42
752.975	14845.82
753.313	14768.99
753.651	14819.61
753.989	14794.75
754.327	14852.15
754.666	14793.4
755.004	14829.55
755.342	14763.79
755.679	14766.96
756.017	14705.04
756.355	14783.45
756.693	14662.1
757.031	14666.17
757.368	14617.81
757.706	14605.6
758.044	14562.22
758.381	14554.76
758.719	14566.28
759.056	14546.17
759.394	14468.43
759.731	14423.01
760.068	14504.82
760.405	14397.93
