Data from copper_heatsink_FLMS001491_098.txt Node
Date: Tue Feb 07 10:50:53 GMT 2017
User: dcchb
Spectrometer: FLMS00149
Trigger mode: 0
Integration Time (sec): 2.000000E-2
Scans to average: 10
Electric dark correction enabled: true
Nonlinearity correction enabled: false
Boxcar width: 0
XAxis mode: Wavelengths
Number of Pixels in Spectrum: 2048
>>>>>Begin Spectral Data<<<<<
341.393	1.65
341.776	1.65
342.16	1.65
342.543	-65.01
342.927	-64.56
343.31	-58.91
343.693	-66.59
344.077	-52.81
344.46	-32.24
344.843	-40.38
345.226	-44.22
345.61	-38.12
345.993	-28.4
346.376	-24.79
346.759	7.08
347.142	24.93
347.525	42.78
347.908	52.05
348.291	72.16
348.674	87.75
349.057	99.73
349.44	111.25
349.823	145.83
350.206	155.32
350.588	194.64
350.971	216.34
351.354	253.17
351.737	258.14
352.119	254.75
352.502	277.13
352.884	281.65
353.267	285.71
353.65	294.75
354.032	304.7
354.414	294.53
354.797	304.7
355.179	315.54
355.562	325.03
355.944	318.03
356.326	341.08
356.709	332.04
357.091	319.84
357.473	323.45
357.855	328.42
358.238	349.21
358.62	351.7
359.002	340.63
359.384	351.25
359.766	333.4
360.148	337.46
360.53	339.04
360.912	333.62
361.294	353.06
361.676	349.67
362.057	348.99
362.439	330.91
362.821	326.62
363.203	323.68
363.584	344.47
363.966	332.04
364.348	321.19
364.729	307.18
365.111	352.38
365.493	330.91
365.874	344.47
366.256	313.28
366.637	342.21
367.019	332.49
367.4	324.58
367.781	308.54
368.163	316.22
368.544	315.99
368.925	322.32
369.306	313.51
369.688	290.91
370.069	336.56
370.45	315.99
370.831	314.19
371.212	325.03
371.593	311.93
371.974	337.24
372.355	341.76
372.736	331.59
373.117	338.82
373.498	325.94
373.879	339.72
374.26	290.46
374.641	311.7
375.021	327.29
375.402	341.08
375.783	340.85
376.163	346.5
376.544	341.3
376.925	339.5
377.305	346.05
377.686	336.78
378.066	351.02
378.447	339.27
378.827	351.02
379.208	339.27
379.588	333.4
379.968	348.54
380.349	369.33
380.729	348.08
381.109	361.42
381.489	346.5
381.87	337.69
382.25	347.18
382.63	336.78
383.01	370
383.39	353.28
383.77	346.73
384.15	370.46
384.53	349.67
384.91	371.36
385.29	362.09
385.67	346.28
386.049	371.13
386.429	366.84
386.809	366.61
387.189	380.85
387.568	385.15
387.948	373.39
388.328	379.95
388.707	376.33
389.087	381.3
389.466	379.04
389.846	380.4
390.225	381.08
390.605	402.55
390.984	386.73
391.363	391.7
391.743	393.51
392.122	383.34
392.501	393.73
392.881	397.8
393.26	372.72
393.639	384.92
394.018	400.29
394.397	408.87
394.776	383.11
395.155	383.34
395.534	390.34
395.913	404.81
396.292	430.34
396.671	409.55
397.05	396.22
397.429	408.87
397.808	413.62
398.186	410
398.565	411.59
398.944	415.43
399.323	418.14
399.701	434.18
400.08	429.44
400.458	434.18
400.837	449.1
401.215	427.86
401.594	421.08
401.972	420.17
402.351	431.92
402.729	444.8
403.107	443.45
403.486	428.31
403.864	429.89
404.242	430.34
404.62	445.26
404.999	445.48
405.377	435.31
405.755	462.21
406.133	456.1
406.511	464.01
406.889	439.83
407.267	462.88
407.645	454.75
408.023	466.05
408.401	475.54
408.779	476.67
409.156	461.98
409.534	486.61
409.912	470.11
410.29	501.3
410.667	471.47
411.045	497.01
411.422	489.78
411.8	505.37
412.178	502.2
412.555	502.2
412.933	497.46
413.31	498.36
413.687	505.37
414.065	515.99
414.442	512.83
414.819	516.89
415.197	508.31
415.574	528.87
415.951	520.06
416.328	536.55
416.705	540.17
417.082	515.99
417.46	519.83
417.837	536.33
418.214	535.88
418.591	568.19
418.967	548.53
419.344	557.12
419.721	561.19
420.098	538.36
420.475	570.23
420.852	581.98
421.228	568.87
421.605	562.99
421.982	567.29
422.358	551.02
422.735	569.55
423.111	570.68
423.488	590.79
423.864	579.26
424.241	606.16
424.617	595.08
424.994	611.13
425.37	591.24
425.746	602.09
426.123	602.77
426.499	606.16
426.875	622.88
427.251	605.25
427.627	643.67
428.003	624.01
428.379	644.8
428.756	623.33
429.132	635.99
429.507	620.39
429.883	655.87
430.259	680.05
430.635	654.29
431.011	660.17
431.387	685.93
431.763	654.06
432.138	680.5
432.514	672.82
432.89	670.11
433.265	685.93
433.641	687.06
434.016	707.62
434.392	709.43
434.767	725.02
435.143	725.48
435.518	746.04
435.894	727.28
436.269	760.95
436.644	727.06
437.02	725.93
437.395	746.49
437.77	765.7
438.145	776.55
438.52	770.45
438.895	786.49
439.271	759.6
439.646	783.78
440.021	786.26
440.395	773.84
440.77	770.67
441.145	792.59
441.52	791.01
441.895	796.21
442.27	796.43
442.645	829.88
443.019	824
443.394	820.16
443.769	824
444.143	821.74
444.518	813.83
444.892	846.15
445.267	846.15
445.641	827.17
446.016	849.54
446.39	859.26
446.764	859.26
447.139	872.82
447.513	871.23
447.887	881.63
448.262	873.95
448.636	847.73
449.01	868.3
449.384	894.51
449.758	863.32
450.132	911.46
450.506	906.04
450.88	914.4
451.254	908.75
451.628	919.14
452.002	914.4
452.376	959.59
452.75	929.76
453.123	939.25
453.497	951.91
453.871	982.87
454.244	957.56
454.618	999.37
454.992	984.9
455.365	1008.18
455.739	1029.42
456.112	1017.22
456.486	1032.13
456.859	1061.74
457.232	1039.37
457.606	1053.38
457.979	1056.54
458.352	1099.93
458.725	1082.75
459.099	1092.47
459.472	1105.13
459.845	1131.34
460.218	1127.27
460.591	1118.46
460.964	1174.95
461.337	1154.84
461.71	1162.98
462.083	1187.61
462.456	1181.73
462.829	1210.89
463.201	1216.99
463.574	1225.35
463.947	1221.06
464.32	1234.61
464.692	1233.94
465.065	1280.71
465.438	1263.31
465.81	1301.28
466.183	1308.74
466.555	1310.32
466.928	1362.75
467.3	1369.3
467.672	1366.59
468.045	1377.89
468.417	1383.99
468.789	1367.94
469.161	1387.83
469.534	1430.09
469.906	1476.42
470.278	1505.57
470.65	1498.56
471.022	1508.28
471.394	1518.22
471.766	1541.5
472.138	1581.27
472.51	1596.41
472.882	1620.82
473.253	1621.27
473.625	1653.13
473.997	1703.53
474.369	1693.59
474.74	1707.6
475.112	1732.91
475.484	1774.94
475.855	1825.33
476.227	1795.05
476.598	1859.23
476.97	1867.59
477.341	1868.5
477.713	1923.64
478.084	1942.62
478.455	1976.29
478.827	1964.99
479.198	2014.71
479.569	2066.46
479.94	2073.24
480.311	2115.04
480.682	2147.81
481.053	2222.61
481.424	2246.11
481.795	2266.9
482.166	2307.35
482.537	2348.03
482.908	2359.56
483.279	2363.85
483.65	2450.63
484.021	2434.13
484.391	2470.29
484.762	2458.09
485.133	2516.39
485.503	2587.8
485.874	2615.37
486.244	2673.9
486.615	2726.1
486.985	2710.28
487.356	2752.31
487.726	2807.91
488.097	2834.12
488.467	2846.55
488.837	2932.87
489.207	2964.29
489.578	3036.83
489.948	3044.74
490.318	3018.07
490.688	3100.78
491.058	3066.2
491.428	3167.44
491.798	3227.56
492.168	3233.88
492.538	3246.76
492.908	3266.2
493.278	3305.75
493.648	3366.31
494.017	3427.78
494.387	3449.25
494.757	3451.73
495.126	3484.72
495.496	3498.51
495.866	3556.59
496.235	3573.31
496.605	3602.46
496.974	3617.83
497.344	3662.8
497.713	3692.63
498.082	3717.71
498.452	3776.69
498.821	3782.34
499.19	3789.12
499.559	3853.75
499.928	3833.87
500.298	3879.29
500.667	3954.54
501.036	3914.77
501.405	3980.08
501.774	3995.67
502.143	4023.24
502.512	4038.16
502.88	4067.31
503.249	4098.49
503.618	4125.16
503.987	4095.33
504.356	4185.72
504.724	4196.57
505.093	4209
505.462	4225.95
505.83	4274.53
506.199	4328.09
506.567	4369.22
506.936	4359.05
507.304	4458.26
507.672	4441.76
508.041	4442.89
508.409	4536.67
508.777	4560.85
509.145	4590.68
509.514	4587.52
509.882	4647.18
510.25	4641.76
510.618	4718.36
510.986	4744.58
511.354	4785.71
511.722	4810.11
512.09	4836.55
512.458	4897.57
512.826	4872.26
513.193	4965.14
513.561	5000.17
513.929	5063.67
514.297	5026.15
514.664	5119.03
515.032	5121.74
515.4	5161.97
515.767	5227.28
516.135	5292.81
516.502	5282.42
516.869	5327.16
517.237	5386.6
517.604	5355.64
517.972	5450.32
518.339	5458.46
518.706	5483.09
519.073	5484.45
519.44	5569.42
519.808	5638.79
520.175	5653.48
520.542	5768.28
520.909	5778.68
521.276	5784.1
521.643	5853.48
522.009	5897.99
522.376	5929.41
522.743	5949.74
523.11	6050.31
523.477	6095.5
523.843	6141.6
524.21	6195.39
524.577	6303.41
524.943	6290.53
525.31	6292.11
525.676	6370.98
526.043	6422.73
526.409	6518.77
526.776	6577.98
527.142	6549.73
527.508	6598.54
527.874	6713.34
528.241	6728.48
528.607	6789.04
528.973	6825.43
529.339	6845.99
529.705	6925.31
530.071	7051.18
530.437	7033.78
530.803	7089.15
531.169	7170.5
531.535	7121.01
531.901	7191.52
532.267	7283.04
532.632	7285.3
532.998	7357.39
533.364	7320.56
533.73	7450.95
534.095	7437.84
534.461	7548.12
534.826	7584.5
535.192	7629.25
535.557	7741.11
535.923	7757.83
536.288	7713.99
536.653	7843.71
537.019	7806.42
537.384	7948.79
537.749	7975.23
538.114	7948.56
538.479	8058.39
538.845	8080.08
539.21	7997.15
539.575	8104.72
539.94	8115.79
540.305	8224.94
540.67	8269.46
541.034	8298.61
541.399	8353.75
541.764	8431.71
542.129	8438.27
542.494	8482.33
542.858	8528.43
543.223	8559.62
543.587	8663.8
543.952	8636
544.316	8791.03
544.681	8746.51
545.045	8743.57
545.41	8798.26
545.774	8934.52
546.138	8988.53
546.503	9044.13
546.867	9074.63
547.231	9154.41
547.595	9179.26
547.959	9214.29
548.324	9315.98
548.688	9339.71
549.052	9406.15
549.416	9430.78
549.779	9428.07
550.143	9562.31
550.507	9693.15
550.871	9684.34
551.235	9740.15
551.599	9873.03
551.962	9878.68
552.326	9934.72
552.689	10044.1
553.053	9965.01
553.417	10139.47
553.78	10313.92
554.143	10259.69
554.507	10343.75
554.87	10416.97
555.234	10588.72
555.597	10602.73
555.96	10691.31
556.323	10781.03
556.686	10819.22
557.05	10935.6
557.413	10959.33
557.776	11093.34
558.139	11264.18
558.502	11318.42
558.865	11417.17
559.228	11462.14
559.59	11563.16
559.953	11734.45
560.316	11848.57
560.679	11898.29
561.041	12011.05
561.404	12156.59
561.767	12294.89
562.129	12365.85
562.492	12548.44
562.854	12651.49
563.217	12631.6
563.579	12793.41
563.941	12929.9
564.304	12989.79
564.666	13178.93
565.028	13321.98
565.39	13405.14
565.753	13627.06
566.115	13701.86
566.477	13810.1
566.839	13852.59
567.201	14076.99
567.563	14086.25
567.925	14261.84
568.287	14457.54
568.648	14528.28
569.01	14757.2
569.372	14848.27
569.734	14927.81
570.095	15061.82
570.457	15202.38
570.819	15177.07
571.18	15405.77
571.542	15641.69
571.903	15784.51
572.265	15848.92
572.626	15851.41
572.987	16102.47
573.349	16176.37
573.71	16485.74
574.071	16572.97
574.432	16656.36
574.794	16810.93
575.155	16835.33
575.516	16914.88
575.877	17089.11
576.238	17155.78
576.599	17320.75
576.96	17434.19
577.32	17536.11
577.681	17718.93
578.042	17744.24
578.403	17859.71
578.763	17917.11
579.124	17979.26
579.485	18198.46
579.845	18339.02
580.206	18397.1
580.566	18404.56
580.927	18564.78
581.287	18765.9
581.648	18636.64
582.008	18861.95
582.368	18870.99
582.728	18995.96
583.089	19118.89
583.449	19079.34
583.809	19292.9
584.169	19431.42
584.529	19336.96
584.889	19519.78
585.249	19514.36
585.609	19597.3
585.969	19822.37
586.329	19682.26
586.688	19848.36
587.048	19962.94
587.408	19891.75
587.768	19945.99
588.127	20119.54
588.487	20112.54
588.846	20243.83
589.206	20216.49
589.565	20354.56
589.925	20435.92
590.284	20412.87
590.643	20571.73
591.003	20672.75
591.362	20877.26
591.721	20804.5
592.08	20937.6
592.44	20940.08
592.799	21045.39
593.158	20971.5
593.517	21049.01
593.876	21151.38
594.235	21187.99
594.593	21264.37
594.952	21361.32
595.311	21370.13
595.67	21513.63
596.029	21624.59
596.387	21649.44
596.746	21787.07
597.104	21786.84
597.463	21728.54
597.822	21883.79
598.18	21882.66
598.538	21856.45
598.897	22123.33
599.255	22022.32
599.613	22333.04
599.972	22242.65
600.33	22329.43
600.688	22367.84
601.046	22515.18
601.404	22625.01
601.762	22493.26
602.12	22741.17
602.478	22691.23
602.836	22761.73
603.194	22729.42
603.552	22858.9
603.91	22900.49
604.268	23166.47
604.625	22970.77
604.983	23183.19
605.341	23119.91
605.698	23413.69
606.056	23448.49
606.413	23350.87
606.771	23566.91
607.128	23648.71
607.485	23545.44
607.843	23596.74
608.2	23789.5
608.557	23957.41
608.914	23816.39
609.272	24031.53
609.629	24048.93
609.986	24167.57
610.343	24136.16
610.7	24359.2
611.057	24360.11
611.414	24506.09
611.771	24483.95
612.127	24563.04
612.484	24753.54
612.841	24695.69
613.198	24762.81
613.554	24825.18
613.911	25012.75
614.267	24962.58
614.624	25098.17
614.98	25056.59
615.337	25210.48
615.693	25118.05
616.05	25209.58
616.406	25416.13
616.762	25378.39
617.118	25510.59
617.475	25525.95
617.831	25565.05
618.187	25694.08
618.543	25724.37
618.899	25913.51
619.255	25890.69
619.611	25924.81
619.967	26040.97
620.323	26063.34
620.678	26075.54
621.034	26050.91
621.39	26159.16
621.746	26123
622.101	26478.47
622.457	26246.16
622.812	26354.18
623.168	26552.82
623.523	26488.41
623.879	26494.06
624.234	26434.63
624.589	26504.68
624.945	26543.1
625.3	26581.97
625.655	26640.73
626.01	26690.89
626.365	26708.97
626.72	26840.04
627.075	26699.48
627.43	26883.21
627.785	26770.89
628.14	26803.43
628.495	26946.48
628.85	26921.85
629.205	26827.84
629.559	27009.98
629.914	26916.88
630.269	27023.31
630.623	27084.33
630.978	27061.28
631.332	27174.5
631.687	27182.86
632.041	27090.66
632.396	27243.2
632.75	27172.92
633.104	27208.39
633.459	27116.65
633.813	27127.94
634.167	27239.13
634.521	27165.91
634.875	27292.01
635.229	27231.67
635.583	27069.19
635.937	27056.53
636.291	27243.2
636.645	27129.3
636.999	27186.25
637.352	27276.87
637.706	27097.66
638.06	27275.96
638.413	27109.64
638.767	27174.27
639.121	27260.6
639.474	27201.62
639.828	27169.98
640.181	27183.08
640.534	27248.17
640.888	27220.82
641.241	27193.03
641.594	27212.69
641.947	27388.73
642.301	27230.54
642.654	27316.87
643.007	27361.39
643.36	27348.05
643.713	27300.14
644.066	27431.89
644.419	27292.46
644.771	27074.61
645.124	26706.04
645.477	26773.15
645.83	26554.63
646.182	26470.79
646.535	26546.49
646.888	26682.76
647.24	26480.96
647.593	26821.29
647.945	26741.74
648.298	26633.49
648.65	26658.13
649.002	26614.96
649.355	26653.16
649.707	26477.34
650.059	26500.62
650.411	26889.53
650.763	26970.43
651.115	27319.13
651.467	27313.25
651.819	27253.14
652.171	27272.57
652.523	27291.56
652.875	27194.84
653.227	27226.47
653.578	27341.5
653.93	27294.04
654.282	27167.49
654.633	27147.15
654.985	27211.78
655.337	27180.37
655.688	27274.61
656.039	27380.37
656.391	27308.73
656.742	27285.91
657.094	27410.2
657.445	27461.5
657.796	27467.82
658.147	27331.78
658.498	27340.82
658.849	27419.46
659.2	27304.89
659.551	27198.68
659.902	27411.78
660.253	27415.39
660.604	27427.6
660.955	27358
661.306	27395.28
661.656	27433.7
662.007	27526.35
662.358	27574.03
662.708	27491.78
663.059	27557.54
663.409	27292.46
663.76	27734.93
664.11	27582.62
664.461	27702.85
664.811	27737.19
665.161	27706.01
665.511	27645.22
665.862	27670.98
666.212	27798.21
666.562	27746.69
666.912	27809.73
667.262	27723.86
667.612	27731.32
667.962	27891.09
668.312	27722.96
668.662	27842.05
669.011	27906
669.361	27865.78
669.711	27888.38
670.06	27811.54
670.41	27598.22
670.76	27743.97
671.109	27810.41
671.459	27857.87
671.808	27745.56
672.157	27901.26
672.507	27741.71
672.856	27766.12
673.205	27912.33
673.554	28044.3
673.904	27878.66
674.253	28083.17
674.602	27944.65
674.951	27655.61
675.3	27462.85
675.649	27850.19
675.998	27931.54
676.346	27940.58
676.695	28108.71
677.044	27880.02
677.393	27992.33
677.741	27975.38
678.09	27954.59
678.438	27900.13
678.787	28004.53
679.135	27891.09
679.484	27863.97
679.832	27950.52
680.181	27776.52
680.529	27892.9
680.877	27868.04
681.225	27861.26
681.573	28031.42
681.922	27852.45
682.27	27716.18
682.618	27840.47
682.966	27702.62
683.314	27810.86
683.661	27694.48
684.009	27539.69
684.357	27539.69
684.705	27539.69
685.053	27661.04
685.4	27548.72
685.748	27533.81
686.095	27492.23
686.443	27462.17
686.79	27410.65
687.138	27401.38
687.485	27465.79
687.832	27377.2
688.18	27297.88
688.527	27228.96
688.874	27314.83
689.221	27341.05
689.568	27284.1
689.915	27122.97
690.262	27331.56
690.609	27181.05
690.956	27041.39
691.303	26966.59
691.65	26893.6
691.997	26850.44
692.344	26969.98
692.69	26889.99
693.037	26915.97
693.383	26585.13
693.73	26714.17
694.077	26551.01
694.423	26671.23
694.769	26552.14
695.116	26509.2
695.462	26496.1
695.808	26405.7
696.155	26442.77
696.501	26337.01
696.847	26388.3
697.193	26155.77
697.539	26155.09
697.885	26040.52
698.231	26034.19
698.577	25960.29
698.923	25925.94
699.269	25910.8
699.614	25890.24
699.96	25900.63
700.306	25763.91
700.651	25660.86
700.997	25589.68
701.342	25753.97
701.688	25824.7
702.033	25528.21
702.379	25558.95
702.724	25595.1
703.069	25589.23
703.415	25240.08
703.76	25336.35
704.105	25422.68
704.45	25258.39
704.795	25135.23
705.14	25221.33
705.485	25201.44
705.83	25198.5
706.175	25141.1
706.52	25050.03
706.865	24993.76
707.209	24957.15
707.554	24892.98
707.899	24931.39
708.243	24931.62
708.588	24769.14
708.932	24714.45
709.277	24697.05
709.621	24780.44
709.966	24566.43
710.31	24765.97
710.654	24442.37
710.998	24569.14
711.342	24568.69
711.687	24554.68
712.031	24449.82
712.375	24338.41
712.719	24321.92
713.063	24230.39
713.407	24435.59
713.75	24279.43
714.094	24193.78
714.438	24091.19
714.782	24228.13
715.125	24112.66
715.469	24218.64
715.812	24057.07
716.156	24002.6
716.499	24006.67
716.843	24062.26
717.186	23789.73
717.53	23934.58
717.873	23930.97
718.216	23867.47
718.559	23845.77
718.902	23778.65
719.246	23874.02
719.589	23728.26
719.932	23680.13
720.275	23679.45
720.617	23729.84
720.96	23726
721.303	23683.06
721.646	23788.37
721.989	23582.73
722.331	23708.6
722.674	23604.2
723.016	23621.14
723.359	23523.29
723.701	23651.65
724.044	23476.52
724.386	23401.26
724.729	23509.96
725.071	23476.74
725.413	23485.33
725.755	23410.53
726.097	23328.95
726.439	23375.28
726.782	23355.61
727.124	23379.79
727.465	23273.13
727.807	23215.96
728.149	23320.81
728.491	23253.92
728.833	23291.21
729.175	23245.79
729.516	23202.62
729.858	23174.38
730.199	23170.31
730.541	23012.35
730.882	23147.03
731.224	23147.03
731.565	23085.57
731.906	23114.94
732.248	23133.7
732.589	22996.3
732.93	22923.76
733.271	22984.33
733.612	23029.97
733.953	23092.57
734.294	23055.51
734.635	22969.64
734.976	22978
735.317	22907.94
735.658	22817.32
735.999	22879.24
736.339	22766.25
736.68	22816.19
737.021	22721.96
737.361	22617.56
737.702	22878.57
738.042	22755.63
738.383	22786.14
738.723	22760.83
739.063	22630.89
739.404	22776.87
739.744	22695.75
740.084	22607.61
740.424	22675.18
740.764	22717.89
741.104	22721.06
741.444	22665.01
741.784	22617.1
742.124	22655.52
742.464	22598.12
742.804	22599.48
743.143	22519.25
743.483	22565.58
743.823	22397.9
744.162	22365.36
744.502	22361.06
744.841	22394.06
745.181	22423.44
745.52	22430.44
745.86	22395.41
746.199	22353.16
746.538	22215.08
746.877	22362.65
747.216	22291.46
747.556	22244.68
747.895	22202.88
748.234	22276.1
748.573	22216.89
748.911	22139.38
749.25	22215.53
749.589	22103.44
749.928	22011.7
750.267	22088.98
750.605	21960.85
750.944	21923.56
751.283	21888.76
751.621	22009.66
751.96	21803.57
752.298	21805.82
752.636	21914.3
752.975	21781.42
753.313	21756.33
753.651	21771.48
753.989	21685.15
754.327	21566.28
754.666	21588.88
755.004	21642.21
755.342	21768.76
755.679	21580.52
756.017	21516.57
756.355	21680.18
756.693	21505.95
757.031	21547.98
757.368	21329
757.706	21332.84
758.044	21345.72
758.381	21431.37
758.719	21313.86
759.056	21234.77
