Data from copper_heatsink_FLMS001491_001.txt Node
Date: Tue Feb 07 10:49:03 GMT 2017
User: dcchb
Spectrometer: FLMS00149
Trigger mode: 0
Integration Time (sec): 2.000000E-2
Scans to average: 10
Electric dark correction enabled: true
Nonlinearity correction enabled: false
Boxcar width: 0
XAxis mode: Wavelengths
Number of Pixels in Spectrum: 2048
>>>>>Begin Spectral Data<<<<<
341.393	-14.29
341.776	-14.29
342.16	-14.29
342.543	-62.2
342.927	-61.3
343.31	-54.52
343.693	-71.69
344.077	-62.2
344.46	-61.07
344.843	-54.97
345.226	-32.6
345.61	-31.92
345.993	-48.19
346.376	4.92
346.759	7.17
347.142	31.13
347.525	63.67
347.908	55.54
348.291	63.22
348.674	86.27
349.057	105.25
349.44	129.66
349.823	130.79
350.206	165.59
350.588	224.34
350.971	254.63
351.354	260.5
351.737	263.67
352.119	271.8
352.502	298.01
352.884	319.48
353.267	332.36
353.65	324.45
354.032	333.04
354.414	334.62
354.797	347.73
355.179	351.12
355.562	372.82
355.944	359.03
356.326	381.18
356.709	364.91
357.091	400.16
357.473	382.98
357.855	401.51
358.238	399.48
358.62	377.79
359.002	410.33
359.384	397.45
359.766	371.23
360.148	394.28
360.53	402.87
360.912	358.13
361.294	373.27
361.676	388.86
362.057	399.48
362.439	380.72
362.821	400.16
363.203	401.29
363.584	373.04
363.966	385.47
364.348	354.96
364.729	362.42
365.111	352.02
365.493	357.22
365.874	367.62
366.256	378.46
366.637	357
367.019	368.3
367.4	397.67
367.781	369.65
368.163	392.7
368.544	370.56
368.925	368.52
369.306	384.79
369.688	386.37
370.069	381.18
370.45	378.69
370.831	384.57
371.212	382.53
371.593	373.94
371.974	391.12
372.355	377.33
372.736	386.37
373.117	413.49
373.498	384.79
373.879	382.08
374.26	376.43
374.641	380.95
375.021	382.76
375.402	391.35
375.783	405.81
376.163	393.83
376.544	398.35
376.925	387.5
377.305	391.35
377.686	399.03
378.066	414.17
378.447	411.91
378.827	406.26
379.208	413.72
379.588	403.77
379.968	391.35
380.349	424.34
380.729	416.66
381.109	420.27
381.489	427.05
381.87	431.57
382.25	430.67
382.63	422.76
383.01	445.13
383.39	440.16
383.77	442.19
384.15	438.12
384.53	451.01
384.91	443.32
385.29	438.35
385.67	460.04
386.049	439.25
386.429	440.84
386.809	440.61
387.189	446.71
387.568	457.11
387.948	454.85
388.328	476.54
388.707	456.88
389.087	470.44
389.466	481.96
389.846	468.86
390.225	466.15
390.605	483.32
390.984	478.57
391.363	486.48
391.743	508.18
392.122	483.32
392.501	487.16
392.881	513.6
393.26	505.69
393.639	513.38
394.018	528.52
394.397	520.38
394.776	503.89
395.155	513.15
395.534	518.8
395.913	538.91
396.292	526.48
396.671	524
397.05	531.45
397.429	531
397.808	514.51
398.186	539.59
398.565	538.23
398.944	537.1
399.323	539.59
399.701	554.28
400.08	542.53
400.458	560.38
400.837	552.7
401.215	556.99
401.594	574.84
401.972	580.04
402.351	582.3
402.729	577.56
403.107	593.6
403.486	586.82
403.864	584.33
404.242	602.41
404.62	583.43
404.999	596.09
405.377	609.19
405.755	595.86
406.133	617.55
406.511	610.32
406.889	606.26
407.267	628.4
407.645	645.58
408.023	645.8
408.401	632.47
408.779	651
409.156	658.01
409.534	660.04
409.912	685.35
410.29	662.52
410.667	669.53
411.045	691.22
411.422	665.01
411.8	707.95
412.178	697.1
412.555	708.63
412.933	695.52
413.31	710.21
413.687	731.45
414.065	754.73
414.442	723.09
414.819	739.36
415.197	760.38
415.574	743.65
415.951	733.26
416.328	774.16
416.705	747.72
417.082	756.76
417.46	776.19
417.837	801.05
418.214	771.22
418.591	793.37
418.967	793.82
419.344	776.65
419.721	805.35
420.098	804.67
420.475	825.01
420.852	814.84
421.228	801.73
421.605	838.11
421.982	846.93
422.358	858.9
422.735	861.39
423.111	849.19
423.488	850.54
423.864	869.53
424.241	865.91
424.617	891.67
424.994	897.77
425.37	911.33
425.746	881.28
426.123	938
426.499	919.47
426.875	912.69
427.251	916.3
427.627	942.97
428.003	939.58
428.379	969.18
428.756	960.6
429.132	983.19
429.507	988.39
429.883	1006.24
430.259	978.67
430.635	1023.19
431.011	1035.4
431.387	1058.67
431.763	1076.98
432.138	1029.75
432.514	1038.79
432.89	1059.12
433.265	1072.01
433.641	1100.03
434.016	1098.9
434.392	1119.69
434.767	1138.22
435.143	1118.11
435.518	1139.57
435.894	1180.7
436.269	1149.29
436.644	1172.57
437.02	1202.85
437.395	1182.29
437.77	1175.96
438.145	1222.74
438.52	1205.56
438.895	1223.19
439.271	1212.57
439.646	1234.49
440.021	1270.64
440.395	1253.24
440.77	1271.1
441.145	1286.24
441.52	1258.22
441.895	1266.8
442.27	1303.19
442.645	1287.14
443.019	1311.55
443.394	1322.39
443.769	1335.28
444.143	1309.06
444.518	1343.41
444.892	1336.63
445.267	1381.38
445.641	1351.55
446.016	1360.81
446.39	1389.06
446.764	1382.05
447.139	1397.87
447.513	1367.14
447.887	1423.41
448.262	1422.5
448.636	1416.63
449.01	1437.42
449.384	1448.49
449.758	1445.56
450.132	1490.98
450.506	1464.76
450.88	1474.03
451.254	1491.66
451.628	1511.77
452.002	1504.54
452.376	1515.84
452.75	1567.36
453.123	1596.06
453.497	1591.99
453.871	1570.3
454.244	1616.17
454.618	1640.8
454.992	1640.58
455.365	1666.57
455.739	1655.95
456.112	1674.93
456.486	1690.29
456.859	1710.18
457.232	1766
457.606	1724.64
457.979	1734.81
458.352	1770.29
458.725	1810.29
459.099	1854.13
459.472	1829.95
459.845	1905.66
460.218	1907.24
460.591	1957.86
460.964	1940.91
461.337	1950.63
461.71	1955.15
462.083	2015.26
462.456	1992.66
462.829	2003.28
463.201	2062.71
463.574	2030.17
463.947	2076.27
464.32	2126.22
464.692	2141.81
465.065	2172.32
465.438	2192.43
465.81	2200.79
466.183	2243.05
466.555	2277.85
466.928	2291.41
467.3	2283.5
467.672	2317.85
468.045	2343.61
468.417	2354.68
468.789	2385.19
469.161	2401.91
469.534	2444.4
469.906	2481.91
470.278	2509.26
470.65	2536.15
471.022	2603.26
471.394	2598.52
471.766	2642.81
472.138	2685.97
472.51	2701.79
472.882	2769.81
473.253	2778.63
473.625	2847.78
473.997	2860.89
474.369	2906.53
474.74	2954.67
475.112	2972.52
475.484	3008.23
475.855	3085.06
476.227	3083.25
476.598	3203.02
476.97	3129.58
477.341	3246.19
477.713	3281.21
478.084	3321.21
478.455	3351.27
478.827	3440.53
479.198	3520.75
479.569	3480.98
479.94	3632.62
480.311	3603.69
480.682	3723.24
481.053	3797.58
481.424	3811.14
481.795	3921.87
482.166	3910.35
482.537	3972.49
482.908	4046.84
483.279	4105.82
483.65	4185.82
484.021	4222.21
484.391	4281.64
484.762	4294.29
485.133	4354.63
485.503	4393.05
485.874	4514.4
486.244	4596.66
486.615	4622.65
486.985	4689.09
487.356	4775.86
487.726	4796.43
488.097	4860.61
488.467	4921.85
488.837	5011.56
489.207	5045.01
489.578	5109.64
489.948	5121.62
490.318	5256.3
490.688	5286.36
491.058	5304.21
491.428	5383.3
491.798	5420.14
492.168	5512.79
492.538	5576.07
492.908	5665.11
493.278	5662.39
493.648	5683.86
494.017	5825.55
494.387	5765.22
494.757	5872.11
495.126	5945.55
495.496	5914.82
495.866	5956.85
496.235	6070.74
496.605	6131.08
496.974	6162.72
497.344	6188.48
497.713	6212.66
498.082	6328.82
498.452	6357.29
498.821	6389.15
499.19	6395.03
499.559	6506.21
499.928	6488.13
500.298	6594.12
500.667	6632.99
501.036	6608.36
501.405	6727.68
501.774	6693.1
502.143	6768.81
502.512	6776.71
502.88	6863.94
503.249	6868.92
503.618	6980.78
503.987	6976.03
504.356	7010.61
504.724	7075.01
505.093	7101.68
505.462	7130.15
505.83	7215.12
506.199	7247.66
506.567	7339.41
506.936	7338.96
507.304	7458.28
507.672	7440.65
508.041	7548.9
508.409	7611.04
508.777	7649.91
509.145	7661.89
509.514	7768.33
509.882	7787.99
510.25	7852.62
510.618	7894.43
510.986	7976.91
511.354	8011.94
511.722	8076.12
512.09	8199.73
512.458	8130.35
512.826	8218.03
513.193	8256.22
513.561	8331.93
513.929	8407.63
514.297	8438.37
514.664	8576.22
515.032	8625.03
515.4	8766.04
515.767	8751.58
516.135	8776.66
516.502	8793.61
516.869	8946.37
517.237	8996.54
517.604	9027.28
517.972	9090.33
518.339	9125.35
518.706	9232.47
519.073	9258.23
519.44	9364.22
519.808	9447.6
520.175	9398.34
520.542	9574.61
520.909	9690.76
521.276	9674.49
521.643	9825.9
522.009	9895.73
522.376	9940.7
522.743	10033.13
523.11	10130.07
523.477	10283.74
523.843	10322.16
524.21	10481.93
524.577	10459.1
524.943	10606.9
525.31	10647.8
525.676	10795.37
526.043	10772.99
526.409	10916.04
526.776	11042.59
527.142	11122.81
527.508	11141.35
527.874	11255.47
528.241	11403.71
528.607	11461.79
528.973	11458.85
529.339	11560.09
529.705	11682.57
530.071	11822.46
530.437	11844.83
530.803	11901.55
531.169	11976.58
531.535	12043.24
531.901	12107.2
532.267	12151.94
532.632	12321.65
532.998	12427.87
533.364	12525.04
533.73	12564.81
534.095	12646.84
534.461	12705.6
534.826	12880.73
535.192	12898.36
535.557	12931.13
535.923	12959.83
536.288	13008.42
536.653	13237.34
537.019	13147.85
537.384	13285.7
537.749	13348.75
538.114	13440.04
538.479	13466.48
538.845	13610.43
539.21	13570.43
539.575	13743.99
539.94	13731.79
540.305	13965.9
540.67	13953.7
541.034	14024.89
541.399	14148.72
541.764	14172.45
542.129	14293.8
542.494	14294.71
542.858	14397.53
543.223	14608.82
543.587	14601.37
543.952	14643.4
544.316	14830.74
544.681	14734.47
545.045	14910.06
545.41	15100.56
545.774	15193.22
546.138	15185.53
546.503	15356.15
546.867	15362.48
547.231	15555.24
547.595	15699.64
547.959	15708.46
548.324	15882.69
548.688	15909.81
549.052	16079.07
549.416	16105.28
549.779	16252.4
550.143	16323.36
550.507	16526.29
550.871	16598.6
551.235	16684.93
551.599	16959.05
551.962	16952.94
552.326	17078.59
552.689	17172.37
553.053	17270.68
553.417	17366.94
553.78	17644.9
554.143	17743.66
554.507	17894.16
554.87	17996.76
555.234	18281.72
555.597	18297.54
555.96	18486.24
556.323	18686.46
556.686	18765.78
557.05	18999.9
557.413	19050.29
557.776	19258.87
558.139	19534.35
558.502	19625.64
558.865	19707.22
559.228	19989.25
559.59	20139.53
559.953	20363.48
560.316	20645.05
560.679	20773.41
561.041	21043.68
561.404	21197.35
561.767	21482.77
562.129	21522.09
562.492	21903.1
562.854	22130.44
563.217	22203.2
563.579	22460.37
563.941	22682.51
564.304	22925.44
564.666	23247.47
565.028	23375.15
565.39	23600.9
565.753	23910.95
566.115	24223.04
566.477	24391.84
566.839	24668.9
567.201	24999.51
567.563	25109.57
567.925	25408.31
568.287	25604.92
568.648	25837.91
569.01	26137.34
569.372	26398.57
569.734	26560.15
570.095	27017.09
570.457	27146.35
570.819	27333.69
571.18	27699.78
571.542	28048.7
571.903	28173.67
572.265	28510.15
572.626	28730.94
572.987	28922.57
573.349	29412.96
573.71	29621.54
574.071	29737.69
574.432	30014.75
574.794	30522.3
575.155	30639.82
575.516	30732.47
575.877	31055.62
576.238	31195.96
576.599	31471.21
576.96	31746.68
577.32	31946.9
577.681	32322.03
578.042	32457.85
578.403	32737.16
578.763	32922.47
579.124	33152.97
579.485	33416.01
579.845	33703.46
580.206	33722.67
580.566	34086.73
580.927	34293.05
581.287	34678.81
581.648	34606.94
582.008	35006.03
582.368	35091.45
582.728	35347.94
583.089	35411.22
583.449	35653.47
583.809	35901.15
584.169	36058.2
584.529	36242.61
584.889	36632.88
585.249	36442.83
585.609	36640.34
585.969	37066.09
586.329	37039.42
586.688	37471.05
587.048	37591.5
587.408	37728.44
587.768	37780.87
588.127	37922.56
588.487	38104.48
588.846	38605.03
589.206	38447.29
589.565	38612.49
589.925	38784.91
590.284	38891.35
590.643	39094.06
591.003	39333.15
591.362	39680.26
591.721	39655.62
592.08	39834.83
592.44	40029.63
592.799	40193.01
593.158	40392.33
593.517	40555.49
593.876	40623.51
594.235	40717.74
594.593	40910.28
594.952	41165.41
595.311	41277.5
595.67	41413.09
596.029	41782.8
596.387	41981.44
596.746	42053.98
597.104	42057.82
597.463	42308.66
597.822	42607.41
598.18	42511.82
598.538	42596.79
598.897	42935.09
599.255	42832.26
599.613	43479.48
599.972	43488.74
600.33	43590.44
600.688	43603.99
601.046	43908.39
601.404	44223.87
601.762	44220.25
602.12	44616.85
602.478	44688.26
602.836	44839.67
603.194	44829.95
603.552	44935.71
603.91	44841.48
604.268	45339.32
604.625	45342.71
604.983	45596.94
605.341	45627.44
605.698	45990.15
606.056	46123.93
606.413	46297.03
606.771	46579.74
607.128	46657.47
607.485	46634.88
607.843	46677.36
608.2	47061.76
608.557	47240.28
608.914	47255.65
609.272	47431.92
609.629	47668.75
609.986	47860.38
610.343	47858.12
610.7	48212.91
611.057	48339.46
611.414	48401.38
611.771	48485.22
612.127	48744.2
612.484	48839.79
612.841	49017.41
613.198	48941.48
613.554	49059.44
613.911	49336.73
614.267	49515.93
614.624	49528.13
614.98	49841.34
615.337	50006.76
615.693	50161.56
616.05	50233.65
616.406	50474.55
616.762	50305.97
617.118	50470.25
617.475	50615.34
617.831	50824.6
618.187	50947.53
618.543	50949.34
618.899	51256.22
619.255	51333.51
619.611	51298.93
619.967	51463
620.323	51681.07
620.678	51609.43
621.034	51585.03
621.39	51716.78
621.746	51716.55
622.101	52292.13
622.457	52044.45
622.812	52208.29
623.168	52275.41
623.523	52404.89
623.879	52504.1
624.234	52420.03
624.589	52600.14
624.945	52598.79
625.3	52782.28
625.655	52820.25
626.01	52958.33
626.365	53104.31
626.72	52997.65
627.075	53074.03
627.43	53209.84
627.785	53153.35
628.14	53262.05
628.495	53350.18
628.85	53309.05
629.205	53319.9
629.559	53480.8
629.914	53545.65
630.269	53548.59
630.623	53506.56
630.978	53550.4
631.332	53730.51
631.687	53841.69
632.041	53783.61
632.396	53865.42
632.75	53827.23
633.104	53902.71
633.459	53864.06
633.813	53825.87
634.167	53955.13
634.521	53919.43
634.875	54169.59
635.229	54120.1
635.583	53968.69
635.937	54095.02
636.291	54124.17
636.645	54165.75
636.999	54124.85
637.352	54344.96
637.706	54202.36
638.06	54308.35
638.413	54292.08
638.767	54171.17
639.121	54386.31
639.474	54331.62
639.828	54406.87
640.181	54470.38
640.534	54545.63
640.888	54524.16
641.241	54458.4
641.594	54410.49
641.947	54632.41
642.301	54468.57
642.654	54544.05
643.007	54679.86
643.36	54699.75
643.713	54681.22
644.066	54894.55
644.419	54620.2
644.771	54376.59
645.124	54142.25
645.477	54105.87
645.83	53952.65
646.182	53972.54
646.535	54078.3
646.888	54305.41
647.24	54211.4
647.593	54465.86
647.945	54465.63
648.298	54402.58
648.65	54427.89
649.002	54390.38
649.355	54498.17
649.707	54371.4
650.059	54452.75
650.411	54848.67
650.763	54861.55
651.115	55291.6
651.467	55207.98
651.819	55234.88
652.171	55131.83
652.523	55214.99
652.875	55207.08
653.227	55177.02
653.578	55371.82
653.93	55342.67
654.282	55332.95
654.633	55282.11
654.985	55347.64
655.337	55523.91
655.688	55547.86
656.039	55542.66
656.391	55354.19
656.742	55472.38
657.094	55554.19
657.445	55710.34
657.796	55697.69
658.147	55635.09
658.498	55622.44
658.849	55788.08
659.2	55756.9
659.551	55714.86
659.902	55829.44
660.253	55814.97
660.604	55950.11
660.955	55749.66
661.306	55916.44
661.656	55882.09
662.007	55919.15
662.358	55957.79
662.708	55881.19
663.059	56003.44
663.409	55821.53
663.76	56064.01
664.11	56132.25
664.461	56213.83
664.811	56194.62
665.161	56194.85
665.511	56194.62
665.862	56242.76
666.212	56344.22
666.562	56382.87
666.912	56446.37
667.262	56440.95
667.612	56409.76
667.962	56518.23
668.312	56459.93
668.662	56597.78
669.011	56565.69
669.361	56621.73
669.711	56562.75
670.06	56590.55
670.41	56566.82
670.76	56571.56
671.109	56795.74
671.459	56675.97
671.808	56611.11
672.157	56763.42
672.507	56634.61
672.856	56632.13
673.205	56734.27
673.554	56807.94
673.904	56781.73
674.253	56962.06
674.602	56771.78
674.951	56480.04
675.3	56448.63
675.649	56840.26
675.998	56911.22
676.346	56950.08
676.695	57109.18
677.044	56894.94
677.393	56973.81
677.741	56987.15
678.09	56918.22
678.438	56930.42
678.787	56963.19
679.135	57067.37
679.484	56917.77
679.832	56989.63
680.181	56741.5
680.529	56981.95
680.877	56822.86
681.225	56921.84
681.573	57122.74
681.922	56981.72
682.27	56981.72
682.618	56986.47
682.966	56908.05
683.314	57026.24
683.661	57018.78
684.009	56857.66
684.357	56882.29
684.705	56839.8
685.053	56952.57
685.4	56994.83
685.748	56840.93
686.095	56961.38
686.443	56942.4
686.79	56892.23
687.138	56861.5
687.485	56836.42
687.832	56750.77
688.18	56858.79
688.527	56739.47
688.874	56891.33
689.221	56726.14
689.568	56718.9
689.915	56628.51
690.262	56659.24
690.609	56635.06
690.956	56602.75
691.303	56609.98
691.65	56468.52
691.997	56506.03
692.344	56469.19
692.69	56434.84
693.037	56447.95
693.383	56239.82
693.73	56460.83
694.077	56304.23
694.423	56355.52
694.769	56251.35
695.116	56192.82
695.462	56147.85
695.808	56122.99
696.155	56206.83
696.501	56012.71
696.847	56008.41
697.193	55795.54
697.539	55968.64
697.885	55717.57
698.231	55770.68
698.577	55800.74
698.923	55826.05
699.269	55690.23
699.614	55594.64
699.96	55612.04
700.306	55654.98
700.651	55525.72
700.997	55643.23
701.342	55519.39
701.688	55471.25
702.033	55507.41
702.379	55464.7
702.724	55466.51
703.069	55549.67
703.415	55229.9
703.76	55312.16
704.105	55190.13
704.45	55131.15
704.795	55076.69
705.14	55034.43
705.485	55100.87
705.83	55007.54
706.175	55062.9
706.52	55057.7
706.865	54952.4
707.209	54961.89
707.554	54798.5
707.899	54912.17
708.243	54844.6
708.588	54868.78
708.932	54730.93
709.277	54770.48
709.621	54779.52
709.966	54686.64
710.31	54775.45
710.654	54459.53
710.998	54534.1
711.342	54503.37
711.687	54438.74
712.031	54419.76
712.375	54401.45
712.719	54420.66
713.063	54311.51
713.407	54523.93
713.75	54269.93
714.094	54345.63
714.438	54280.32
714.782	54337.5
715.125	54173.89
715.469	54300.66
715.812	54092.08
716.156	53997.17
716.499	54086.88
716.843	54153.32
717.186	54110.16
717.53	54123.94
717.873	54108.58
718.216	53974.34
718.559	53978.19
718.902	53827.91
719.246	54027.68
719.589	53871.3
719.932	53800.56
720.275	53794.01
720.617	53806.44
720.96	53801.69
721.303	53867.45
721.646	53800.56
721.989	53631.3
722.331	53792.43
722.674	53701.36
723.016	53686.89
723.359	53631.3
723.701	53727.12
724.044	53520.12
724.386	53484.64
724.729	53612.32
725.071	53619.55
725.413	53542.26
725.755	53497.29
726.097	53442.15
726.439	53310.86
726.782	53375.94
727.124	53545.2
727.465	53438.99
727.807	53337.07
728.149	53337.3
728.491	53242.39
728.833	53455.71
729.175	53237.64
729.516	53170.75
729.858	53222.72
730.199	53205.78
730.541	53168.49
730.882	53127.59
731.224	53262.05
731.565	53170.3
731.906	53241.48
732.248	53258.88
732.589	53064.08
732.93	53015.05
733.271	53097.3
733.612	53100.92
733.953	53117.87
734.294	53010.53
734.635	53091.2
734.976	53258.66
735.317	52911.32
735.658	53030.19
735.999	53053.69
736.339	52967.14
736.68	53071.54
737.021	52930.53
737.361	52921.94
737.702	53050.3
738.042	52872
738.383	52954.94
738.723	52958.55
739.063	52808.27
739.404	52841.72
739.744	52916.29
740.084	52760.36
740.424	52708.39
740.764	52704.55
741.104	52752.45
741.444	52632.23
741.784	52580.48
742.124	52645.79
742.464	52576.64
742.804	52557.21
743.143	52528.51
743.483	52654.38
743.823	52499.35
744.162	52424.78
744.502	52571.22
744.841	52348.17
745.181	52578.22
745.52	52498.45
745.86	52619.8
746.199	52498.68
746.538	52281.28
746.877	52447.38
747.216	52425.23
747.556	52374.84
747.895	52471.11
748.234	52267.95
748.573	52231.79
748.911	52319.47
749.25	52220.49
749.589	52145.69
749.928	52241.96
750.267	52309.53
750.605	52164.9
750.944	52048.97
751.283	51992.47
751.621	52059.59
751.96	51787.73
752.298	51840.84
752.636	51866.6
752.975	51655.31
753.313	51452.38
753.651	51648.98
753.989	51632.48
754.327	51569.21
754.666	51444.01
755.004	51458.7
755.342	51497.8
755.679	51506.61
756.017	51397.46
