Data from copper_heatsink_FLMS001491_055.txt Node
Date: Tue Feb 07 10:50:11 GMT 2017
User: dcchb
Spectrometer: FLMS00149
Trigger mode: 0
Integration Time (sec): 2.000000E-2
Scans to average: 10
Electric dark correction enabled: true
Nonlinearity correction enabled: false
Boxcar width: 0
XAxis mode: Wavelengths
Number of Pixels in Spectrum: 2048
>>>>>Begin Spectral Data<<<<<
341.393	-2.27
341.776	-2.27
342.16	-2.27
342.543	-54.02
342.927	-65.55
343.31	-60.35
343.693	-88.15
344.077	-77.75
344.46	-41.37
344.843	-45.44
345.226	-29.39
345.61	-36.85
345.993	-9.28
346.376	-4.99
346.759	5.18
347.142	34.79
347.525	29.82
347.908	52.87
348.291	88.35
348.674	79.76
349.057	102.81
349.44	106.42
349.823	155.01
350.206	161.11
350.588	200.43
350.971	219.87
351.354	228
351.737	239.53
352.119	249.24
352.502	268.91
352.884	295.57
353.267	301.22
353.65	313.65
354.032	326.3
354.414	318.62
354.797	315.01
355.179	329.92
355.562	316.14
355.944	341.67
356.326	326.53
356.709	338.73
357.091	327.43
357.473	355.46
357.855	347.55
358.238	356.81
358.62	333.99
359.002	338.96
359.384	351.84
359.766	329.92
360.148	324.27
360.53	348.9
360.912	350.49
361.294	352.07
361.676	347.55
362.057	322.24
362.439	354.78
362.821	351.84
363.203	321.33
363.584	325.85
363.966	326.98
364.348	331.28
364.729	349.58
365.111	314.55
365.493	353.2
365.874	342.12
366.256	337.83
366.637	346.19
367.019	321.56
367.4	341.67
367.781	330.37
368.163	329.47
368.544	328.34
368.925	342.35
369.306	331.5
369.688	336.02
370.069	331.28
370.45	343.71
370.831	326.3
371.212	314.33
371.593	334.89
371.974	331.73
372.355	308.23
372.736	338.96
373.117	331.5
373.498	346.87
373.879	350.03
374.26	332.41
374.641	327.43
375.021	359.52
375.402	328.79
375.783	347.32
376.163	340.77
376.544	334.21
376.925	359.07
377.305	336.47
377.686	361.33
378.066	332.18
378.447	350.94
378.827	362.01
379.208	366.76
379.588	356.81
379.968	356.36
380.349	390.48
380.729	347.32
381.109	344.38
381.489	345.97
381.87	357.72
382.25	363.59
382.63	345.74
383.01	346.19
383.39	364.72
383.77	373.31
384.15	383.25
384.53	397.04
384.91	382.8
385.29	383.7
385.67	375.8
386.049	390.94
386.429	390.26
386.809	417.6
387.189	382.12
387.568	402.46
387.948	395.46
388.328	380.31
388.707	400.65
389.087	402.24
389.466	412.86
389.846	402.46
390.225	382.8
390.605	419.18
390.984	439.52
391.363	403.82
391.743	408.79
392.122	395.91
392.501	406.75
392.881	419.18
393.26	413.53
393.639	438.39
394.018	427.09
394.397	442.46
394.776	427.77
395.155	443.14
395.534	426.87
395.913	427.09
396.292	429.81
396.671	428
397.05	424.38
397.429	467.77
397.808	446.98
398.186	466.87
398.565	447.88
398.944	460.99
399.323	419.86
399.701	455.34
400.08	451.5
400.458	461.22
400.837	466.19
401.215	449.69
401.594	458.28
401.972	469.58
402.351	484.27
402.729	476.81
403.107	474.32
403.486	485.62
403.864	501.89
404.242	475.23
404.62	482.01
404.999	498.73
405.377	502.57
405.755	505.74
406.133	518.39
406.511	509.35
406.889	519.29
407.267	510.71
407.645	510.25
408.023	525.85
408.401	526.07
408.779	533.98
409.156	549.58
409.534	528.33
409.912	556.13
410.29	557.03
410.667	542.12
411.045	541.44
411.422	552.97
411.8	559.97
412.178	573.3
412.555	588.9
412.933	554.55
413.31	570.37
413.687	577.37
414.065	594.09
414.442	562.91
414.819	587.54
415.197	575.34
415.574	606.52
415.951	607.88
416.328	633.42
416.705	625.05
417.082	638.84
417.46	645.17
417.837	630.93
418.214	622.79
418.591	629.8
418.967	643.81
419.344	618.05
419.721	646.75
420.098	646.52
420.475	660.53
420.852	646.52
421.228	661.66
421.605	665.51
421.982	662.79
422.358	684.49
422.735	693.07
423.111	674.09
423.488	688.56
423.864	699.4
424.241	718.16
424.617	702.57
424.994	695.11
425.37	709.35
425.746	702.79
426.123	738.5
426.499	750.47
426.875	715.9
427.251	745.05
427.627	731.04
428.003	764.94
428.379	754.77
428.756	771.04
429.132	772.17
429.507	789.34
429.883	782.79
430.259	797.25
430.635	800.64
431.011	817.14
431.387	822.11
431.763	809.46
432.138	834.31
432.514	830.47
432.89	809.91
433.265	855.78
433.641	863.92
434.016	859.4
434.392	878.15
434.767	900.3
435.143	886.29
435.518	892.39
435.894	902.56
436.269	905.5
436.644	893.75
437.02	944.82
437.395	952.73
437.77	946.63
438.145	948.21
438.52	947.08
438.895	950.92
439.271	950.02
439.646	1006.97
440.021	965.16
440.395	1009.68
440.77	994.99
441.145	1007.42
441.52	1011.26
441.895	991.15
442.27	999.96
442.645	1039.73
443.019	1052.39
443.394	1016.23
443.769	1063.69
444.143	1036.34
444.518	1053.29
444.892	1051.26
445.267	1076.79
445.641	1080.41
446.016	1063.01
446.39	1071.37
446.764	1093.52
447.139	1077.7
447.513	1092.39
447.887	1101.2
448.262	1112.5
448.636	1114.98
449.01	1136
449.384	1156.79
449.758	1169.45
450.132	1150.92
450.506	1144.14
450.88	1170.58
451.254	1163.12
451.628	1192.27
452.002	1200.86
452.376	1197.02
452.75	1196.79
453.123	1236.79
453.497	1218.26
453.871	1241.08
454.244	1262.33
454.618	1272.72
454.992	1298.48
455.365	1294.64
455.739	1308.2
456.112	1339.16
456.486	1309.78
456.859	1340.06
457.232	1394.3
457.606	1352.27
457.979	1403.56
458.352	1434.07
458.725	1419.16
459.099	1442.43
459.472	1453.06
459.845	1465.94
460.218	1495.54
460.591	1495.54
460.964	1508.65
461.337	1536.44
461.71	1528.08
462.083	1580.96
462.456	1579.38
462.829	1606.95
463.201	1598.14
463.574	1621.41
463.947	1645.82
464.32	1678.59
464.692	1672.48
465.065	1705.93
465.438	1695.31
465.81	1778.92
466.183	1790.9
466.555	1761.75
466.928	1775.76
467.3	1782.54
467.672	1825.93
468.045	1865.93
468.417	1853.72
468.789	1886.94
469.161	1870.9
469.534	1921.52
469.906	1975.98
470.278	1987.73
470.65	1991.35
471.022	2028.63
471.394	2083.09
471.766	2092.59
472.138	2099.37
472.51	2148.63
472.882	2164
473.253	2208.29
473.625	2225.92
473.997	2302.52
474.369	2289.64
474.74	2320.83
475.112	2342.98
475.484	2382.97
475.855	2437.44
476.227	2456.64
476.598	2486.47
476.97	2538.68
477.341	2558.11
477.713	2595.62
478.084	2601.5
478.455	2693.93
478.827	2709.29
479.198	2788.84
479.569	2784.55
479.94	2863.19
480.311	2894.15
480.682	2957.2
481.053	2985.67
481.424	3047.59
481.795	3082.84
482.166	3120.13
482.537	3152.45
482.908	3231.99
483.279	3222.73
483.65	3314.93
484.021	3316.51
484.391	3416.17
484.762	3457.07
485.133	3518.54
485.503	3495.26
485.874	3588.37
486.244	3661.36
486.615	3694.58
486.985	3742.49
487.356	3819.32
487.726	3849.6
488.097	3952.65
488.467	3939.32
488.837	3979.09
489.207	4049.14
489.578	4115.81
489.948	4089.37
490.318	4163.72
490.688	4208.69
491.058	4293.21
491.428	4310.83
491.798	4377.5
492.168	4462.24
492.538	4498.85
492.908	4533.88
493.278	4587.89
493.648	4613.65
494.017	4667.66
494.387	4709.47
494.757	4752.86
495.126	4820.2
495.496	4861.1
495.866	4877.6
496.235	4944.49
496.605	5022
496.974	5008.44
497.344	5060.87
497.713	5069.01
498.082	5100.87
498.452	5238.94
498.821	5252.96
499.19	5242.33
499.559	5307.19
499.928	5345.16
500.298	5390.58
500.667	5405.95
501.036	5393.74
501.405	5471.48
501.774	5502.67
502.143	5508.54
502.512	5621.53
502.88	5641.42
503.249	5634.41
503.618	5716.67
503.987	5753.05
504.356	5752.15
504.724	5795.54
505.093	5836.89
505.462	5955.76
505.83	5966.83
506.199	5987.4
506.567	6084.8
506.936	6103.78
507.304	6128.19
507.672	6164.8
508.041	6208.18
508.409	6297.67
508.777	6329.08
509.145	6446.6
509.514	6432.81
509.882	6476.65
510.25	6564.33
510.618	6565.69
510.986	6598.23
511.354	6638.23
511.722	6731.79
512.09	6766.36
512.458	6791.45
512.826	6878.68
513.193	6912.12
513.561	6959.58
513.929	6943.53
514.297	7026.69
514.664	7162.06
515.032	7216.52
515.4	7274.6
515.767	7255.84
516.135	7355.27
516.502	7346.69
516.869	7450.86
517.237	7460.81
517.604	7506.68
517.972	7612.67
518.339	7698.99
518.706	7709.61
519.073	7767.92
519.44	7828.25
519.808	7952.09
520.175	7929.27
520.542	8120.45
520.909	8131.75
521.276	8124.74
521.643	8265.53
522.009	8332.65
522.376	8345.76
522.743	8423.72
523.11	8558.86
523.477	8620.1
523.843	8602.47
524.21	8772.64
524.577	8863.26
524.943	8851.96
525.31	8969.92
525.676	9014.44
526.043	9084.49
526.409	9216.92
526.776	9275.67
527.142	9277.71
527.508	9373.3
527.874	9467.53
528.241	9540.07
528.607	9598.6
528.973	9718.83
529.339	9748.66
529.705	9871.36
530.071	9904.58
530.437	9938.26
530.803	10009.21
531.169	10165.82
531.535	10129.89
531.901	10206.05
532.267	10234.75
532.632	10345.02
532.998	10425.93
533.364	10515.19
533.73	10551.8
534.095	10653.94
534.461	10715.86
534.826	10824.56
535.192	10817.1
535.557	10879.25
535.923	11012.8
536.288	11016.42
536.653	11134.38
537.019	11145
537.384	11194.04
537.749	11274.04
538.114	11364.21
538.479	11385.22
538.845	11489.85
539.21	11534.6
539.575	11579.79
539.94	11571.43
540.305	11748.15
540.67	11694.14
541.034	11810.97
541.399	11926.23
541.764	11941.59
542.129	12044.19
542.494	12112.21
542.858	12266.56
543.223	12239.66
543.587	12305.88
543.952	12405.76
544.316	12448.92
544.681	12527.34
545.045	12597.39
545.41	12739.09
545.774	12748.58
546.138	12817.73
546.503	12900.89
546.867	13031.73
547.231	13075.35
547.595	13198.96
547.959	13264.95
548.324	13335.45
548.688	13393.98
549.052	13463.59
549.416	13508.33
549.779	13598.05
550.143	13710.81
550.507	13792.39
550.871	13882.56
551.235	13985.83
551.599	14140.41
551.962	14185.38
552.326	14269.89
552.689	14475.54
553.053	14437.57
553.417	14436.22
553.78	14704.91
554.143	14787.17
554.507	14968.63
554.87	14953.94
555.234	15202.75
555.597	15172.69
555.96	15326.14
556.323	15488.17
556.686	15541.05
557.05	15769.74
557.413	15912.11
557.776	15930.19
558.139	16218.77
558.502	16293.12
558.865	16434.13
559.228	16570.62
559.59	16715.48
559.953	16803.61
560.316	17062.36
560.679	17137.39
561.041	17376.25
561.404	17444.05
561.767	17671.16
562.129	17639.97
562.492	18043.35
562.854	18171.71
563.217	18274.53
563.579	18365.83
563.941	18552.49
564.304	18748.65
564.666	18995.19
565.028	19136.43
565.39	19307.95
565.753	19495.52
566.115	19529.19
566.477	19888.73
566.839	19946.58
567.201	20249.62
567.563	20411.88
567.925	20613
568.287	20698.65
568.648	20807.8
569.01	21071.97
569.372	21360.1
569.734	21296.6
570.095	21631.28
570.457	21855.23
570.819	22004.15
571.18	22120.99
571.542	22435.33
571.903	22568.66
572.265	22625.38
572.626	22923.9
572.987	23017.23
573.349	23178.81
573.71	23450.67
574.071	23704.22
574.432	23783.77
574.794	23988.96
575.155	24252.46
575.516	24192.12
575.877	24517.08
576.238	24676.17
576.599	24761.82
576.96	24857.86
577.32	25020.57
577.681	25298.53
578.042	25317.51
578.403	25429.15
578.763	25722.93
579.124	25895.12
579.485	25934.9
579.845	26254.66
580.206	26246.08
580.566	26427.77
580.927	26606.97
581.287	26682.45
581.648	26786.85
582.008	27060.52
582.368	26948.2
582.728	27178.03
583.089	27233.17
583.449	27366.27
583.809	27412.37
584.169	27649.2
584.529	27641.07
584.889	28024.56
585.249	27920.61
585.609	27913.15
585.969	28256.87
586.329	28162.41
586.688	28341.84
587.048	28416.41
587.408	28475.62
587.768	28629.52
588.127	28765.11
588.487	28747.48
588.846	29016.85
589.206	28887.14
589.565	29069.28
589.925	29308.37
590.284	29266.56
590.643	29345.43
591.003	29474.47
591.362	29596.5
591.721	29694.35
592.08	29736.38
592.44	29886.21
592.799	30026.54
593.158	30137.72
593.517	30195.8
593.876	30297.49
594.235	30248.23
594.593	30418.85
594.952	30516.25
595.311	30475.57
595.67	30715.79
596.029	31043.01
596.387	30979.28
596.746	31183.8
597.104	31183.8
597.463	31189.22
597.822	31429.22
598.18	31226.06
598.538	31427.41
598.897	31701.07
599.255	31421.98
599.613	31932.25
599.972	31866.04
600.33	32098.58
600.688	31969.77
601.046	32195.3
601.404	32419.47
601.762	32390.32
602.12	32655.62
602.478	32679.58
602.836	32736.75
603.194	32618.34
603.552	32833.92
603.91	32769.97
604.268	33136.06
604.625	33040.7
604.983	33186.23
605.341	33115.27
605.698	33344.19
606.056	33555.94
606.413	33543.51
606.771	33883.16
607.128	33853.78
607.485	33723.84
607.843	33870.73
608.2	34156.38
608.557	34291.06
608.914	34296.26
609.272	34402.25
609.629	34519.98
609.986	34746.87
610.343	34645.18
610.7	34978.28
611.057	34925.85
611.414	35164.94
611.771	35112.51
612.127	35378.26
612.484	35355.21
612.841	35547.07
613.198	35498.26
613.554	35596.56
613.911	35868.87
614.267	35903.45
614.624	35934.18
614.98	36014.41
615.337	36290.11
615.693	36441.74
616.05	36251.01
616.406	36658.91
616.762	36586.82
617.118	36656.2
617.475	36625.24
617.831	36840.6
618.187	36830.88
618.543	36981.16
618.899	37290.76
619.255	37327.82
619.611	37158.33
619.967	37435.84
620.323	37765.77
620.678	37509.73
621.034	37481.71
621.39	37669.5
621.746	37710.63
622.101	38054.8
622.457	37756.28
622.812	38024.75
623.168	38140.23
623.523	38101.58
623.879	38208.92
624.234	38054.58
624.589	38080.34
624.945	38514
625.3	38517.62
625.655	38449.82
626.01	38575.02
626.365	38712.87
626.72	38633.55
627.075	38716.03
627.43	38751.96
627.785	38692.3
628.14	38813.88
628.495	39013.88
628.85	38896.82
629.205	38895.69
629.559	39128.67
629.914	39084.16
630.269	39161.44
630.623	39050.71
630.978	38963.93
631.332	39203.02
631.687	39352.4
632.041	39108.79
632.396	39337.71
632.75	39170.93
633.104	39216.81
633.459	39286.86
633.813	39226.98
634.167	39341.78
634.521	39360.53
634.875	39422.23
635.229	39298.16
635.583	39326.41
635.937	39365.96
636.291	39434.2
636.645	39523.24
636.999	39407.76
637.352	39443.47
637.706	39285.05
638.06	39618.38
638.413	39437.37
638.767	39271.27
639.121	39542.45
639.474	39467.2
639.828	39592.84
640.181	39550.13
640.534	39660.64
640.888	39471.94
641.241	39406.18
641.594	39603.92
641.947	39692.28
642.301	39382.45
642.654	39516.69
643.007	39785.38
643.36	39755.1
643.713	39448.21
644.066	39793.29
644.419	39660.64
644.771	39414.77
645.124	39141.33
645.477	39243.7
645.83	39013.2
646.182	38716.03
646.535	38712.87
646.888	38795.8
647.24	38546.32
647.593	38936.59
647.945	38865.86
648.298	38590.61
648.65	38596.26
649.002	38572.3
649.355	38810.94
649.707	38722.36
650.059	39055.46
650.411	39501.32
650.763	39449.8
651.115	39979.73
651.467	39962.1
651.819	39951.7
652.171	39789.67
652.523	39747.64
652.875	40071.02
653.227	39770.47
653.578	39999.61
653.93	40005.71
654.282	39918.71
654.633	39898.15
654.985	40087.75
655.337	40000.29
655.688	40198.25
656.039	40192.83
656.391	39886.85
656.742	40216.1
657.094	40209.78
657.445	40266.5
657.796	40161.19
658.147	40156.9
658.498	40197.12
658.849	40354.18
659.2	40314.63
659.551	40252.71
659.902	40500.84
660.253	40569.54
660.604	40502.88
660.955	40355.76
661.306	40456.55
661.656	40432.14
662.007	40491.58
662.358	40507.62
662.708	40647.73
663.059	40824
663.409	40409.32
663.76	40755.3
664.11	40586.94
664.461	40960.49
664.811	40914.39
665.161	40914.62
665.511	40735.86
665.862	40992.81
666.212	41156.64
666.562	41122.52
666.912	40905.13
667.262	40976.54
667.612	40996.65
667.962	41063.31
668.312	40993.94
668.662	41247.26
669.011	41313.7
669.361	41197.32
669.711	41271.44
670.06	41236.42
670.41	41208.39
670.76	41261.05
671.109	41340.59
671.459	41262.63
671.808	41107.83
672.157	41252.46
672.507	41183.54
672.856	41276.64
673.205	41431.66
673.554	41451.78
673.904	41362.74
674.253	41674.14
674.602	41639.12
674.951	41126.36
675.3	41023.77
675.649	41565.9
675.998	41649.29
676.346	41582.4
676.695	41867.81
677.044	41509.4
677.393	41803.86
677.741	41783.75
678.09	41686.8
678.438	41649.96
678.787	41670.53
679.135	41737.19
679.484	41431.66
679.832	41639.57
680.181	41533.81
680.529	41788.49
680.877	41620.81
681.225	41651.55
681.573	41906.45
681.922	41619.91
682.27	41510.53
682.618	41626.46
682.966	41503.08
683.314	41695.16
683.661	41622.39
684.009	41295.17
684.357	41499.46
684.705	41360.03
685.053	41474.15
685.4	41412.68
685.748	41295.85
686.095	41341.05
686.443	41168.39
686.79	41215.4
687.138	41364.32
687.485	41276.87
687.832	41168.62
688.18	41278.22
688.527	41089.3
688.874	41134.95
689.221	41013.6
689.568	40920.04
689.915	40769.99
690.262	40905.35
690.609	40797.78
690.956	40672.59
691.303	40809.31
691.65	40583.78
691.997	40619.93
692.344	40459.26
692.69	40642.99
693.037	40619.48
693.383	40484.35
693.73	40575.87
694.077	40350.79
694.423	40379.94
694.769	40310.11
695.116	40388.08
695.462	40231.02
695.808	40077.35
696.155	40155.31
696.501	39896.11
696.847	39956.68
697.193	39720.3
697.539	39820.18
697.885	39726.17
698.231	39616.35
698.577	39712.61
698.923	39513.3
699.269	39492.96
699.614	39469.46
699.96	39428.78
700.306	39249.12
700.651	39257.71
700.997	39242.57
701.342	39210.48
701.688	39122.35
702.033	39011.39
702.379	38943.59
702.724	38883.26
703.069	39173.87
703.415	38755.13
703.76	38823.82
704.105	38929.13
704.45	38780.89
704.795	38607.56
705.14	38594.68
705.485	38648.46
705.83	38336.15
706.175	38563.04
706.52	38389.94
706.865	38359.2
707.209	38364.63
707.554	38225.87
707.899	38348.13
708.243	38136.16
708.588	38224.07
708.932	38064.3
709.277	38095.48
709.621	38130.73
709.966	37778.65
710.31	38034.24
710.654	37641.26
710.998	37689.84
711.342	37846.45
711.687	37792.21
712.031	37851.65
712.375	37650.75
712.719	37735.49
713.063	37682.16
713.407	37766
713.75	37743.17
714.094	37462.96
714.438	37234.71
714.782	37399.23
715.125	37376.18
715.469	37540.47
715.812	37292.34
716.156	37039.01
716.499	37156.52
716.843	37326.01
717.186	37110.2
717.53	37260.02
717.873	37380.47
718.216	37283.07
718.559	37083.98
718.902	36867.94
719.246	36901.61
719.589	36884.44
719.932	36814.84
720.275	36794.27
720.617	36871.78
720.96	36784.56
721.303	36965.79
721.646	36871.78
721.989	36901.84
722.331	36807.15
722.674	36924.21
723.016	36825.91
723.359	36878.79
723.701	37000.14
724.044	36613.94
724.386	36429.54
724.729	36743.65
725.071	36773.26
725.413	36651.45
725.755	36733.26
726.097	36453.49
726.439	36234.06
726.782	36378.69
727.124	36598.57
727.465	36216.66
727.807	36243.33
728.149	36341.63
728.491	36239.94
728.833	36350.89
729.175	36261.63
729.516	36161.07
729.858	36250.33
730.199	36287.39
730.541	36109.77
730.882	36130.34
731.224	36300.95
731.565	36184.35
731.906	36037.46
732.248	36103.67
732.589	35913.39
732.93	35889.66
733.271	35897.8
733.612	36057.57
733.953	36039.94
734.294	35908.42
734.635	35867.07
734.976	35955.42
735.317	35842.89
735.658	35968.53
735.999	35930.57
736.339	35837.69
736.68	36040.17
737.021	36058.02
737.361	35788.65
737.702	35918.59
738.042	35845.6
738.383	35747.07
738.723	35835.43
739.063	35587.3
739.404	35761.98
739.744	35755.2
740.084	35562.67
740.424	35616.68
740.764	35417.59
741.104	35839.04
741.444	35610.12
741.784	35606.06
742.124	35626.85
742.464	35655.55
742.804	35533.97
743.143	35413.97
743.483	35426.4
743.823	35324.93
744.162	35381.88
744.502	35613.06
744.841	35334.88
745.181	35324.71
745.52	35449.45
745.86	35461.2
746.199	35402.44
746.538	35288.78
746.877	35401.99
747.216	35520.63
747.556	35403.57
747.895	35444.25
748.234	35338.27
748.573	35285.61
748.911	35190.7
749.25	35375.78
749.589	35128.78
749.928	35175.33
750.267	35308.66
750.605	35131.27
750.944	35116.8
751.283	34849.92
751.621	35131.72
751.96	34875.91
752.298	34894.89
752.636	34973.76
752.975	34793.2
753.313	34603.14
753.651	34755.68
753.989	34717.94
754.327	34728.56
754.666	34619.41
755.004	34739.86
755.342	34623.48
755.679	34562.01
756.017	34425.75
756.355	34485.41
756.693	34370.61
757.031	34493.09
