Data from copper_heatsink_FLMS001491_036.txt Node
Date: Tue Feb 07 10:49:50 GMT 2017
User: dcchb
Spectrometer: FLMS00149
Trigger mode: 0
Integration Time (sec): 2.000000E-2
Scans to average: 10
Electric dark correction enabled: true
Nonlinearity correction enabled: false
Boxcar width: 0
XAxis mode: Wavelengths
Number of Pixels in Spectrum: 2048
>>>>>Begin Spectral Data<<<<<
341.393	-40.22
341.776	-40.22
342.16	-40.22
342.543	-46.55
342.927	-55.59
343.31	-69.6
343.693	-71.64
344.077	-80.68
344.46	-49.72
344.843	-46.33
345.226	-34.35
345.61	-35.03
345.993	-21.02
346.376	-7.23
346.759	1.36
347.142	34.58
347.525	51.3
347.908	52.43
348.291	78.19
348.674	102.14
349.057	95.59
349.44	121.8
349.823	131.07
350.206	158.41
350.588	202.71
350.971	205.19
351.354	241.58
351.737	247.9
352.119	269.6
352.502	288.58
352.884	298.75
353.267	297.39
353.65	327
354.032	311.18
354.414	330.39
354.797	331.29
355.179	318.41
355.562	356.15
355.944	336.94
356.326	352.08
356.709	343.27
357.091	346.43
357.473	350.5
357.855	350.05
358.238	366.09
358.62	363.83
359.002	350.27
359.384	357.5
359.766	368.8
360.148	364.74
360.53	348.69
360.912	341.69
361.294	335.13
361.676	347.79
362.057	349.37
362.439	359.54
362.821	330.39
363.203	350.05
363.584	349.37
363.966	328.58
364.348	340.56
364.729	340.1
365.111	322.93
365.493	349.82
365.874	350.95
366.256	346.21
366.637	339.2
367.019	345.98
367.4	315.25
367.781	365.64
368.163	367.45
368.544	341.69
368.925	351.86
369.306	362.48
369.688	344.62
370.069	320.9
370.45	322.25
370.831	352.99
371.212	372.19
371.593	333.32
371.974	337.39
372.355	323.61
372.736	338.07
373.117	369.93
373.498	343.72
373.879	357.28
374.26	335.36
374.641	319.31
375.021	305.75
375.402	331.74
375.783	358.63
376.163	353.21
376.544	348.24
376.925	375.81
377.305	328.35
377.686	349.37
378.066	368.13
378.447	383.04
378.827	364.74
379.208	368.13
379.588	345.53
379.968	357.28
380.349	358.18
380.729	376.71
381.109	369.48
381.489	368.35
381.87	384.85
382.25	369.03
382.63	376.26
383.01	385.98
383.39	364.74
383.77	374.68
384.15	368.8
384.53	364.74
384.91	383.94
385.29	389.14
385.67	373.78
386.049	369.03
386.429	393.21
386.809	409.93
387.189	401.35
387.568	378.75
387.948	376.04
388.328	394.34
388.707	387.79
389.087	402.7
389.466	406.32
389.846	389.37
390.225	390.5
390.605	405.41
390.984	416.03
391.363	428.24
391.743	414.68
392.122	434.56
392.501	417.62
392.881	407.67
393.26	436.82
393.639	425.3
394.018	419.88
394.397	408.12
394.776	430.27
395.155	427.56
395.534	441.8
395.913	412.64
396.292	437.05
396.671	437.28
397.05	430.72
397.429	430.27
397.808	438.18
398.186	426.88
398.565	440.21
398.944	456.49
399.323	453.77
399.701	458.52
400.08	463.49
400.458	451.97
400.837	469.37
401.215	464.39
401.594	465.07
401.972	440.21
402.351	467.78
402.729	451.74
403.107	483.15
403.486	480.89
403.864	493.77
404.242	484.96
404.62	503.49
404.999	487.22
405.377	483.15
405.755	490.38
406.133	488.57
406.511	503.72
406.889	496.71
407.267	508.69
407.645	497.39
408.023	521.79
408.401	513.66
408.779	515.69
409.156	522.02
409.534	495.35
409.912	515.69
410.29	538.06
410.667	543.04
411.045	514.11
411.422	534.22
411.8	573.09
412.178	552.3
412.555	561.79
412.933	559.08
413.31	555.24
413.687	553.21
414.065	568.57
414.442	602.47
414.819	564.73
415.197	602.47
415.574	586.43
415.951	580.32
416.328	587.33
416.705	578.97
417.082	594.11
417.46	610.83
417.837	578.29
418.214	611.96
418.591	597.72
418.967	623.03
419.344	630.27
419.721	633.88
420.098	618.06
420.475	643.82
420.852	637.72
421.228	631.85
421.605	642.47
421.982	658.97
422.358	654.45
422.735	657.84
423.111	642.92
423.488	671.17
423.864	677.27
424.241	681.79
424.617	678.63
424.994	684.5
425.37	685.41
425.746	654.9
426.123	713.43
426.499	680.89
426.875	715.01
427.251	709.13
427.627	697.16
428.003	722.24
428.379	716.37
428.756	710.94
429.132	722.01
429.507	718.4
429.883	760.21
430.259	734.9
430.635	749.81
431.011	777.38
431.387	761.79
431.763	763.37
432.138	795.01
432.514	788.68
432.89	789.36
433.265	804.5
433.641	825.29
434.016	833.65
434.392	827.1
434.767	827.55
435.143	823.93
435.518	855.8
435.894	855.57
436.269	867.77
436.644	872.75
437.02	897.38
437.395	878.85
437.77	869.81
438.145	893.54
438.52	921.78
438.895	928.56
439.271	924.72
439.646	935.34
440.021	931.05
440.395	942.8
440.77	933.53
441.145	964.72
441.52	957.71
441.895	950.94
442.27	959.07
442.645	969.47
443.019	968.11
443.394	992.29
443.769	953.87
444.143	969.01
444.518	995.23
444.892	989.58
445.267	1005.4
445.641	1015.34
446.016	1041.1
446.39	1008.11
446.764	1028.67
447.139	1009.69
447.513	1039.52
447.887	1042.68
448.262	1032.52
448.636	1066.64
449.01	1067.99
449.384	1079.07
449.758	1057.6
450.132	1070.93
450.506	1109.8
450.88	1129.91
451.254	1074.32
451.628	1105.28
452.002	1117.94
452.376	1133.08
452.75	1118.84
453.123	1151.61
453.497	1162.23
453.871	1176.69
454.244	1195.9
454.618	1218.05
454.992	1226.86
455.365	1215.11
455.739	1235.9
456.112	1248.78
456.486	1229.57
456.859	1260.53
457.232	1285.84
457.606	1274.09
457.979	1312.96
458.352	1338.5
458.725	1313.41
459.099	1332.39
459.472	1362.45
459.845	1396.12
460.218	1409
460.591	1392.05
460.964	1426.86
461.337	1437.48
461.71	1442.45
462.083	1448.1
462.456	1467.08
462.829	1491.71
463.201	1494.2
463.574	1490.36
463.947	1533.29
464.32	1563.12
464.692	1580.52
465.065	1597.92
465.438	1621.2
465.81	1641.76
466.183	1660.52
466.555	1683.35
466.928	1685.83
467.3	1684.48
467.672	1698.49
468.045	1778.94
468.417	1742.1
468.789	1790.46
469.161	1784.81
469.534	1816
469.906	1823
470.278	1869.33
470.65	1914.3
471.022	1906.84
471.394	1950.68
471.766	1971.25
472.138	1962.89
472.51	2017.35
472.882	2060.74
473.253	2107.97
473.625	2119.04
473.997	2156.1
474.369	2164.24
474.74	2174.18
475.112	2238.81
475.484	2259.83
475.855	2321.52
476.227	2332.14
476.598	2396.55
476.97	2387.06
477.341	2431.57
477.713	2498.69
478.084	2478.13
478.455	2582.08
478.827	2577.79
479.198	2666.82
479.569	2698.69
479.94	2773.71
480.311	2771
480.682	2845.8
481.053	2896.65
481.424	2935.06
481.795	2909.3
482.166	3003.31
482.537	3037.89
482.908	3128.96
483.279	3117.66
483.65	3165.79
484.021	3313.36
484.391	3294.15
484.762	3346.58
485.133	3359.01
485.503	3415.5
485.874	3487.82
486.244	3511.55
486.615	3588.61
486.985	3625.67
487.356	3732.11
487.726	3739.56
488.097	3789.5
488.467	3811.65
488.837	3897.98
489.207	3932.55
489.578	3999.44
489.948	4043.06
490.318	4065.88
490.688	4147.01
491.058	4240.34
491.428	4290.51
491.798	4309.94
492.168	4384.07
492.538	4429.04
492.908	4486.66
493.278	4549.94
493.648	4544.29
494.017	4594
494.387	4658.18
494.757	4728.01
495.126	4796.26
495.496	4815.69
495.866	4892.53
496.235	4958.74
496.605	4999.19
496.974	5012.52
497.344	5061.79
497.713	5067.21
498.082	5137.49
498.452	5234.21
498.821	5314.44
499.19	5285.06
499.559	5328.67
499.928	5385.85
500.298	5419.97
500.667	5504.71
501.036	5525.73
501.405	5616.12
501.774	5635.11
502.143	5707.65
502.512	5655.22
502.88	5761.43
503.249	5758.27
503.618	5844.59
503.987	5838.49
504.356	5939.05
504.724	5954.65
505.093	6026.73
505.462	6062.67
505.83	6122.55
506.199	6123.91
506.567	6231.47
506.936	6276.9
507.304	6364.8
507.672	6409.77
508.041	6406.61
508.409	6513.5
508.777	6592.14
509.145	6649.54
509.514	6686.38
509.882	6732.25
510.25	6805.02
510.618	6852.02
510.986	6832.14
511.354	6937.22
511.722	7027.16
512.09	7122.3
512.458	7160.49
512.826	7168.85
513.193	7253.82
513.561	7273.71
513.929	7343.76
514.297	7480.48
514.664	7501.05
515.032	7579.69
515.4	7638.22
515.767	7687.71
516.135	7767.48
516.502	7743.07
516.869	7902.84
517.237	7954.82
517.604	7997.3
517.972	8134.02
518.339	8206.34
518.706	8190.75
519.073	8262.83
519.44	8384.64
519.808	8457.4
520.175	8441.36
520.542	8648.36
520.909	8642.26
521.276	8714.8
521.643	8803.61
522.009	8881.57
522.376	8966.77
522.743	9066.43
523.11	9164.05
523.477	9266.2
523.843	9289.7
524.21	9453.08
524.577	9520.2
524.943	9519.75
525.31	9706.64
525.676	9789.8
526.043	9852.17
526.409	9911.38
526.776	10018.27
527.142	10082.45
527.508	10122.9
527.874	10330.12
528.241	10308.88
528.607	10393.63
528.973	10542.55
529.339	10538.03
529.705	10681.08
530.071	10839.71
530.437	10899.37
530.803	10958.58
531.169	11071.8
531.535	11081.52
531.901	11145.02
532.267	11218.46
532.632	11293.26
532.998	11456.42
533.364	11454.16
533.73	11631.11
534.095	11711.1
534.461	11752.46
534.826	11832.23
535.192	11905.45
535.557	12041.72
535.923	12078.33
536.288	12123.07
536.653	12155.61
537.019	12268.6
537.384	12327.36
537.749	12370.75
538.114	12553.12
538.479	12563.96
538.845	12630.63
539.21	12657.97
539.575	12809.61
539.94	12890.28
540.305	12991.07
540.67	13043.95
541.034	13064.97
541.399	13195.81
541.764	13316.03
542.129	13303.83
542.494	13460.44
542.858	13479.42
543.223	13574.33
543.587	13711.73
543.952	13766.19
544.316	13845.74
544.681	13869.01
545.045	14030.37
545.41	14141.1
545.774	14156.92
546.138	14232.17
546.503	14314.88
546.867	14410.02
547.231	14565.94
547.595	14633.06
547.959	14827.41
548.324	14757.13
548.688	14825.6
549.052	14944.01
549.416	15044.58
549.779	15152.6
550.143	15328.18
550.507	15553.26
550.871	15608.86
551.235	15608.86
551.599	15805.23
551.962	15877.77
552.326	15994.38
552.689	16238.22
553.053	16169.29
553.417	16303.07
553.78	16562.28
554.143	16582.84
554.507	16804.3
554.87	16894.47
555.234	17158.64
555.597	17162.94
555.96	17326.78
556.323	17378.53
556.686	17541.23
557.05	17775.8
557.413	17963.37
557.776	18062.58
558.139	18247.2
558.502	18338.73
558.865	18545.73
559.228	18785.95
559.59	18960.63
559.953	18979.39
560.316	19290.79
560.679	19465.25
561.041	19806.03
561.404	19780.27
561.767	20117.44
562.129	20185.68
562.492	20493.47
562.854	20600.59
563.217	20686.01
563.579	20942.5
563.941	21090.29
564.304	21452.32
564.666	21676.72
565.028	21823.38
565.39	22156.71
565.753	22342.69
566.115	22715.79
566.477	22767.99
566.839	22890.7
567.201	23268.09
567.563	23433.06
567.925	23637.57
568.287	23845.7
568.648	24051.57
569.01	24264.22
569.372	24600.48
569.734	24595.51
570.095	25105.33
570.457	25102.16
570.819	25447.47
571.18	25559.55
571.542	25957.06
571.903	26154.11
572.265	26499.87
572.626	26670.26
572.987	26757.26
573.349	26959.97
573.71	27251.03
574.071	27478.37
574.432	27547.52
574.794	28119.26
575.155	28201.74
575.516	28380.04
575.877	28620.94
576.238	28931.22
576.599	29082.85
576.96	29141.15
577.32	29467.25
577.681	29616.17
578.042	29878.54
578.403	29996.95
578.763	30292.54
579.124	30462.02
579.485	30742.47
579.845	30994.67
580.206	31026.3
580.566	31198.28
580.927	31322.79
581.287	31563.92
581.648	31679.17
582.008	31933.85
582.368	32053.39
582.728	32371.58
583.089	32326.16
583.449	32504.91
583.809	32641.4
584.169	32953.26
584.529	32827.16
584.889	33303.08
585.249	33104.21
585.609	33210.88
585.969	33513.92
586.329	33550.76
586.688	33847.47
587.048	33932.67
587.408	34077.07
587.768	34210.4
588.127	34308.02
588.487	34337.4
588.846	34751.18
589.206	34646.55
589.565	34872.76
589.925	35126.31
590.284	35195.46
590.643	35347.32
591.003	35486.52
591.362	35621.66
591.721	35657.82
592.08	35781.88
592.44	35999.05
592.799	36083.57
593.158	36164.92
593.517	36188.88
593.876	36416.44
594.235	36548.19
594.593	36636.55
594.952	36845.36
595.311	36957.45
595.67	36988.86
596.029	37313.6
596.387	37269.98
596.746	37532.35
597.104	37542.97
597.463	37628.62
597.822	37934.37
598.18	37831.55
598.538	37944.76
598.897	38305.89
599.255	38043.75
599.613	38880.79
599.972	38596.73
600.33	38958.98
600.688	38778.64
601.046	39069.93
601.404	39217.05
601.762	39175.24
602.12	39581.33
602.478	39710.82
602.836	39698.39
603.194	39648
603.552	39872.17
603.91	39750.82
604.268	40098.15
604.625	40090.47
604.983	40397.36
605.341	40278.49
605.698	40564.13
606.056	40708.31
606.413	40712.83
606.771	41058.36
607.128	41188.3
607.485	41214.28
607.843	41154.4
608.2	41573.14
608.557	41856.98
608.914	41713.25
609.272	41934.26
609.629	42083.19
609.986	42258.1
610.343	42254.03
610.7	42647.24
611.057	42625.55
611.414	42733.34
611.771	42717.97
612.127	43078.64
612.484	43146.89
612.841	43452.64
613.198	43267.56
613.554	43512.53
613.911	43687.89
614.267	43698.29
614.624	43773.54
614.98	43985.28
615.337	44237.25
615.693	44230.48
616.05	44403.58
616.406	44832.27
616.762	44625.49
617.118	44704.81
617.475	44930.57
617.831	44909.78
618.187	45025.03
618.543	45186.16
618.899	45341.18
619.255	45427.28
619.611	45486.04
619.967	45648.74
620.323	45796.76
620.678	45791.56
621.034	45834.73
621.39	45940.04
621.746	45846.25
622.101	46378.44
622.457	46174.38
622.812	46292.57
623.168	46550.41
623.523	46476.52
623.879	46723.52
624.234	46399.91
624.589	46722.39
624.945	46708.6
625.3	46905.21
625.655	46720.13
626.01	46927.81
626.365	47006
626.72	47046.67
627.075	47034.7
627.43	47088.25
627.785	47100.91
628.14	47360.79
628.495	47356.49
628.85	47382.93
629.205	47412.54
629.559	47640.33
629.914	47438.75
630.269	47639.2
630.623	47497.73
630.978	47673.55
631.332	47787.44
631.687	47705.19
632.041	47685.98
632.396	47816.6
632.75	47785.86
633.104	47905.63
633.459	47765.07
633.813	47719.88
634.167	47857.72
634.521	47932.07
634.875	47867.89
635.229	48043.48
635.583	47822.02
635.937	47939.3
636.291	48001.68
636.645	47920.1
636.999	47969.13
637.352	48074.22
637.706	47990.83
638.06	48083.48
638.413	48052.3
638.767	48036.93
639.121	48230.6
639.474	47890.27
639.828	48031.05
640.181	48097.04
640.534	48210.94
640.888	48107.66
641.241	48118.96
641.594	48158.28
641.947	48237.83
642.301	48161.22
642.654	48305.4
643.007	48193.54
643.36	48280.99
643.713	48256.81
644.066	48395.79
644.419	48178.62
644.771	47928.23
645.124	47646.88
645.477	47570.95
645.83	47402.14
646.182	47416.38
646.535	47325.31
646.888	47514
647.24	47292.09
647.593	47632.19
647.945	47458.87
648.298	47398.75
648.65	47395.14
649.002	47247.35
649.355	47413.22
649.707	47382.26
650.059	47428.13
650.411	47958.74
650.763	48128.45
651.115	48639.63
651.467	48447.31
651.819	48458.16
652.171	48535
652.523	48403.7
652.875	48451.61
653.227	48379.07
653.578	48814.08
653.93	48562.79
654.282	48414.32
654.633	48502.91
654.985	48490.48
655.337	48575.9
655.688	48548.33
656.039	48735.44
656.391	48367.77
656.742	48655.9
657.094	48659.06
657.445	48810.69
657.796	48747.64
658.147	48867.42
658.498	48793.29
658.849	48844.59
659.2	48777.02
659.551	48791.71
659.902	48901.99
660.253	48681.43
660.604	49051.14
660.955	48816.8
661.306	49019.73
661.656	48902.67
662.007	48958.26
662.358	48848.66
662.708	48929.33
663.059	48946.28
663.409	48850.92
663.76	48969.11
664.11	49033.06
664.461	49086.17
664.811	49073.96
665.161	49003.46
665.511	49004.36
665.862	49056.34
666.212	49218.37
666.562	49113.51
666.912	49139.5
667.262	49116.67
667.612	49261.53
667.962	49244.58
668.312	49238.03
668.662	49553.73
669.011	49323.22
669.361	49463.78
669.711	49450.9
670.06	49332.26
670.41	49339.72
670.76	49318.25
671.109	49487.06
671.459	49506.04
671.808	49550.79
672.157	49568.19
672.507	49387.18
672.856	49461.07
673.205	49472.6
673.554	49638.47
673.904	49527.06
674.253	49668.98
674.602	49606.38
674.951	49095.21
675.3	48922.33
675.649	49588.53
675.998	49545.14
676.346	49513.05
676.695	49785.36
677.044	49352.15
677.393	49698.81
677.741	49798.46
678.09	49528.42
678.438	49546.95
678.787	49674.85
679.135	49734.74
679.484	49399.61
679.832	49521.18
680.181	49440.51
680.529	49592.14
680.877	49377.46
681.225	49413.84
681.573	49612.25
681.922	49389.66
682.27	49338.82
682.618	49409.55
682.966	49362.77
683.314	49540.17
683.661	49323.67
684.009	49173.4
684.357	49245.03
684.705	49061.76
685.053	49228.54
685.4	49138.14
685.748	49101.53
686.095	49128.2
686.443	48994.64
686.79	48992.38
687.138	49113.74
687.485	49182.44
687.832	49007.07
688.18	48993.06
688.527	48805.5
688.874	48810.02
689.221	48817.47
689.568	48638.72
689.915	48759.85
690.262	48546.75
690.609	48622.22
690.956	48434.21
691.303	48439.4
691.65	48301.1
691.997	48289.8
692.344	48155.8
692.69	48081.9
693.037	48224.04
693.383	47895.24
693.73	48024.5
694.077	47746.32
694.423	47911.28
694.769	47886.65
695.116	47784.28
695.462	47739.08
695.808	47581.57
696.155	47779.53
696.501	47596.94
696.847	47463.84
697.193	47154.01
697.539	47484.4
697.885	47244.86
698.231	47200.34
698.577	47165.54
698.923	47206.22
699.269	46934.59
699.614	46828.83
699.96	46807.13
700.306	46783.85
700.651	46709.96
700.997	46603.75
701.342	46627.47
701.688	46525.33
702.033	46394.94
702.379	46361.72
702.724	46326.92
703.069	46242.4
703.415	45835.63
703.76	45952.46
704.105	45826.37
704.45	45937.1
704.795	45700.95
705.14	45620.5
705.485	45486.49
705.83	45389.32
706.175	45505.47
706.52	45487.84
706.865	45493.49
707.209	45325.81
707.554	45335.76
707.899	45401.52
708.243	45183.44
708.588	45109.77
708.932	45010.79
709.277	44768.31
709.621	44888.31
709.966	44599.51
710.31	44747.75
710.654	44397.25
710.998	44531.71
711.342	44617.81
711.687	44637.24
712.031	44500.75
712.375	44375.56
712.719	44395.89
713.063	44378.95
713.407	44386.4
713.75	44252.17
714.094	44220.31
714.438	44309.57
714.782	44204.71
715.125	43924.95
715.469	44018.5
715.812	43885.4
716.156	43686.99
716.499	43692.64
716.843	43730.15
717.186	43428.01
717.53	43813.99
717.873	43813.76
718.216	43565.18
718.559	43559.08
718.902	43315.7
719.246	43338.07
719.589	43270.05
719.932	43266.21
720.275	43166.32
720.617	43226.66
720.96	43139.2
721.303	43230.5
721.646	43198.86
721.989	42894.69
722.331	43156.38
722.674	43082.48
723.016	42984.18
723.359	42979.89
723.701	43099.21
724.044	42699.89
724.386	42670.74
724.729	42885.2
725.071	42701.02
725.413	42791.19
725.755	42683.4
726.097	42557.98
726.439	42477.98
726.782	42469.62
727.124	42700.12
727.465	42299.23
727.807	42484.76
728.149	42489.28
728.491	42351.88
728.833	42514.14
729.175	42180.81
729.516	42120.47
729.858	42197.76
730.199	42074.15
730.541	42083.41
730.882	41904.66
731.224	42082.96
731.565	41833.02
731.906	41970.42
732.248	42079.12
732.589	41823.31
732.93	41669.19
733.271	41776.3
733.612	41861.72
733.953	41849.3
734.294	41649.98
734.635	41704.89
734.976	41612.69
735.317	41681.84
735.658	41559.36
735.999	41426.48
736.339	41301.06
736.68	41499.25
737.021	41256.32
737.361	41204.34
737.702	41301.06
738.042	41170.44
738.383	41139.94
738.723	41342.87
739.063	41231.46
739.404	41415.18
739.744	41219.48
740.084	41115.08
740.424	41175.19
740.764	41071.91
741.104	41146.04
741.444	40888.64
741.784	40803.67
742.124	40934.06
742.464	40810.45
742.804	40939.71
743.143	40835.99
743.483	40796.22
743.823	40605.26
744.162	40641.19
744.502	40830.79
744.841	40728.87
745.181	40789.66
745.52	40515.54
745.86	40615.66
746.199	40541.53
746.538	40560.74
746.877	40581.53
747.216	40525.94
747.556	40411.37
747.895	40444.59
748.234	40183.58
748.573	40179.06
748.911	40134.99
749.25	40087.31
749.589	39970.02
749.928	40055.44
750.267	40122.79
750.605	39928.89
750.944	39802.12
751.283	39774.32
751.621	39891.38
751.96	39658.84
752.298	39722.12
752.636	39911.94
752.975	39573.42
753.313	39336.14
753.651	39528.9
753.989	39337.72
754.327	39190.61
754.666	39068.13
755.004	39211.4
755.342	39158.29
755.679	39132.76
756.017	38995.13
756.355	39119.42
756.693	39029.03
757.031	38978.64
757.368	38851.86
