Data from copper_heatsink_FLMS001491_086.txt Node
Date: Tue Feb 07 10:50:42 GMT 2017
User: dcchb
Spectrometer: FLMS00149
Trigger mode: 0
Integration Time (sec): 2.000000E-2
Scans to average: 10
Electric dark correction enabled: true
Nonlinearity correction enabled: false
Boxcar width: 0
XAxis mode: Wavelengths
Number of Pixels in Spectrum: 2048
>>>>>Begin Spectral Data<<<<<
341.393	-3.69
341.776	-3.69
342.16	-3.69
342.543	-85.04
342.927	-52.95
343.31	-48.88
343.693	-65.15
344.077	-67.87
344.46	-49.79
344.843	-57.24
345.226	-44.82
345.61	-34.87
345.993	-14.99
346.376	10.1
346.759	11
347.142	16.88
347.525	21.4
347.908	56.65
348.291	55.52
348.674	110.43
349.057	101.62
349.44	111.34
349.823	153.37
350.206	168.96
350.588	222.97
350.971	222.97
351.354	239.92
351.737	251
352.119	269.07
352.502	299.81
352.884	274.95
353.267	304.1
353.65	306.14
354.032	287.61
354.414	323.99
354.797	346.13
355.179	348.85
355.562	348.39
355.944	337.77
356.326	342.29
356.709	337.1
357.091	373.93
357.473	361.95
357.855	344.78
358.238	346.81
358.62	339.13
359.002	366.7
359.384	374.83
359.766	374.38
360.148	335.51
360.53	360.37
360.912	360.15
361.294	344.55
361.676	366.93
362.057	341.84
362.439	352.69
362.821	318.79
363.203	353.37
363.584	343.88
363.966	353.14
364.348	346.59
364.729	361.5
365.111	363.08
365.493	335.51
365.874	334.84
366.256	343.65
366.637	340.03
367.019	333.93
367.4	358.79
367.781	353.59
368.163	344.55
368.544	342.75
368.925	332.8
369.306	328.06
369.688	334.61
370.069	343.88
370.45	328.96
370.831	343.2
371.212	344.78
371.593	349.75
371.974	350.65
372.355	358.11
372.736	353.59
373.117	334.61
373.498	337.77
373.879	341.62
374.26	340.49
374.641	344.1
375.021	342.75
375.402	340.49
375.783	342.52
376.163	368.51
376.544	349.75
376.925	342.97
377.305	360.82
377.686	367.83
378.066	358.56
378.447	363.31
378.827	359.92
379.208	378.45
379.588	377.09
379.968	375.74
380.349	351.11
380.729	356.08
381.109	375.51
381.489	381.84
381.87	383.87
382.25	377.77
382.63	395.63
383.01	387.94
383.39	385.46
383.77	382.97
384.15	383.2
384.53	386.13
384.91	395.85
385.29	386.59
385.67	426.81
386.049	408.73
386.429	398.56
386.809	406.7
387.189	408.05
387.568	382.52
387.948	392.24
388.328	415.51
388.707	392.69
389.087	398.56
389.466	409.41
389.846	403.31
390.225	408.96
390.605	429.07
390.984	433.82
391.363	441.27
391.743	401.95
392.122	434.49
392.501	422.97
392.881	434.72
393.26	428.84
393.639	427.04
394.018	443.53
394.397	444.21
394.776	438.34
395.155	430.2
395.534	440.14
395.913	434.72
396.292	475.62
396.671	474.95
397.05	464.55
397.429	468.84
397.808	478.11
398.186	474.95
398.565	467.04
398.944	478.11
399.323	474.49
399.701	474.49
400.08	471.1
400.458	477.66
400.837	489.41
401.215	508.39
401.594	484.44
401.972	488.73
402.351	465
402.729	488.28
403.107	508.62
403.486	503.87
403.864	508.16
404.242	492.8
404.62	512.46
404.999	534.38
405.377	510.88
405.755	505.45
406.133	528.05
406.511	495.06
406.889	523.53
407.267	540.71
407.645	543.42
408.023	544.55
408.401	553.59
408.779	528.5
409.156	575.51
409.534	557.2
409.912	566.92
410.29	573.02
410.667	566.47
411.045	585.68
411.422	552.01
411.8	601.72
412.178	599.01
412.555	599.46
412.933	597.2
413.31	621.16
413.687	632
414.065	615.51
414.442	622.06
414.819	628.39
415.197	613.92
415.574	640.14
415.951	625.22
416.328	662.51
416.705	638.56
417.082	659.57
417.46	652.12
417.837	669.52
418.214	693.92
418.591	672.45
418.967	684.66
419.344	673.81
419.721	688.27
420.098	690.31
420.475	698.67
420.852	685.34
421.228	706.13
421.605	683.53
421.982	689.85
422.358	714.03
422.735	734.15
423.111	735.5
423.488	719.91
423.864	737.76
424.241	756.75
424.617	747.03
424.994	723.07
425.37	739.57
425.746	767.14
426.123	776.86
426.499	767.14
426.875	788.84
427.251	771.43
427.627	813.47
428.003	815.95
428.379	789.06
428.756	811.89
429.132	820.7
429.507	804.2
429.883	854.6
430.259	836.29
430.635	840.59
431.011	872.9
431.387	883.3
431.763	877.87
432.138	881.49
432.514	886.01
432.89	888.72
433.265	936.4
433.641	935.72
434.016	933.24
434.392	942.96
434.767	935.27
435.143	953.35
435.518	959.23
435.894	963.07
436.269	973.69
436.644	990.86
437.02	972.11
437.395	1004.2
437.77	997.87
438.145	1006.46
438.52	1024.08
438.895	1014.59
439.271	1036.29
439.646	1053.24
440.021	1071.99
440.395	1045.55
440.77	1071.31
441.145	1063.63
441.52	1091.88
441.895	1101.14
442.27	1104.99
442.645	1101.37
443.019	1090.75
443.394	1107.7
443.769	1116.96
444.143	1103.63
444.518	1138.66
444.892	1138.2
445.267	1134.14
445.641	1161.03
446.016	1120.8
446.39	1142.27
446.764	1168.03
447.139	1155.38
447.513	1173.01
447.887	1195.83
448.262	1178.88
448.636	1181.37
449.01	1209.62
449.384	1205.77
449.758	1244.19
450.132	1256.17
450.506	1248.26
450.88	1256.17
451.254	1260.24
451.628	1273.34
452.002	1280.35
452.376	1293.91
452.75	1312.89
453.123	1295.49
453.497	1327.35
453.871	1355.83
454.244	1360.35
454.618	1356.96
454.992	1375.71
455.365	1392.44
455.739	1398.08
456.112	1433.11
456.486	1432.43
456.859	1462.49
457.232	1487.8
457.606	1454.35
457.979	1477.18
458.352	1538.19
458.725	1551.3
459.099	1542.49
459.472	1566.67
459.845	1597.63
460.218	1579.1
460.591	1608.47
460.964	1623.39
461.337	1646.89
461.71	1681.92
462.083	1709.94
462.456	1680.79
462.829	1707.46
463.201	1724.4
463.574	1715.82
463.947	1748.36
464.32	1791.29
464.692	1825.42
465.065	1808.24
465.438	1826.55
465.81	1840.78
466.183	1874.68
466.555	1896.38
466.928	1944.74
467.3	1915.81
467.672	1973.44
468.045	2024.73
468.417	2012.76
468.789	2039.65
469.161	2060.67
469.534	2091.85
469.906	2086.65
470.278	2113.77
470.65	2147.44
471.022	2170.27
471.394	2223.37
471.766	2242.13
472.138	2278.74
472.51	2297.95
472.882	2355.57
473.253	2373.65
473.625	2435.35
473.997	2451.62
474.369	2456.59
474.74	2451.39
475.112	2510.37
475.484	2556.47
475.855	2610.93
476.227	2665.4
476.598	2710.37
476.97	2744.72
477.341	2775
477.713	2801.89
478.084	2852.96
478.455	2898.84
478.827	2938.84
479.198	3004.37
479.569	2996.01
479.94	3116.23
480.311	3107.42
480.682	3148.55
481.053	3255.21
481.424	3304.93
481.795	3316.68
482.166	3438.03
482.537	3407.75
482.908	3464.7
483.279	3493.85
483.65	3594.64
484.021	3640.74
484.391	3691.81
484.762	3744.46
485.133	3755.08
485.503	3814.97
485.874	3918.02
486.244	3923.89
486.615	4037.56
486.985	4071.91
487.356	4096.32
487.726	4148.29
488.097	4224.9
488.467	4296.09
488.837	4360.94
489.207	4382.64
489.578	4468.74
489.948	4489.98
490.318	4517.32
490.688	4571.11
491.058	4643.42
491.428	4722.52
491.798	4778.56
492.168	4828.28
492.538	4881.38
492.908	4910.08
493.278	5001.15
493.648	5017.65
494.017	5062.17
494.387	5149.62
494.757	5155.5
495.126	5206.12
495.496	5263.97
495.866	5302.16
496.235	5353.01
496.605	5438.2
496.974	5386.91
497.344	5545.32
497.713	5522.72
498.082	5544.64
498.452	5626.67
498.821	5673
499.19	5719.1
499.559	5745.09
499.928	5800.23
500.298	5821.47
500.667	5896.72
501.036	5936.72
501.405	5940.11
501.774	5995.7
502.143	5981.24
502.512	6053.56
502.88	6116.6
503.249	6133.55
503.618	6221.91
503.987	6286.77
504.356	6321.8
504.724	6334.68
505.093	6401.57
505.462	6444.51
505.83	6485.86
506.199	6573.09
506.567	6614.67
506.936	6606.76
507.304	6644.5
507.672	6740.32
508.041	6798.85
508.409	6855.34
508.777	6927.66
509.145	6956.36
509.514	6996.81
509.882	7052.63
510.25	7112.06
510.618	7156.13
510.986	7166.75
511.354	7268.21
511.722	7314.09
512.09	7427.53
512.458	7343.01
512.826	7498.04
513.193	7497.36
513.561	7529.22
513.929	7592.95
514.297	7707.3
514.664	7755.21
515.032	7817.58
515.4	7942.55
515.767	7983.22
516.135	8013.05
516.502	8004.24
516.869	8147.51
517.237	8190.9
517.604	8155.87
517.972	8370.78
518.339	8397.45
518.706	8426.83
519.073	8437.67
519.44	8553.38
519.808	8639.25
520.175	8623.66
520.542	8761.73
520.909	8858.68
521.276	8838.12
521.643	8982.07
522.009	9032.69
522.376	9191.55
522.743	9208.5
523.11	9307.93
523.477	9464.09
523.843	9458.21
524.21	9588.38
524.577	9645.78
524.943	9686.91
525.31	9779.11
525.676	9912.89
526.043	9966.45
526.409	10038.31
526.776	10133.45
527.142	10205.99
527.508	10254.8
527.874	10456.83
528.241	10417.73
528.607	10512.42
528.973	10608.92
529.339	10701.12
529.705	10738.63
530.071	10856.37
530.437	10862.24
530.803	11054.78
531.169	11051.62
531.535	11187.21
531.901	11245.74
532.267	11296.81
532.632	11318.73
532.998	11432.62
533.364	11428.56
533.73	11537.03
534.095	11680.98
534.461	11718.04
534.826	11792.84
535.192	11866.51
535.557	12014.3
535.923	12009.11
536.288	12144.24
536.653	12128.2
537.019	12228.76
537.384	12280.06
537.749	12377.01
538.114	12461.07
538.479	12542.42
538.845	12649.54
539.21	12630.33
539.575	12680.05
539.94	12793.72
540.305	12912.13
540.67	12991
541.034	12990.32
541.399	13104.22
541.764	13163.65
542.129	13303.99
542.494	13312.12
542.858	13391.89
543.223	13449.07
543.587	13579.23
543.952	13607.71
544.316	13688.16
544.681	13789.62
545.045	13857.42
545.41	13982.39
545.774	14035.72
546.138	14088.37
546.503	14235.04
546.867	14253.79
547.231	14468.25
547.595	14452.88
547.959	14520
548.324	14570.85
548.688	14707.11
549.052	14822.82
549.416	14943.49
549.779	15041.12
550.143	15034.34
550.507	15285.18
550.871	15326.76
551.235	15426.64
551.599	15558.62
551.962	15729.69
552.326	15804.49
552.689	15962.45
553.053	15920.41
553.417	16076.12
553.78	16286.96
554.143	16409.22
554.507	16468.87
554.87	16582.54
555.234	16767.85
555.597	16817.34
555.96	17040.16
556.323	17096.2
556.686	17198.57
557.05	17523.76
557.413	17566.47
557.776	17769.63
558.139	17891.21
558.502	18015.05
558.865	18168.27
559.228	18353.57
559.59	18471.99
559.953	18634.92
560.316	18935.25
560.679	19085.08
561.041	19282.81
561.404	19392.64
561.767	19622.69
562.129	19641.45
562.492	20057.03
562.854	20223.8
563.217	20163.47
563.579	20331.37
563.941	20545.38
564.304	20806.16
564.666	21029.43
565.028	21101.52
565.39	21465.58
565.753	21583.54
566.115	21806.14
566.477	21999.8
566.839	22235.05
567.201	22435.72
567.563	22497.64
567.925	22803.4
568.287	22941.47
568.648	23218.3
569.01	23390.95
569.372	23694.9
569.734	23685.63
570.095	23939.64
570.457	24243.13
570.819	24349.8
571.18	24644.48
571.542	24910.69
571.903	24930.35
572.265	25209.89
572.626	25467.73
572.987	25666.6
573.349	25772.59
573.71	26078.57
574.071	26372.8
574.432	26411.21
574.794	26854.36
575.155	26910.18
575.516	26889.62
575.877	27162.15
576.238	27304.3
576.599	27657.96
576.96	27777.05
577.32	27792.87
577.681	28061.34
578.042	28203.26
578.403	28360.54
578.763	28520.76
579.124	28766.63
579.485	28901.09
579.845	29120.07
580.206	29274.87
580.566	29345.15
580.927	29483.67
581.287	29650
581.648	29790.33
582.008	29997.78
582.368	30125.01
582.728	30203.88
583.089	30363.65
583.449	30368.85
583.809	30611.78
584.169	30801.15
584.529	30798.44
584.889	31132.67
585.249	30929.96
585.609	31153.46
585.969	31525.2
586.329	31349.39
586.688	31551.64
587.048	31646.55
587.408	31633.22
587.768	31832.54
588.127	31978.75
588.487	31990.95
588.846	32257.16
589.206	32100.1
589.565	32218.52
589.925	32608.34
590.284	32501.9
590.643	32655.57
591.003	32960.87
591.362	32999.74
591.721	33008.78
592.08	33161.77
592.44	33383.91
592.799	33326.51
593.158	33314.53
593.517	33402.44
593.876	33585.94
594.235	33604.7
594.593	33766.5
594.952	33881.07
595.311	33939.6
595.67	34212.36
596.029	34304.79
596.387	34380.95
596.746	34567.61
597.104	34485.8
597.463	34380.95
597.822	34726.93
598.18	34861.16
598.538	34946.58
598.897	35147.25
599.255	34903.42
599.613	35411.88
599.972	35256.86
600.33	35477.19
600.688	35446.45
601.046	35747.01
601.404	35864.98
601.762	35916.5
602.12	36139.32
602.478	36105.65
602.836	36270.39
603.194	36223.84
603.552	36408.92
603.91	36374.11
604.268	36723.48
604.625	36601.23
604.983	36767.32
605.341	36722.35
605.698	37069.24
606.056	37225.62
606.413	37126.18
606.771	37316.69
607.128	37442.11
607.485	37362.56
607.843	37506.74
608.2	37882.78
608.557	38020.17
608.914	37834.41
609.272	38142.43
609.629	38431.24
609.986	38538.35
610.343	38502.42
610.7	38767.05
611.057	38643.66
611.414	38728.63
611.771	38789.42
612.127	39044.78
612.484	39179.46
612.841	39214.04
613.198	39240.48
613.554	39296.52
613.911	39506.01
614.267	39735.83
614.624	39766.57
614.98	39798.43
615.337	40161.81
615.693	40206.33
616.05	40120.23
616.406	40569.94
616.762	40512.54
617.118	40504.63
617.475	40515.02
617.831	40703.49
618.187	40758.63
618.543	40898.97
618.899	41134.89
619.255	41149.13
619.611	41302.35
619.967	41308.22
620.323	41671.6
620.678	41483.58
621.034	41345.96
621.39	41646.07
621.746	41519.06
622.101	42209.22
622.457	41812.39
622.812	41935.32
623.168	42136.22
623.523	42113.4
623.879	42238.59
624.234	42143.68
624.589	42273.62
624.945	42435.88
625.3	42411.02
625.655	42481.52
626.01	42648.98
626.365	42663.21
626.72	42697.11
627.075	42587.06
627.43	42627.96
627.785	42670.45
628.14	42771.91
628.495	42913.83
628.85	42856.66
629.205	42870.67
629.559	43064.56
629.914	42922.42
630.269	43095.97
630.623	43028.18
630.978	43163.99
631.332	43190.88
631.687	43374.83
632.041	43303.65
632.396	43144.56
632.75	43254.39
633.104	43329.41
633.459	43284.44
633.813	43303.65
634.167	43373.03
634.521	43288.96
634.875	43498.22
635.229	43386.13
635.583	43387.49
635.937	43452.57
636.291	43317.66
636.645	43335.97
636.999	43438.34
637.352	43524.21
637.706	43378.22
638.06	43636.3
638.413	43566.69
638.767	43573.02
639.121	43641.95
639.474	43321.5
639.828	43505
640.181	43651.66
640.534	43560.82
640.888	43647.82
641.241	43349.3
641.594	43530.76
641.947	43634.94
642.301	43401.05
642.654	43635.39
643.007	43784.31
643.36	43667.71
643.713	43685.79
644.066	43872.22
644.419	43660.93
644.771	43531.89
645.124	43175.07
645.477	43165.35
645.83	42987.5
646.182	42931.91
646.535	42767.84
646.888	42839.48
647.24	42563.78
647.593	42881.97
647.945	42764
648.298	42646.94
648.65	42757
649.002	42423.45
649.355	42817.33
649.707	42782.08
650.059	43101.17
650.411	43542.74
650.763	43506.13
651.115	44022.95
651.467	43851.88
651.819	44057.53
652.171	43829.06
652.523	43897.98
652.875	43945.89
653.227	43812.11
653.578	44226.56
653.93	44078.09
654.282	43951.32
654.633	44042.16
654.985	44069.28
655.337	43931.43
655.688	44161.25
656.039	44360.57
656.391	44035.83
656.742	44174.59
657.094	44216.85
657.445	44373
657.796	44212.55
658.147	44194.7
658.498	44248.94
658.849	44383.4
659.2	44290.52
659.551	44315.37
659.902	44520.57
660.253	44330.74
660.604	44575.71
660.955	44243.74
661.306	44545.42
661.656	44594.01
662.007	44701.8
662.358	44650.73
662.708	44716.04
663.059	44613.22
663.409	44397.86
663.76	44759.43
664.11	44874.91
664.461	44899.09
664.811	45013.21
665.161	44899.31
665.511	44705.42
665.862	44909.26
666.212	45059.54
666.562	45123.04
666.912	44937.73
667.262	44908.35
667.612	45033.32
667.962	45071.51
668.312	44987.9
668.662	45156.26
669.011	45229.25
669.361	45314.44
669.711	45150.38
670.06	45149.7
670.41	45260.43
670.76	45268.12
671.109	45446.87
671.459	45316.48
671.808	45353.09
672.157	45530.71
672.507	45160.78
672.856	45341.34
673.205	45430.15
673.554	45432.18
673.904	45473.54
674.253	45662.68
674.602	45486.87
674.951	44906.77
675.3	44826.32
675.649	45555.12
675.998	45570.48
676.346	45654.1
676.695	45698.39
677.044	45560.77
677.393	45824.04
677.741	45946.07
678.09	45793.98
678.438	45573.87
678.787	45911.49
679.135	45665.85
679.484	45467.89
679.832	45763.25
680.181	45609.58
680.529	45762.57
680.877	45699.97
681.225	45730.7
681.573	46107.64
681.922	45738.84
682.27	45538.39
682.618	45523.93
682.966	45581.1
683.314	45599.41
683.661	45627.2
684.009	45524.16
684.357	45496.81
684.705	45399.87
685.053	45575
685.4	45402.35
685.748	45398.74
686.095	45365.06
686.443	45287.78
686.79	45284.61
687.138	45439.64
687.485	45389.24
687.832	45211.4
688.18	45371.62
688.527	45119.87
688.874	45148.8
689.221	45084.85
689.568	45000.55
689.915	44906.77
690.262	45070.38
690.609	44907.45
690.956	44803.95
691.303	44970.95
691.65	44796.72
691.997	44711.75
692.344	44512.88
692.69	44651.41
693.037	44662.48
693.383	44351.76
693.73	44526.67
694.077	44246
694.423	44239.22
694.769	44225.89
695.116	44263.62
695.462	44298.2
695.808	44073.8
696.155	44290.06
696.501	43886.23
696.847	44056.62
697.193	43712.45
697.539	43955.84
697.885	43632
698.231	43623.42
698.577	43659.35
698.923	43584.09
699.269	43416.87
699.614	43357.21
699.96	43286.47
700.306	43390.43
700.651	43309.3
700.997	43181.17
701.342	43085.12
701.688	43070.44
702.033	42880.38
702.379	42986.82
702.724	42955.86
703.069	43137.78
703.415	42628.41
703.76	42774.4
704.105	42803.78
704.45	42766.94
704.795	42486.27
705.14	42526.04
705.485	42524.46
705.83	42387.74
706.175	42516.1
706.52	42464.12
706.865	42233.62
707.209	42306.61
707.554	42150.69
707.899	42277.69
708.243	42076.79
708.588	42029.33
708.932	41869.11
709.277	41827.98
709.621	41956.79
709.966	41711.38
710.31	41964.48
710.654	41430.25
710.998	41601.77
711.342	41719.96
711.687	41628.44
712.031	41624.15
712.375	41547.31
712.719	41724.93
713.063	41565.84
713.407	41430.48
713.75	41401.1
714.094	41452.85
714.438	41401.1
714.782	41318.17
715.125	41325.85
715.469	41515.67
715.812	41255.79
716.156	41197.49
716.499	41183.25
716.843	41163.59
717.186	40986.42
717.53	41086.08
717.873	41127.21
718.216	41087.89
718.559	41020.32
718.902	40867.33
719.246	40966.99
719.589	40891.51
719.932	40731.29
720.275	40934.9
720.617	40883.6
720.96	40793.89
721.303	40861.23
721.646	40931.06
721.989	40783.72
722.331	40921.34
722.674	40778.74
723.016	40802.92
723.359	40820.32
723.701	40860.55
724.044	40532.2
724.386	40376.04
724.729	40454.68
725.071	40515.7
725.413	40432.76
725.755	40472.99
726.097	40319.32
726.439	40235.48
726.782	40290.4
727.124	40435.25
727.465	40412.65
727.807	40401.8
728.149	40132.66
728.491	40159.78
728.833	40141.92
729.175	40113.45
729.516	40008.82
729.858	39996.39
730.199	40120.23
730.541	40124.07
730.882	40086.56
731.224	40069.16
731.565	40086.33
731.906	40062.38
732.248	40133.34
732.589	40082.94
732.93	39978.09
733.271	40044.07
733.612	40087.46
733.953	40144.41
734.294	39898.77
734.635	39985.77
734.976	39967.01
735.317	39603.86
735.658	39758.88
735.999	39854.7
736.339	39754.59
736.68	39886.79
737.021	39783.06
737.361	39463.52
737.702	39809.73
738.042	39593.24
738.383	39654.03
738.723	39858.54
739.063	39646.8
739.404	39636.4
739.744	39548.04
740.084	39577.65
740.424	39617.87
740.764	39757.08
741.104	39637.53
741.444	39554.37
741.784	39332.23
742.124	39572.45
742.464	39626.01
742.804	39525.22
743.143	39563.41
743.483	39565.89
743.823	39415.84
744.162	39445.9
744.502	39371.55
744.841	39263.76
745.181	39515.73
745.52	39312.12
745.86	39383.3
746.199	39302.17
746.538	39245.9
746.877	39480.7
747.216	39318.9
747.556	39144.89
747.895	39197.77
748.234	39059.69
748.573	38954.39
748.911	39164.1
749.25	39173.36
749.589	39047.26
749.928	39229.18
750.267	39242.06
750.605	39094.72
750.944	39054.04
751.283	38999.36
751.621	39168.84
751.96	38768.4
752.298	38678.23
752.636	38877.1
752.975	38645.24
753.313	38500.16
753.651	38663.77
753.989	38412.03
754.327	38322.09
754.666	38431.69
755.004	38444.12
755.342	38605.69
755.679	38479.37
756.017	38068.08
756.355	38240.28
756.693	38142.2
757.031	38369.09
