Data from copper_heatsink_FLMS001491_040.txt Node
Date: Tue Feb 07 10:49:51 GMT 2017
User: dcchb
Spectrometer: FLMS00149
Trigger mode: 0
Integration Time (sec): 2.000000E-2
Scans to average: 10
Electric dark correction enabled: true
Nonlinearity correction enabled: false
Boxcar width: 0
XAxis mode: Wavelengths
Number of Pixels in Spectrum: 2048
>>>>>Begin Spectral Data<<<<<
341.393	-29
341.776	-29
342.16	-29
342.543	-55.66
342.927	-76
343.31	-64.48
343.693	-74.87
344.077	-42.78
344.46	-58.83
344.843	-63.57
345.226	-44.14
345.61	-23.35
345.993	-33.74
346.376	-16.34
346.759	14.17
347.142	50.78
347.525	33.15
347.908	54.17
348.291	67.95
348.674	87.61
349.057	114.28
349.44	127.61
349.823	145.91
350.206	160.15
350.588	222.75
350.971	236.53
351.354	251.45
351.737	240.83
352.119	275.18
352.502	271.56
352.884	293.26
353.267	284.89
353.65	291.67
354.032	315.4
354.414	330.09
354.797	305.91
355.179	326.93
355.562	359.92
355.944	353.82
356.326	346.59
356.709	346.36
357.091	362.41
357.473	382.07
357.855	355.4
358.238	354.04
358.62	352.46
359.002	356.98
359.384	361.5
359.766	355.4
360.148	361.73
360.53	354.72
360.912	352.91
361.294	347.26
361.676	347.94
362.057	356.98
362.439	371.22
362.821	348.17
363.203	344.33
363.584	338.9
363.966	335.51
364.348	354.95
364.729	331.67
365.111	335.97
365.493	342.29
365.874	349.3
366.256	332.8
366.637	320.37
367.019	342.97
367.4	335.29
367.781	343.42
368.163	338.45
368.544	327.15
368.925	333.71
369.306	346.13
369.688	335.06
370.069	343.2
370.45	305.23
370.831	328.28
371.212	341.16
371.593	338.68
371.974	309.98
372.355	353.59
372.736	328.51
373.117	336.87
373.498	357.21
373.879	346.36
374.26	347.72
374.641	332.35
375.021	344.78
375.402	333.71
375.783	340.71
376.163	348.62
376.544	363.54
376.925	367.6
377.305	361.95
377.686	350.88
378.066	367.83
378.447	353.59
378.827	358.79
379.208	372.12
379.588	358.79
379.968	339.58
380.349	383.65
380.729	358.34
381.109	357.43
381.489	364.21
381.87	359.92
382.25	363.31
382.63	403.31
383.01	374.38
383.39	399.01
383.77	387.49
384.15	385
384.53	365.57
384.91	392.01
385.29	397.21
385.67	388.62
386.049	383.87
386.429	382.74
386.809	378.22
387.189	386.81
387.568	385
387.948	389.98
388.328	384.1
388.707	398.11
389.087	410.54
389.466	398.56
389.846	394.27
390.225	399.92
390.605	419.58
390.984	413.93
391.363	392.01
391.743	390.65
392.122	413.25
392.501	405.79
392.881	419.58
393.26	425
393.639	416.42
394.018	424.1
394.397	440.82
394.776	425
395.155	431.78
395.534	435.62
395.913	429.97
396.292	439.01
396.671	451.22
397.05	446.25
397.429	438.79
397.808	428.62
398.186	434.72
398.565	451.89
398.944	453.7
399.323	463.65
399.701	474.49
400.08	464.78
400.458	470.88
400.837	469.52
401.215	466.13
401.594	486.02
401.972	478.11
402.351	476.98
402.729	470.2
403.107	492.35
403.486	471.56
403.864	478.56
404.242	472.91
404.62	488.28
404.999	473.14
405.377	481.95
405.755	491.22
406.133	503.64
406.511	518.33
406.889	513.14
407.267	501.61
407.645	502.29
408.023	509.07
408.401	525.11
408.779	511.33
409.156	519.01
409.534	522.18
409.912	529.18
410.29	545.68
410.667	550.65
411.045	529.41
411.422	530.99
411.8	531.21
412.178	568.05
412.555	558.78
412.933	543.87
413.31	546.58
413.687	560.59
414.065	566.69
414.442	566.69
414.819	567.15
415.197	565.34
415.574	584.77
415.951	610.99
416.328	594.04
416.705	588.16
417.082	607.6
417.46	593.13
417.837	606.47
418.214	615.51
418.591	603.53
418.967	623.87
419.344	604.21
419.721	617.31
420.098	641.95
420.475	648.5
420.852	611.44
421.228	627.94
421.605	656.64
421.982	650.99
422.358	639.46
422.735	660.25
423.111	656.18
423.488	654.15
423.864	677.2
424.241	665.9
424.617	667.48
424.994	660.25
425.37	683.75
425.746	706.58
426.123	700.02
426.499	722.17
426.875	700.7
427.251	724.43
427.627	731.44
428.003	724.88
428.379	744.54
428.756	709.29
429.132	735.05
429.507	751.77
429.883	712.45
430.259	756.97
430.635	786.35
431.011	776.18
431.387	793.13
431.763	764.2
432.138	778.67
432.514	794.48
432.89	807.59
433.265	824.77
433.641	841.04
434.016	825.67
434.392	834.48
434.767	841.72
435.143	848.49
435.518	867.03
435.894	855.05
436.269	875.39
436.644	883.97
437.02	873.8
437.395	884.88
437.77	895.95
438.145	875.61
438.52	899.34
438.895	926.46
439.271	918.1
439.646	909.51
440.021	923.52
440.395	951.32
440.77	949.73
441.145	945.22
441.52	944.76
441.895	954.25
442.27	957.87
442.645	973.01
443.019	997.87
443.394	959.9
443.769	962.39
444.143	983.41
444.518	1005.55
444.892	1015.95
445.267	997.42
445.641	1021.15
446.016	1028.15
446.39	1010.3
446.764	1057.3
447.139	1054.36
447.513	1043.29
447.887	1041.26
448.262	1048.04
448.636	1049.85
449.01	1069.51
449.384	1071.31
449.758	1100.92
450.132	1102.05
450.506	1103.86
450.88	1095.95
451.254	1109.96
451.628	1131.2
452.002	1141.14
452.376	1157.19
452.75	1132.33
453.123	1140.69
453.497	1169.39
453.871	1168.71
454.244	1203.74
454.618	1200.8
454.992	1192.44
455.365	1229.5
455.739	1213.23
456.112	1223.85
456.486	1258.43
456.859	1271.76
457.232	1285.77
457.606	1260.91
457.979	1304.98
458.352	1334.81
458.725	1342.49
459.099	1329.84
459.472	1340.91
459.845	1387.01
460.218	1368.71
460.591	1405.99
460.964	1432.21
461.337	1443.73
461.71	1464.07
462.083	1496.84
462.456	1483.73
462.829	1497.74
463.201	1508.59
463.574	1516.5
463.947	1520.34
464.32	1554.24
464.692	1575.26
465.065	1573.22
465.438	1610.06
465.81	1648.7
466.183	1647.34
466.555	1666.33
466.928	1653.22
467.3	1675.59
467.672	1709.26
468.045	1759.43
468.417	1727.57
468.789	1789.94
469.161	1791.29
469.534	1808.02
469.906	1860.67
470.278	1872.2
470.65	1890.05
471.022	1927.11
471.394	1963.95
471.766	1983.15
472.138	1989.71
472.51	2020.44
472.882	2076.94
473.253	2076.94
473.625	2087.11
473.997	2134.56
474.369	2172.75
474.74	2201.45
475.112	2236.03
475.484	2262.02
475.855	2296.14
476.227	2323.71
476.598	2381.56
476.97	2403.48
477.341	2448.68
477.713	2481.45
478.084	2506.53
478.455	2579.97
478.827	2598.73
479.198	2676.7
479.569	2662.23
479.94	2733.19
480.311	2798.95
480.682	2815
481.053	2894.32
481.424	2900.42
481.795	2961.21
482.166	3053.41
482.537	3045.05
482.908	3108.32
483.279	3142.45
483.65	3226.96
484.021	3253.63
484.391	3297.7
484.762	3368.88
485.133	3351.25
485.503	3410.01
485.874	3476.67
486.244	3504.24
486.615	3575.88
486.985	3638.25
487.356	3712.37
487.726	3719.38
488.097	3847.96
488.467	3863.33
488.837	3928.64
489.207	4000.28
489.578	4049.99
489.948	4054.51
490.318	4129.76
490.688	4164.57
491.058	4194.17
491.428	4251.34
491.798	4356.88
492.168	4429.19
492.538	4397.1
492.908	4490.43
493.278	4566.81
493.648	4556.19
494.017	4653.82
494.387	4686.36
494.757	4746.7
495.126	4754.15
495.496	4835.51
495.866	4856.3
496.235	4932.91
496.605	4952.34
496.974	5002.06
497.344	5082.06
497.713	5093.35
498.082	5152.79
498.452	5237.31
498.821	5241.83
499.19	5287.25
499.559	5375.83
499.928	5388.71
500.298	5422.39
500.667	5482.72
501.036	5518.88
501.405	5556.39
501.774	5574.7
502.143	5691.53
502.512	5681.14
502.88	5734.92
503.249	5773.56
503.618	5824.63
503.987	5909.38
504.356	5924.75
504.724	5939.66
505.093	6009.71
505.462	6079.54
505.83	6116.6
506.199	6176.94
506.567	6231.18
506.936	6299.88
507.304	6355.02
507.672	6445.86
508.041	6470.04
508.409	6483.15
508.777	6542.13
509.145	6668.45
509.514	6650.6
509.882	6702.13
510.25	6732.18
510.618	6831.61
510.986	6861.22
511.354	6952.97
511.722	7031.61
512.09	7085.62
512.458	7102.12
512.826	7244.03
513.193	7279.96
513.561	7294.65
513.929	7360.64
514.297	7434.54
514.664	7537.36
515.032	7590.24
515.4	7681.31
515.767	7699.39
516.135	7790.46
516.502	7761.53
516.869	7923.11
517.237	7969.21
517.604	7965.82
517.972	8084.46
518.339	8161.75
518.706	8175.99
519.073	8201.07
519.44	8325.59
519.808	8447.62
520.175	8435.41
520.542	8627.73
520.909	8625.01
521.276	8664.79
521.643	8867.72
522.009	8855.06
522.376	8966.25
522.743	9099.13
523.11	9165.56
523.477	9224.32
523.843	9301.38
524.21	9390.19
524.577	9501.15
524.943	9560.13
525.31	9719
525.676	9744.98
526.043	9791.54
526.409	9950.63
526.776	10071.3
527.142	10065.43
527.508	10212.54
527.874	10222.71
528.241	10406.44
528.607	10373.89
528.973	10507.68
529.339	10547.45
529.705	10703.15
530.071	10745.64
530.437	10865.86
530.803	10986.53
531.169	11040.32
531.535	11072.41
531.901	11152.18
532.267	11237.37
532.632	11387.2
532.998	11363.25
533.364	11585.16
533.73	11591.49
534.095	11733.63
534.461	11746.97
534.826	11827.19
535.192	11854.31
535.557	12028.99
535.923	12047.3
536.288	12086.84
536.653	12313.96
537.019	12194.41
537.384	12331.58
537.749	12445.7
538.114	12513.5
538.479	12555.08
538.845	12600.05
539.21	12678.69
539.575	12754.17
539.94	12792.81
540.305	12889.76
540.67	13024.22
541.034	13102.18
541.399	13154.84
541.764	13279.81
542.129	13371.33
542.494	13428.05
542.858	13479.35
543.223	13637.31
543.587	13739.91
543.952	13688.83
544.316	13828.72
544.681	13830.98
545.045	14020.35
545.41	14127.02
545.774	14123.85
546.138	14222.15
546.503	14284.75
546.867	14351.19
547.231	14619.66
547.595	14702.82
547.959	14740.78
548.324	14829.6
548.688	14835.25
549.052	15038.63
549.416	15129.93
549.779	15171.96
550.143	15336.02
550.507	15440.88
550.871	15535.34
551.235	15624.38
551.599	15666.64
551.962	15864.82
552.326	15970.13
552.689	16246.73
553.053	16227.75
553.417	16338.26
553.78	16572.37
554.143	16601.98
554.507	16841.75
554.87	16936.66
555.234	17018.69
555.597	17185.24
555.96	17405.35
556.323	17434.5
556.686	17558.11
557.05	17766.47
557.413	17961.04
557.776	18100.92
558.139	18195.84
558.502	18440.8
558.865	18443.06
559.228	18732.77
559.59	18929.6
559.953	19093.89
560.316	19269.71
560.679	19414.11
561.041	19674.21
561.404	19804.61
561.767	20107.88
562.129	20085.5
562.492	20438.49
562.854	20617.01
563.217	20718.71
563.579	20904.92
563.941	21174.74
564.304	21416.99
564.666	21623.09
565.028	21784.89
565.39	22073.25
565.753	22251.32
566.115	22485.44
566.477	22738.77
566.839	22848.82
567.201	23102.37
567.563	23438.86
567.925	23562.93
568.287	23818.74
568.648	24009.02
569.01	24306.41
569.372	24629.34
569.734	24606.51
570.095	24994.75
570.457	25162.66
570.819	25394.52
571.18	25607.62
571.542	25847.61
571.903	26145
572.265	26364.21
572.626	26563.52
572.987	26840.13
573.349	27007.81
573.71	27206.22
574.071	27545.19
574.432	27624.06
574.794	27951.96
575.155	28205.97
575.516	28358.28
575.877	28613.64
576.238	28819.28
576.599	29025.15
576.96	29246.84
577.32	29326.16
577.681	29509.89
578.042	29982.64
578.403	29905.81
578.763	30218.8
579.124	30402.07
579.485	30688.84
579.845	30875.5
580.206	31070.07
580.566	31132.44
580.927	31315.49
581.287	31559.1
581.648	31691.98
582.008	32124.51
582.368	32073.21
582.728	32246.09
583.089	32281.34
583.449	32406.76
583.809	32649.69
584.169	32800.65
584.529	32802.23
584.889	33371.03
585.249	33221.2
585.609	33302.56
585.969	33693.28
586.329	33637.46
586.688	33859.38
587.048	33870.9
587.408	34082.65
587.768	34084.23
588.127	34331
588.487	34376.88
588.846	34844.21
589.206	34581.84
589.565	34691.67
589.925	35027.48
590.284	34932.34
590.643	35285.1
591.003	35464.08
591.362	35554.02
591.721	35853.22
592.08	35747.92
592.44	35956.72
592.799	36057.06
593.158	36255.25
593.517	36252.31
593.876	36428.12
594.235	36375.7
594.593	36597.16
594.952	36838.06
595.311	36794.67
595.67	36973.42
596.029	37238.5
596.387	37387.19
596.746	37625.15
597.104	37581.99
597.463	37637.81
597.822	37879.61
598.18	37911.7
598.538	37926.84
598.897	38323.67
599.255	38212.71
599.613	38749.42
599.972	38606.15
600.33	38871
600.688	38607.95
601.046	39080.03
601.404	39186.02
601.762	39067.15
602.12	39476.86
602.478	39610.87
602.836	39653.35
603.194	39590.53
603.552	39777.41
603.91	39901.93
604.268	40185.31
604.625	40058.31
604.983	40319.55
605.341	40148.48
605.698	40625.98
606.056	40588.69
606.413	40706.66
606.771	41111.62
607.128	41166.98
607.485	41084.72
607.843	41211.73
608.2	41545.05
608.557	41598.61
608.914	41762
609.272	41896.45
609.629	42070.91
609.986	42289.21
610.343	42155.43
610.7	42588.87
611.057	42546.61
611.414	42580.05
611.771	42771.01
612.127	43039.93
612.484	43168.51
612.841	43420.03
613.198	43370.54
613.554	43410.99
613.911	43610.08
614.267	43775.73
614.624	43770.98
614.98	44037.19
615.337	44333.68
615.693	44261.82
616.05	44350.85
616.406	44747
616.762	44520.79
617.118	44791.07
617.475	44794.01
617.831	44827.68
618.187	44950.39
618.543	45084.17
618.899	45344.73
619.255	45542.23
619.611	45441.22
619.967	45684.15
620.323	45719.63
620.678	45790.59
621.034	45879.4
621.39	45721.21
621.746	45884.37
622.101	46474.19
622.457	46042.11
622.812	46361.87
623.168	46386.96
623.523	46506.5
623.879	46660.62
624.234	46443.45
624.589	46694.97
624.945	46730.68
625.3	46792.6
625.655	46838.25
626.01	46822.2
626.365	46907.4
626.72	47039.82
627.075	47035.98
627.43	47100.39
627.785	47028.98
628.14	47287.73
628.495	47364.33
628.85	47348.97
629.205	47391.68
629.559	47558.45
629.914	47456.99
630.269	47640.94
630.623	47552.58
630.978	47598.9
631.332	47750.99
631.687	47860.59
632.041	47561.39
632.396	47720.03
632.75	47678.45
633.104	47890.65
633.459	47806.36
633.813	47784.44
634.167	47739.01
634.521	47900.82
634.875	47997.09
635.229	47904.43
635.583	47705.57
635.937	47889.97
636.291	47809.52
636.645	47921.16
636.999	47857.88
637.352	47952.57
637.706	47936.52
638.06	48150.08
638.413	48023.3
638.767	48120.02
639.121	48122.51
639.474	48093.13
639.828	47991.66
640.181	47962.51
640.534	48164.31
640.888	48000.02
641.241	48030.53
641.594	48061.04
641.947	48222.84
642.301	48101.94
642.654	48245.44
643.007	48222.62
643.36	48189.17
643.713	48235.72
644.066	48331.99
644.419	48191.88
644.771	47897.2
645.124	47667.38
645.477	47595.74
645.83	47428.74
646.182	47313.04
646.535	47356.2
646.888	47461.51
647.24	47354.16
647.593	47697.43
647.945	47554.61
648.298	47409.76
648.65	47373.6
649.002	47291.79
649.355	47440.04
649.707	47446.59
650.059	47552.8
650.411	47855.62
650.763	48001.83
651.115	48592.32
651.467	48441.14
651.819	48502.83
652.171	48390.75
652.523	48447.7
652.875	48539.22
653.227	48327.02
653.578	48641.81
653.93	48526.79
654.282	48423.74
654.633	48329.96
654.985	48547.13
655.337	48549.84
655.688	48561.59
656.039	48639.33
656.391	48376.06
656.742	48492.21
657.094	48675.49
657.445	48672.1
657.796	48681.59
658.147	48761.59
658.498	48831.19
658.849	48834.13
659.2	48810.85
659.551	48631.42
659.902	48999.54
660.253	48837.97
660.604	48901.24
660.955	48753.68
661.306	48902.6
661.656	48742.6
662.007	48899.21
662.358	48923.16
662.708	49028.02
663.059	48995.48
663.409	48683.4
663.76	49122.03
664.11	49006.55
664.461	49098.75
664.811	49061.01
665.161	49134.23
665.511	49053.33
665.862	49295.36
666.212	49260.33
666.562	49115.93
666.912	49119.32
667.262	49155.47
667.612	49176.72
667.962	49316.82
668.312	49240.89
668.662	49451.06
669.011	49403.15
669.361	49494
669.711	49419.42
670.06	49304.85
670.41	49336.49
670.76	49355.24
671.109	49525.86
671.459	49371.96
671.808	49449.93
672.157	49689.7
672.507	49341.68
672.856	49384.39
673.205	49498.29
673.554	49565.18
673.904	49519.31
674.253	49621.68
674.602	49501
674.951	49057.85
675.3	48968.59
675.649	49532.86
675.998	49513.88
676.346	49580.32
676.695	49794.1
677.044	49423.94
677.393	49649.02
677.741	49604.5
678.09	49552.98
678.438	49484.5
678.787	49752.52
679.135	49686.76
679.484	49526.31
679.832	49587.78
680.181	49556.37
680.529	49633.65
680.877	49513.2
681.225	49343.72
681.573	49509.59
681.922	49496.71
682.27	49414
682.618	49478.18
682.966	49384.17
683.314	49530.38
683.661	49249.03
684.009	49097.4
684.357	49177.17
684.705	49105.76
685.053	49216.04
685.4	49240.67
685.748	49133.55
686.095	49051.97
686.443	48966.33
686.79	48868.93
687.138	48973.56
687.485	49208.58
687.832	49035.93
688.18	48886.33
688.527	48685.43
688.874	48703.28
689.221	48761.59
689.568	48767.91
689.915	48617.41
690.262	48720.46
690.609	48642.49
690.956	48426.23
691.303	48374.02
691.65	48326.79
691.997	48272.11
692.344	48089.74
692.69	48113.47
693.037	48160.92
693.383	47872.57
693.73	48100.59
694.077	47815.85
694.423	47876.18
694.769	47868.95
695.116	47725.45
695.462	47774.49
695.808	47661.73
696.155	47842.29
696.501	47487.72
696.847	47530.21
697.193	47346.93
697.539	47317.33
697.885	47208.86
698.231	47012.03
698.577	47195.75
698.923	47095.64
699.269	47003.89
699.614	46861.3
699.96	46778.13
700.306	46741.53
700.651	46605.03
700.997	46680.28
701.342	46571.81
701.688	46442.55
702.033	46413.4
702.379	46375.66
702.724	46185.61
703.069	46374.53
703.415	45876.69
703.76	45847.76
704.105	45911.04
704.45	45768.44
704.795	45596.24
705.14	45751.27
705.485	45480.99
705.83	45342.24
706.175	45413.65
706.52	45432.41
706.865	45296.59
707.209	45629.69
707.554	45261.56
707.899	45322.13
708.243	45137.5
708.588	45227.21
708.932	44853.44
709.277	44909.93
709.621	44909.03
709.966	44687.34
710.31	44684.86
710.654	44458.2
710.998	44643.05
711.342	44637.4
711.687	44493.22
712.031	44390.17
712.375	44300.69
712.719	44331.87
713.063	44367.35
713.407	44503.84
713.75	44168.49
714.094	44161.48
714.438	44130.52
714.782	44176.17
715.125	43947.93
715.469	44056.62
715.812	43872.45
716.156	43640.59
716.499	43650.99
716.843	43795.84
717.186	43512.68
717.53	43779.12
717.873	43782.51
718.216	43622.74
718.559	43474.27
718.902	43146.59
719.246	43425.68
719.589	43137.33
719.932	43133.48
720.275	43118.12
720.617	43276.98
720.96	43106.14
721.303	43117.89
721.646	43272.46
721.989	43032.24
722.331	43231.11
722.674	43088.06
723.016	43013.49
723.359	43047.16
723.701	43094.16
724.044	42892.81
724.386	42676.32
724.729	42804
725.071	42646.04
725.413	42741.4
725.755	42726.04
726.097	42652.37
726.439	42375.09
726.782	42416.67
727.124	42715.19
727.465	42454.18
727.807	42524.01
728.149	42462.32
728.491	42303.45
728.833	42383
729.175	42247.18
729.516	42213.96
729.858	42132.15
730.199	42108.43
730.541	41989.79
730.882	41860.75
731.224	42190.91
731.565	41767.64
731.906	41849.68
732.248	42155.43
732.589	41853.97
732.93	41741.88
733.271	41896.23
733.612	41964.7
733.953	41823.46
734.294	41796.8
734.635	41591.83
734.976	41671.83
735.317	41539.18
735.658	41507.99
735.999	41435.22
736.339	41255.12
736.68	41467.54
737.021	41308.45
737.361	41213.08
737.702	41373.98
738.042	41164.72
738.383	41244.95
738.723	41314.55
739.063	41241.33
739.404	41261.22
739.744	41207.43
740.084	40975.8
740.424	41197.04
740.764	41044.27
741.104	41323.36
741.444	40888.8
741.784	40773.32
742.124	40875.46
742.464	41023.94
742.804	40878.63
743.143	40841.79
743.483	40820.55
743.823	40610.39
744.162	40636.6
744.502	40784.39
744.841	40661.23
745.181	40827.56
745.52	40550.05
745.86	40534
746.199	40452.65
746.538	40468.92
746.877	40571.74
747.216	40441.58
747.556	40354.12
747.895	40404.06
748.234	40282.03
748.573	40165.43
748.911	40186.67
749.25	40100.12
749.589	39932.21
749.928	40032.1
750.267	40127.46
750.605	40091.08
750.944	39846.34
751.283	39810.41
751.621	39829.62
751.96	39766.34
752.298	39752.56
752.636	39823.52
752.975	39521.6
753.313	39437.08
753.651	39502.62
753.989	39249.07
754.327	39288.84
754.666	39108.05
755.004	39233.02
755.342	39180.59
755.679	39101.5
756.017	39044.33
756.355	39220.37
756.693	39001.84
757.031	38983.09
757.368	38724.11
