Data from copper_heatsink_FLMS001491_072.txt Node
Date: Tue Feb 07 10:50:32 GMT 2017
User: dcchb
Spectrometer: FLMS00149
Trigger mode: 0
Integration Time (sec): 2.000000E-2
Scans to average: 10
Electric dark correction enabled: true
Nonlinearity correction enabled: false
Boxcar width: 0
XAxis mode: Wavelengths
Number of Pixels in Spectrum: 2048
>>>>>Begin Spectral Data<<<<<
341.393	-23.63
341.776	-23.63
342.16	-23.63
342.543	-59.33
342.927	-69.5
343.31	-69.05
343.693	-67.47
344.077	-63.4
344.46	-69.5
344.843	-53.69
345.226	-39.45
345.61	-32.67
345.993	-20.69
346.376	-25.66
346.759	10.04
347.142	25.41
347.525	50.94
347.908	52.75
348.291	85.75
348.674	98.63
349.057	118.06
349.44	114.22
349.823	155.35
350.206	172.75
350.588	236.25
350.971	235.8
351.354	245.74
351.737	281
352.119	289.13
352.502	287.55
352.884	293.65
353.267	304.72
353.65	309.92
354.032	337.27
354.414	347.43
354.797	350.82
355.179	362.12
355.562	349.24
355.944	363.48
356.326	376.13
356.709	363.48
357.091	356.25
357.473	369.81
357.855	368.68
358.238	371.16
358.62	370.03
359.002	377.72
359.384	371.84
359.766	382.91
360.148	372.74
360.53	378.62
360.912	388.34
361.294	359.64
361.676	374.78
362.057	364.84
362.439	375.23
362.821	335.01
363.203	375.23
363.584	352.41
363.966	360.99
364.348	360.09
364.729	349.69
365.111	369.35
365.493	335.23
365.874	348.79
366.256	345.85
366.637	375.91
367.019	359.86
367.4	364.61
367.781	352.63
368.163	359.86
368.544	382.24
368.925	355.12
369.306	369.58
369.688	359.19
370.069	343.59
370.45	385.85
370.831	340.88
371.212	359.19
371.593	359.19
371.974	347.66
372.355	340.43
372.736	380.65
373.117	352.86
373.498	355.8
373.879	370.48
374.26	344.72
374.641	365.96
375.021	367.32
375.402	359.41
375.783	363.48
376.163	389.69
376.544	386.3
376.925	384.95
377.305	384.72
377.686	386.08
378.066	379.52
378.447	394.21
378.827	383.59
379.208	388.79
379.588	378.39
379.968	375.46
380.349	389.02
380.729	404.16
381.109	382.91
381.489	407.32
381.87	396.7
382.25	415.46
382.63	385.85
383.01	413.2
383.39	402.57
383.77	417.26
384.15	400.09
384.53	400.54
384.91	420.43
385.29	402.8
385.67	434.21
386.049	411.39
386.429	409.35
386.809	436.47
387.189	433.99
387.568	424.04
387.948	451.84
388.328	417.94
388.707	447.54
389.087	443.25
389.466	445.28
389.846	448
390.225	470.59
390.605	458.62
390.984	443.48
391.363	478.73
391.743	457.94
392.122	467.88
392.501	469.01
392.881	471.95
393.26	471.72
393.639	492.97
394.018	486.87
394.397	506.07
394.776	471.95
395.155	493.87
395.534	483.48
395.913	491.39
396.292	485.28
396.671	510.82
397.05	491.16
397.429	478.05
397.808	515.79
398.186	515.57
398.565	504.04
398.944	498.62
399.323	510.14
399.701	536.81
400.08	520.31
400.458	516.92
400.837	506.3
401.215	525.96
401.594	524.83
401.972	530.93
402.351	549.46
402.729	537.71
403.107	542.46
403.486	572.74
403.864	581.1
404.242	553.08
404.62	576.13
404.999	578.61
405.377	590.37
405.755	579.74
406.133	595.56
406.511	592.85
406.889	607.99
407.267	633.98
407.645	612.29
408.023	603.92
408.401	618.16
408.779	613.64
409.156	615.68
409.534	646.86
409.912	629.69
410.29	656.35
410.667	655.67
411.045	670.82
411.422	685.28
411.8	691.15
412.178	661.55
412.555	698.39
412.933	695.67
413.31	692.06
413.687	705.17
414.065	698.61
414.442	708.33
414.819	718.72
415.197	736.35
415.574	713.53
415.951	745.62
416.328	755.56
416.705	742.9
417.082	744.26
417.46	762.34
417.837	770.7
418.214	811.83
418.591	788.55
418.967	790.59
419.344	798.95
419.721	815.22
420.098	810.02
420.475	788.78
420.852	837.82
421.228	826.97
421.605	836.24
421.982	816.12
422.358	838.95
422.735	864.03
423.111	847.31
423.488	860.19
423.864	899.06
424.241	892.28
424.617	908.1
424.994	895.22
425.37	916.91
425.746	909.23
426.123	912.62
426.499	931.15
426.875	945.84
427.251	960.3
427.627	991.71
428.003	993.29
428.379	1000.07
428.756	1005.72
429.132	985.16
429.507	992.62
429.883	1021.77
430.259	1009.11
430.635	1047.75
431.011	1057.25
431.387	1056.12
431.763	1084.14
432.138	1095.21
432.514	1125.94
432.89	1105.83
433.265	1160.75
433.641	1177.47
434.016	1159.84
434.392	1163.91
434.767	1195.55
435.143	1180.86
435.518	1188.77
435.894	1217.47
436.269	1232.83
436.644	1251.82
437.02	1253.17
437.395	1288.43
437.77	1298.6
438.145	1271.48
438.52	1301.99
438.895	1316.45
439.271	1337.01
439.646	1363
440.021	1334.3
440.395	1377.92
440.77	1361.42
441.145	1364.36
441.52	1400.06
441.895	1378.37
442.27	1405.71
442.645	1409.55
443.019	1416.78
443.394	1470.79
443.769	1439.38
444.143	1422.43
444.518	1461.98
444.892	1467.18
445.267	1472.38
445.641	1500.85
446.016	1481.19
446.39	1528.65
446.764	1529.32
447.139	1534.97
447.513	1537.91
447.887	1544.69
448.262	1541.75
448.636	1553.96
449.01	1588.31
449.384	1593.73
449.758	1612.03
450.132	1672.37
450.506	1643.9
450.88	1650.45
451.254	1647.29
451.628	1681.64
452.002	1705.59
452.376	1727.06
452.75	1745.14
453.123	1740.17
453.497	1763.22
453.871	1820.39
454.244	1818.58
454.618	1807.51
454.992	1860.16
455.365	1850.22
455.739	1894.29
456.112	1949.2
456.486	1951.46
456.859	1966.15
457.232	2025.81
457.606	1993.94
457.979	2018.12
458.352	2036.88
458.725	2067.62
459.099	2097.9
459.472	2132.02
459.845	2128.4
460.218	2172.02
460.591	2206.59
460.964	2180.38
461.337	2245.92
461.71	2271.45
462.083	2320.49
462.456	2300.6
462.829	2340.6
463.201	2390.77
463.574	2391.67
463.947	2426.48
464.32	2432.8
464.692	2506.02
465.065	2487.94
465.438	2546.02
465.81	2601.39
466.183	2582.86
466.555	2675.28
466.928	2732.46
467.3	2673.02
467.672	2738.56
468.045	2796.86
468.417	2798.9
468.789	2839.57
469.161	2831.44
469.534	2859.68
469.906	2946.91
470.278	3005.9
470.65	3021.71
471.022	3066.46
471.394	3113.69
471.766	3120.02
472.138	3177.64
472.51	3247.7
472.882	3315.94
473.253	3330.41
473.625	3409.73
473.997	3433
474.369	3508.03
474.74	3508.93
475.112	3577.63
475.484	3623.51
475.855	3654.47
476.227	3732.88
476.598	3837.74
476.97	3830.51
477.341	3992.76
477.713	3961.58
478.084	4041.12
478.455	4147.56
478.827	4218.29
479.198	4262.59
479.569	4300.55
479.94	4410.83
480.311	4467.1
480.682	4530.6
481.053	4635.46
481.424	4708
481.795	4766.53
482.166	4830.93
482.537	4897.37
482.908	5008.33
483.279	5023.02
483.65	5138.49
484.021	5219.17
484.391	5256.01
484.762	5314.54
485.133	5395.21
485.503	5508.43
485.874	5572.16
486.244	5687.86
486.615	5769.89
486.985	5804.47
487.356	5904.8
487.726	6022.09
488.097	6115.87
488.467	6092.14
488.837	6252.36
489.207	6288.07
489.578	6431.34
489.948	6444.9
490.318	6510.21
490.688	6636.08
491.058	6680.83
491.428	6874.27
491.798	6906.58
492.168	7035.39
492.538	7059.8
492.908	7115.39
493.278	7224.77
493.648	7274.48
494.017	7361.04
494.387	7415.05
494.757	7543.4
495.126	7597.41
495.496	7632.67
495.866	7698.2
496.235	7770.06
496.605	7857.97
496.974	7926.67
497.344	8062.49
497.713	8100.22
498.082	8116.27
498.452	8185.19
498.821	8259.99
499.19	8368.47
499.559	8418.41
499.928	8440.1
500.298	8502.93
500.667	8579.76
501.036	8654.56
501.405	8700.21
501.774	8838.06
502.143	8836.02
502.512	8898.62
502.88	8983.59
503.249	8991.27
503.618	9081.89
503.987	9177.71
504.356	9187.43
504.724	9286.18
505.093	9353.07
505.462	9431.49
505.83	9448.21
506.199	9561.88
506.567	9762.1
506.936	9728.2
507.304	9840.52
507.672	9904.25
508.041	9969.55
508.409	10063.11
508.777	10115.77
509.145	10266.95
509.514	10319.83
509.882	10383.1
510.25	10403.44
510.618	10557.79
510.986	10547.84
511.354	10606.37
511.722	10757.33
512.09	10895.63
512.458	10899.02
512.826	11075.29
513.193	11117.77
513.561	11191.89
513.929	11246.36
514.297	11344.21
514.664	11427.6
515.032	11519.34
515.4	11628.72
515.767	11768.38
516.135	11810.64
516.502	11782.84
516.869	12003.63
517.237	12108.93
517.604	12084.53
517.972	12243.39
518.339	12398.64
518.706	12383.05
519.073	12521.8
519.44	12592.08
519.808	12786.2
520.175	12853.55
520.542	12983.71
520.909	13044.73
521.276	13178.96
521.643	13157.94
522.009	13387.32
522.376	13548.44
522.743	13654.88
523.11	13855.78
523.477	13975.78
523.843	14068.66
524.21	14166.96
524.577	14299.61
524.943	14414.18
525.31	14459.61
525.676	14663.22
526.043	14892.36
526.409	14871.8
526.776	15076.31
527.142	15149.31
527.508	15327.83
527.874	15436.3
528.241	15539.35
528.607	15662.51
528.973	15774.83
529.339	15854.37
529.705	15965.78
530.071	16193.8
530.437	16270.41
530.803	16370.74
531.169	16517.63
531.535	16626.55
531.901	16620.23
532.267	16784.29
532.632	16950.61
532.998	17060.44
533.364	17201.45
533.73	17275.58
534.095	17452.52
534.461	17541.56
534.826	17685.28
535.192	17706.75
535.557	17928.89
535.923	18036.69
536.288	18077.59
536.653	18241.43
537.019	18217.25
537.384	18381.31
537.749	18537.24
538.114	18618.14
538.479	18685.26
538.845	18857.23
539.21	18789.21
539.575	19017.23
539.94	19157.79
540.305	19236.88
540.67	19327.73
541.034	19451.56
541.399	19607.94
541.764	19648.62
542.129	19844.55
542.494	19887.49
542.858	19990.53
543.223	20113.47
543.587	20310.3
543.952	20410.41
544.316	20437.98
544.681	20550.07
545.045	20785.54
545.41	20950.28
545.774	21120.45
546.138	21108.92
546.503	21277.73
546.867	21365.64
547.231	21688.57
547.595	21736.48
547.959	21920.2
548.324	22048.78
548.688	22108.22
549.052	22347.76
549.416	22408.78
549.779	22459.85
550.143	22622.78
550.507	22927.41
550.871	23037.23
551.235	23182.09
551.599	23424.57
551.962	23483.55
552.326	23661.17
552.689	23921.28
553.053	23901.17
553.417	24121.05
553.78	24579.57
554.143	24524.65
554.507	24786.34
554.87	24899.78
555.234	25319.66
555.597	25254.35
555.96	25588.8
556.323	25877.16
556.686	25948.8
557.05	26190.82
557.413	26497.03
557.776	26638.27
558.139	26876.68
558.502	27017.69
558.865	27383.33
559.228	27493.61
559.59	27776.77
559.953	28110.55
560.316	28429.41
560.679	28570.42
561.041	28983.97
561.404	29306.45
561.767	29613.33
562.129	29608.81
562.492	30137.39
562.854	30258.74
563.217	30531.05
563.579	30830.93
563.941	31234.08
564.304	31474.07
564.666	31728.08
565.028	32033.38
565.39	32333.71
565.753	32684.44
566.115	32905
566.477	33169.62
566.839	33441.48
567.201	33889.6
567.563	34118.52
567.925	34506.08
568.287	34819.97
568.648	35067.43
569.01	35471.26
569.372	35795.77
569.734	35790.8
570.095	36405.92
570.457	36696.54
570.819	36995.06
571.18	37237.99
571.542	37629.84
571.903	37774.25
572.265	38191.19
572.626	38460.78
572.987	38670.27
573.349	39148.67
573.71	39385.5
574.071	39691.26
574.432	40057.35
574.794	40415.53
575.155	40605.58
575.516	40597
575.877	41080.6
576.238	41368.95
576.599	41686.69
576.96	41989.5
577.32	42101.82
577.681	42492.99
578.042	42705.19
578.403	43041.9
578.763	43312.41
579.124	43457.26
579.485	43974.76
579.845	44052.5
580.206	44184.47
580.566	44341.08
580.927	44709.88
581.287	44905.58
581.648	44924.79
582.008	45321.62
582.368	45282.98
582.728	45675.51
583.089	45642.51
583.449	45949.4
583.809	46134.48
584.169	46361.59
584.529	46435.71
584.889	46896.27
585.249	46728.81
585.609	46968.58
585.969	47247.67
586.329	47353.66
586.688	47366.76
587.048	47601.33
587.408	47720.65
587.768	47766.98
588.127	47946.18
588.487	48061.21
588.846	48415.55
589.206	48249.23
589.565	48547.97
589.925	48929.89
590.284	48732.6
590.643	48915.2
591.003	49148.86
591.362	49436.54
591.721	49440.61
592.08	49599.47
592.44	49613.48
592.799	49859.13
593.158	49919.69
593.517	50039.24
593.876	50201.72
594.235	50213.02
594.593	50361.03
594.952	50511.77
595.311	50566.68
595.67	50708.37
596.029	51028.14
596.387	51156.72
596.746	51270.39
597.104	51335.7
597.463	51274
597.822	51523.49
598.18	51541.79
598.538	51553.55
598.897	51902.91
599.255	51789.47
599.613	52316.46
599.972	52102.01
600.33	52287.09
600.688	52292.74
601.046	52481.88
601.404	52661.09
601.762	52629
602.12	52913.28
602.478	52902.89
602.836	53072.83
603.194	52983.56
603.552	53158.93
603.91	53167.51
604.268	53529.54
604.625	53439.15
604.983	53644.79
605.341	53651.12
605.698	53763.43
606.056	53903.99
606.413	53972.47
606.771	54217.88
607.128	54217.66
607.485	54220.37
607.843	54249.97
608.2	54608.15
608.557	54762.95
608.914	54730.41
609.272	54917.07
609.629	54989.61
609.986	55200
610.343	55163.17
610.7	55376.5
611.057	55410.17
611.414	55389.38
611.771	55590.5
612.127	55808.57
612.484	55787.78
612.841	55896.26
613.198	55821.68
613.554	55970.6
613.911	56153.65
614.267	56216.25
614.624	56243.59
614.98	56356.81
615.337	56558.16
615.693	56624.37
616.05	56595.9
616.406	56798.61
616.762	56806.06
617.118	56922.44
617.475	56982.1
617.831	57097.58
618.187	57134.42
618.543	57176.22
618.899	57439.27
619.255	57386.61
619.611	57409.66
619.967	57617.11
620.323	57674.97
620.678	57588.64
621.034	57688.75
621.39	57735.53
621.746	57766.26
622.101	57997.9
622.457	57913.83
622.812	57997.67
623.168	58134.62
623.523	58148.63
623.879	58311.56
624.234	58161.96
624.589	58351.33
624.945	58396.76
625.3	58481.05
625.655	58504.55
626.01	58521.72
626.365	58600.14
626.72	58586.36
627.075	58753.58
627.43	58725.33
627.785	58811.66
628.14	58922.17
628.495	58966.91
628.85	58876.74
629.205	58846.24
629.559	59027.93
629.914	58989.06
630.269	59079.22
630.623	59013.01
630.978	59042.61
631.332	59198.54
631.687	59330.06
632.041	59170.07
632.396	59282.16
632.75	59220.24
633.104	59349.27
633.459	59265.21
633.813	59307.92
634.167	59374.36
634.521	59393.57
634.875	59457.74
635.229	59432.43
635.583	59377.97
635.937	59374.58
636.291	59472.89
636.645	59547.69
636.999	59466.33
637.352	59600.11
637.706	59514.01
638.06	59705.65
638.413	59665.2
638.767	59639.21
639.121	59718.98
639.474	59550.17
639.828	59618.64
640.181	59769.6
640.534	59796.27
640.888	59743.16
641.241	59677.63
641.594	59794.46
641.947	59867
642.301	59871.29
642.654	59884.17
643.007	59912.2
643.36	59921.69
643.713	59894.8
644.066	59991.29
644.419	59896.38
644.771	59897.96
645.124	59752.65
645.477	59800.56
645.83	59582.71
646.182	59546.33
646.535	59430.63
646.888	59479.66
647.24	59309.27
647.593	59516.73
647.945	59490.29
648.298	59437.63
648.65	59395.15
649.002	59404.19
649.355	59544.07
649.707	59640.79
650.059	59804.18
650.411	60149.03
650.763	60152.87
651.115	60381.79
651.467	60374.56
651.819	60412.3
652.171	60380.21
652.523	60355.8
652.875	60351.73
653.227	60386.53
653.578	60568.9
653.93	60494.78
654.282	60522.35
654.633	60501.33
654.985	60580.65
655.337	60612.74
655.688	60647.54
656.039	60741.33
656.391	60570.03
656.742	60668.33
657.094	60771.83
657.445	60801.66
657.796	60772.06
658.147	60795.34
658.498	60836.69
658.849	60882.79
659.2	60876.46
659.551	60852.96
659.902	60959.85
660.253	60922.79
660.604	61042.34
660.955	61046.4
661.306	61105.84
661.656	61066.52
662.007	61107.19
662.358	61125.72
662.708	61150.36
663.059	61200.52
663.409	61100.87
663.76	61278.04
664.11	61331.37
664.461	61374.08
664.811	61296.57
665.161	61379.73
665.511	61353.97
665.862	61459.05
666.212	61486.84
666.562	61554.86
666.912	61538.82
667.262	61498.37
667.612	61556.9
667.962	61592.6
668.312	61630.79
668.662	61799.6
669.011	61711.24
669.361	61751.24
669.711	61793.28
670.06	61815.2
670.41	61823.11
670.76	61795.54
671.109	61870.79
671.459	61945.14
671.808	61889.09
672.157	62035.98
672.507	61849.55
672.856	61921.41
673.205	62007.96
673.554	62111.46
673.904	62000.05
674.253	62161.18
674.602	62109.65
674.951	61844.8
675.3	61771.13
675.649	62188.52
675.998	62122.53
676.346	62164.11
676.695	62286.82
677.044	62146.71
677.393	62289.31
677.741	62278.91
678.09	62305.13
678.438	62258.12
678.787	62362.53
679.135	62367.5
679.484	62278.91
679.832	62339.25
680.181	62282.3
680.529	62360.49
680.877	62400.04
681.225	62329.31
681.573	62461.96
681.922	62342.19
682.27	62308.29
682.618	62378.57
682.966	62377.44
683.314	62428.29
683.661	62413.83
684.009	62346.93
684.357	62301.74
684.705	62282.76
685.053	62384.67
685.4	62398.01
685.748	62308.07
686.095	62390.1
686.443	62319.14
686.79	62317.78
687.138	62409.08
687.485	62434.62
687.832	62361.85
688.18	62415.63
688.527	62297.67
688.874	62370.66
689.221	62378.57
689.568	62339.48
689.915	62242.98
690.262	62341.06
690.609	62279.82
690.956	62226.71
691.303	62250.89
691.65	62140.39
691.997	62118.92
692.344	62021.29
692.69	62061.29
693.037	62100.84
693.383	61940.84
693.73	62075.08
694.077	61915.76
694.423	61951.01
694.769	61978.36
695.116	61874.63
695.462	61904.01
695.808	61919.37
696.155	61961.63
696.501	61833.05
696.847	61805.25
697.193	61844.35
697.539	61884.57
697.885	61822.43
698.231	61791.24
698.577	61810.68
698.923	61874.18
699.269	61707.4
699.614	61651.36
699.96	61589.67
700.306	61659.72
700.651	61489.33
700.997	61471.7
701.342	61472.83
701.688	61498.14
702.033	61519.84
702.379	61464.02
702.724	61467.64
703.069	61583.34
703.415	61363.91
703.76	61408.65
704.105	61473.96
704.45	61428.09
704.795	61256.34
705.14	61222.22
705.485	61206.85
705.83	61182.22
706.175	61207.98
706.52	61262.67
706.865	61121.66
707.209	61183.57
707.554	61156.46
707.899	61185.38
708.243	61134.31
708.588	61092.96
708.932	60989.68
709.277	60974.31
709.621	61091.37
709.966	60957.14
710.31	61086.4
710.654	60878.05
710.998	60927.76
711.342	60972.06
711.687	60918.5
712.031	60879.18
712.375	60902.68
712.719	60860.19
713.063	60873.53
713.407	60990.36
713.75	60816.58
714.094	60847.76
714.438	60758.5
714.782	60745.39
715.125	60708.79
715.469	60860.19
715.812	60682.57
716.156	60645.74
716.499	60665.85
716.843	60776.13
717.186	60662.91
717.53	60797.37
717.873	60801.44
718.216	60742.68
718.559	60631.95
718.902	60452.52
719.246	60620.88
719.589	60586.08
719.932	60628.11
720.275	60583.59
720.617	60564.38
720.96	60620.65
721.303	60573.42
721.646	60603.03
721.989	60519.41
722.331	60565.74
722.674	60433.31
723.016	60593.08
723.359	60575.91
723.701	60516.47
724.044	60424.95
724.386	60375.69
724.729	60525.74
725.071	60493.2
725.413	60489.58
725.755	60461.79
726.097	60406.42
726.439	60279.87
726.782	60352.41
727.124	60522.8
727.465	60360.09
727.807	60363.71
728.149	60316.93
728.491	60369.58
728.833	60435.57
729.175	60401.22
729.516	60367.1
729.858	60363.48
730.199	60449.58
730.541	60359.87
730.882	60389.02
731.224	60507.21
731.565	60251.4
731.906	60312.41
732.248	60381.79
732.589	60301.56
732.93	60229.25
733.271	60332.07
733.612	60286.65
733.953	60426.76
734.294	60320.55
734.635	60290.94
734.976	60337.04
735.317	60240.55
735.658	60331.62
735.999	60315.58
736.339	60235.13
736.68	60389.47
737.021	60239.87
737.361	60237.16
737.702	60276.25
738.042	60234.22
738.383	60204.62
738.723	60264.73
739.063	60198.06
739.404	60337.5
739.744	60292.75
740.084	60239.19
740.424	60305.18
740.764	60279.87
741.104	60384.73
741.444	60242.36
741.784	60201.45
742.124	60272.86
742.464	60229.02
742.804	60213.88
743.143	60096.82
743.483	60244.39
743.823	60060.21
744.162	60139.31
744.502	60137.27
744.841	60088.46
745.181	60243.49
745.52	60098.86
745.86	60289.81
746.199	60219.53
746.538	60191.28
746.877	60221.57
747.216	60242.36
747.556	60217.95
747.895	60229.48
748.234	60140.89
748.573	60090.04
748.911	60192.19
749.25	60157.16
749.589	60096.6
749.928	60111.51
750.267	60177.5
750.605	60049.59
750.944	60027.22
751.283	59973.89
751.621	60111.74
751.96	59836.94
752.298	59855.7
752.636	59947.9
752.975	59787.68
753.313	59814.57
753.651	59920.11
753.989	59780.22
754.327	59720.34
754.666	59683.05
755.004	59784.97
755.342	59798.3
