Data from copper_heatsink_FLMS001491_037.txt Node
Date: Tue Feb 07 10:49:50 GMT 2017
User: dcchb
Spectrometer: FLMS00149
Trigger mode: 0
Integration Time (sec): 2.000000E-2
Scans to average: 10
Electric dark correction enabled: true
Nonlinearity correction enabled: false
Boxcar width: 0
XAxis mode: Wavelengths
Number of Pixels in Spectrum: 2048
>>>>>Begin Spectral Data<<<<<
341.393	-0.9
341.776	-0.9
342.16	-0.9
342.543	-52.88
342.927	-55.82
343.31	-55.59
343.693	-65.53
344.077	-43.39
344.46	-56.72
344.843	-59.43
345.226	-42.94
345.61	-38.64
345.993	-18.08
346.376	-7.01
346.759	2.26
347.142	25.31
347.525	44.29
347.908	58.3
348.291	67.34
348.674	94.23
349.057	95.59
349.44	114.12
349.823	132.43
350.206	143.5
350.588	222.14
350.971	230.95
351.354	226.21
351.737	250.61
352.119	267.56
352.502	291.74
352.884	295.36
353.267	294
353.65	301.46
354.032	300.56
354.414	323.83
354.797	327.9
355.179	331.06
355.562	333.1
355.944	337.39
356.326	343.04
356.709	338.97
357.091	346.43
357.473	355.47
357.855	341.91
358.238	340.1
358.62	350.73
359.002	343.04
359.384	350.73
359.766	353.44
360.148	347.11
360.53	324.51
360.912	357.05
361.294	345.3
361.676	341.46
362.057	361.35
362.439	336.94
362.821	343.95
363.203	336.49
363.584	331.06
363.966	339.2
364.348	330.39
364.729	349.6
365.111	323.16
365.493	332.65
365.874	347.34
366.256	337.84
366.637	326.77
367.019	359.54
367.4	337.84
367.781	322.93
368.163	320.9
368.544	319.99
368.925	342.59
369.306	336.26
369.688	325.87
370.069	341.91
370.45	345.08
370.831	339.2
371.212	340.1
371.593	335.81
371.974	341.69
372.355	331.06
372.736	348.69
373.117	346.21
373.498	334.68
373.879	342.14
374.26	340.78
374.641	343.27
375.021	334.91
375.402	341.69
375.783	365.64
376.163	367.22
376.544	340.56
376.925	366.77
377.305	351.4
377.686	351.63
378.066	367
378.447	344.62
378.827	353.21
379.208	348.69
379.588	367.9
379.968	359.09
380.349	345.98
380.729	351.63
381.109	350.95
381.489	381.91
381.87	361.57
382.25	350.05
382.63	369.26
383.01	367
383.39	381.01
383.77	358.41
384.15	381.23
384.53	369.48
384.91	375.36
385.29	382.59
385.67	387.33
386.049	378.07
386.429	371.74
386.809	377.84
387.189	369.03
387.568	370.39
387.948	409.25
388.328	415.81
388.707	409.93
389.087	393.66
389.466	399.09
389.846	396.6
390.225	420.33
390.605	410.38
390.984	393.21
391.363	409.93
391.743	394.34
392.122	407.22
392.501	421.91
392.881	439.08
393.26	406.99
393.639	432.98
394.018	406.54
394.397	422.59
394.776	437.95
395.155	447.45
395.534	431.18
395.913	412.19
396.292	444.51
396.671	442.25
397.05	445.41
397.429	421.01
397.808	436.15
398.186	451.74
398.565	424.4
398.944	446.99
399.323	435.02
399.701	465.07
400.08	456.26
400.458	462.81
400.837	474.34
401.215	469.14
401.594	446.32
401.972	441.34
402.351	479.08
402.729	454.45
403.107	472.76
403.486	454.45
403.864	451.97
404.242	483.15
404.62	481.57
404.999	487.9
405.377	470.72
405.755	484.06
406.133	490.61
406.511	512.53
406.889	488.35
407.267	488.57
407.645	509.82
408.023	522.02
408.401	523.6
408.779	513.66
409.156	542.13
409.534	498.29
409.912	518.18
410.29	525.64
410.667	529.7
411.045	522.47
411.422	556.6
411.8	522.25
412.178	546.65
412.555	536.94
412.933	553.21
413.31	556.14
413.687	580.1
414.065	570.61
414.442	575.35
414.819	572.87
415.197	578.29
415.574	598.63
415.951	580.78
416.328	585.07
416.705	580.1
417.082	607.67
417.46	615.35
417.837	590.72
418.214	611.06
418.591	639.31
418.967	630.27
419.344	600.44
419.721	608.12
420.098	616.71
420.475	636.14
420.852	636.59
421.228	641.11
421.605	643.15
421.982	668.23
422.358	636.14
422.735	675.46
423.111	660.32
423.488	661.23
423.864	642.47
424.241	670.49
424.617	689.25
424.994	677.04
425.37	693.54
425.746	680.21
426.123	689.02
426.499	694.9
426.875	677.04
427.251	717.5
427.627	707.55
428.003	710.49
428.379	736.25
428.756	714.56
429.132	741.68
429.507	767.44
429.883	769.47
430.259	766.53
430.635	752.97
431.011	762.24
431.387	781.67
431.763	774.44
432.138	785.06
432.514	797.04
432.89	811.73
433.265	816.02
433.641	830.71
434.016	826.19
434.392	826.42
434.767	827.55
435.143	846.08
435.518	814.89
435.894	884.5
436.269	872.75
436.644	870.71
437.02	882.91
437.395	892.63
437.77	882.69
438.145	876.14
438.52	917.94
438.895	926.98
439.271	924.27
439.646	959.75
440.021	957.94
440.395	920.88
440.77	948.68
441.145	942.12
441.52	963.36
441.895	956.13
442.27	970.82
442.645	983.48
443.019	975.79
443.394	966.75
443.769	1010.37
444.143	995.68
444.518	997.49
444.892	993.19
445.267	999.52
445.641	993.42
446.016	998.17
446.39	1016.47
446.764	1031.39
447.139	1025.51
447.513	1032.97
447.887	1043.36
448.262	1056.47
448.636	1081.78
449.01	1088.11
449.384	1070.25
449.758	1075.68
450.132	1079.97
450.506	1104.38
450.88	1112.06
451.254	1098.95
451.628	1122.23
452.002	1105.28
452.376	1144.38
452.75	1129.46
453.123	1164.72
453.497	1156.81
453.871	1166.97
454.244	1207.2
454.618	1198.39
454.992	1201.78
455.365	1199.74
455.739	1225.96
456.112	1240.87
456.486	1246.75
456.859	1266.41
457.232	1296.24
457.606	1263.02
457.979	1277.03
458.352	1328.33
458.725	1343.47
459.099	1354.31
459.472	1369.46
459.845	1416.69
460.218	1406.97
460.591	1397.7
460.964	1392.05
461.337	1444.26
461.71	1473.18
462.083	1464.37
462.456	1450.81
462.829	1495.1
463.201	1512.28
463.574	1484.48
463.947	1533.97
464.32	1569
464.692	1553.86
465.065	1587.53
465.438	1612.39
465.81	1624.82
466.183	1618.71
466.555	1657.81
466.928	1682.67
467.3	1657.81
467.672	1730.12
468.045	1729.22
468.417	1751.14
468.789	1768.32
469.161	1786.39
469.534	1805.83
469.906	1862.1
470.278	1850.35
470.65	1873.62
471.022	1899.84
471.394	1971.02
471.766	1944.13
472.138	1994.52
472.51	2046.73
472.882	2067.06
473.253	2079.27
473.625	2107.06
473.997	2156.78
474.369	2184.8
474.74	2168.76
475.112	2248.08
475.484	2281.3
475.855	2295.08
476.227	2306.38
476.598	2371.69
476.97	2400.16
477.341	2471.12
477.713	2491.69
478.084	2484.23
478.455	2588.63
478.827	2593.83
479.198	2673.6
479.569	2673.38
479.94	2751.57
480.311	2767.61
480.682	2835.86
481.053	2892.13
481.424	2936.19
481.795	2953.37
482.166	3016.19
482.537	3024.78
482.908	3131.44
483.279	3149.3
483.65	3190.2
484.021	3267.48
484.391	3285.34
484.762	3348.61
485.133	3331.66
485.503	3428.84
485.874	3470.87
486.244	3520.81
486.615	3617.53
486.985	3633.35
487.356	3698.89
487.726	3695.5
488.097	3779.34
488.467	3844.42
488.837	3921.48
489.207	3984.53
489.578	4027.46
489.948	4066.33
490.318	4093.23
490.688	4125.09
491.058	4256.61
491.428	4228.36
491.798	4310.85
492.168	4431.07
492.538	4422.93
492.908	4486.89
493.278	4532.76
493.648	4561.91
494.017	4623.83
494.387	4709.71
494.757	4686.66
495.126	4813.21
495.496	4812.53
495.866	4825.86
496.235	4900.66
496.605	5010.94
496.974	4999.64
497.344	5050.71
497.713	5132.52
498.082	5157.6
498.452	5222.24
498.821	5249.58
499.19	5251.84
499.559	5350.82
499.928	5375.68
500.298	5454.32
500.667	5497.03
501.036	5482.12
501.405	5639.17
501.774	5619.51
502.143	5670.36
502.512	5711.71
502.88	5776.12
503.249	5786.97
503.618	5843.69
503.987	5898.6
504.356	5874.87
504.724	5999.39
505.093	5996.45
505.462	6059.05
505.83	6172.04
506.199	6092.72
506.567	6250.01
506.936	6229.44
507.304	6359.83
507.672	6414.52
508.041	6430.11
508.409	6482.54
508.777	6614.29
509.145	6678.92
509.514	6665.59
509.882	6708.98
510.25	6726.83
510.618	6843.44
510.986	6882.76
511.354	6939.03
511.722	6994.17
512.09	7060.15
512.458	7125.01
512.826	7215.4
513.193	7238.45
513.561	7273.26
513.929	7369.75
514.297	7412.23
514.664	7451.33
515.032	7539.69
515.4	7693.36
515.767	7748.95
516.135	7723.19
516.502	7768.61
516.869	7895.39
517.237	7955.27
517.604	7989.85
517.972	8066.45
518.339	8180.58
518.706	8175.83
519.073	8249.05
519.44	8332.66
519.808	8363.85
520.175	8437.07
520.542	8613.33
520.909	8694.23
521.276	8720.45
521.643	8798.86
522.009	8860.56
522.376	8979.42
522.743	9086.31
523.11	9152.3
523.477	9293.77
523.843	9322.47
524.21	9443.82
524.577	9492.41
524.943	9542.8
525.31	9679.97
525.676	9742.34
526.043	9774.43
526.409	9939.4
526.776	10070.02
527.142	10102.79
527.508	10215.55
527.874	10265.04
528.241	10414.19
528.607	10443.57
528.973	10512.27
529.339	10561.98
529.705	10663.45
530.071	10787.51
530.437	10886.04
530.803	10995.42
531.169	11012.82
531.535	11086.49
531.901	11171.91
532.267	11236.31
532.632	11416.42
532.998	11345.01
533.364	11507.27
533.73	11565.35
534.095	11685.79
534.461	11658.45
534.826	11849.63
535.192	11911.78
535.557	12017.76
535.923	12027.03
536.288	12090.08
536.653	12228.61
537.019	12280.81
537.384	12380.24
537.749	12420.69
538.114	12489.62
538.479	12519.44
538.845	12632.66
539.21	12660.23
539.575	12756.05
539.94	12870.85
540.305	12951.3
540.67	13058.64
541.034	13041.47
541.399	13172.31
541.764	13371.63
542.129	13383.15
542.494	13503.15
542.858	13473.09
543.223	13577.5
543.587	13675.12
543.952	13760.32
544.316	13813.65
544.681	13829.01
545.045	13984.94
545.41	14075.11
545.774	14098.61
546.138	14340.41
546.503	14352.17
546.867	14363.01
547.231	14623.57
547.595	14547.19
547.959	14745.38
548.324	14874.64
548.688	14903.79
549.052	14986.95
549.416	15072.6
549.779	15188.53
550.143	15232.59
550.507	15473.04
550.871	15514.85
551.235	15595.97
551.599	15778.79
551.962	15803.65
552.326	15995.29
552.689	16219.46
553.053	16221.95
553.417	16321.6
553.78	16575.16
554.143	16579.68
554.507	16811.31
554.87	16906.67
555.234	17128.36
555.597	17064.64
555.96	17248.81
556.323	17434.34
556.686	17522.25
557.05	17735.8
557.413	17842.24
557.776	18107.09
558.139	18274.1
558.502	18324.94
558.865	18494.43
559.228	18667.98
559.59	19013.06
559.953	19045.83
560.316	19384.58
560.679	19406.04
561.041	19762.42
561.404	19861.62
561.767	20107.49
562.129	20105.91
562.492	20490.53
562.854	20557.88
563.217	20775.95
563.579	21088.03
563.941	21214.36
564.304	21366.22
564.666	21736.15
565.028	21695.02
565.39	22015.47
565.753	22332.52
566.115	22500.2
566.477	22753.75
566.839	22889.79
567.201	23217.69
567.563	23377.69
567.925	23729.09
568.287	23831.01
568.648	24035.3
569.01	24295.63
569.372	24608.39
569.734	24754.15
570.095	25039.34
570.457	25234.82
570.819	25483.4
571.18	25589.16
571.542	25967.68
571.903	26045.64
572.265	26389.81
572.626	26586.87
572.987	26816.24
573.349	27020.08
573.71	27298.04
574.071	27472.5
574.432	27665.04
574.794	28059.38
575.155	28197.45
575.516	28306.83
575.877	28619.81
576.238	28737.32
576.599	29026.58
576.96	29218.89
577.32	29358.32
577.681	29626.11
578.042	29763.51
578.403	30057.06
578.763	30103.39
579.124	30420.67
579.485	30592.42
579.845	30841.22
580.206	31005.51
580.566	31075.34
580.927	31313.07
581.287	31610.69
581.648	31693.4
582.008	31968.88
582.368	32030.8
582.728	32096.56
583.089	32246.84
583.449	32483.67
583.809	32556.43
584.169	32814.28
584.529	32910.1
584.889	33268.96
585.249	33224.89
585.609	33284.32
585.969	33632.11
586.329	33577.87
586.688	33845.44
587.048	34016.73
587.408	34040.01
587.768	34290.4
588.127	34286.56
588.487	34355.93
588.846	34686.55
589.206	34555.02
589.565	34734.68
589.925	35119.08
590.284	35023.94
590.643	35256.02
591.003	35545.28
591.362	35684.03
591.721	35673.86
592.08	35787.76
592.44	35977.59
592.799	36076.57
593.158	36222.55
593.517	36253.51
593.876	36341.42
594.235	36502.99
594.593	36626.16
594.952	36769.2
595.311	36920.39
595.67	36924
596.029	37236.54
596.387	37391.11
596.746	37473.14
597.104	37489.18
597.463	37725.56
597.822	37761.27
598.18	37915.61
598.538	37967.59
598.897	38347.01
599.255	38139.34
599.613	38723.28
599.972	38503.62
600.33	38735.48
600.688	38751.98
601.046	38870.84
601.404	39154.9
601.762	39185.86
602.12	39491.62
602.478	39611.84
602.836	39624.95
603.194	39723.02
603.552	39784.26
603.91	39914.88
604.268	40134.76
604.625	40079.85
604.983	40374.08
605.341	40294.53
605.698	40567.29
606.056	40681.19
606.413	40790.11
606.771	41075.08
607.128	41207.05
607.485	41160.05
607.843	41167.96
608.2	41521.17
608.557	41722.07
608.914	41638.91
609.272	41911.21
609.629	42097.42
609.986	42291.09
610.343	42245.67
610.7	42513.46
611.057	42595.94
611.414	42696.05
611.771	42809.95
612.127	43004.07
612.484	43151.41
612.841	43228.69
613.198	43225.76
613.554	43494.68
613.911	43872.52
614.267	43783.93
614.624	43778.06
614.98	44009.01
615.337	44286.52
615.693	44197.93
616.05	44383.47
616.406	44724.02
616.762	44805.15
617.118	44678.6
617.475	44607.87
617.831	44985.03
618.187	45032.04
618.543	45062.09
618.899	45474.28
619.255	45489.2
619.611	45407.62
619.967	45438.81
620.323	45850.77
620.678	45705.24
621.034	45716.99
621.39	45684.9
621.746	45748.18
622.101	46286.69
622.457	46040.37
622.812	46306.58
623.168	46339.57
623.523	46528.04
623.879	46739.79
624.234	46417.76
624.589	46788.15
624.945	46811.88
625.3	46798.77
625.655	46682.16
626.01	46857.98
626.365	47025.2
626.72	46957.18
627.075	47062.94
627.43	47102.26
627.785	47110.85
628.14	47311.3
628.495	47411.41
628.85	47469.71
629.205	47311.3
629.559	47691.85
629.914	47421.35
630.269	47532.54
630.623	47471.52
630.978	47502.48
631.332	47822.02
631.687	47755.35
632.041	47604.17
632.396	47767.56
632.75	47628.35
633.104	47808.01
633.459	47728.24
633.813	47781.79
634.167	47795.35
634.521	47801.91
634.875	47912.64
635.229	47914.45
635.583	47798.52
635.937	47925.75
636.291	47754.22
636.645	48006.87
636.999	47995.12
637.352	48086.65
637.706	47845.52
638.06	48020.21
638.413	48113.31
638.767	47961.9
639.121	48178.39
639.474	47962.58
639.828	47986.99
640.181	48062.24
640.534	48207.55
640.888	48091.39
641.241	48043.03
641.594	48107.44
641.947	48209.35
642.301	48203.93
642.654	48263.82
643.007	48285.51
643.36	48218.62
643.713	48221.1
644.066	48374.1
644.419	48251.39
644.771	47968.23
645.124	47649.14
645.477	47584.74
645.83	47422.71
646.182	47391.75
646.535	47304.29
646.888	47658.41
647.24	47411.41
647.593	47669.48
647.945	47519.2
648.298	47453.67
648.65	47450.05
649.002	47346.33
649.355	47342.26
649.707	47431.52
650.059	47403.5
650.411	48026.31
650.763	48047.32
651.115	48603.69
651.467	48351.95
651.819	48523.92
652.171	48388.11
652.523	48457.71
652.875	48515.79
653.227	48365.73
653.578	48648.66
653.93	48455.45
654.282	48384.94
654.633	48355.11
654.985	48450.93
655.337	48626.97
655.688	48590.81
656.039	48597.37
656.391	48364.6
656.742	48444.15
657.094	48718.04
657.445	48763.92
657.796	48691.38
658.147	48823.35
658.498	48867.19
658.849	48783.58
659.2	48707.65
659.551	48657.93
659.902	48913.97
660.253	48823.57
660.604	48879.17
660.955	48768.66
661.306	48981.99
661.656	48753.29
662.007	49050.24
662.358	48925.04
662.708	48951.93
663.059	48960.75
663.409	48856.79
663.76	49074.42
664.11	49020.41
664.461	49039.39
664.811	49049.56
665.161	49061.99
665.511	49045.04
665.862	49057.69
666.212	49190.35
666.562	49195.09
666.912	49122.78
667.262	49153.96
667.612	49250
667.962	49268.54
668.312	49221.08
668.662	49543.78
669.011	49395.54
669.361	49559.15
669.711	49551.69
670.06	49389.44
670.41	49340.4
670.76	49232.6
671.109	49478.47
671.459	49421.53
671.808	49461.75
672.157	49568.41
672.507	49513.27
672.856	49553.05
673.205	49390.11
673.554	49551.24
673.904	49492.94
674.253	49626.27
674.602	49575.65
674.951	48996.45
675.3	48859.96
675.649	49467.4
675.998	49594.85
676.346	49537.23
676.695	49817.45
677.044	49483.44
677.393	49691.12
677.741	49644.12
678.09	49476.67
678.438	49548.08
678.787	49628.53
679.135	49717.34
679.484	49480.73
679.832	49605.93
680.181	49561.63
680.529	49595.08
680.877	49544.69
681.225	49307.63
681.573	49672.37
681.922	49373.39
682.27	49432.37
682.618	49426.72
682.966	49352.6
683.314	49634.18
683.661	49340.17
684.009	49189.44
684.357	49138.82
684.705	49254.52
685.053	49151.93
685.4	49266.73
685.748	49096.11
686.095	49056.11
686.443	49027.64
686.79	48856.79
687.138	49134.08
687.485	49104.25
687.832	49116.67
688.18	48962.78
688.527	48896.12
688.874	48825.38
689.221	48758.04
689.568	48648.66
689.915	48640.08
690.262	48589.68
690.609	48595.33
690.956	48504.71
691.303	48460.87
691.65	48271.73
691.997	48258.62
692.344	48139.53
692.69	48089.13
693.037	48316.92
693.383	47921.23
693.73	48064.72
694.077	47737.5
694.423	47722.36
694.769	47868.35
695.116	47885.07
695.462	47761.46
695.808	47678.75
696.155	47819.53
696.501	47640.56
696.847	47566.21
697.193	47292.09
697.539	47364.18
697.885	47135.71
698.231	47190.62
698.577	47147.46
698.923	47132.32
699.269	46890.52
699.614	46728.49
699.96	46639.68
700.306	46861.14
700.651	46571.88
700.997	46646.01
701.342	46528.49
701.688	46382.51
702.033	46367.14
702.379	46351.55
702.724	46193.36
703.069	46468.16
703.415	45834.5
703.76	45903.88
704.105	45826.37
704.45	45906.59
704.795	45668.86
705.14	45586.37
705.485	45631.57
705.83	45329.2
706.175	45568.75
706.52	45495.98
706.865	45273.39
707.209	45306.38
707.554	45223.67
707.899	45398.13
708.243	45159.72
708.588	45134.63
708.932	44934.86
709.277	44943.9
709.621	44894.19
709.966	44587.53
710.31	44779.61
710.654	44481.77
710.998	44514.08
711.342	44610.58
711.687	44661.42
712.031	44406.29
712.375	44412.39
712.719	44406.97
713.063	44233.19
713.407	44427.53
713.75	44186.86
714.094	44286.29
714.438	44162.23
714.782	44119.74
715.125	43851.28
715.469	43990.71
715.812	43724.73
716.156	43807.21
716.499	43765.18
716.843	43773.99
717.186	43577.16
717.53	43932.63
717.873	43882.46
718.216	43608.12
718.559	43548.01
718.902	43263.5
719.246	43468.01
719.589	43177.85
719.932	43203.61
720.275	43150.5
720.617	43258.07
720.96	43197.73
721.303	43084.52
721.646	43342.82
721.989	42980.56
722.331	43371.74
722.674	43007.46
723.016	43037.29
723.359	43148.24
723.701	43083.84
724.044	42887.01
724.386	42612.66
724.729	42804.3
725.071	42651.76
725.413	42575.15
725.755	42757.52
726.097	42700.8
726.439	42423.52
726.782	42476.17
727.124	42683.62
727.465	42486.34
727.807	42485.44
728.149	42419.9
728.491	42330.19
728.833	42447.7
729.175	42197.99
729.516	42169.51
729.858	42305.55
730.199	42175.61
730.541	42106.24
730.882	41857.2
731.224	41893.59
731.565	41790.31
731.906	41956.41
732.248	42082.74
732.589	41881.16
732.93	41742.63
733.271	41788.51
733.612	41835.51
733.953	41842.74
734.294	41655.18
734.635	41562.75
734.976	41542.41
735.317	41576.08
735.658	41550.77
735.999	41485.69
736.339	41358.23
736.68	41408.63
737.021	41168.41
737.361	41190.56
737.702	41211.35
738.042	41310.55
738.383	41149.2
738.723	41313.26
739.063	41376.09
739.404	41285.47
739.744	41250.21
740.084	41101.74
740.424	41199.37
740.764	41178.13
741.104	41298.35
741.444	40842.99
741.784	40779.94
742.124	40971.8
742.464	40879.6
742.804	40763.22
743.143	40859.26
743.483	40765.26
743.823	40617.69
744.162	40685.26
744.502	40756.89
744.841	40732.94
745.181	40857
745.52	40696.56
745.86	40579.5
746.199	40686.16
746.538	40434.64
746.877	40546.96
747.216	40402.78
747.556	40472.16
747.895	40396
748.234	40292.05
748.573	40160.75
748.911	40073.3
749.25	40110.13
749.589	40041.66
749.928	40018.83
750.267	40157.14
750.605	39954.66
750.944	40024.26
751.283	39890.02
751.621	40062.68
751.96	39671.95
752.298	39733.19
752.636	39826.3
752.975	39587.89
753.313	39400.32
753.651	39443.48
753.989	39311.28
754.327	39302.02
754.666	38982.48
755.004	39097.28
755.342	39061.12
755.679	39198.97
756.017	38919.2
756.355	39127.11
756.693	38949.71
757.031	38906.32
