Data from copper_heatsink_FLMS001491_080.txt Node
Date: Tue Feb 07 10:50:34 GMT 2017
User: dcchb
Spectrometer: FLMS00149
Trigger mode: 0
Integration Time (sec): 2.000000E-2
Scans to average: 10
Electric dark correction enabled: true
Nonlinearity correction enabled: false
Boxcar width: 0
XAxis mode: Wavelengths
Number of Pixels in Spectrum: 2048
>>>>>Begin Spectral Data<<<<<
341.393	-17.41
341.776	-17.41
342.16	-17.41
342.543	-63.52
342.927	-60.58
343.31	-69.84
343.693	-56.96
344.077	-72.1
344.46	-74.36
344.843	-58.32
345.226	-61.03
345.61	-24.87
345.993	-21.93
346.376	10.16
346.759	14.67
347.142	22.36
347.525	37.95
347.908	59.19
348.291	89.7
348.674	93.77
349.057	111.62
349.44	118.85
349.823	147.78
350.206	176.25
350.588	225.52
350.971	237.04
351.354	239.53
351.737	272.07
352.119	249.92
352.502	293.31
352.884	295.35
353.267	316.14
353.65	317.27
354.032	316.81
354.414	346.64
354.797	356.59
355.179	351.16
355.562	357.72
355.944	357.49
356.326	349.81
356.709	364.95
357.091	361.11
357.473	358.62
357.855	387.77
358.238	364.27
358.62	382.12
359.002	374.89
359.384	374.21
359.766	352.74
360.148	371.73
360.53	373.31
360.912	382.12
361.294	378.73
361.676	368.34
362.057	367.21
362.439	355.23
362.821	342.58
363.203	364.95
363.584	361.78
363.966	357.94
364.348	349.58
364.729	347.77
365.111	372.63
365.493	364.5
365.874	352.97
366.256	361.56
366.637	350.49
367.019	350.49
367.4	353.87
367.781	352.29
368.163	356.36
368.544	370.37
368.925	361.33
369.306	367.66
369.688	337.15
370.069	364.5
370.45	368.56
370.831	357.26
371.212	372.63
371.593	355.46
371.974	330.37
372.355	345.51
372.736	367.21
373.117	388
373.498	376.47
373.879	363.59
374.26	360.2
374.641	348.9
375.021	359.98
375.402	353.87
375.783	384.38
376.163	382.12
376.544	372.63
376.925	382.8
377.305	371.73
377.686	389.35
378.066	375.12
378.447	378.96
378.827	380.77
379.208	412.63
379.588	390.26
379.968	407.43
380.349	374.67
380.729	397.04
381.109	398.39
381.489	393.2
381.87	395.91
382.25	374.89
382.63	391.84
383.01	404.27
383.39	391.61
383.77	413.76
384.15	434.32
384.53	422.8
384.91	423.48
385.29	423.03
385.67	420.99
386.049	420.99
386.429	444.04
386.809	432.29
387.189	414.66
387.568	431.84
387.948	441.78
388.328	452.63
388.707	426.42
389.087	445.4
389.466	440.43
389.846	449.47
390.225	454.21
390.605	452.18
390.984	462.57
391.363	451.05
391.743	458.5
392.122	472.29
392.501	468.67
392.881	474.32
393.26	480.43
393.639	475.23
394.018	473.42
394.397	491.27
394.776	477.26
395.155	479.3
395.534	477.94
395.913	494.21
396.292	473.87
396.671	492.85
397.05	476.58
397.429	487.88
397.808	504.15
398.186	492.4
398.565	513.87
398.944	518.62
399.323	528.11
399.701	507.32
400.08	510.03
400.458	519.75
400.837	516.81
401.215	528.56
401.594	536.24
401.972	539.18
402.351	536.69
402.729	558.84
403.107	545.06
403.486	545.28
403.864	567.2
404.242	578.05
404.62	557.49
404.999	541.67
405.377	584.15
405.755	563.36
406.133	575.11
406.511	599.97
406.889	578.5
407.267	609.91
407.645	609.46
408.023	626.41
408.401	624.38
408.779	609.69
409.156	618.95
409.534	634.77
409.912	648.56
410.29	665.73
410.667	629.35
411.045	656.92
411.422	637.94
411.8	660.99
412.178	675.67
412.555	682.68
412.933	697.14
413.31	691.04
413.687	704.6
414.065	704.37
414.442	722.9
414.819	712.51
415.197	715
415.574	728.78
415.951	739.18
416.328	778.95
416.705	760.87
417.082	760.19
417.46	784.6
417.837	771.27
418.214	765.84
418.591	778.27
418.967	795.22
419.344	788.67
419.721	798.16
420.098	803.35
420.475	827.99
420.852	809.68
421.228	854.88
421.605	825.05
421.982	828.44
422.358	866.63
422.735	840.64
423.111	842
423.488	851.49
423.864	878.83
424.241	892.39
424.617	905.72
424.994	882
425.37	880.41
425.746	922
426.123	936.23
426.499	910.24
426.875	920.41
427.251	959.28
427.627	998.38
428.003	957.47
428.379	971.49
428.756	993.18
429.132	999.28
429.507	999.06
429.883	1027.3
430.259	1049.9
430.635	1041.09
431.011	1030.02
431.387	1055.55
431.763	1082.44
432.138	1069.79
432.514	1115.44
432.89	1105.72
433.265	1127.87
433.641	1141.2
434.016	1151.82
434.392	1165.38
434.767	1194.3
435.143	1183.68
435.518	1170.8
435.894	1207.41
436.269	1251.7
436.644	1232.72
437.02	1253.74
437.395	1246.51
437.77	1280.63
438.145	1295.77
438.52	1303.68
438.895	1285.6
439.271	1309.1
439.646	1363.11
440.021	1342.32
440.395	1361.98
440.77	1364.02
441.145	1378.48
441.52	1402.43
441.895	1383.68
442.27	1425.71
442.645	1411.25
443.019	1420.97
443.394	1436.78
443.769	1457.8
444.143	1460.51
444.518	1457.12
444.892	1478.59
445.267	1484.24
445.641	1499.61
446.016	1502.55
446.39	1518.82
446.764	1556.1
447.139	1531.47
447.513	1565.59
447.887	1566.5
448.262	1589.1
448.636	1564.46
449.01	1578.48
449.384	1615.08
449.758	1620.73
450.132	1615.76
450.506	1629.77
450.88	1644.24
451.254	1655.54
451.628	1684.46
452.002	1696.44
452.376	1711.13
452.75	1740.73
453.123	1723.56
453.497	1741.86
453.871	1763.33
454.244	1807.17
454.618	1830.45
454.992	1837
455.365	1845.14
455.739	1894.17
456.112	1912.93
456.486	1943.44
456.859	1937.11
457.232	1976.88
457.606	1952.93
457.979	1986.37
458.352	2079.48
458.725	2073.15
459.099	2068.41
459.472	2137.56
459.845	2168.29
460.218	2178.46
460.591	2198.12
460.964	2212.81
461.337	2265.91
461.71	2295.29
462.083	2307.95
462.456	2321.51
462.829	2338.23
463.201	2368.96
463.574	2370.32
463.947	2413.71
464.32	2490.09
464.692	2446.48
465.065	2466.14
465.438	2544.55
465.81	2546.59
466.183	2593.59
466.555	2660.93
466.928	2626.13
467.3	2725.79
467.672	2705.9
468.045	2754.26
468.417	2786.35
468.789	2858.44
469.161	2853.24
469.534	2900.25
469.906	2935.73
470.278	2968.5
470.65	3025.22
471.022	3077.65
471.394	3154.48
471.766	3154.48
472.138	3216.85
472.51	3239.45
472.882	3302.5
473.253	3325.77
473.625	3396.51
473.997	3393.79
474.369	3454.13
474.74	3505.88
475.112	3536.84
475.484	3672.21
475.855	3681.25
476.227	3730.06
476.598	3847.34
476.97	3853.9
477.341	3969.37
477.713	3988.81
478.084	4000.56
478.455	4093.66
478.827	4165.75
479.198	4257.73
479.569	4279.65
479.94	4363.03
480.311	4439.42
480.682	4523.03
481.053	4648.9
481.424	4718.28
481.795	4755.12
482.166	4841.21
482.537	4856.58
482.908	4985.84
483.279	4984.71
483.65	5133.41
484.021	5213.18
484.391	5298.83
484.762	5375.21
485.133	5381.31
485.503	5446.62
485.874	5586.05
486.244	5654.98
486.615	5704.47
486.985	5783.79
487.356	5930.9
487.726	5927.51
488.097	6100.62
488.467	6172.7
488.837	6269.2
489.207	6325.24
489.578	6376.54
489.948	6444.11
490.318	6573.37
490.688	6612.92
491.058	6707.15
491.428	6768.17
491.798	6914.15
492.168	7012.46
492.538	7028.73
492.908	7129.52
493.278	7194.6
493.648	7233.02
494.017	7381.94
494.387	7419.9
494.757	7480.92
495.126	7623.29
495.496	7645.89
495.866	7693.34
496.235	7767.24
496.605	7848.59
496.974	7891.08
497.344	8018.98
497.713	8086.78
498.082	8177.62
498.452	8211.97
498.821	8304.17
499.19	8236.83
499.559	8410.84
499.928	8461.23
500.298	8516.82
500.667	8629.36
501.036	8626.2
501.405	8757.95
501.774	8757.95
502.143	8849.47
502.512	8888.34
502.88	8990.48
503.249	9024.61
503.618	9068.9
503.987	9209.01
504.356	9208.78
504.724	9257.6
505.093	9337.14
505.462	9387.54
505.83	9500.08
506.199	9582.78
506.567	9679.96
506.936	9672.73
507.304	9829.11
507.672	9878.37
508.041	9939.61
508.409	9948.2
508.777	10220.73
509.145	10182.09
509.514	10257.8
509.882	10365.82
510.25	10401.75
510.618	10513.61
510.986	10560.16
511.354	10665.02
511.722	10803.77
512.09	10927.16
512.458	10971.45
512.826	11064.1
513.193	11149.52
513.561	11167.6
513.929	11278.79
514.297	11422.51
514.664	11523.98
515.032	11487.82
515.4	11624.76
515.767	11735.5
516.135	11821.6
516.502	11806.68
516.869	12019.1
517.237	12079.67
517.604	12143.62
517.972	12324.86
518.339	12370.06
518.706	12384.97
519.073	12586.1
519.44	12534.35
519.808	12849.59
520.175	12812.53
520.542	13010.49
520.909	13094.1
521.276	13104.5
521.643	13200.32
522.009	13382.01
522.376	13503.59
522.743	13609.12
523.11	13755.1
523.477	13915.55
523.843	13932.05
524.21	14174.98
524.577	14311.93
524.943	14412.26
525.31	14480.74
525.676	14701.07
526.043	14783.78
526.409	14892.25
526.776	15056.54
527.142	15175.41
527.508	15256.53
527.874	15406.81
528.241	15499.92
528.607	15554.83
528.973	15810.42
529.339	15856.97
529.705	16015.16
530.071	16178.32
530.437	16310.74
530.803	16398.65
531.169	16517.52
531.535	16522.94
531.901	16640.9
532.267	16808.36
532.632	16998.18
532.998	16915.7
533.364	17247.44
533.73	17234.56
534.095	17437.49
534.461	17475.68
534.826	17603.14
535.192	17733.76
535.557	17906.18
535.923	17970.36
536.288	18113.63
536.653	18263.23
537.019	18279.51
537.384	18383.91
537.749	18495.32
538.114	18529.89
538.479	18719.27
538.845	18885.82
539.21	18898.47
539.575	18958.13
539.94	19151.35
540.305	19306.14
540.67	19269.08
541.034	19541.84
541.399	19641.05
541.764	19678.79
542.129	19789.75
542.494	19897.99
542.858	19973.7
543.223	20143.64
543.587	20364.2
543.952	20412.56
544.316	20542.72
544.681	20542.04
545.045	20825.43
545.41	20943.39
545.774	21073.33
546.138	21118.3
546.503	21237.62
546.867	21293.66
547.231	21638.74
547.595	21769.36
547.959	21830.37
548.324	21884.38
548.688	22035.34
549.052	22253.64
549.416	22352.17
549.779	22430.13
550.143	22616.79
550.507	22974.3
550.871	22998.25
551.235	23196.44
551.599	23359.82
551.962	23584.22
552.326	23773.6
552.689	24005.68
553.053	24055.85
553.417	24037.77
553.78	24630.75
554.143	24461.04
554.507	24779.67
554.87	24975.6
555.234	25244.97
555.597	25216.05
555.96	25601.57
556.323	25707.33
556.686	25956.37
557.05	26255.11
557.413	26399.97
557.776	26574.65
558.139	26967.86
558.502	27119.27
558.865	27333.28
559.228	27626.83
559.59	27855.3
559.953	27999.25
560.316	28497.99
560.679	28662.06
561.041	28950.19
561.404	29225.88
561.767	29595.37
562.129	29668.36
562.492	30229.25
562.854	30248.46
563.217	30489.13
563.579	30894.54
563.941	31204.82
564.304	31367.97
564.666	31710.56
565.028	32022.42
565.39	32370.21
565.753	32620.37
566.115	32928.16
566.477	33192.79
566.839	33629.84
567.201	33897.17
567.563	34125.19
567.925	34530.15
568.287	34747.09
568.648	35005.39
569.01	35394.54
569.372	35901.41
569.734	35991.58
570.095	36397.9
570.457	36643.77
570.819	36909.52
571.18	37187.48
571.542	37654.36
571.903	37795.38
572.265	38144.97
572.626	38457.28
572.987	38750.38
573.349	39192.18
573.71	39285.96
574.071	39627.19
574.432	39916.45
574.794	40421.07
575.155	40647.28
575.516	40728.63
575.877	40988.51
576.238	41388.28
576.599	41772.9
576.96	42008.82
577.32	42127.01
577.681	42484.97
578.042	42798.63
578.403	42918.63
578.763	43210.83
579.124	43517.26
579.485	43747.31
579.845	44027.53
580.206	44036.34
580.566	44417.35
580.927	44689.66
581.287	44983.44
581.648	44837.23
582.008	45306.14
582.368	45278.8
582.728	45598.79
583.089	45735.05
583.449	45854.37
583.809	46144.76
584.169	46374.36
584.529	46380.69
584.889	46847.57
585.249	46756.27
585.609	46869.26
585.969	47111.97
586.329	47343.37
586.688	47471.05
587.048	47589.92
587.408	47630.37
587.768	47844.38
588.127	47883.92
588.487	48087.31
588.846	48491.59
589.206	48400.52
589.565	48480.75
589.925	48795.76
590.284	48810.45
590.643	49000.96
591.003	49182.2
591.362	49280.05
591.721	49493.15
592.08	49579.25
592.44	49668.74
592.799	49875.96
593.158	49854.72
593.517	50029.63
593.876	50143.07
594.235	50339.23
594.593	50392.79
594.952	50511.65
595.311	50582.38
595.67	50747.35
596.029	51012.43
596.387	51010.4
596.746	51220.11
597.104	51172.65
597.463	51373.55
597.822	51529.25
598.18	51452.42
598.538	51633.2
598.897	51923.82
599.255	51801.79
599.613	52291.72
599.972	52028.9
600.33	52265.96
600.688	52248.78
601.046	52567.19
601.404	52751.59
601.762	52641.99
602.12	52947.07
602.478	53036.33
602.836	53084.24
603.194	53023.9
603.552	53228.42
603.91	53270.22
604.268	53452.82
604.625	53334.85
604.983	53706.14
605.341	53456.21
605.698	53872.24
606.056	53849.64
606.413	54027.94
606.771	54224.77
607.128	54315.62
607.485	54202.18
607.843	54333.02
608.2	54609.4
608.557	54726
608.914	54794.25
609.272	54884.87
609.629	54960.12
609.986	55189.5
610.343	55110.63
610.7	55327.34
611.057	55364.18
611.414	55432.43
611.771	55551.97
612.127	55733.89
612.484	55794.68
612.841	55956.93
613.198	55825.41
613.554	55887.1
613.911	56215.91
614.267	56279.41
614.624	56226.98
614.98	56375.23
615.337	56528.22
615.693	56574.32
616.05	56591.27
616.406	56838.04
616.762	56880.75
617.118	56864.48
617.475	56923.01
617.831	57140.18
618.187	57109.44
618.543	57259.05
618.899	57395.99
619.255	57331.13
619.611	57417.46
619.967	57491.13
620.323	57675.31
620.678	57612.26
621.034	57665.81
621.39	57757.56
621.746	57741.97
622.101	58071.23
622.457	57900.16
622.812	57933.38
623.168	58053.15
623.523	58137.21
623.879	58312.8
624.234	58181.96
624.589	58339.92
624.945	58402.97
625.3	58474.61
625.655	58419.92
626.01	58509.41
626.365	58671.44
626.72	58609.74
627.075	58706.69
627.43	58868.04
627.785	58736.97
628.14	58877.99
628.495	58920.24
628.85	58922.73
629.205	58925.22
629.559	59062.16
629.914	58988.04
630.269	59037.98
630.623	58983.75
630.978	59043.63
631.332	59196.62
631.687	59300.57
632.041	59218.99
632.396	59283.4
632.75	59203.4
633.104	59345.77
633.459	59258.31
633.813	59289.73
634.167	59293.79
634.521	59402.04
634.875	59465.09
635.229	59443.62
635.583	59334.47
635.937	59386.67
636.291	59408.14
636.645	59557.97
636.999	59461.02
637.352	59605.42
637.706	59480
638.06	59681.13
638.413	59672.54
638.767	59610.85
639.121	59621.7
639.474	59532.21
639.828	59642.49
640.181	59762.26
640.534	59738.3
640.888	59712.77
641.241	59676.61
641.594	59778.08
641.947	59875.25
642.301	59873.44
642.654	59878.41
643.007	59937.84
643.36	59921.57
643.713	59920.67
644.066	59986.21
644.419	59964.51
644.771	59956.38
645.124	59750.28
645.477	59781.46
645.83	59678.19
646.182	59509.83
646.535	59414.92
646.888	59453.34
647.24	59327.24
647.593	59471.64
647.945	59498.31
648.298	59461.7
648.65	59424.41
649.002	59373.79
649.355	59551.64
649.707	59597.06
650.059	59786.44
650.411	60115.69
650.763	60162.92
651.115	60398.4
651.467	60340.55
651.819	60358.85
652.171	60443.37
652.523	60435.23
652.875	60447.44
653.227	60360.66
653.578	60499.64
653.93	60516.13
654.282	60474.1
654.633	60503.71
654.985	60601.1
655.337	60594.55
655.688	60642.01
656.039	60767.2
656.391	60562.91
656.742	60659.63
657.094	60728.11
657.445	60843.81
657.796	60842
658.147	60773.76
658.498	60867.31
658.849	60873.19
659.2	60786.18
659.551	60847.2
659.902	60963.81
660.253	61013.97
660.604	61073.41
660.955	60941.43
661.306	61039.74
661.656	61022.79
662.007	61116.8
662.358	61149.34
662.708	61150.24
663.059	61191.6
663.409	61100.98
663.76	61301.88
664.11	61284.02
664.461	61310.69
664.811	61341.65
665.161	61373.74
665.511	61276.11
665.862	61417.35
666.212	61491.93
666.562	61609.89
666.912	61555.88
667.262	61504.81
667.612	61600.63
667.962	61548.42
668.312	61581.19
668.662	61775.54
669.011	61734.63
669.361	61710.23
669.711	61776.67
670.06	61769.66
670.41	61784.35
670.76	61753.39
671.109	61921.75
671.459	61934.63
671.808	61907.51
672.157	62032.48
672.507	61813.73
672.856	61893.05
673.205	61976.21
673.554	62052.14
673.904	62013.72
674.253	62152.93
674.602	62143.89
674.951	61805.37
675.3	61715.43
675.649	62131.69
675.998	62129.2
676.346	62220.04
676.695	62262.53
677.044	62153.38
677.393	62271.34
677.741	62321.96
678.09	62269.76
678.438	62225.24
678.787	62327.39
679.135	62363.54
679.484	62277.9
679.832	62421.62
680.181	62290.33
680.529	62382.75
680.877	62255.52
681.225	62357.22
681.573	62478.12
681.922	62351.11
682.27	62291.91
682.618	62342.98
682.966	62380.04
683.314	62460.49
683.661	62392.92
684.009	62346.37
684.357	62288.97
684.705	62324.67
685.053	62385.69
685.4	62389.31
685.748	62334.62
686.095	62394.05
686.443	62342.98
686.79	62374.84
687.138	62362.64
687.485	62391.57
687.832	62393.6
688.18	62401.28
688.527	62356.76
688.874	62405.35
689.221	62350.21
689.568	62274.05
689.915	62271.79
690.262	62332.13
690.609	62282.42
690.956	62257.11
691.303	62248.74
691.65	62085.59
691.997	62097.34
692.344	62054.17
692.69	62025.7
693.037	62110.22
693.383	61914.52
693.73	62085.13
694.077	61940.96
694.423	61932.59
694.769	61955.87
695.116	61928.75
695.462	61896.66
695.808	61861.41
696.155	62014.4
696.501	61853.95
696.847	61835.87
697.193	61803.78
697.539	61934.18
697.885	61812.82
698.231	61787.29
698.577	61844.24
698.923	61779.15
699.269	61747.06
699.614	61674.3
699.96	61601.53
700.306	61643.11
700.651	61511.14
700.997	61446.28
701.342	61465.94
701.688	61494.41
702.033	61451.25
702.379	61483.79
702.724	61494.19
703.069	61560.4
703.415	61323.35
703.76	61410.35
704.105	61477.69
704.45	61448.77
704.795	61337.81
705.14	61223.69
705.485	61260.07
705.83	61178.94
706.175	61228.88
706.52	61213.29
706.865	61156.57
707.209	61149.34
707.554	61104.59
707.899	61232.95
708.243	61089.23
708.588	61151.82
708.932	60988.44
709.277	61000.19
709.621	61099.62
709.966	60982.79
710.31	61116.12
710.654	60891.04
710.998	60936.91
711.342	60962
711.687	60907.54
712.031	60886.52
712.375	60843.13
712.719	60923.81
713.063	60895.56
713.407	60960.19
713.75	60808.33
714.094	60862.11
714.438	60731.5
714.782	60799.07
715.125	60731.04
715.469	60804.49
715.812	60726.3
716.156	60599.07
716.499	60635
716.843	60723.59
717.186	60709.35
717.53	60817.37
717.873	60714.32
718.216	60779.4
718.559	60663.25
718.902	60434.78
719.246	60625.74
719.589	60580.09
719.932	60534.21
720.275	60550.48
720.617	60614.66
720.96	60624.61
721.303	60629.35
721.646	60625.06
721.989	60486.76
722.331	60593.19
722.674	60484.95
723.016	60606.3
723.359	60505.29
723.701	60583.93
724.044	60490.82
724.386	60345.29
724.729	60533.76
725.071	60421
725.413	60400.21
725.755	60473.65
726.097	60429.36
726.439	60355.46
726.782	60419.41
727.124	60550.03
727.465	60384.16
727.807	60279.98
728.149	60394.78
728.491	60334.9
728.833	60482.92
729.175	60406.76
729.516	60443.37
729.858	60332.64
730.199	60425.29
730.541	60388.45
730.882	60400.21
731.224	60476.81
731.565	60269.14
731.906	60333.99
732.248	60376.48
732.589	60322.02
732.93	60249.7
733.271	60290.6
733.612	60326.99
733.953	60396.82
734.294	60283.37
734.635	60314.56
734.976	60342.35
735.317	60210.38
735.658	60269.14
735.999	60279.76
736.339	60270.72
736.68	60298.06
737.021	60315.46
737.361	60207.22
737.702	60336.25
738.042	60205.86
738.383	60183.71
738.723	60265.75
739.063	60226.88
739.404	60242.47
739.744	60271.17
740.084	60263.94
740.424	60353.65
740.764	60305.07
741.104	60381.45
741.444	60250.15
741.784	60212.41
742.124	60280.89
742.464	60229.36
742.804	60208.57
743.143	60141.68
743.483	60219.42
743.823	60108.24
744.162	60153.66
744.502	60163.15
744.841	60110.04
745.181	60200.44
745.52	60172.42
745.86	60261.23
746.199	60173.54
746.538	60185.97
746.877	60259.87
747.216	60173.54
747.556	60195.69
747.895	60243.15
748.234	60082.7
748.573	60188.01
748.911	60191.17
749.25	60158.18
749.589	59993.89
749.928	60073.66
750.267	60167.9
750.605	60074.56
750.944	60021.68
751.283	59968.8
751.621	60048.12
751.96	59855.14
752.298	59826.44
752.636	59947.79
752.975	59778.3
753.313	59824.4
753.651	59879.54
753.989	59681.81
754.327	59717.96
754.666	59631.64
755.004	59779.66
755.342	59742.82
755.679	59805.64
