Data from copper_heatsink_FLMS001491_027.txt Node
Date: Tue Feb 07 10:49:37 GMT 2017
User: dcchb
Spectrometer: FLMS00149
Trigger mode: 0
Integration Time (sec): 2.000000E-2
Scans to average: 10
Electric dark correction enabled: true
Nonlinearity correction enabled: false
Boxcar width: 0
XAxis mode: Wavelengths
Number of Pixels in Spectrum: 2048
>>>>>Begin Spectral Data<<<<<
341.393	-25.48
341.776	-25.48
342.16	-25.48
342.543	-55.54
342.927	-59.15
343.31	-70
343.693	-43.56
344.077	-69.32
344.46	-58.93
344.843	-40.85
345.226	-46.04
345.61	-40.62
345.993	-20.06
346.376	-6.72
346.759	19.27
347.142	40.73
347.525	52.94
347.908	55.87
348.291	50.45
348.674	86.16
349.057	90.68
349.44	105.14
349.823	126.38
350.206	170.67
350.588	213.16
350.971	226.49
351.354	253.16
351.737	257.22
352.119	265.81
352.502	256.32
352.884	296.09
353.267	290.44
353.65	302.87
354.032	315.98
354.414	309.43
354.797	327.96
355.179	326.83
355.562	339.93
355.944	338.8
356.326	343.78
356.709	357.56
357.091	356.66
357.473	354.62
357.855	333.38
358.238	351.46
358.62	348.75
359.002	371.35
359.384	358.92
359.766	358.92
360.148	368.86
360.53	370.44
360.912	354.62
361.294	353.27
361.676	352.14
362.057	343.32
362.439	366.37
362.821	352.36
363.203	354.85
363.584	360.5
363.966	353.04
364.348	333.83
364.729	353.95
365.111	319.37
365.493	352.14
365.874	352.82
366.256	334.96
366.637	331.35
367.019	327.96
367.4	360.05
367.781	329.54
368.163	349.88
368.544	354.85
368.925	361.18
369.306	349.88
369.688	341.74
370.069	344.45
370.45	351.91
370.831	358.69
371.212	323.66
371.593	358.47
371.974	345.13
372.355	360.27
372.736	343.55
373.117	356.21
373.498	374.28
373.879	364.79
374.26	353.95
374.641	352.59
375.021	350.1
375.402	334.74
375.783	361.18
376.163	380.84
376.544	372.02
376.925	357.56
377.305	365.02
377.686	376.32
378.066	381.29
378.447	398.01
378.827	381.06
379.208	362.08
379.588	379.03
379.968	382.42
380.349	384
380.729	396.2
381.109	400.72
381.489	394.62
381.87	411.12
382.25	393.94
382.63	418.35
383.01	401.18
383.39	367.5
383.77	405.47
384.15	423.32
384.53	421.06
384.91	406.83
385.29	426.49
385.67	431.91
386.049	443.43
386.429	406.37
386.809	421.51
387.189	428.97
387.568	442.53
387.948	419.71
388.328	412.48
388.707	433.04
389.087	451.34
389.466	456.54
389.846	452.93
390.225	426.49
390.605	448.63
390.984	452.93
391.363	442.76
391.743	459.71
392.122	479.14
392.501	462.19
392.881	484.56
393.26	495.64
393.639	472.13
394.018	500.16
394.397	477.11
394.776	496.77
395.155	483.89
395.534	500.16
395.913	507.39
396.292	513.72
396.671	488.18
397.05	522.75
397.429	506.03
397.808	516.65
398.186	531.34
398.565	521.85
398.944	532.47
399.323	525.47
399.701	539.93
400.08	566.82
400.458	544.9
400.837	532.7
401.215	533.6
401.594	544.67
401.972	537.22
402.351	558.23
402.729	549.87
403.107	560.95
403.486	573.83
403.864	571.57
404.242	598.01
404.62	552.58
404.999	601.17
405.377	591
405.755	600.49
406.133	600.49
406.511	597.33
406.889	627.61
407.267	630.77
407.645	625.35
408.023	624.45
408.401	626.71
408.779	655.63
409.156	638.01
409.534	648.18
409.912	653.6
410.29	679.59
410.667	668.97
411.045	694.28
411.422	699.7
411.8	700.15
412.178	705.35
412.555	710.32
412.933	722.07
413.31	758
413.687	714.16
414.065	727.04
414.442	765.23
414.819	764.1
415.197	759.58
415.574	766.82
415.951	766.36
416.328	794.84
416.705	816.98
417.082	796.19
417.46	787.61
417.837	820.83
418.214	814.5
418.591	808.4
418.967	845.46
419.344	817.89
419.721	847.49
420.098	845.91
420.475	853.82
420.852	855.63
421.228	864.67
421.605	866.02
421.982	885.46
422.358	913.25
422.735	895.63
423.111	902.63
423.488	918.68
423.864	910.32
424.241	921.39
424.617	944.89
424.994	972.01
425.37	945.79
425.746	958.9
426.123	988.96
426.499	958.22
426.875	975.62
427.251	998.9
427.627	1018.79
428.003	1006.58
428.379	1044.32
428.756	1054.94
429.132	1062.85
429.507	1081.61
429.883	1078.22
430.259	1104.43
430.635	1134.04
431.011	1114.6
431.387	1165.9
431.763	1161.83
432.138	1171.55
432.514	1178.78
432.89	1184.43
433.265	1196.86
433.641	1216.07
434.016	1229.63
434.392	1282.73
434.767	1261.04
435.143	1294.26
435.518	1282.51
435.894	1278.89
436.269	1275.96
436.644	1343.3
437.02	1340.81
437.395	1368.16
437.77	1379
438.145	1397.53
438.52	1396.86
438.895	1403.64
439.271	1444.99
439.646	1427.14
440.021	1449.96
440.395	1461.04
440.77	1444.54
441.145	1455.61
441.52	1503.07
441.895	1507.81
442.27	1486.8
442.645	1509.85
443.019	1542.16
443.394	1520.69
443.769	1550.3
444.143	1569.73
444.518	1590.52
444.892	1561.6
445.267	1582.16
445.641	1621.93
446.016	1649.05
446.39	1633.46
446.764	1668.26
447.139	1667.36
447.513	1671.65
447.887	1682.5
448.262	1717.07
448.636	1700.35
449.01	1731.08
449.384	1715.27
449.758	1743.97
450.132	1749.84
450.506	1796.85
450.88	1800.01
451.254	1783.29
451.628	1857.86
452.002	1835.49
452.376	1851.08
452.75	1879.78
453.123	1910.29
453.497	1939.89
453.871	1954.81
454.244	1963.85
454.618	2037.07
454.992	2019.89
455.365	2014.47
455.739	2087.69
456.112	2094.46
456.486	2105.09
456.859	2166.78
457.232	2190.28
457.606	2200.9
457.979	2181.69
458.352	2235.93
458.725	2286.1
459.099	2355.02
459.472	2348.24
459.845	2385.3
460.218	2404.06
460.591	2401.12
460.964	2433.89
461.337	2507.11
461.71	2535.58
462.083	2527.22
462.456	2543.72
462.829	2593.21
463.201	2649.25
463.574	2636.15
463.947	2694.45
464.32	2737.39
464.692	2737.61
465.065	2805.18
465.438	2821.9
465.81	2865.74
466.183	2918.62
466.555	2961.11
466.928	2996.14
467.3	3005.63
467.672	3029.58
468.045	3138.05
468.417	3176.47
468.789	3186.19
469.161	3195.9
469.534	3237.71
469.906	3336.01
470.278	3338.73
470.65	3424.83
471.022	3452.62
471.394	3488.55
471.766	3548.44
472.138	3603.8
472.51	3642.67
472.882	3725.61
473.253	3764.25
473.625	3813.97
473.997	3912.27
474.369	3921.54
474.74	3999.27
475.112	4085.82
475.484	4178.93
475.855	4198.82
476.227	4280.85
476.598	4342.32
476.97	4386.83
477.341	4430.9
477.713	4515.64
478.084	4581.63
478.455	4714.73
478.827	4790.21
479.198	4850.78
479.569	4909.31
479.94	4971.23
480.311	5058.45
480.682	5163.99
481.053	5300.48
481.424	5366.47
481.795	5405.79
482.166	5526.46
482.537	5600.14
482.908	5704.54
483.279	5783.18
483.65	5917.19
484.021	5970.52
484.391	6028.37
484.762	6113.34
485.133	6190.4
485.503	6249.16
485.874	6417.97
486.244	6457.97
486.615	6593.1
486.985	6656.6
487.356	6778.64
487.726	6873.1
488.097	7002.81
488.467	7005.97
488.837	7146.08
489.207	7257.72
489.578	7367.55
489.948	7450.48
490.318	7525.06
490.688	7522.8
491.058	7709.01
491.428	7768.21
491.798	7887.76
492.168	8026.51
492.538	8044.14
492.908	8164.14
493.278	8261.99
493.648	8250.69
494.017	8400.06
494.387	8441.64
494.757	8560.06
495.126	8651.35
495.496	8690
495.866	8759.15
496.235	8826.27
496.605	8961.4
496.974	8968.63
497.344	9106.48
497.713	9113.26
498.082	9254.95
498.452	9270.32
498.821	9360.71
499.19	9413.37
499.559	9487.49
499.928	9460.15
500.298	9586.7
500.667	9636.87
501.036	9744.43
501.405	9802.06
501.774	9812
502.143	9937.65
502.512	9963.64
502.88	10050.41
503.249	10051.09
503.618	10189.62
503.987	10246.57
504.356	10322.27
504.724	10370.86
505.093	10363.63
505.462	10510.29
505.83	10545.99
506.199	10593.68
506.567	10699.89
506.936	10753.22
507.304	10920.45
507.672	11038.86
508.041	10919.32
508.409	11138.29
508.777	11188.46
509.145	11374.45
509.514	11262.13
509.882	11444.73
510.25	11443.37
510.618	11503.93
510.986	11561.33
511.354	11674.1
511.722	11784.83
512.09	11949.35
512.458	11947.99
512.826	12043.36
513.193	12084.03
513.561	12141.88
513.929	12241.99
514.297	12371.03
514.664	12517.69
515.032	12535.32
515.4	12679.27
515.767	12694.64
516.135	12748.2
516.502	12693.28
516.869	12954.97
517.237	13081.97
517.604	12987.51
517.972	13190.9
518.339	13187.96
518.706	13344.11
519.073	13354.06
519.44	13531
519.808	13646.7
520.175	13650.32
520.542	13914.49
520.909	13965.11
521.276	13952.46
521.643	14147.71
522.009	14216.63
522.376	14324.43
522.743	14424.54
523.11	14607.81
523.477	14677.86
523.843	14772.1
524.21	14907.01
524.577	15030.85
524.943	15167.79
525.31	15211.41
525.676	15365.75
526.043	15457.96
526.409	15509.71
526.776	15743.6
527.142	15814.1
527.508	15869.7
527.874	16023.59
528.241	16123.47
528.607	16144.26
528.973	16306.52
529.339	16339.06
529.705	16611.82
530.071	16652.73
530.437	16853.17
530.803	16932.94
531.169	17011.59
531.535	16986.5
531.901	17135.2
532.267	17163.67
532.632	17346.27
532.998	17427.85
533.364	17482.99
533.73	17575.41
534.095	17685.24
534.461	17834.84
534.826	17898.57
535.192	17936.99
535.557	18149.64
535.923	18187.15
536.288	18318.67
536.653	18335.39
537.019	18367.71
537.384	18468.95
537.749	18547.37
538.114	18681.37
538.479	18720.92
538.845	18922.95
539.21	18833.69
539.575	18945.77
539.94	19033.68
540.305	19057.18
540.67	19208.36
541.034	19297.63
541.399	19395.7
541.764	19456.04
542.129	19681.8
542.494	19630.73
542.858	19804.51
543.223	19853.32
543.587	19903.26
543.952	19952.98
544.316	20105.29
544.681	20132.63
545.045	20296.92
545.41	20490.82
545.774	20449.91
546.138	20546.18
546.503	20730.81
546.867	20752.28
547.231	20932.61
547.595	20960.86
547.959	21129.22
548.324	21104.59
548.688	21254.41
549.052	21393.17
549.416	21522.88
549.779	21588.42
550.143	21671.13
550.507	21906.6
550.871	21858.69
551.235	22045.58
551.599	22257.32
551.962	22357.89
552.326	22458.68
552.689	22736.63
553.053	22657.77
553.417	22792
553.78	23072.67
554.143	23081.03
554.507	23255.72
554.87	23469.04
555.234	23641.24
555.597	23662.49
555.96	23930.95
556.323	23990.39
556.686	24201.45
557.05	24410.49
557.413	24519.19
557.776	24681.67
558.139	24979.96
558.502	25016.12
558.865	25213.18
559.228	25542.89
559.59	25640.29
559.953	25686.61
560.316	26183.1
560.679	26222.64
561.041	26605.01
561.404	26747.38
561.767	26886.58
562.129	27000.02
562.492	27418.32
562.854	27557.07
563.217	27673.91
563.579	27857.63
563.941	28218.75
564.304	28517.72
564.666	28725.63
565.028	28776.93
565.39	29170.14
565.753	29335.78
566.115	29515.44
566.477	29931.02
566.839	30020.74
567.201	30313.38
567.563	30507.5
567.925	30912.24
568.287	31131.89
568.648	31243.53
569.01	31550.19
569.372	31843.29
569.734	31959.67
570.095	32276.04
570.457	32566.43
570.819	32855.24
571.18	32767.33
571.542	33263.59
571.903	33397.82
572.265	33732.28
572.626	33985.6
572.987	34311.24
573.349	34433.5
573.71	34663.33
574.071	35071
574.432	35143.09
574.794	35576.97
575.155	35732
575.516	35824.65
575.877	36089.05
576.238	36388.03
576.599	36545.54
576.96	36814.91
577.32	36840.9
577.681	37201.79
578.042	37539.18
578.403	37787.31
578.763	37899.62
579.124	38128.55
579.485	38404.47
579.845	38667.97
580.206	38568.76
580.566	38893.05
580.927	39006.26
581.287	39272.7
581.648	39269.98
582.008	39741.16
582.368	39698.22
582.728	39850.76
583.089	39992.23
583.449	40075.16
583.809	40240.13
584.169	40553.57
584.529	40646.9
584.889	40922.6
585.249	40774.8
585.609	40887.79
585.969	41271.74
586.329	41298.18
586.688	41518.74
587.048	41655.23
587.408	41758.51
587.768	41918.73
588.127	42081.89
588.487	42024.49
588.846	42417.47
589.206	42292.73
589.565	42485.49
589.925	42822.66
590.284	42698.14
590.643	42874.64
591.003	42944.01
591.362	43304.45
591.721	43387.84
592.08	43481.63
592.44	43718.91
592.799	43810.2
593.158	43887.72
593.517	44097.2
593.876	44228.95
594.235	44252.23
594.593	44377.87
594.952	44594.59
595.311	44527.25
595.67	44781.03
596.029	45034.13
596.387	45160.45
596.746	45339.88
597.104	45315.48
597.463	45529.03
597.822	45546.88
598.18	45572.87
598.538	45614
598.897	45993.42
599.255	45612.87
599.613	46527.65
599.972	46311.61
600.33	46553.63
600.688	46490.13
601.046	46756.34
601.404	46945.04
601.762	46984.58
602.12	47260.73
602.478	47259.15
602.836	47359.94
603.194	47432.48
603.552	47628.86
603.91	47559.94
604.268	47841.74
604.625	47724
604.983	48035.86
605.341	47926.48
605.698	48192.01
606.056	48288.5
606.413	48459.12
606.771	48578.89
607.128	48757.19
607.485	48681.26
607.843	48883.06
608.2	49095.26
608.557	49320.12
608.914	49203.06
609.272	49450.73
609.629	49635.59
609.986	49881.46
610.343	49862.47
610.7	50091.85
611.057	50090.72
611.414	50274.67
611.771	50273.99
612.127	50575.45
612.484	50550.14
612.841	50746.07
613.198	50646.86
613.554	50735.45
613.911	50967.98
614.267	51065.83
614.624	51079.62
614.98	51157.81
615.337	51384.47
615.693	51368.42
616.05	51385.15
616.406	51753.27
616.762	51725.02
617.118	51835.98
617.475	51877.34
617.831	51918.47
618.187	51972.7
618.543	52113.49
618.899	52252.92
619.255	52264.67
619.611	52346.02
619.967	52476.87
620.323	52587.15
620.678	52451.56
621.034	52448.17
621.39	52635.73
621.746	52682.74
622.101	53021.71
622.457	52785.11
622.812	52913.24
623.168	53000.02
623.523	53042.96
623.879	53183.06
624.234	53144.2
624.589	53261.25
624.945	53295.83
625.3	53377.64
625.655	53457.41
626.01	53579.21
626.365	53495.6
626.72	53542.83
627.075	53610.62
627.43	53614.01
627.785	53612.21
628.14	53736.95
628.495	53879.77
628.85	53868.92
629.205	53808.36
629.559	53988.69
629.914	53860.11
630.269	53917.73
630.623	53823.95
630.978	53758.87
631.332	54026.21
631.687	54087.9
632.041	54016.94
632.396	54125.86
632.75	54078.18
633.104	54068.69
633.459	54004.29
633.813	54099.65
634.167	54095.13
634.521	54081.12
634.875	54217.84
635.229	54108.24
635.583	54041.57
635.937	54171.74
636.291	54279.53
636.645	54253.32
636.999	54202.25
637.352	54330.15
637.706	54193.43
638.06	54278.63
638.413	54173.55
638.767	54139.42
639.121	54353.2
639.474	54218.52
639.828	54193.66
640.181	54270.72
640.534	54284.28
640.888	54242.7
641.241	54181
641.594	54332.64
641.947	54440.66
642.301	54335.12
642.654	54452.41
643.007	54407.89
643.36	54429.36
643.713	54372.19
644.066	54495.57
644.419	54398.17
644.771	54389.13
645.124	54258.29
645.477	54155.92
645.83	54077.5
646.182	53869.37
646.535	53602.26
646.888	53671.64
647.24	53420.57
647.593	53612.88
647.945	53595.48
648.298	53462.61
648.65	53559.78
649.002	53500.57
649.355	53812.2
649.707	53736.27
650.059	53973.1
650.411	54418.74
650.763	54452.86
651.115	54658.96
651.467	54579.41
651.819	54546.19
652.171	54555.68
652.523	54647.21
652.875	54657.83
653.227	54573.76
653.578	54733.53
653.93	54587.55
654.282	54570.6
654.633	54457.16
654.985	54637.49
655.337	54608.79
655.688	54657.6
656.039	54811.95
656.391	54632.74
656.742	54626.64
657.094	54669.81
657.445	54864.6
657.796	54757.03
658.147	54703.48
658.498	54700.09
658.849	54794.1
659.2	54871.83
659.551	54731.27
659.902	54879.97
660.253	54853.98
660.604	54956.58
660.955	54741.44
661.306	54868.44
661.656	54831.16
662.007	54949.35
662.358	54990.25
662.708	55016.01
663.059	54988.89
663.409	54831.16
663.76	54967.88
664.11	54990.02
664.461	55124.03
664.811	55046.29
665.161	55114.77
665.511	55091.04
665.862	55105.5
666.212	55228.66
666.562	55230.92
666.912	55240.19
667.262	55171.71
667.612	55267.08
667.962	55326.06
668.312	55321.09
668.662	55410.58
669.011	55305.95
669.361	55343.23
669.711	55368.32
670.06	55333.74
670.41	55343.46
670.76	55402.89
671.109	55490.8
671.459	55403.35
671.808	55364.02
672.157	55452.38
672.507	55248.77
672.856	55419.39
673.205	55416.23
673.554	55495.32
673.904	55455.55
674.253	55567.41
674.602	55590.69
674.951	55149.11
675.3	55003.13
675.649	55538.71
675.998	55517.24
676.346	55628.42
676.695	55736.44
677.044	55491.25
677.393	55711.13
677.741	55719.27
678.09	55657.35
678.438	55602.66
678.787	55689.89
679.135	55684.02
679.484	55487.64
679.832	55705.03
680.181	55580.29
680.529	55589.1
680.877	55565.83
681.225	55498.71
681.573	55705.48
681.922	55547.52
682.27	55430.69
682.618	55491.25
682.966	55465.72
683.314	55511.14
683.661	55501.87
684.009	55422.33
684.357	55384.36
684.705	55469.78
685.053	55454.64
685.4	55433.85
685.748	55434.08
686.095	55320.86
686.443	55237.25
686.79	55126.52
687.138	55284.48
687.485	55298.94
687.832	55257.36
688.18	55247.87
688.527	55134.2
688.874	55176.46
689.221	55055.33
689.568	55102.34
689.915	55113.18
690.262	55096.69
690.609	55030.25
690.956	54945.28
691.303	54874.55
691.65	54769.92
691.997	54838.39
692.344	54666.87
692.69	54697.83
693.037	54753.42
693.383	54493.31
693.73	54672.74
694.077	54433.65
694.423	54515.23
694.769	54499.87
695.116	54426.2
695.462	54379.19
695.808	54305.3
696.155	54314.11
696.501	54176.94
696.847	54207.22
697.193	54023.49
697.539	54175.13
697.885	53970.16
698.231	53985.53
698.577	53941.69
698.923	54097.17
699.269	53899.88
699.614	53819.66
699.96	53750.51
700.306	53769.49
700.651	53614.24
700.997	53560.46
701.342	53534.92
701.688	53538.54
702.033	53418.31
702.379	53392.1
702.724	53275.49
703.069	53401.82
703.415	53200.01
703.76	53258.09
704.105	53215.83
704.45	53193.91
704.795	53093.12
705.14	53050.19
705.485	53098.32
705.83	52883.86
706.175	52940.13
706.52	52816.97
706.865	52735.39
707.209	52805.67
707.554	52613.14
707.899	52736.75
708.243	52564.1
708.588	52635.96
708.932	52490.65
709.277	52463.31
709.621	52598.9
709.966	52396.64
710.31	52386.25
710.654	52165.01
710.998	52310.32
711.342	52283.88
711.687	52273.03
712.031	52153.71
712.375	52008.86
712.719	52154.17
713.063	52056.09
713.407	52201.85
713.75	52005.02
714.094	52007.73
714.438	51924.11
714.782	52050.67
715.125	51844.79
715.469	51957.79
715.812	51778.58
716.156	51674.18
716.499	51621.3
716.843	51642.77
717.186	51471.02
717.53	51778.81
717.873	51745.14
718.216	51689.32
718.559	51641.86
718.902	51504.24
719.246	51525.26
719.589	51512.37
719.932	51416.56
720.275	51393.73
720.617	51284.81
720.96	51294.3
721.303	51376.56
721.646	51332.72
721.989	51179.28
722.331	51240.07
722.674	51264.25
723.016	51394.41
723.359	51218.82
723.701	51290.01
724.044	50998.04
724.386	50898.15
724.729	51017.92
725.071	51024.7
725.413	50987.19
725.755	51035.78
726.097	50889.34
726.439	50786.29
726.782	50887.98
727.124	51070.8
727.465	50850.92
727.807	50793.98
728.149	50772.05
728.491	50686.63
728.833	50818.38
729.175	50713.98
729.516	50692.51
729.858	50605.51
730.199	50639.63
730.541	50546.3
730.882	50655.22
731.224	50635.34
731.565	50548.11
731.906	50518.95
732.248	50608.67
732.589	50483.93
732.93	50401.67
733.271	50487.32
733.612	50619.74
733.953	50523.47
734.294	50333.42
734.635	50387.43
734.976	50440.99
735.317	50346.53
735.658	50365.51
735.999	50262.24
736.339	50264.72
736.68	50319.19
737.021	50225.4
737.361	50103.82
737.702	50155.57
738.042	50148.79
738.383	50248.9
738.723	50280.32
739.063	50078.97
739.404	50381.56
739.744	50203.71
740.084	50060.44
740.424	50172.3
740.764	49971.62
741.104	50177.27
741.444	49942.25
741.784	49894.79
742.124	50033.77
742.464	49869.03
742.804	49904.06
743.143	49849.14
743.483	49846.43
743.823	49744.06
744.162	49877.16
744.502	50044.84
744.841	49804.17
745.181	49901.8
745.52	49722.59
745.86	49770.73
746.199	49840.33
746.538	49658.86
746.877	49846.43
747.216	49859.08
747.556	49699.77
747.895	49666.32
748.234	49343.84
748.573	49438.76
748.911	49502.71
749.25	49364.41
749.589	49393.56
749.928	49417.74
750.267	49521.92
750.605	49396.27
750.944	49351.3
751.283	49387.46
751.621	49344.97
751.96	49132.55
752.298	49219.33
752.636	49195.6
752.975	48986.11
753.313	48961.71
753.651	49166
753.989	48905.66
754.327	49025.66
754.666	48856.17
755.004	48829.96
