Data from copper_heatsink_FLMS001491_095.txt Node
Date: Tue Feb 07 10:50:53 GMT 2017
User: dcchb
Spectrometer: FLMS00149
Trigger mode: 0
Integration Time (sec): 2.000000E-2
Scans to average: 10
Electric dark correction enabled: true
Nonlinearity correction enabled: false
Boxcar width: 0
XAxis mode: Wavelengths
Number of Pixels in Spectrum: 2048
>>>>>Begin Spectral Data<<<<<
341.393	-9.99
341.776	-9.99
342.16	-9.99
342.543	-45.46
342.927	-56.09
343.31	-65.58
343.693	-75.52
344.077	-68.06
344.46	-63.09
344.843	-37.1
345.226	-57.89
345.61	-37.78
345.993	-13.15
346.376	-1.4
346.759	6.29
347.142	34.08
347.525	54.42
347.908	57.58
348.291	65.94
348.674	101.88
349.057	99.39
349.44	117.47
349.823	148.88
350.206	166.51
350.588	189.11
350.971	222.55
351.354	239.27
351.737	242.66
352.119	275.88
352.502	279.05
352.884	287.18
353.267	288.76
353.65	273.62
354.032	293.74
354.414	333.51
354.797	320.4
355.179	320.63
355.562	344.13
355.944	331.47
356.326	333.28
356.709	337.8
357.091	333.06
357.473	337.35
357.855	349.78
358.238	352.49
358.62	346.84
359.002	335.99
359.384	355.65
359.766	348.42
360.148	354.98
360.53	329.89
360.912	335.77
361.294	330.57
361.676	334.19
362.057	327.63
362.439	351.81
362.821	334.41
363.203	335.99
363.584	320.18
363.966	331.47
364.348	333.28
364.729	324.47
365.111	328.54
365.493	343.23
365.874	324.92
366.256	319.27
366.637	344.36
367.019	331.7
367.4	317.46
367.781	318.14
368.163	326.95
368.544	331.7
368.925	328.99
369.306	333.96
369.688	306.84
370.069	325.15
370.45	318.14
370.831	320.4
371.212	345.94
371.593	324.24
371.974	324.02
372.355	330.12
372.736	335.32
373.117	333.28
373.498	330.12
373.879	323.56
374.26	305.49
374.641	340.06
375.021	317.46
375.402	333.96
375.783	349.33
376.163	330.8
376.544	341.87
376.925	329.67
377.305	339.84
377.686	326.5
378.066	312.72
378.447	367.63
378.827	342.55
379.208	350.68
379.588	337.12
379.968	340.51
380.349	350.23
380.729	348.88
381.109	359.5
381.489	329.67
381.87	357.01
382.25	347.07
382.63	354.07
383.01	352.94
383.39	359.95
383.77	355.65
384.15	380.74
384.53	340.51
384.91	358.14
385.29	346.39
385.67	357.01
386.049	387.29
386.429	355.43
386.809	352.26
387.189	368.99
387.568	350.68
387.948	374.86
388.328	368.08
388.707	365.6
389.087	361.53
389.466	384.58
389.846	369.89
390.225	383.22
390.605	390.68
390.984	360.63
391.363	399.04
391.743	378.48
392.122	366.28
392.501	395.2
392.881	396.33
393.26	405.6
393.639	423.9
394.018	384.81
394.397	397.46
394.776	403.56
395.155	375.77
395.534	415.99
395.913	404.69
396.292	429.78
396.671	406.73
397.05	393.62
397.429	404.24
397.808	421.87
398.186	419.16
398.565	423
398.944	437.23
399.323	425.48
399.701	432.49
400.08	418.93
400.458	424.58
400.837	415.99
401.215	424.13
401.594	418.03
401.972	439.95
402.351	429.1
402.729	436.56
403.107	463.67
403.486	439.27
403.864	421.64
404.242	451.7
404.62	436.33
404.999	444.01
405.377	454.41
405.755	428.19
406.133	450.34
406.511	458.02
406.889	442.66
407.267	468.65
407.645	459.15
408.023	439.27
408.401	484.24
408.779	455.99
409.156	463.9
409.534	484.69
409.912	474.75
410.29	487.63
410.667	477.69
411.045	472.26
411.422	478.82
411.8	485.14
412.178	475.88
412.555	495.54
412.933	510.9
413.31	493.73
413.687	520.17
414.065	521.98
414.442	513.84
414.819	505.26
415.197	521.98
415.574	530.79
415.951	527.18
416.328	551.13
416.705	539.83
417.082	528.31
417.46	515.42
417.837	539.6
418.214	528.53
418.591	552.94
418.967	549.32
419.344	566.04
419.721	566.5
420.098	557.46
420.475	542.77
420.852	561.75
421.228	551.36
421.605	594.52
421.982	580.06
422.358	577.34
422.735	590.9
423.111	594.29
423.488	588.87
423.864	598.13
424.241	590.45
424.617	578.25
424.994	602.43
425.37	606.27
425.746	586.16
426.123	602.65
426.499	592.71
426.875	613.73
427.251	607.17
427.627	612.82
428.003	616.89
428.379	632.71
428.756	636.55
429.132	659.6
429.507	653.73
429.883	640.62
430.259	659.15
430.635	638.81
431.011	663.44
431.387	689.88
431.763	691.24
432.138	685.59
432.514	675.87
432.89	693.05
433.265	706.61
433.641	688.75
434.016	707.51
434.392	696.21
434.767	727.62
435.143	716.77
435.518	721.29
435.894	726.04
436.269	751.58
436.644	755.42
437.02	769.43
437.395	745.02
437.77	751.8
438.145	779.6
438.52	761.52
438.895	761.97
439.271	774.4
439.646	794.06
440.021	776.43
440.395	821.63
440.77	795.87
441.145	807.17
441.52	797.45
441.895	815.53
442.27	811.24
442.645	820.28
443.019	816.66
443.394	819.15
443.769	830.9
444.143	816.43
444.518	838.35
444.892	850.33
445.267	844.23
445.641	848.07
446.016	859.6
446.39	850.33
446.764	860.27
447.139	858.92
447.513	866.6
447.887	829.77
448.262	864.57
448.636	873.38
449.01	872.7
449.384	896.21
449.758	915.87
450.132	908.18
450.506	913.83
450.88	914.96
451.254	919.93
451.628	934.85
452.002	932.59
452.376	948.41
452.75	958.35
453.123	942.76
453.497	944.79
453.871	994.06
454.244	988.18
454.618	1016.65
454.992	982.98
455.365	983.66
455.739	1000.16
456.112	1024.79
456.486	1052.81
456.859	1027.28
457.232	1071.57
457.606	1044
457.979	1081.51
458.352	1085.8
458.725	1083.77
459.099	1103.66
459.472	1121.28
459.845	1130.55
460.218	1111.34
460.591	1140.72
460.964	1147.95
461.337	1200.15
461.71	1170.1
462.083	1180.94
462.456	1192.92
462.829	1204.45
463.201	1210.1
463.574	1203.09
463.947	1228.17
464.32	1234.95
464.692	1261.39
465.065	1280.83
465.438	1296.87
465.81	1288.74
466.183	1317.44
466.555	1331.67
466.928	1345.01
467.3	1351.33
467.672	1372.8
468.045	1380.94
468.417	1388.4
468.789	1407.83
469.161	1431.56
469.534	1433.82
469.906	1449.86
470.278	1464.78
470.65	1495.96
471.022	1527.6
471.394	1526.92
471.766	1549.07
472.138	1565.79
472.51	1587.71
472.882	1624.32
473.253	1621.38
473.625	1648.73
473.997	1686.01
474.369	1722.85
474.74	1701.61
475.112	1738.44
475.484	1791.55
475.855	1794.26
476.227	1790.42
476.598	1881.94
476.97	1862.28
477.341	1898.21
477.713	1908.38
478.084	1910.87
478.455	1942.28
478.827	2000.58
479.198	2047.36
479.569	2034.03
479.94	2117.64
480.311	2094.59
480.682	2170.07
481.053	2210.75
481.424	2234.02
481.795	2258.88
482.166	2275.83
482.537	2354.02
482.908	2353.34
483.279	2393.57
483.65	2407.58
484.021	2480.34
484.391	2483.06
484.762	2525.54
485.133	2547.01
485.503	2542.94
485.874	2632.88
486.244	2676.27
486.615	2673.56
486.985	2745.65
487.356	2759.21
487.726	2774.57
488.097	2824.74
488.467	2892.76
488.837	2901.58
489.207	2941.35
489.578	2989.03
489.948	3003.49
490.318	3078.75
490.688	3074.45
491.058	3114.45
491.428	3133.21
491.798	3168.91
492.168	3245.97
492.538	3264.05
492.908	3299.76
493.278	3323.03
493.648	3305.41
494.017	3410.26
494.387	3398.29
494.757	3459.3
495.126	3474.89
495.496	3513.31
495.866	3532.29
496.235	3578.17
496.605	3661.56
496.974	3660.43
497.344	3647.77
497.713	3665.85
498.082	3740.65
498.452	3732.29
498.821	3753.08
499.19	3803.02
499.559	3840.53
499.928	3860.65
500.298	3891.38
500.667	3933.19
501.036	3962.57
501.405	3976.12
501.774	3990.14
502.143	4031.26
502.512	4023.13
502.88	4067.42
503.249	4091.15
503.618	4101.32
503.987	4125.27
504.356	4174.09
504.724	4227.19
505.093	4194.42
505.462	4261.09
505.83	4292.05
506.199	4331.82
506.567	4395.32
506.936	4385.83
507.304	4416.11
507.672	4500.86
508.041	4511.48
508.409	4559.61
508.777	4514.64
509.145	4568.65
509.514	4645.03
509.882	4642.55
510.25	4692.26
510.618	4690.46
510.986	4751.02
511.354	4790.57
511.722	4832.82
512.09	4856.33
512.458	4851.13
512.826	4930.68
513.193	4944.91
513.561	5019.26
513.929	5077.11
514.297	5077.79
514.664	5089.54
515.032	5158.01
515.4	5153.04
515.767	5165.25
516.135	5254.51
516.502	5243.44
516.869	5325.24
517.237	5392.58
517.604	5395.52
517.972	5423.54
518.339	5478.46
518.706	5490.66
519.073	5527.04
519.44	5586.03
519.808	5593.03
520.175	5632.8
520.542	5737.21
520.909	5711.67
521.276	5728.17
521.643	5836.19
522.009	5892.23
522.376	5895.4
522.743	5999.12
523.11	6092.45
523.477	6095.39
523.843	6157.76
524.21	6241.38
524.577	6217.2
524.943	6324.76
525.31	6299.23
525.676	6345.78
526.043	6460.13
526.409	6472.56
526.776	6562.72
527.142	6590.07
527.508	6618.54
527.874	6685.21
528.241	6720.23
528.607	6746.67
528.973	6777.41
529.339	6936.27
529.705	6911.87
530.071	7011.07
530.437	7086.78
530.803	7157.06
531.169	7127.91
531.535	7153.44
531.901	7158.64
532.267	7245.19
532.632	7334.68
532.998	7271.4
533.364	7402.25
533.73	7448.12
534.095	7556.14
534.461	7543.04
534.826	7592.07
535.192	7570.61
535.557	7701
535.923	7737.16
536.288	7708.23
536.653	7776.25
537.019	7814.44
537.384	7856.02
537.749	7968.34
538.114	8005.17
538.479	8038.16
538.845	8108.9
539.21	8036.58
539.575	8162.23
539.94	8195.22
540.305	8214.2
540.67	8265.5
541.034	8305.95
541.399	8336.69
541.764	8369.46
542.129	8456.68
542.494	8505.72
542.858	8531.94
543.223	8514.08
543.587	8651.26
543.952	8684.48
544.316	8735.32
544.681	8796.79
545.045	8809.67
545.41	8876.56
545.774	8931.25
546.138	8937.58
546.503	8989.55
546.867	9049.66
547.231	9182.32
547.595	9195.42
547.959	9285.14
548.324	9267.51
548.688	9356.77
549.052	9450.56
549.416	9462.76
549.779	9508.41
550.143	9484.68
550.507	9712.24
550.871	9726.93
551.235	9735.29
551.599	9891.67
551.962	9924.44
552.326	9954.27
552.689	10003.76
553.053	10081.5
553.417	10137.32
553.78	10279.69
554.143	10261.83
554.507	10399.23
554.87	10497.31
555.234	10614.59
555.597	10568.49
555.96	10658.21
556.323	10854.14
556.686	10840.8
557.05	10927.13
557.413	11034.7
557.776	11188.14
558.139	11253.67
558.502	11366.89
558.865	11383.84
559.228	11560.56
559.59	11586.09
559.953	11787.67
560.316	11845.75
560.679	11939.08
561.041	12026.53
561.404	12170.03
561.767	12389.46
562.129	12323.7
562.492	12472.62
562.854	12549.01
563.217	12650.25
563.579	12717.14
563.941	12976.34
564.304	13063.57
564.666	13177.24
565.028	13304.47
565.39	13382.43
565.753	13630.56
566.115	13697.45
566.477	13767.73
566.839	13843.66
567.201	14154.61
567.563	14146.03
567.925	14283.2
568.287	14411.33
568.648	14535.62
569.01	14735.16
569.372	14788.04
569.734	14870.3
570.095	15017.19
570.457	15176.28
570.819	15294.92
571.18	15437.07
571.542	15613.11
571.903	15686.55
572.265	15799.99
572.626	15983.27
572.987	16142.81
573.349	16228.01
573.71	16385.06
574.071	16449.92
574.432	16544.38
574.794	16834.09
575.155	16799.74
575.516	16926.07
575.877	17040.19
576.238	17310.24
576.599	17343.23
576.96	17490.12
577.32	17502.1
577.681	17654.86
578.042	17726.05
578.403	17763.11
578.763	17981.18
579.124	18142.76
579.485	18104.57
579.845	18332.36
580.206	18339.81
580.566	18433.82
580.927	18505.91
581.287	18636.3
581.648	18620.48
582.008	18833.59
582.368	18847.37
582.728	19018.89
583.089	19023.19
583.449	19159.91
583.809	19259.11
584.169	19297.3
584.529	19481.93
584.889	19600.57
585.249	19572.55
585.609	19623.17
585.969	19747.69
586.329	19723.96
586.688	19864.75
587.048	19956.95
587.408	19929.6
587.768	20045.53
588.127	20019.32
588.487	20068.36
588.846	20314.45
589.206	20215.92
589.565	20255.7
589.925	20448.69
590.284	20492.53
590.643	20675.8
591.003	20678.06
591.362	20833.53
591.721	20825.4
592.08	20800.99
592.44	21001.67
592.799	20942.91
593.158	21096.35
593.517	21117.82
593.876	21158.5
594.235	21137.03
594.593	21244.82
594.952	21393.29
595.311	21396.46
595.67	21316.91
596.029	21518.94
596.387	21638.71
596.746	21662.21
597.104	21697.01
597.463	21708.54
597.822	21894.98
598.18	21912.15
598.538	21957.12
598.897	22070.56
599.255	22086.83
599.613	22360.95
599.972	22216.77
600.33	22327.96
600.688	22303.1
601.046	22445.7
601.404	22574.73
601.762	22511.46
602.12	22758.23
602.478	22772.69
602.836	22909.86
603.194	22738.34
603.552	22974.04
603.91	22873.93
604.268	23096.75
604.625	23065.11
604.983	23282.06
605.341	23121.38
605.698	23377.42
606.056	23409.06
606.413	23461.04
606.771	23529.51
607.128	23487.48
607.485	23532.22
607.843	23619.9
608.2	23773.12
608.557	23922.94
608.914	23821.48
609.272	24101.02
609.629	24053.56
609.986	24131.07
610.343	24077.97
610.7	24450.61
611.057	24304.86
611.414	24478.64
611.771	24514.79
612.127	24590.95
612.484	24609.25
612.841	24757.72
613.198	24842.92
613.554	24826.42
613.911	24964.27
614.267	25081.11
614.624	24945.52
614.98	25111.84
615.337	25195
615.693	25266.19
616.05	25289.69
616.406	25477.48
616.762	25408.1
617.118	25340.53
617.475	25522
617.831	25628.66
618.187	25673.86
618.543	25759.96
618.899	25972.38
619.255	25879.28
619.611	26020.06
619.967	26006.05
620.323	26190.46
620.678	26029.33
621.034	25979.61
621.39	26103.9
621.746	26162.89
622.101	26465.7
622.457	26331.24
622.812	26432.93
623.168	26464.8
623.523	26611.01
623.879	26605.13
624.234	26517.23
624.589	26512.25
624.945	26517.9
625.3	26609.65
625.655	26628.86
626.01	26670.67
626.365	26796.77
626.72	26733.49
627.075	26811.68
627.43	26877.22
627.785	26731.68
628.14	26851
628.495	26863.66
628.85	27070.21
629.205	26926.03
629.559	27037.66
629.914	27042.64
630.269	27037.89
630.623	26999.25
630.978	27037.89
631.332	27193.82
631.687	27102.97
632.041	27056.87
632.396	27244.66
632.75	27059.59
633.104	27166.47
633.459	27279.24
633.813	27061.39
634.167	27176.64
634.521	27216.19
634.875	27358.79
635.229	27140.03
635.583	27131.45
635.937	27217.77
636.291	27232.24
636.645	27130.09
636.999	27107.04
637.352	27270.65
637.706	27031.11
638.06	27316.98
638.413	27174.84
638.767	27072.01
639.121	27263.42
639.474	27090.09
639.828	27147.27
640.181	27265.91
640.534	27314.04
640.888	27340.93
641.241	27146.59
641.594	27180.71
641.947	27320.14
642.301	27267.72
642.654	27269.75
643.007	27310.43
643.36	27397.43
643.713	27267.49
644.066	27446.47
644.419	27302.29
644.771	27084.9
645.124	26835.41
645.477	26855.75
645.83	26548.64
646.182	26550.67
646.535	26482.65
646.888	26586.15
647.24	26517.45
647.593	26800.38
647.945	26739.37
648.298	26669.31
648.65	26548.64
649.002	26563.78
649.355	26618.47
649.707	26463.44
650.059	26608.98
650.411	26911.34
650.763	27061.62
651.115	27281.5
651.467	27275.17
651.819	27310.88
652.171	27171.45
652.523	27244.89
652.875	27231.78
653.227	27256.19
653.578	27432.68
653.93	27300.03
654.282	27110.88
654.633	27206.93
654.985	27291.22
655.337	27236.76
655.688	27187.04
656.039	27506.13
656.391	27107.04
656.742	27362.63
657.094	27362.18
657.445	27523.98
657.796	27483.53
658.147	27276.08
658.498	27238.34
658.849	27394.94
659.2	27215.06
659.551	27338.67
659.902	27329.63
660.253	27318.11
660.604	27641.72
660.955	27363.53
661.306	27428.16
661.656	27392.23
662.007	27516.75
662.358	27512.68
662.708	27433.13
663.059	27561.94
663.409	27361.95
663.76	27662.28
664.11	27635.84
664.461	27586.8
664.811	27573.24
665.161	27660.47
665.511	27617.08
665.862	27683.98
666.212	27788.61
666.562	27812.56
666.912	27692.34
667.262	27634.49
667.612	27783.86
667.962	27926.91
668.312	27719.68
668.662	28020.46
669.011	27788.38
669.361	27907.92
669.711	27864.99
670.06	27808.94
670.41	27857.53
670.76	27784.09
671.109	27928.04
671.459	27962.61
671.808	27782.5
672.157	27864.76
672.507	27719.45
672.856	27637.87
673.205	27815.27
673.554	27993.8
673.904	27821.82
674.253	28025.66
674.602	27885.55
674.951	27554.49
675.3	27405.56
675.649	28001.48
675.998	27961.93
676.346	28019.79
676.695	28171.19
677.044	27840.36
677.393	27978.88
677.741	28006.23
678.09	28081.25
678.438	28059.78
678.787	27981.37
679.135	28106.56
679.484	27852.56
679.832	27964.87
680.181	27783.63
680.529	27930.52
680.877	27842.16
681.225	27906.57
681.573	27988.83
681.922	27848.94
682.27	27823.63
682.618	27846.68
682.966	27808.94
683.314	27802.84
683.661	27775.72
684.009	27629.06
684.357	27591.32
684.705	27531.44
685.053	27724.2
685.4	27766.01
685.748	27582.51
686.095	27616.86
686.443	27477.2
686.79	27481.27
687.138	27561.04
687.485	27579.57
687.832	27353.59
688.18	27411.44
688.527	27450.31
688.874	27319.01
689.221	27254.38
689.568	27181.16
689.915	27142.07
690.262	27341.39
690.609	27187.72
690.956	27046.03
691.303	27016.65
691.65	26842.64
691.997	26940.72
692.344	26878.57
692.69	26825.24
693.037	26873.6
693.383	26619.37
693.73	26697.79
694.077	26567.39
694.423	26624.34
694.769	26506.61
695.116	26571.24
695.462	26498.02
695.808	26496.44
696.155	26430.45
696.501	26245.82
696.847	26316.78
697.193	26253.05
697.539	26419.38
697.885	26151.81
698.231	26096.22
698.577	26124.24
698.923	26085.83
699.269	25996.34
699.614	25875.44
699.96	25833.63
700.306	25999.5
700.651	25692.62
700.997	25885.15
701.342	25726.74
701.688	25698.49
702.033	25625.05
702.379	25562.68
702.724	25528.55
703.069	25663.69
703.415	25281.33
703.76	25401.1
704.105	25532.85
704.45	25303.47
704.795	25123.59
705.14	25105.74
705.485	25177.15
705.83	25152.29
706.175	25197.04
706.52	25094.44
706.865	25062.35
707.209	24925.63
707.554	24923.6
707.899	24966.53
708.243	24964.5
708.588	24668.24
708.932	24695.58
709.277	24783.03
709.621	24782.81
709.966	24635.24
710.31	24630.72
710.654	24408.58
710.998	24537.84
711.342	24621.23
711.687	24618.29
712.031	24519.99
712.375	24337.85
712.719	24482.48
713.063	24230.51
713.407	24391.41
713.75	24328.36
714.094	24383.05
714.438	24237.51
714.782	24147.35
715.125	24141.24
715.469	24237.96
715.812	23965.43
716.156	24036.39
716.499	24010.4
716.843	23960.23
717.186	23774.93
717.53	23947.58
717.873	23924.75
718.216	23820.8
718.559	24008.14
718.902	23686.57
719.246	23916.16
719.589	23712.1
719.932	23685.66
720.275	23758.2
720.617	23812.44
720.96	23843.17
721.303	23839.33
721.646	23734.7
721.989	23627.13
722.331	23648.38
722.674	23551.43
723.016	23661.26
723.359	23586.46
723.701	23649.51
724.044	23481.6
724.386	23361.83
724.729	23484.31
725.071	23372.45
725.413	23468.49
725.755	23358.67
726.097	23334.94
726.439	23332.68
726.782	23302.4
727.124	23428.04
727.465	23403.64
727.807	23222.17
728.149	23312.34
728.491	23306.69
728.833	23320.7
729.175	23244.09
729.516	23222.85
729.858	23235.28
730.199	23275.05
730.541	23191.44
730.882	23043.87
731.224	23205.68
731.565	23200.48
731.906	23108.5
732.248	23162.51
732.589	23064.89
732.93	23065.57
733.271	23116.64
733.612	23093.14
733.953	23201.38
734.294	23128.62
734.635	22941.73
734.976	23034.38
735.317	22901.28
735.658	22965.68
735.999	22904.44
736.339	22791.22
736.68	22799.36
737.021	22735.41
737.361	22760.49
737.702	22872.8
738.042	22817.21
738.383	22728.17
738.723	22755.74
739.063	22676.88
739.404	22705.8
739.744	22667.61
740.084	22552.13
740.424	22729.3
740.764	22780.15
741.104	22734.5
741.444	22622.41
741.784	22553.26
742.124	22685.01
742.464	22720.49
742.804	22607.27
743.143	22670.55
743.483	22461.51
743.823	22417.67
744.162	22460.38
744.502	22469.88
744.841	22356.88
745.181	22493.6
745.52	22356.88
745.86	22297
746.199	22398.92
746.538	22351.23
746.877	22400.05
747.216	22472.59
747.556	22365.92
747.895	22379.03
748.234	22313.5
748.573	22231.01
748.911	22187.62
749.25	22177
749.589	22102.65
749.928	22065.82
750.267	22113.05
750.605	22100.17
750.944	21989.44
751.283	21860.85
751.621	22026.05
751.96	21840.06
752.298	21835.09
752.636	21950.79
752.975	21793.73
753.313	21769.1
753.651	21817.46
753.989	21666.96
754.327	21774.75
754.666	21644.13
755.004	21614.53
755.342	21734.3
755.679	21668.09
756.017	21562.55
756.355	21625.83
756.693	21548.77
757.031	21585.83
757.368	21345.61
757.706	21455.89
758.044	21398.04
758.381	21373.86
758.719	21409.11
