Data from copper_heatsink_FLMS001491_026.txt Node
Date: Tue Feb 07 10:49:36 GMT 2017
User: dcchb
Spectrometer: FLMS00149
Trigger mode: 0
Integration Time (sec): 2.000000E-2
Scans to average: 10
Electric dark correction enabled: true
Nonlinearity correction enabled: false
Boxcar width: 0
XAxis mode: Wavelengths
Number of Pixels in Spectrum: 2048
>>>>>Begin Spectral Data<<<<<
341.393	-23.47
341.776	-23.47
342.16	-23.47
342.543	-44.72
342.927	-75.45
343.31	-70.7
343.693	-53.76
344.077	-82.46
344.46	-56.69
344.843	-47.43
345.226	-31.38
345.61	-23.7
345.993	-28.45
346.376	-18.28
346.759	12.91
347.142	25.79
347.525	29.86
347.908	61.5
348.291	83.42
348.674	107.14
349.057	92.23
349.44	121.61
349.823	164.09
350.206	172.68
350.588	222.17
350.971	228.5
351.354	247.25
351.737	242.96
352.119	263.3
352.502	277.08
352.884	306.69
353.267	300.36
353.65	325.67
354.032	305.78
354.414	313.92
354.797	339.23
355.179	338.32
355.562	339.68
355.944	373.35
356.326	334.48
356.709	374.26
357.091	360.47
357.473	365.44
357.855	369.74
358.238	344.65
358.62	360.47
359.002	368.38
359.384	357.08
359.766	369.06
360.148	380.81
360.53	371.32
360.912	341.49
361.294	359.57
361.676	366.35
362.057	380.13
362.439	354.6
362.821	357.31
363.203	347.36
363.584	365.89
363.966	332.9
364.348	349.4
364.729	348.95
365.111	345.33
365.493	369.28
365.874	361.15
366.256	334.71
366.637	335.16
367.019	339.68
367.4	352.34
367.781	339.91
368.163	353.24
368.544	348.04
368.925	343.07
369.306	363.63
369.688	351.43
370.069	346.01
370.45	345.78
370.831	353.24
371.212	327.93
371.593	354.82
371.974	334.71
372.355	330.64
372.736	360.7
373.117	358.44
373.498	339.91
373.879	350.53
374.26	351.88
374.641	367.48
375.021	335.84
375.402	372
375.783	346.46
376.163	388.27
376.544	391.2
376.925	389.62
377.305	363.18
377.686	390.3
378.066	371.54
378.447	381.04
378.827	377.87
379.208	386.68
379.588	372.22
379.968	376.74
380.349	360.02
380.729	369.96
381.109	389.85
381.489	392.79
381.87	397.31
382.25	388.72
382.63	392.79
383.01	395.27
383.39	423.97
383.77	410.86
384.15	398.21
384.53	399.34
384.91	406.35
385.29	431.2
385.67	410.86
386.049	422.84
386.429	438.21
386.809	404.54
387.189	436.17
387.568	441.15
387.948	421.26
388.328	427.14
388.707	433.69
389.087	442.28
389.466	445.89
389.846	447.93
390.225	437.53
390.605	483.63
390.984	476.17
391.363	461.49
391.743	464.42
392.122	479.79
392.501	474.14
392.881	466.91
393.26	499.68
393.639	468.49
394.018	481.82
394.397	486.34
394.776	477.76
395.155	484.76
395.534	490.41
395.913	494.03
396.292	511.88
396.671	513.24
397.05	510.3
397.429	494.48
397.808	512.56
398.186	505.33
398.565	522.5
398.944	527.02
399.323	549.17
399.701	515.04
400.08	534.25
400.458	557.98
400.837	544.42
401.215	547.36
401.594	553.01
401.972	559.11
402.351	577.87
402.729	579.9
403.107	577.64
403.486	574.48
403.864	580.58
404.242	594.59
404.62	590.52
404.999	598.43
405.377	601.37
405.755	581.26
406.133	606.11
406.511	611.76
406.889	611.76
407.267	605.44
407.645	644.31
408.023	639.11
408.401	645.21
408.779	656.28
409.156	659.22
409.534	653.34
409.912	665.55
410.29	683.85
410.667	684.76
411.045	681.59
411.422	689.5
411.8	708.71
412.178	705.09
412.555	714.59
412.933	724.98
413.31	714.59
413.687	734.7
414.065	772.44
414.442	760.01
414.819	768.6
415.197	760.23
415.574	758.43
415.951	748.26
416.328	786.9
416.705	783.51
417.082	807.24
417.46	792.32
417.837	830.06
418.214	842.49
418.591	807.69
418.967	836.62
419.344	822.61
419.721	826.22
420.098	840.91
420.475	868.93
420.852	857.86
421.228	883.85
421.605	893.79
421.982	884.98
422.358	891.98
422.735	907.58
423.111	903.28
423.488	932.21
423.864	936.05
424.241	936.73
424.617	950.74
424.994	955.03
425.37	967.23
425.746	953.9
426.123	980.12
426.499	968.36
426.875	986.89
427.251	1013.33
427.627	1032.54
428.003	1018.98
428.379	1048.14
428.756	1044.52
429.132	1082.26
429.507	1098.53
429.883	1080.45
430.259	1098.98
430.635	1105.76
431.011	1115.48
431.387	1149.83
431.763	1175.82
432.138	1162.26
432.514	1192.54
432.89	1185.31
433.265	1213.78
433.641	1254.23
434.016	1241.35
434.392	1251.52
434.767	1257.85
435.143	1291.07
435.518	1275.47
435.894	1300.11
436.269	1318.19
436.644	1332.2
437.02	1337.85
437.395	1337.17
437.77	1368.13
438.145	1393.44
438.52	1414.45
438.895	1401.8
439.271	1425.08
439.646	1434.57
440.021	1479.54
440.395	1448.58
440.77	1464.4
441.145	1485.86
441.52	1499.88
441.895	1515.47
442.27	1538.74
442.645	1502.36
443.019	1513.43
443.394	1560.44
443.769	1562.7
444.143	1552.98
444.518	1586.2
444.892	1584.17
445.267	1604.05
445.641	1659.42
446.016	1616.71
446.39	1654.45
446.764	1654
447.139	1614
447.513	1662.13
447.887	1661.45
448.262	1663.49
448.636	1688.8
449.01	1722.69
449.384	1718.18
449.758	1746.87
450.132	1766.99
450.506	1774.67
450.88	1784.39
451.254	1809.7
451.628	1825.74
452.002	1866.65
452.376	1863.03
452.75	1897.61
453.123	1905.06
453.497	1936.93
453.871	1939.19
454.244	2016.92
454.618	2006.76
454.992	2031.84
455.365	2046.3
455.739	2084.72
456.112	2115.68
456.486	2114.32
456.859	2139.41
457.232	2160.42
457.606	2199.07
457.979	2241.33
458.352	2279.97
458.725	2293.08
459.099	2314.77
459.472	2369.23
459.845	2384.82
460.218	2402.45
460.591	2433.18
460.964	2451.26
461.337	2519.06
461.71	2507.53
462.083	2550.7
462.456	2591.6
462.829	2617.81
463.201	2628.89
463.574	2655.55
463.947	2702.33
464.32	2760.63
464.692	2763.35
465.065	2771.71
465.438	2847.64
465.81	2882.66
466.183	2926.5
466.555	2967.18
466.928	2975.54
467.3	2998.82
467.672	3018.71
468.045	3164.92
468.417	3115.2
468.789	3158.82
469.161	3205.14
469.534	3272.48
469.906	3336.89
470.278	3352.03
470.65	3408.3
471.022	3467.28
471.394	3522.42
471.766	3539.82
472.138	3629.54
472.51	3683.55
472.882	3726.48
473.253	3787.95
473.625	3880.6
473.997	3939.59
474.369	3971.45
474.74	3982.3
475.112	4045.57
475.484	4113.59
475.855	4218
476.227	4245.57
476.598	4307.26
476.97	4395.62
477.341	4494.6
477.713	4559.23
478.084	4570.98
478.455	4738.21
478.827	4775.5
479.198	4869.05
479.569	4914.48
479.94	4988.15
480.311	5083.51
480.682	5161.02
481.053	5260.23
481.424	5388.36
481.795	5380.9
482.166	5512.2
482.537	5590.16
482.908	5708.58
483.279	5721.46
483.65	5858.86
484.021	5983.15
484.391	6012.07
484.762	6048.23
485.133	6140.21
485.503	6272.63
485.874	6413.87
486.244	6439.86
486.615	6561.89
486.985	6674.66
487.356	6820.64
487.726	6841.2
488.097	6965.27
488.467	7007.75
488.837	7185.83
489.207	7266.05
489.578	7352.6
489.948	7379.72
490.318	7552.82
490.688	7546.95
491.058	7700.84
491.428	7754.17
491.798	7878.24
492.168	8044.56
492.538	8031.23
492.908	8093.6
493.278	8245.69
493.648	8255.63
494.017	8402.29
494.387	8511.22
494.757	8576.75
495.126	8692.46
495.496	8680.93
495.866	8788.72
496.235	8838.44
496.605	8916.63
496.974	9014.03
497.344	9034.82
497.713	9135.38
498.082	9166.57
498.452	9285.21
498.821	9295.38
499.19	9408.59
499.559	9473.23
499.928	9572.43
500.298	9596.61
500.667	9677.74
501.036	9712.32
501.405	9840
501.774	9873.67
502.143	9914.12
502.512	9953.21
502.88	10021.91
503.249	10066.43
503.618	10096.94
503.987	10203.83
504.356	10254
504.724	10391.62
505.093	10393.88
505.462	10483.37
505.83	10575.8
506.199	10664.15
506.567	10804.04
506.936	10723.14
507.304	10889.69
507.672	10954.54
508.041	11039.96
508.409	11106.4
508.777	11262.11
509.145	11296
509.514	11331.71
509.882	11301.88
510.25	11467.75
510.618	11588.88
510.986	11544.36
511.354	11706.61
511.722	11815.08
512.09	11882.65
512.458	11809.21
512.826	12024.8
513.193	12086.04
513.561	12153.38
513.929	12212.59
514.297	12348.86
514.664	12383.88
515.032	12511.11
515.4	12639.02
515.767	12697.77
516.135	12775.96
516.502	12733.25
516.869	13025.22
517.237	13053.7
517.604	12958.78
517.972	13178.66
518.339	13238.78
518.706	13302.05
519.073	13408.04
519.44	13587.47
519.808	13648.03
520.175	13607.35
520.542	13902.26
520.909	13926.67
521.276	13946.55
521.643	14110.39
522.009	14220.67
522.376	14356.26
522.743	14396.71
523.11	14506.77
523.477	14795.8
523.843	14811.84
524.21	14920.99
524.577	15021.1
524.943	15132.29
525.31	15212.28
525.676	15378.83
526.043	15411.15
526.409	15556.68
526.776	15756.45
527.142	15762.33
527.508	15880.29
527.874	16019.95
528.241	16089.32
528.607	16165.48
528.973	16292.93
529.339	16421.29
529.705	16531.12
530.071	16672.58
530.437	16850.21
530.803	16931.11
531.169	16980.15
531.535	17009.75
531.901	17007.04
532.267	17182.85
532.632	17317.09
532.998	17437.99
533.364	17546.69
533.73	17573.35
534.095	17757.98
534.461	17758.43
534.826	17933.57
535.192	17911.65
535.557	18138.53
535.923	18072.1
536.288	18240.9
536.653	18330.17
537.019	18268.25
537.384	18518.86
537.749	18623.04
538.114	18709.37
538.479	18766.31
538.845	18888.8
539.21	18790.95
539.575	18901.45
539.94	19032.97
540.305	19135.34
540.67	19134.21
541.034	19276.36
541.399	19389.57
541.764	19459.63
542.129	19630.47
542.494	19679.96
542.858	19719.96
543.223	19820.3
543.587	19958.6
543.952	20008.09
544.316	20132.38
544.681	20134.87
545.045	20354.07
545.41	20396.1
545.774	20411.92
546.138	20565.59
546.503	20687.85
546.867	20720.16
547.231	20950.44
547.595	20993.15
547.959	21141.39
548.324	21187.04
548.688	21290.99
549.052	21359.92
549.416	21388.39
549.779	21629.06
550.143	21650.53
550.507	21930.3
550.871	22057.08
551.235	22046.68
551.599	22275.6
551.962	22322.15
552.326	22563.95
552.689	22678.98
553.053	22751.97
553.417	22852.31
553.78	23139.08
554.143	23069.48
554.507	23296.14
554.87	23420.2
555.234	23687.99
555.597	23605.74
555.96	23932.28
556.323	23982.22
556.686	24178.6
557.05	24326.17
557.413	24467.18
557.776	24648.19
558.139	24969.54
558.502	25089.76
558.865	25289.98
559.228	25409.53
559.59	25631.67
559.953	25811.78
560.316	26210.41
560.679	26168.83
561.041	26472.33
561.404	26732.66
561.767	26965.42
562.129	26975.59
562.492	27388.46
562.854	27576.93
563.217	27728.11
563.579	27993.19
563.941	28188.44
564.304	28503.01
564.666	28808.76
565.028	28925.37
565.39	29124.01
565.753	29453.49
566.115	29707.27
566.477	29707.72
566.839	30034.27
567.201	30302.06
567.563	30469.96
567.925	30999.44
568.287	31055.26
568.648	31345.64
569.01	31563.49
569.372	31888.46
569.734	31844.61
570.095	32353.98
570.457	32640.75
570.819	32845.04
571.18	32980.63
571.542	33193.05
571.903	33417.23
572.265	33696.77
572.626	33861.74
572.987	34207.49
573.349	34350.99
573.71	34710.53
574.071	35005.44
574.432	35253.79
574.794	35542.82
575.155	35643.16
575.516	35670.5
575.877	36111.17
576.238	36344.84
576.599	36517.49
576.96	36791.15
577.32	37021.88
577.681	37214.64
578.042	37432.04
578.403	37701.18
578.763	37720.62
579.124	38126.48
579.485	38406.48
579.845	38592.23
580.206	38658.9
580.566	38918.33
580.927	39106.8
581.287	39346.79
581.648	39341.59
582.008	39649.61
582.368	39657.74
582.728	39775.25
583.089	39911.97
583.449	40164.17
583.809	40252.08
584.169	40434.22
584.529	40579.98
584.889	41081.43
585.249	40894.09
585.609	40925.96
585.969	41498.82
586.329	41390.35
586.688	41612.49
587.048	41583.12
587.408	41744.02
587.768	41897.23
588.127	41995.53
588.487	42022.43
588.846	42463.09
589.206	42236.43
589.565	42527.72
589.925	42770.2
590.284	42701.96
590.643	42925
591.003	43177.65
591.362	43312.79
591.721	43396.63
592.08	43465.1
592.44	43680.01
592.799	43742.38
593.158	43979.89
593.517	44017.85
593.876	44246.55
594.235	44215.59
594.593	44416.71
594.952	44602.25
595.311	44539.87
595.67	44812.64
596.029	45246.75
596.387	45302.57
596.746	45232.96
597.104	45272.28
597.463	45370.36
597.822	45633.18
598.18	45703.01
598.538	45702.56
598.897	46101.41
599.255	45729.45
599.613	46474.29
599.972	46377.79
600.33	46626.15
600.688	46523.32
601.046	46729.87
601.404	46877.89
601.762	46998.57
602.12	47295.96
602.478	47267.49
602.836	47397.88
603.194	47295.51
603.552	47584.54
603.91	47577.31
604.268	47821.14
604.625	47743.63
604.983	48044.41
605.341	47866.11
605.698	48209.38
606.056	48474.46
606.413	48457.74
606.771	48771.85
607.128	48697.96
607.485	48646.43
607.843	48798.29
608.2	49152.86
608.557	49258.85
608.914	49208.9
609.272	49427.2
609.629	49674.2
609.986	49801.2
610.343	49696.12
610.7	50160.07
611.057	50120.97
611.414	50231.02
611.771	50277.35
612.127	50398.48
612.484	50549.43
612.841	50795.53
613.198	50704.23
613.554	50711.92
613.911	50988.07
614.267	51038.91
614.624	50960.95
614.98	51313.03
615.337	51466.7
615.693	51365.46
616.05	51457.66
616.406	51783.75
616.762	51709.86
617.118	51633.25
617.475	51842.51
617.831	51896.06
618.187	51942.84
618.543	52130.86
618.899	52395.94
619.255	52329.95
619.611	52349.84
619.967	52499.66
620.323	52564.97
620.678	52529.72
621.034	52607.01
621.39	52626.44
621.746	52637.97
622.101	52958.64
622.457	52807.91
622.812	52946.21
623.168	53024.62
623.523	53044.74
623.879	53252.64
624.234	53076.6
624.589	53270.27
624.945	53343.26
625.3	53503.48
625.655	53425.74
626.01	53572.63
626.365	53525.63
626.72	53559.98
627.075	53627.54
627.43	53617.6
627.785	53569.24
628.14	53742.57
628.495	53775.11
628.85	53815.11
629.205	53755.22
629.559	53956.58
629.914	53874.54
630.269	53853.53
630.623	53755.22
630.978	53821.21
631.332	53994.77
631.687	54020.53
632.041	53988.44
632.396	54156.12
632.75	54143.69
633.104	54091.71
633.459	54020.98
633.813	54068.21
634.167	54171.94
634.521	54061.21
634.875	54155.89
635.229	54085.84
635.583	54103.01
635.937	54208.32
636.291	54174.42
636.645	54258.26
636.999	54170.13
637.352	54274.76
637.706	54141.43
638.06	54241.77
638.413	54193.86
638.767	54207.19
639.121	54340.29
639.474	54178.26
639.828	54282.67
640.181	54289.45
640.534	54258.04
640.888	54141.43
641.241	54066.18
641.594	54313.4
641.947	54318.15
642.301	54317.47
642.654	54354.53
643.007	54378.26
643.36	54394.08
643.713	54324.25
644.066	54512.72
644.419	54309.56
644.771	54366.06
645.124	54165.16
645.477	54178.49
645.83	53971.04
646.182	53806.3
646.535	53555.23
646.888	53690.59
647.24	53433.2
647.593	53674.32
647.945	53541.67
648.298	53458.96
648.65	53464.39
649.002	53545.51
649.355	53737.37
649.707	53757.03
650.059	53994.31
650.411	54415.55
650.763	54411.93
651.115	54643.56
651.467	54506.84
651.819	54583.45
652.171	54564.24
652.523	54544.58
652.875	54601.76
653.227	54554.75
653.578	54644.24
653.93	54676.33
654.282	54527.18
654.633	54491.25
654.985	54654.86
655.337	54592.49
655.688	54766.95
656.039	54832.26
656.391	54551.81
656.742	54609.67
657.094	54666.39
657.445	54756.55
657.796	54757.23
658.147	54682.88
658.498	54634.3
658.849	54855.54
659.2	54730.11
659.551	54757.01
659.902	54859.6
660.253	54841.98
660.604	54926.04
660.955	54704.8
661.306	54833.84
661.656	54820.96
662.007	54913.61
662.358	55015.53
662.708	55016.43
663.059	55077.45
663.409	54859.83
663.76	55084.23
664.11	55025.25
664.461	55027.96
664.811	55118.35
665.161	55095.75
665.511	55043.1
665.862	55048.52
666.212	55163.78
666.562	55233.38
666.912	55233.38
667.262	55265.02
667.612	55261.17
667.962	55359.02
668.312	55252.13
668.662	55297.11
669.011	55331.23
669.361	55361.74
669.711	55375.52
670.06	55346.6
670.41	55358.57
670.76	55434.5
671.109	55488.29
671.459	55405.35
671.808	55340.04
672.157	55485.8
672.507	55274.96
672.856	55389.08
673.205	55455.75
673.554	55473.82
673.904	55506.37
674.253	55611
674.602	55507.5
674.951	55157.22
675.3	55049.43
675.649	55578.45
675.998	55584.56
676.346	55602.18
676.695	55732.8
677.044	55497.78
677.393	55658.23
677.741	55713.14
678.09	55666.14
678.438	55607.15
678.787	55747.71
679.135	55637.89
679.484	55463.2
679.832	55687.6
680.181	55477.89
680.529	55606.7
680.877	55529.42
681.225	55513.37
681.573	55672.24
681.922	55423.66
682.27	55457.1
682.618	55500.49
682.966	55460.26
683.314	55560.83
683.661	55415.97
684.009	55431.57
684.357	55378.01
684.705	55421.17
685.053	55391.34
685.4	55429.08
685.748	55310.66
686.095	55296.43
686.443	55222.98
686.79	55186.37
687.138	55206.26
687.485	55346.14
687.832	55184.34
688.18	55260.04
688.527	55102.08
688.874	55149.76
689.221	55061.86
689.568	55038.36
689.915	55147.05
690.262	55147.28
690.609	55048.75
690.956	54804.91
691.303	54954.74
691.65	54769.21
691.997	54736.22
692.344	54597.46
692.69	54725.59
693.037	54790.68
693.383	54571.25
693.73	54685.82
694.077	54508.65
694.423	54588.65
694.769	54493.51
695.116	54505.71
695.462	54333.51
695.808	54378.03
696.155	54337.36
696.501	54160.86
696.847	54225.04
697.193	54088.78
697.539	54122.67
697.885	53982.56
698.231	53991.15
698.577	53937.37
698.923	53964.94
699.269	53896.46
699.614	53813.53
699.96	53697.6
700.306	53726.53
700.651	53645.17
700.997	53664.83
701.342	53554.55
701.688	53528.79
702.033	53413.77
702.379	53366.31
702.724	53326.08
703.069	53408.79
703.415	53228.91
703.76	53232.07
704.105	53233.66
704.45	53045.87
704.795	53010.39
705.14	52996.6
705.485	52931.07
705.83	52887
706.175	52992.31
706.52	52843.61
706.865	52636.38
707.209	52823.27
707.554	52616.95
707.899	52712.09
708.243	52617.4
708.588	52612.88
708.932	52435.26
709.277	52385.09
709.621	52529.72
709.966	52280.24
710.31	52310.97
710.654	52115.04
710.998	52169.73
711.342	52173.8
711.687	52100.81
712.031	52061.71
712.375	52053.35
712.719	52155.04
713.063	52023.75
713.407	52188.26
713.75	52018.55
714.094	52098.09
714.438	51875.73
714.782	52064.42
715.125	51896.97
715.469	51891.09
715.812	51842.28
716.156	51652.68
716.499	51634.38
716.843	51767.03
717.186	51557.32
717.53	51729.06
717.873	51719.12
718.216	51746.46
718.559	51746.01
718.902	51500.14
719.246	51605.45
719.589	51528.84
719.932	51359.58
720.275	51383.76
720.617	51347.15
720.96	51239.36
721.303	51396.42
721.646	51353.25
721.989	51219.92
722.331	51308.51
722.674	51241.84
723.016	51227.83
723.359	51255.63
723.701	51247.49
724.044	51000.5
724.386	50885.92
724.729	51107.16
725.071	50988.52
725.413	51075.07
725.755	51021.06
726.097	50826.71
726.439	50776.55
726.782	50871.68
727.124	51091.57
727.465	50826.04
727.807	50850.67
728.149	50703.1
728.491	50640.28
728.833	50828.3
729.175	50709.66
729.516	50564.8
729.858	50515.31
730.199	50687.96
730.541	50588.98
730.882	50601.41
731.224	50677.11
731.565	50431.02
731.906	50507.4
732.248	50580.85
732.589	50427.63
732.93	50412.71
733.271	50432.6
733.612	50593.73
733.953	50557.34
734.294	50245.94
734.635	50261.98
734.976	50448.87
735.317	50269.89
735.658	50276.67
735.999	50313.51
736.339	50245.49
736.68	50297.46
737.021	50169.33
737.361	50091.37
737.702	50214.08
738.042	50092.72
738.383	50186.73
738.723	50346.95
739.063	50123.91
739.404	50270.57
739.744	50052.72
740.084	49974.31
740.424	50034.42
740.764	50058.15
741.104	50133.4
741.444	49922.56
741.784	49945.16
742.124	50077.13
742.464	50029.22
742.804	49896.8
743.143	49869.9
743.483	49836.01
743.823	49727.76
744.162	49862.9
744.502	50076.68
744.841	49824.48
745.181	49830.58
745.52	49767.31
745.86	49750.81
746.199	49700.19
746.538	49772.96
746.877	49781.77
747.216	49695.22
747.556	49649.12
747.895	49646.18
748.234	49469.24
748.573	49299.3
748.911	49394.89
749.25	49474.21
749.589	49338.84
749.928	49431.27
750.267	49501.33
750.605	49217.72
750.944	49383.59
751.283	49385.62
751.621	49427.88
751.96	49063.6
752.298	49071.05
752.636	49300.88
752.975	49009.81
753.313	48996.03
753.651	49182.92
753.989	48914.9
754.327	48962.81
754.666	48914.22
755.004	48934.56
