Data from copper_heatsink_FLMS001491_054.txt Node
Date: Tue Feb 07 10:50:11 GMT 2017
User: dcchb
Spectrometer: FLMS00149
Trigger mode: 0
Integration Time (sec): 2.000000E-2
Scans to average: 10
Electric dark correction enabled: true
Nonlinearity correction enabled: false
Boxcar width: 0
XAxis mode: Wavelengths
Number of Pixels in Spectrum: 2048
>>>>>Begin Spectral Data<<<<<
341.393	-22.06
341.776	-22.06
342.16	-22.06
342.543	-66.13
342.927	-58.9
343.31	-50.76
343.693	-69.97
344.077	-58.22
344.46	-67.03
344.843	-44.43
345.226	-40.14
345.61	-55.51
345.993	-20.93
346.376	-1.95
346.759	4.15
347.142	48.67
347.525	49.57
347.908	62.46
348.291	64.72
348.674	86.86
349.057	92.51
349.44	103.13
349.823	144.04
350.206	172.28
350.588	185.39
350.971	236.46
351.354	228.78
351.737	233.98
352.119	262.68
352.502	260.42
352.884	277.82
353.267	299.29
353.65	327.08
354.032	301.09
354.414	347.42
354.797	321.43
355.179	330.7
355.562	332.05
355.944	337.03
356.326	355.56
356.709	352.62
357.091	328.21
357.473	337.25
357.855	358.72
358.238	367.98
358.62	343.58
359.002	363.24
359.384	347.19
359.766	356.91
360.148	340.41
360.53	341.54
360.912	337.03
361.294	350.58
361.676	368.21
362.057	337.25
362.439	345.84
362.821	332.73
363.203	340.87
363.584	338.61
363.966	321.21
364.348	339.06
364.729	326.18
365.111	337.7
365.493	349.91
365.874	324.6
366.256	329.12
366.637	323.01
367.019	333.41
367.4	343.8
367.781	325.73
368.163	321.88
368.544	331.83
368.925	331.83
369.306	332.05
369.688	357.59
370.069	323.92
370.45	345.84
370.831	334.54
371.212	336.35
371.593	330.25
371.974	326.18
372.355	321.88
372.736	349.23
373.117	343.13
373.498	330.02
373.879	327.53
374.26	335.9
374.641	341.54
375.021	337.25
375.402	340.41
375.783	333.64
376.163	356.01
376.544	363.47
376.925	345.84
377.305	328.21
377.686	356.23
378.066	377.25
378.447	374.76
378.827	355.33
379.208	380.87
379.588	359.4
379.968	361.66
380.349	359.85
380.729	365.95
381.109	360.08
381.489	353.97
381.87	386.74
382.25	367.31
382.63	375.44
383.01	358.04
383.39	387.42
383.77	365.95
384.15	368.89
384.53	375.22
384.91	397.14
385.29	392.62
385.67	387.87
386.049	381.32
386.429	375.22
386.809	390.81
387.189	405.27
387.568	379.06
387.948	394.42
388.328	394.42
388.707	392.39
389.087	406.4
389.466	401.88
389.846	409.34
390.225	424.71
390.605	407.98
390.984	437.14
391.363	420.41
391.743	410.47
392.122	415.67
392.501	435.55
392.881	414.31
393.26	430.13
393.639	434.88
394.018	416.12
394.397	420.64
394.776	440.3
395.155	442.11
395.534	428.77
395.913	465.16
396.292	440.53
396.671	447.76
397.05	438.04
397.429	437.59
397.808	451.6
398.186	453.86
398.565	432.16
398.944	474.2
399.323	459.73
399.701	456.57
400.08	486.4
400.458	462.9
400.837	493.18
401.215	467.42
401.594	491.15
401.972	482.33
402.351	495.21
402.729	477.59
403.107	473.07
403.486	501.77
403.864	492.95
404.242	476.68
404.62	512.16
404.999	479.39
405.377	499.73
405.755	511.71
406.133	545.16
406.511	504.7
406.889	531.82
407.267	506.51
407.645	530.47
408.023	525.04
408.401	527.3
408.779	527.3
409.156	545.38
409.534	561.65
409.912	546.06
410.29	549
410.667	540.64
411.045	556.23
411.422	548.32
411.8	562.78
412.178	567.98
412.555	580.63
412.933	566.17
413.31	597.81
413.687	599.17
414.065	583.35
414.442	606.17
414.819	586.51
415.197	605.27
415.574	603.46
415.951	629.9
416.328	623.57
416.705	624.02
417.082	627.64
417.46	605.49
417.837	644.36
418.214	644.14
418.591	629.9
418.967	648.66
419.344	657.24
419.721	659.05
420.098	637.13
420.475	646.17
420.852	672.16
421.228	678.48
421.605	688.2
421.982	655.66
422.358	680.52
422.735	666.73
423.111	677.81
423.488	677.58
423.864	699.5
424.241	703.12
424.617	706.96
424.994	703.34
425.37	732.04
425.746	717.58
426.123	706.73
426.499	724.59
426.875	738.37
427.251	747.18
427.627	742.44
428.003	772.49
428.379	776.56
428.756	782.44
429.132	766.39
429.507	778.82
429.883	773.17
430.259	807.75
430.635	799.16
431.011	819.95
431.387	813.85
431.763	822.66
432.138	832.15
432.514	856.79
432.89	846.39
433.265	891.36
433.641	876.22
434.016	870.57
434.392	894.98
434.767	887.75
435.143	885.26
435.518	882.77
435.894	925.26
436.269	908.99
436.644	934.07
437.02	945.6
437.395	941.08
437.77	945.82
438.145	964.58
438.52	973.17
438.895	942.66
439.271	973.62
439.646	1006.61
440.021	979.27
440.395	983.79
440.77	980.17
441.145	996.67
441.52	1007.74
441.895	1022.2
442.27	1031.02
442.645	1034.41
443.019	1028.31
443.394	1039.61
443.769	1047.51
444.143	1072.37
444.518	1090.68
444.892	1060.85
445.267	1071.02
445.641	1087.74
446.016	1087.74
446.39	1057.46
446.764	1095.88
447.139	1108.53
447.513	1119.38
447.887	1103.56
448.262	1115.76
448.636	1134.07
449.01	1152.6
449.384	1139.49
449.758	1161.41
450.132	1150.56
450.506	1174.07
450.88	1181.75
451.254	1173.84
451.628	1200.28
452.002	1189.88
452.376	1202.76
452.75	1222.88
453.123	1241.63
453.497	1252.26
453.871	1230.79
454.244	1276.44
454.618	1288.86
454.992	1296.55
455.365	1297
455.739	1330.45
456.112	1336.32
456.486	1366.15
456.859	1341.52
457.232	1390.78
457.606	1355.98
457.979	1375.87
458.352	1443.66
458.725	1413.83
459.099	1437.11
459.472	1460.84
459.845	1466.03
460.218	1482.31
460.591	1500.38
460.964	1508.52
461.337	1515.53
461.71	1556.2
462.083	1598.69
462.456	1588.52
462.829	1582.64
463.201	1627.61
463.574	1632.58
463.947	1599.82
464.32	1694.73
464.692	1686.59
465.065	1674.17
465.438	1697.22
465.81	1720.72
466.183	1733.15
466.555	1774.73
466.928	1774.28
467.3	1788.51
467.672	1828.96
468.045	1862.63
468.417	1878.68
468.789	1896.98
469.161	1918
469.534	1928.62
469.906	1969.75
470.278	1960.71
470.65	2005.46
471.022	2022.63
471.394	2085.68
471.766	2122.51
472.138	2111.44
472.51	2176.3
472.882	2217.43
473.253	2189.86
473.625	2212.91
473.997	2261.72
474.369	2317.31
474.74	2290.65
475.112	2336.29
475.484	2405.45
475.855	2428.72
476.227	2457.87
476.598	2495.39
476.97	2516.18
477.341	2569.06
477.713	2593.91
478.084	2631.65
478.455	2674.82
478.827	2693.57
479.198	2756.85
479.569	2787.36
479.94	2843.63
480.311	2901.25
480.682	2925.21
481.053	2975.6
481.424	3053.11
481.795	3123.39
482.166	3127.46
482.537	3178.53
482.908	3208.36
483.279	3259.89
483.65	3328.13
484.021	3349.15
484.391	3395.48
484.762	3448.36
485.133	3452.65
485.503	3557.73
485.874	3576.26
486.244	3607.67
486.615	3657.62
486.985	3758.63
487.356	3753.43
487.726	3803.6
488.097	3909.36
488.467	3894.67
488.837	3995.23
489.207	4065.29
489.578	4079.75
489.948	4181.67
490.318	4208.56
490.688	4257.6
491.058	4273.19
491.428	4366.75
491.798	4395.22
492.168	4443.36
492.538	4491.94
492.908	4531.72
493.278	4613.97
493.648	4625.27
494.017	4681.77
494.387	4721.54
494.757	4768.55
495.126	4816.68
495.496	4843.8
495.866	4850.35
496.235	4937.36
496.605	4992.5
496.974	5017.58
497.344	5070.01
497.713	5079.27
498.082	5133.96
498.452	5206.05
498.821	5251.47
499.19	5292.6
499.559	5331.7
499.928	5364.46
500.298	5359.49
500.667	5457.34
501.036	5401.75
501.405	5457.12
501.774	5521.07
502.143	5602.42
502.512	5566.72
502.88	5639.48
503.249	5693.49
503.618	5699.82
503.987	5765.13
504.356	5785.47
504.724	5849.2
505.093	5865.47
505.462	5928.52
505.83	5983.88
506.199	5970.1
506.567	6059.36
506.936	6133.48
507.304	6180.04
507.672	6195.4
508.041	6264.1
508.409	6284.89
508.777	6275.85
509.145	6393.59
509.514	6420.03
509.882	6523.08
510.25	6487.37
510.618	6604.66
510.986	6619.8
511.354	6704.54
511.722	6682.85
512.09	6775.73
512.458	6802.17
512.826	6899.34
513.193	6919.9
513.561	6968.49
513.929	6952.9
514.297	7085.1
514.664	7142.95
515.032	7151.31
515.4	7222.04
515.767	7252.1
516.135	7340.68
516.502	7312.66
516.869	7455.93
517.237	7472.43
517.604	7503.84
517.972	7585.2
518.339	7701.58
518.706	7710.62
519.073	7786.77
519.44	7814.12
519.808	7941.8
520.175	7930.95
520.542	8091.85
520.909	8104.96
521.276	8130.72
521.643	8215.24
522.009	8294.56
522.376	8384.5
522.743	8437.6
523.11	8541.1
523.477	8651.38
523.843	8698.16
524.21	8741.78
524.577	8851.83
524.943	8852.06
525.31	8906.52
525.676	9068.55
526.043	9112.39
526.409	9196.45
526.776	9309.22
527.142	9372.27
527.508	9437.8
527.874	9504.92
528.241	9541.3
528.607	9580.4
528.973	9725.25
529.339	9664.24
529.705	9807.51
530.071	10012.48
530.437	9978.58
530.803	10111.23
531.169	10137.22
531.535	10128.18
531.901	10157.11
532.267	10286.14
532.632	10366.37
532.998	10401.62
533.364	10507.38
533.73	10578.34
534.095	10638.68
534.461	10749.18
534.826	10746.47
535.192	10876.86
535.557	10920.25
535.923	10986.69
536.288	11100.13
536.653	11087.25
537.019	11145.55
537.384	11195.04
537.749	11290.64
538.114	11337.19
538.479	11371.99
538.845	11553.45
539.21	11524.53
539.575	11567.92
539.94	11582.61
540.305	11687.91
540.67	11723.39
541.034	11859.43
541.399	11900.34
541.764	11978.75
542.129	12054.91
542.494	12053.78
542.858	12138.75
543.223	12209.26
543.587	12264.62
543.952	12339.2
544.316	12459.19
544.681	12533.54
545.045	12567.44
545.41	12747.55
545.774	12773.31
546.138	12842.01
546.503	12890.14
546.867	12949.35
547.231	13123.36
547.595	13103.02
547.959	13209.68
548.324	13284.71
548.688	13427.3
549.052	13394.08
549.416	13544.81
549.779	13608.99
550.143	13634.98
550.507	13821.64
550.871	13929.89
551.235	13977.57
551.599	14059.83
551.962	14154.29
552.326	14239.03
552.689	14366.03
553.053	14363.77
553.417	14441.06
553.78	14804.67
554.143	14824.1
554.507	14924.44
554.87	15055.51
555.234	15205.56
555.597	15222.96
555.96	15341.83
556.323	15385.22
556.686	15567.59
557.05	15795.6
557.413	15941.81
557.776	15977.29
558.139	16163.95
558.502	16293.44
558.865	16304.06
559.228	16657.05
559.59	16836.93
559.953	16901.79
560.316	17073.08
560.679	17187.43
561.041	17388.55
561.404	17543.35
561.767	17727.53
562.129	17662.45
562.492	17997.8
562.854	18047.29
563.217	18264.69
563.579	18360.28
563.941	18608.86
564.304	18776.54
564.666	18937.89
565.028	19048.85
565.39	19286.36
565.753	19494.71
566.115	19619.68
566.477	19906.23
566.839	20048.15
567.201	20314.8
567.563	20434.35
567.925	20576.72
568.287	20690.16
568.648	20792.31
569.01	21104.84
569.372	21331.5
569.734	21336.25
570.095	21677.03
570.457	21802
570.819	21961.09
571.18	22139.16
571.542	22458.03
571.903	22466.39
572.265	22752.03
572.626	22808.75
572.987	22976.2
573.349	23168.06
573.71	23420.26
574.071	23620.03
574.432	23804.66
574.794	24098.89
575.155	24115.83
575.516	24317.64
575.877	24413.91
576.238	24663.84
576.599	24750.85
576.96	24938.64
577.32	25079.43
577.681	25220.21
578.042	25378.17
578.403	25526.42
578.763	25643.25
579.124	25706.08
579.485	25979.97
579.845	26226.51
580.206	26292.5
580.566	26382.44
580.927	26567.3
581.287	26714.86
581.648	26807.29
582.008	26931.35
582.368	27026.27
582.728	27122.08
583.089	27306.26
583.449	27398.91
583.809	27515.97
584.169	27513.49
584.529	27687.49
584.889	28031.66
585.249	27922.97
585.609	27922.97
585.969	28262.39
586.329	28208.83
586.688	28349.4
587.048	28367.25
587.408	28566.11
587.768	28745.09
588.127	28723.85
588.487	28803.4
588.846	29005.65
589.206	28927.23
589.565	29081.58
589.925	29242.25
590.284	29230.73
590.643	29326.32
591.003	29517.5
591.362	29690.15
591.721	29713.2
592.08	29860.99
592.44	29886.76
592.799	29976.92
593.158	30078.62
593.517	30146.41
593.876	30361.32
594.235	30297.14
594.593	30397.48
594.952	30631.37
595.311	30546.17
595.67	30678.15
596.029	31056.22
596.387	31063
596.746	31210.11
597.104	31154.75
597.463	31293.27
597.822	31277.45
598.18	31340.73
598.538	31345.25
598.897	31743.2
599.255	31444.68
599.613	32012.12
599.972	31790.21
600.33	32055.97
600.688	31994.27
601.046	32255.51
601.404	32452.56
601.762	32459.8
602.12	32679.9
602.478	32698.89
602.836	32791.09
603.194	32697.76
603.552	32722.16
603.91	32833.8
604.268	33042.83
604.625	33160.57
604.983	33141.13
605.341	33235.37
605.698	33316.5
606.056	33696.37
606.413	33563.27
606.771	33706.77
607.128	33803.72
607.485	33648.01
607.843	33909.02
608.2	34109.47
608.557	34352.63
608.914	34259.97
609.272	34620.19
609.629	34691.83
609.986	34702.68
610.343	34596.92
610.7	35099.05
611.057	34941.54
611.414	35003.01
611.771	35132.27
612.127	35347.86
612.484	35403.22
612.841	35569.09
613.198	35475.54
613.554	35713.27
613.911	35781.74
614.267	35870.78
614.624	35864
614.98	36084.11
615.337	36407.72
615.693	36435.28
616.05	36423.08
616.406	36785.78
616.762	36636.86
617.118	36812.9
617.475	36811.32
617.831	36786.91
618.187	36947.36
618.543	36994.59
618.899	37308.03
619.255	37206.34
619.611	37188.71
619.967	37461.02
620.323	37716.16
620.678	37623.05
621.034	37487.01
621.39	37696.04
621.746	37680
622.101	37988.24
622.457	37879.31
622.812	38041.8
623.168	38139.87
623.523	38112.75
623.879	38281.34
624.234	38059.2
624.589	38288.12
624.945	38370.6
625.3	38555.91
625.655	38433.65
626.01	38651.27
626.365	38605.17
626.72	38622.12
627.075	38747.31
627.43	38688.78
627.785	38817.6
628.14	38833.64
628.495	38939.4
628.85	38867.76
629.205	39002
629.559	39146.4
629.914	38886.52
630.269	39119.51
630.623	38926.52
630.978	39072.05
631.332	39235.21
631.687	39471.36
632.041	39305.72
632.396	39255.78
632.75	39160.19
633.104	39208.77
633.459	39241.76
633.813	39097.59
634.167	39258.04
634.521	39400.4
634.875	39360.41
635.229	39255.32
635.583	39406.96
635.937	39352.04
636.291	39346.39
636.645	39532.38
636.999	39507.29
637.352	39594.3
637.706	39439.5
638.06	39534.19
638.413	39318.37
638.767	39433.62
639.121	39667.97
639.474	39386.62
639.828	39477.24
640.181	39621.64
640.534	39514.53
640.888	39557.46
641.241	39416.22
641.594	39648.31
641.947	39690.11
642.301	39470.46
642.654	39698.48
643.007	39720.4
643.36	39759.04
643.713	39641.98
644.066	39713.84
644.419	39523.11
644.771	39421.87
645.124	39231.14
645.477	39131.26
645.83	38915.67
646.182	38720.42
646.535	38611.72
646.888	38760.87
647.24	38533.08
647.593	38892.62
647.945	38898.5
648.298	38643.36
648.65	38675.68
649.002	38614.66
649.355	38823.7
649.707	38805.84
650.059	38907.76
650.411	39544.58
650.763	39558.59
651.115	39946.61
651.467	39945.02
651.819	39970.56
652.171	39875.42
652.523	39878.58
652.875	39920.62
653.227	39801.75
653.578	40211.68
653.93	40020.5
654.282	40008.98
654.633	39870.22
654.985	40072.25
655.337	40140.5
655.688	40116.09
656.039	40208.52
656.391	39864.57
656.742	40140.27
657.094	40269.08
657.445	40326.48
657.796	40287.39
658.147	40197.22
658.498	40206.49
658.849	40239.93
659.2	40341.85
659.551	40241.74
659.902	40361.51
660.253	40410.1
660.604	40540.94
660.955	40373.03
661.306	40566.93
661.656	40316.54
662.007	40363.77
662.358	40581.62
662.708	40681.5
663.059	40708.39
663.409	40546.59
663.76	40785.45
664.11	40801.27
664.461	40687.83
664.811	40941.61
665.161	40871.1
665.511	40672.46
665.862	40856.64
666.212	41121.72
666.562	41131.43
666.912	40898.22
667.262	40946.58
667.612	40984.09
667.962	41062.73
668.312	41058.67
668.662	41351.77
669.011	41224.09
669.361	41129.85
669.711	41233.8
670.06	41160.13
670.41	41081.49
670.76	41148.38
671.109	41338.66
671.459	41234.03
671.808	41093.69
672.157	41349.51
672.507	41244.2
672.856	41351.77
673.205	41311.31
673.554	41577.07
673.904	41368.49
674.253	41651.42
674.602	41520.57
674.951	41057.99
675.3	40948.84
675.649	41581.14
675.998	41672.44
676.346	41661.81
676.695	41800.79
677.044	41558.77
677.393	41672.89
677.741	41820.45
678.09	41693.23
678.438	41674.24
678.787	41767.35
679.135	41735.48
679.484	41446.45
679.832	41739.33
680.181	41608.93
680.529	41766.44
680.877	41674.02
681.225	41795.6
681.573	41941.81
681.922	41578.65
682.27	41577.52
682.618	41664.3
682.966	41642.38
683.314	41651.19
683.661	41620.23
684.009	41462.5
684.357	41443.29
684.705	41423.18
685.053	41495.49
685.4	41566
685.748	41406
686.095	41295.95
686.443	41189.51
686.79	41155.16
687.138	41205.55
687.485	41229.51
687.832	41215.05
688.18	41307.25
688.527	41031.32
688.874	41159.91
689.221	41137.76
689.568	40847.6
689.915	40851.44
690.262	40769.41
690.609	40804.66
690.956	40819.12
691.303	40842.85
691.65	40590.43
691.997	40636.98
692.344	40468.4
692.69	40575.06
693.037	40625.01
693.383	40478.79
693.73	40579.36
694.077	40485.57
694.423	40488.29
694.769	40253.26
695.116	40422.98
695.462	40195.19
695.808	39990.67
696.155	40108.41
696.501	39964.46
696.847	39929.2
697.193	39703.45
697.539	39864.35
697.885	39692.37
698.231	39541.87
698.577	39678.59
698.923	39578.71
699.269	39719.94
699.614	39384.13
699.96	39311.14
700.306	39540.06
700.651	39194.99
700.997	39207.42
701.342	39163.8
701.688	39146.17
702.033	38976.91
702.379	39146.17
702.724	39032.73
703.069	38964.03
703.415	38758.61
703.76	38934.88
704.105	38992.51
704.45	38715.68
704.795	38674.1
705.14	38513.87
705.485	38484.27
705.83	38437.94
706.175	38469.36
706.52	38456.93
706.865	38341.45
707.209	38256.25
707.554	38183.71
707.899	38393.88
708.243	38163.6
708.588	38339.87
708.932	38132.87
709.277	37982.59
709.621	38159.76
709.966	37761.58
710.31	37956.83
710.654	37671.41
710.998	37854.91
711.342	37843.61
711.687	37934.23
712.031	37663.95
712.375	37603.84
712.719	37763.84
713.063	37719.09
713.407	37893.78
713.75	37633.9
714.094	37522.26
714.438	37344.64
714.782	37504.18
715.125	37202.72
715.469	37586.22
715.812	37240.91
716.156	37134.48
716.499	37245.21
716.843	37382.6
717.186	37059
717.53	37348.71
717.873	37281.14
718.216	37199.11
718.559	37225.77
718.902	36985.78
719.246	36923.86
719.589	36811.77
719.932	36728.61
720.275	36929.96
720.617	36845.9
720.96	36972.67
721.303	36950.53
721.646	36901.26
721.989	36830.08
722.331	36976.06
722.674	36739.68
723.016	36833.92
723.359	36868.72
723.701	36863.52
724.044	36579.46
724.386	36503.98
724.729	36769.06
725.071	36620.36
725.413	36743.53
725.755	36752.34
726.097	36506.47
726.439	36399.13
726.782	36403.87
727.124	36611.33
727.465	36287.27
727.807	36398.22
728.149	36355.29
728.491	36287.72
728.833	36519.8
729.175	36294.27
729.516	36157.33
729.858	36180.38
730.199	36185.35
730.541	36240.04
730.882	36075.07
731.224	36256.53
731.565	36109.19
731.906	36049.08
732.248	36217.66
732.589	35983.32
732.93	35991.23
733.271	35936.99
733.612	36019.7
733.953	35981.29
734.294	35947.84
734.635	35976.77
734.976	36082.3
735.317	35867.16
735.658	35823.78
735.999	35954.62
736.339	35858.35
736.68	35994.39
737.021	35995.07
737.361	35710.56
737.702	35955.52
738.042	35885.47
738.383	35773.38
738.723	35814.28
739.063	35666.94
739.404	35700.39
739.744	35602.99
740.084	35607.28
740.424	35636.89
740.764	35490
741.104	35803.44
741.444	35558.25
741.784	35594.4
742.124	35663.1
742.464	35564.35
742.804	35529.09
743.143	35421.53
743.483	35482.09
743.823	35429.21
744.162	35499.26
744.502	35491.58
744.841	35310.57
745.181	35556.44
745.52	35332.49
745.86	35455.2
746.199	35334.3
746.538	35324.81
746.877	35410.23
747.216	35480.73
747.556	35356.67
747.895	35381.75
748.234	35279.84
748.573	35403.22
748.911	35174.98
749.25	35339.49
749.589	35230.8
749.928	35217.24
750.267	35285.03
750.605	35243.9
750.944	35130.69
751.283	34973.85
751.621	35045.72
751.96	34906.96
752.298	34953.29
752.636	35070.35
752.975	34867.64
753.313	34705.84
753.651	34832.62
753.989	34685.95
754.327	34736.8
754.666	34562.11
755.004	34650.47
755.342	34708.55
755.679	34565.96
756.017	34461.33
756.355	34561.44
756.693	34337.94
757.031	34452.06
757.368	34287.54
