Data from copper_heatsink_FLMS001491_042.txt Node
Date: Tue Feb 07 10:50:00 GMT 2017
User: dcchb
Spectrometer: FLMS00149
Trigger mode: 0
Integration Time (sec): 2.000000E-2
Scans to average: 10
Electric dark correction enabled: true
Nonlinearity correction enabled: false
Boxcar width: 0
XAxis mode: Wavelengths
Number of Pixels in Spectrum: 2048
>>>>>Begin Spectral Data<<<<<
341.393	-29.84
341.776	-29.84
342.16	-29.84
342.543	-75.72
342.927	-69.84
343.31	-82.5
343.693	-57.87
344.077	-59.22
344.46	-42.5
344.843	-53.12
345.226	-47.02
345.61	-32.78
345.993	-14.7
346.376	-9.96
346.759	14.45
347.142	30.72
347.525	40.89
347.908	57.84
348.291	56.26
348.674	83.15
349.057	116.37
349.44	107.78
349.823	153.65
350.206	180.77
350.588	221
350.971	242.24
351.354	243.37
351.737	261.9
352.119	282.92
352.502	281.56
352.884	283.37
353.267	312.29
353.65	290.83
354.032	320.88
354.414	312.52
354.797	327.89
355.179	326.3
355.562	331.73
355.944	347.55
356.326	359.07
356.709	371.5
357.091	362.46
357.473	365.63
357.855	349.13
358.238	366.76
358.62	379.64
359.002	349.81
359.384	362.24
359.766	360.2
360.148	351.16
360.53	371.73
360.912	343.48
361.294	367.43
361.676	373.08
362.057	362.91
362.439	358.17
362.821	361.11
363.203	364.04
363.584	343.25
363.966	338.06
364.348	360.2
364.729	343.93
365.111	340.09
365.493	362.69
365.874	334.89
366.256	329.02
366.637	336.25
367.019	331.95
367.4	352.52
367.781	363.14
368.163	357.72
368.544	329.69
368.925	334.67
369.306	326.53
369.688	330.6
370.069	329.24
370.45	348.23
370.831	344.38
371.212	344.84
371.593	351.16
371.974	358.62
372.355	356.36
372.736	362.91
373.117	348
373.498	348
373.879	352.52
374.26	355.91
374.641	356.59
375.021	336.25
375.402	380.99
375.783	369.92
376.163	361.56
376.544	373.08
376.925	373.76
377.305	366.76
377.686	367.66
378.066	351.84
378.447	368.11
378.827	364.5
379.208	365.63
379.588	365.63
379.968	370.15
380.349	372.86
380.729	372.86
381.109	383.93
381.489	388.68
381.87	370.6
382.25	385.74
382.63	391.39
383.01	381.67
383.39	386.19
383.77	410.37
384.15	405.85
384.53	415.57
384.91	376.93
385.29	376.93
385.67	392.74
386.049	402.91
386.429	378.73
386.809	394.78
387.189	389.35
387.568	400.43
387.948	394.55
388.328	418.05
388.707	406.08
389.087	418.73
389.466	407.66
389.846	430.48
390.225	430.93
390.605	433.65
390.984	445.85
391.363	413.99
391.743	431.39
392.122	436.81
392.501	451.05
392.881	440.88
393.26	422.8
393.639	421.9
394.018	441.56
394.397	447.43
394.776	431.39
395.155	447.43
395.534	467.54
395.913	461.67
396.292	463.25
396.671	442.46
397.05	489.01
397.429	472.74
397.808	454.44
398.186	471.61
398.565	460.76
398.944	478.17
399.323	472.06
399.701	477.26
400.08	472.97
400.458	487.43
400.837	478.39
401.215	468.9
401.594	487.88
401.972	479.97
402.351	486.75
402.729	481.78
403.107	496.02
403.486	493.76
403.864	483.14
404.242	504.15
404.62	502.35
404.999	498.96
405.377	512.06
405.755	517.26
406.133	521.55
406.511	531.95
406.889	517.03
407.267	537.82
407.645	533.53
408.023	542.34
408.401	543.25
408.779	570.14
409.156	550.48
409.534	567.88
409.912	590.03
410.29	550.48
410.667	596.13
411.045	588.44
411.422	587.54
411.8	581.67
412.178	596.35
412.555	574.66
412.933	611.72
413.31	618.95
413.687	615.56
414.065	620.76
414.442	630.25
414.819	620.31
415.197	625.96
415.574	623.92
415.951	632.74
416.328	648.33
416.705	662.79
417.082	652.4
417.46	654.66
417.837	703.24
418.214	664.15
418.591	675
418.967	680.19
419.344	664.83
419.721	671.38
420.098	691.27
420.475	704.15
420.852	691.49
421.228	703.24
421.605	702.11
421.982	694.2
422.358	712.06
422.735	722.45
423.111	727.2
423.488	734.88
423.864	730.14
424.241	743.02
424.617	742.11
424.994	759.51
425.37	771.94
425.746	752.73
426.123	776.01
426.499	749.57
426.875	779.4
427.251	798.83
427.627	785.95
428.003	803.81
428.379	831.6
428.756	833.64
429.132	823.92
429.507	821.21
429.883	862.34
430.259	824.6
430.635	851.04
431.011	865.73
431.387	881.09
431.763	895.33
432.138	886.06
432.514	909.11
432.89	910.92
433.265	890.13
433.641	923.13
434.016	945.5
434.392	966.29
434.767	975.78
435.143	964.71
435.518	969.45
435.894	983.01
436.269	960.64
436.644	991.6
437.02	1012.84
437.395	1019.62
437.77	1039.28
438.145	1046.74
438.52	1033.63
438.895	1050.58
439.271	1069.79
439.646	1064.59
440.021	1090.8
440.395	1080.86
440.77	1072.27
441.145	1094.65
441.52	1113.85
441.895	1121.09
442.27	1129.9
442.645	1125.83
443.019	1133.06
443.394	1151.59
443.769	1152.72
444.143	1150.01
444.518	1141.88
444.892	1170.35
445.267	1181.65
445.641	1191.37
446.016	1201.76
446.39	1211.48
446.764	1211.93
447.139	1192.04
447.513	1192.04
447.887	1218.48
448.262	1220.07
448.636	1224.36
449.01	1248.54
449.384	1265.49
449.758	1265.26
450.132	1316.34
450.506	1288.77
450.88	1312.95
451.254	1310.69
451.628	1321.76
452.002	1343.68
452.376	1353.62
452.75	1313.85
453.123	1335.32
453.497	1395.43
453.871	1393.85
454.244	1419.61
454.618	1431.13
454.992	1434.07
455.365	1441.76
455.739	1490.79
456.112	1487.4
456.486	1495.77
456.859	1496.9
457.232	1527.18
457.606	1517.69
457.979	1543.45
458.352	1590.68
458.725	1576.44
459.099	1608.98
459.472	1649.21
459.845	1658.02
460.218	1652.15
460.591	1676.55
460.964	1680.85
461.337	1725.59
461.71	1754.06
462.083	1758.81
462.456	1782.99
462.829	1796.32
463.201	1796.32
463.574	1813.05
463.947	1859.15
464.32	1878.13
464.692	1895.08
465.065	1892.37
465.438	1946.83
465.81	1953.38
466.183	1972.14
466.555	2009.88
466.928	2041.29
467.3	2022.31
467.672	2051.01
468.045	2104.79
468.417	2112.02
468.789	2116.09
469.161	2191.11
469.534	2205.13
469.906	2215.07
470.278	2245.35
470.65	2255.52
471.022	2331.22
471.394	2359.92
471.766	2374.16
472.138	2380.71
472.51	2482.86
472.882	2521.95
473.253	2509.75
473.625	2533.03
473.997	2619.8
474.369	2608.28
474.74	2633.59
475.112	2686.47
475.484	2776.18
475.855	2759.46
476.227	2854.15
476.598	2878.1
476.97	2934.37
477.341	2981.83
477.713	2969.17
478.084	2992.68
478.455	3119.23
478.827	3146.12
479.198	3216.4
479.569	3222.5
479.94	3331.42
480.311	3391.08
480.682	3437.86
481.053	3530.51
481.424	3607.12
481.795	3624.98
482.166	3640.12
482.537	3756.5
482.908	3772.54
483.279	3821.81
483.65	3885.53
484.021	3973.67
484.391	4029.48
484.762	4089.37
485.133	4106.77
485.503	4188.8
485.874	4274.68
486.244	4313.32
486.615	4383.37
486.985	4454.56
487.356	4537.95
487.726	4577.04
488.097	4696.59
488.467	4723.93
488.837	4815.23
489.207	4833.76
489.578	4933.87
489.948	5010.25
490.318	5125.73
490.688	5071.04
491.058	5135.22
491.428	5314.87
491.798	5277.14
492.168	5441.88
492.538	5457.02
492.908	5524.59
493.278	5583.12
493.648	5676.22
494.017	5683.68
494.387	5853.17
494.757	5846.16
495.126	5907.4
495.496	5981.07
495.866	6059.49
496.235	6084.8
496.605	6179.26
496.974	6200.73
497.344	6260.61
497.713	6294.06
498.082	6393.04
498.452	6466.03
498.821	6475.3
499.19	6525.01
499.559	6623.99
499.928	6703.31
500.298	6759.13
500.667	6800.26
501.036	6866.7
501.405	6878.45
501.774	6914.38
502.143	7053.59
502.512	7108.95
502.88	7209.51
503.249	7203.64
503.618	7247.48
503.987	7317.08
504.356	7383.29
504.724	7386.91
505.093	7544.65
505.462	7545.78
505.83	7660.58
506.199	7742.16
506.567	7828.93
506.936	7792.55
507.304	7937.18
507.672	8045.88
508.041	8063.95
508.409	8192.54
508.777	8205.19
509.145	8292.2
509.514	8348.92
509.882	8464.4
510.25	8477.96
510.618	8534.22
510.986	8634.56
511.354	8736.71
511.722	8780.77
512.09	8939.64
512.458	8904.16
512.826	9111.61
513.193	9122.01
513.561	9186.64
513.929	9354.77
514.297	9405.61
514.664	9502.56
515.032	9496.01
515.4	9637.7
515.767	9674.53
516.135	9740.29
516.502	9801.99
516.869	9950.46
517.237	10055.09
517.604	10067.74
517.972	10178.25
518.339	10211.47
518.706	10319.94
519.073	10469.32
519.44	10568.75
519.808	10681.74
520.175	10718.12
520.542	10854.39
520.909	10995.18
521.276	10992.24
521.643	11199.01
522.009	11264.1
522.376	11382.74
522.743	11484.2
523.11	11592
523.477	11726.23
523.843	11876.28
524.21	12013.23
524.577	12140.68
524.943	12231.98
525.31	12330.06
525.676	12494.8
526.043	12577.51
526.409	12572.08
526.776	12806.2
527.142	12866.77
527.508	12975.01
527.874	13109.7
528.241	13126.42
528.607	13316.92
528.973	13511.5
529.339	13502.46
529.705	13632.62
530.071	13814.99
530.437	13871.49
530.803	13999.39
531.169	14143.79
531.535	14068.99
531.901	14324.13
532.267	14368.65
532.632	14509.21
532.998	14658.36
533.364	14753.27
533.73	14754.4
534.095	15015.64
534.461	15025.58
534.826	15207.95
535.192	15336.31
535.557	15461.73
535.923	15522.74
536.288	15626.24
536.653	15720.7
537.019	15761.15
537.384	15854.26
537.749	15996.85
538.114	16074.14
538.479	16315.94
538.845	16252.67
539.21	16371.53
539.575	16440.91
539.94	16494.92
540.305	16666.21
540.67	16748.7
541.034	16880.45
541.399	17001.8
541.764	17126.32
542.129	17241.11
542.494	17312.07
542.858	17487.89
543.223	17550.26
543.587	17856.47
543.952	17768.11
544.316	17873.87
544.681	17965.84
545.045	18055.56
545.41	18249.45
545.774	18309.33
546.138	18455.09
546.503	18587.52
546.867	18649.66
547.231	18934.86
547.595	18954.97
547.959	19137.34
548.324	19222.31
548.688	19305.92
549.052	19457.78
549.416	19576.42
549.779	19702.97
550.143	19881.27
550.507	20083.53
550.871	20297.53
551.235	20348.6
551.599	20627.69
551.962	20730.51
552.326	20810.51
552.689	21029.72
553.053	21047.79
553.417	21300.89
553.78	21565.29
554.143	21551.28
554.507	21835.12
554.87	22074.21
555.234	22296.35
555.597	22377.02
555.96	22565.95
556.323	22711.03
556.686	22960.29
557.05	23195.53
557.413	23379.26
557.776	23468.75
558.139	23896.08
558.502	23962.97
558.865	24233.47
559.228	24532.9
559.59	24662.16
559.953	24872.33
560.316	25299.89
560.679	25492.2
561.041	25787.1
561.404	25956.14
561.767	26334.43
562.129	26339.86
562.492	26813.07
562.854	26975.77
563.217	27263.9
563.579	27554.29
563.941	27876.99
564.304	28011
564.666	28462.06
565.028	28575.28
565.39	28850.75
565.753	29334.13
566.115	29558.3
566.477	29850.95
566.839	30150.83
567.201	30562.12
567.563	30702.68
567.925	31003.01
568.287	31245.94
568.648	31484.36
569.01	31771.58
569.372	32305.35
569.734	32465.12
570.095	32777.66
570.457	33181.71
570.819	33305.55
571.18	33650.17
571.542	34035.48
571.903	34253.77
572.265	34593.2
572.626	34880.42
572.987	35128.78
573.349	35512.05
573.71	35851.7
574.071	36034.07
574.432	36368.07
574.794	36794.72
575.155	36907.26
575.516	37093.25
575.877	37359.91
576.238	37764.64
576.599	38051.41
576.96	38308.58
577.32	38572.76
577.681	38930.26
578.042	39116.92
578.403	39421.55
578.763	39697.47
579.124	39983.57
579.485	40171.36
579.845	40555.53
580.206	40647.5
580.566	40897.44
580.927	40988.96
581.287	41421.04
581.648	41488.84
582.008	41854.48
582.368	42010.41
582.728	42235.71
583.089	42331.75
583.449	42650.16
583.809	42744.17
584.169	43030.94
584.529	43010.15
584.889	43626.18
585.249	43623.47
585.609	43578.05
585.969	44070.24
586.329	44078.6
586.688	44224.36
587.048	44268.65
587.408	44439.27
587.768	44543.9
588.127	44840.16
588.487	44997.22
588.846	45453.48
589.206	45285.57
589.565	45573.93
589.925	45683.08
590.284	45757.65
590.643	46060.7
591.003	46223.63
591.362	46497.75
591.721	46611.87
592.08	46815.7
592.44	46951.07
592.799	47035.59
593.158	47126.66
593.517	47321.23
593.876	47548.11
594.235	47386.54
594.593	47612.07
594.952	47942
595.311	48047.31
595.67	48158.95
596.029	48423.57
596.387	48604.81
596.746	48770.68
597.104	48641.42
597.463	48796.22
597.822	49120.28
598.18	49080.73
598.538	49180.39
598.897	49441.17
599.255	49368.18
599.613	50002.74
599.972	49834.83
600.33	50104.21
600.688	50064.21
601.046	50322.05
601.404	50515.95
601.762	50623.97
602.12	50772.21
602.478	50844.75
602.836	51012.88
603.194	50938.53
603.552	51163.16
603.91	51084.29
604.268	51370.84
604.625	51363.61
604.983	51508.01
605.341	51543.49
605.698	51839.98
606.056	51940.99
606.413	52044.04
606.771	52245.17
607.128	52333.3
607.485	52311.83
607.843	52432.28
608.2	52808.54
608.557	52865.71
608.914	52888.76
609.272	53134.63
609.629	53238.36
609.986	53432.93
610.343	53402.42
610.7	53664.56
611.057	53574.85
611.414	53699.36
611.771	53816.65
612.127	54038.79
612.484	54080.37
612.841	54241.72
613.198	54242.4
613.554	54348.16
613.911	54519.91
614.267	54631.77
614.624	54585.22
614.98	54756.29
615.337	54914.7
615.693	54964.64
616.05	55009.16
616.406	55268.14
616.762	55166.67
617.118	55244.63
617.475	55370.73
617.831	55436.95
618.187	55639.2
618.543	55621.8
618.899	55856.37
619.255	55938.18
619.611	55993.54
619.967	56025.18
620.323	56128.91
620.678	56216.81
621.034	56188.79
621.39	56249.81
621.746	56178.85
622.101	56560.31
622.457	56438.28
622.812	56602.11
623.168	56739.06
623.523	56776.35
623.879	56913.74
624.234	56822.67
624.589	56966.4
624.945	56966.4
625.3	56999.39
625.655	57084.36
626.01	57196.9
626.365	57273.51
626.72	57186.05
627.075	57188.99
627.43	57341.3
627.785	57285.26
628.14	57454.52
628.495	57543.56
628.85	57485.71
629.205	57466.05
629.559	57707.62
629.914	57534.97
630.269	57635.76
630.623	57593.05
630.978	57623.33
631.332	57851.35
631.687	57882.76
632.041	57860.39
632.396	57892.7
632.75	57830.33
633.104	57983.77
633.459	57907.84
633.813	57911.91
634.167	57958.69
634.521	57986.48
634.875	58072.58
635.229	58116.2
635.583	57983.09
635.937	58034.62
636.291	58079.81
636.645	58111.9
636.999	58084.33
637.352	58210.66
637.706	58124.33
638.06	58225.35
638.413	58192.35
638.767	58170.21
639.121	58267.15
639.474	58174.05
639.828	58228.06
640.181	58359.58
640.534	58353.03
640.888	58270.32
641.241	58228.06
641.594	58333.82
641.947	58469.41
642.301	58384.21
642.654	58531.78
643.007	58457.66
643.36	58477.09
643.713	58462.4
644.066	58529.52
644.419	58517.09
644.771	58501.27
645.124	58403.42
645.477	58371.78
645.83	58202.52
646.182	58080.27
646.535	57955.52
646.888	58019.25
647.24	57875.07
647.593	58108.51
647.945	58057.22
648.298	57924.11
648.65	57869.2
649.002	57882.08
649.355	57962.76
649.707	58087.5
650.059	58242.97
650.411	58613.81
650.763	58728.16
651.115	58975.16
651.467	58954.82
651.819	58931.09
652.171	58899.68
652.523	58839.79
652.875	58894.03
653.227	58886.57
653.578	59075.72
653.93	58938.32
654.282	58988.49
654.633	58909.17
654.985	59035.04
655.337	59023.97
655.688	59063.07
656.039	59159.11
656.391	59058.32
656.742	59074.59
657.094	59079.11
657.445	59245.21
657.796	59229.61
658.147	59197.53
658.498	59205.66
658.849	59189.62
659.2	59170.86
659.551	59174.7
659.902	59259.67
660.253	59361.14
660.604	59369.5
660.955	59345.54
661.306	59380.35
661.656	59371.31
662.007	59417.18
662.358	59459.67
662.708	59501.47
663.059	59508.48
663.409	59329.05
663.76	59483.62
664.11	59441.36
664.461	59476.39
664.811	59515.48
665.161	59562.26
665.511	59455.37
665.862	59586.44
666.212	59762.03
666.562	59748.47
666.912	59791.18
667.262	59733.1
667.612	59813.33
667.962	59828.24
668.312	59859.88
668.662	60023.49
669.011	59946.43
669.361	59915.02
669.711	59988.01
670.06	60005.19
670.41	60011.74
670.76	59995.02
671.109	60103.49
671.459	60091.97
671.808	60021.46
672.157	60131.06
672.507	59967.67
672.856	60080.21
673.205	60114.56
673.554	60238.18
673.904	60151.85
674.253	60335.12
674.602	60188.01
674.951	59928.58
675.3	59786.89
675.649	60272.07
675.998	60218.52
676.346	60283.82
676.695	60378.51
677.044	60190.27
677.393	60331.05
677.741	60379.64
678.09	60243.15
678.438	60272.3
678.787	60333.31
679.135	60308.91
679.484	60136.71
679.832	60268.91
680.181	60104.39
680.529	60343.48
680.877	60303.94
681.225	60316.14
681.573	60414.22
681.922	60325.86
682.27	60291.06
682.618	60332.64
682.966	60187.56
683.314	60347.1
683.661	60280.43
684.009	60208.57
684.357	60208.12
684.705	60255.12
685.053	60307.55
685.4	60256.48
685.748	60191.62
686.095	60223.26
686.443	60151.17
686.79	60158.86
687.138	60235.01
687.485	60260.55
687.832	60135.81
688.18	60136.71
688.527	60086.09
688.874	59991.63
689.221	59986.21
689.568	59996.15
689.915	59998.41
690.262	60049.93
690.609	59930.39
690.956	59940.33
691.303	59913.89
691.65	59817.62
691.997	59858.3
692.344	59670.96
692.69	59747.34
693.037	59809.26
693.383	59566.78
693.73	59754.35
694.077	59539.44
694.423	59633.22
694.769	59525.88
695.116	59421.02
695.462	59490.17
695.808	59426.22
696.155	59520.91
696.501	59388.48
696.847	59307.58
697.193	59251.54
697.539	59300.35
697.885	59140.35
698.231	59088.15
698.577	59187.58
698.923	59131.31
699.269	58978.77
699.614	58954.82
699.96	58935.84
700.306	58920.47
700.651	58927.7
700.997	58868.04
701.342	58830.08
701.688	58827.59
702.033	58747.14
702.379	58819.23
702.724	58719.57
703.069	58826.91
703.415	58507.37
703.76	58552.34
704.105	58521.61
704.45	58563.42
704.795	58351.67
705.14	58436.19
705.485	58394.61
705.83	58256.99
706.175	58398.45
706.52	58340.37
706.865	58238.23
707.209	58257.66
707.554	58161.17
707.899	58287.04
708.243	58204.78
708.588	58132.92
708.932	58048.4
709.277	58013.38
709.621	57988.07
709.966	57889.76
710.31	58001.85
710.654	57753.04
710.998	57847.73
711.342	57855.41
711.687	57868.75
712.031	57767.28
712.375	57616.78
712.719	57652.48
713.063	57697.45
713.407	57723.67
713.75	57608.41
714.094	57647.51
714.438	57547.4
714.782	57590.79
715.125	57545.59
715.469	57637.11
715.812	57518.25
716.156	57324.13
716.499	57376.33
716.843	57512.15
717.186	57209.33
717.53	57417.46
717.873	57349.44
718.216	57399.38
718.559	57253.85
718.902	57215.43
719.246	57248.42
719.589	57181.99
719.932	57114.19
720.275	57150.12
720.617	57098.6
720.96	57090.01
721.303	56923.69
721.646	56995.55
721.989	56964.59
722.331	57077.58
722.674	56977.47
723.016	57132.04
723.359	57018.6
723.701	57077.13
724.044	56858.83
724.386	56907.42
724.729	56926.17
725.071	56763.47
725.413	56861.99
725.755	56740.64
726.097	56712.39
726.439	56649.34
726.782	56664.03
727.124	56832.62
727.465	56686.18
727.807	56701.32
728.149	56554.43
728.491	56585.62
728.833	56699.74
729.175	56527.99
729.516	56579.74
729.858	56565.28
730.199	56641.43
730.541	56565.28
730.882	56500.2
731.224	56640.3
731.565	56347.88
731.906	56476.47
732.248	56541.1
732.589	56443.93
732.93	56328.45
733.271	56346.07
733.612	56245.51
733.953	56250.26
734.294	56257.04
734.635	56147.89
734.976	56312.18
735.317	56244.83
735.658	56197.38
735.999	56220.88
736.339	56225.85
736.68	56246.64
737.021	56082.35
737.361	56083.03
737.702	56223.37
738.042	56074.67
738.383	56026.76
738.723	56040.55
739.063	55958.97
739.404	56064.95
739.744	56026.54
740.084	56004.39
740.424	56064.05
740.764	55963.71
741.104	56065.63
741.444	55932.3
741.784	55883.04
742.124	55997.84
742.464	55913.32
742.804	55916.93
743.143	55781.57
743.483	55815.69
743.823	55664.28
744.162	55702.7
744.502	55775.24
744.841	55674.23
745.181	55834.45
745.52	55670.61
745.86	55770.27
746.199	55713.32
746.538	55718.52
746.877	55822.25
747.216	55739.31
747.556	55741.8
747.895	55527.34
748.234	55455.02
748.573	55410.05
748.911	55418.64
749.25	55377.96
749.589	55172.55
749.928	55271.53
750.267	55400.79
750.605	55261.81
750.944	55293.67
751.283	55244.86
751.621	55240.12
751.96	55100.46
752.298	55060.01
752.636	55165.09
752.975	55066.56
753.313	55011.87
753.651	55079.89
753.989	55043.74
754.327	54919.45
754.666	54777.3
755.004	54874.02
755.342	54886.68
755.679	54837.19
