Data from copper_heatsink_FLMS001491_056.txt Node
Date: Tue Feb 07 10:50:12 GMT 2017
User: dcchb
Spectrometer: FLMS00149
Trigger mode: 0
Integration Time (sec): 2.000000E-2
Scans to average: 10
Electric dark correction enabled: true
Nonlinearity correction enabled: false
Boxcar width: 0
XAxis mode: Wavelengths
Number of Pixels in Spectrum: 2048
>>>>>Begin Spectral Data<<<<<
341.393	6.51
341.776	6.51
342.16	6.51
342.543	-76.65
342.927	-49.31
343.31	-45.92
343.693	-58.8
344.077	-77.33
344.46	-64.45
344.843	-52.92
345.226	-45.01
345.61	-15.86
345.993	-30.32
346.376	-1.85
346.759	10.13
347.142	16.68
347.525	33.18
347.908	44.93
348.291	74.98
348.674	104.59
349.057	107.98
349.44	129.45
349.823	151.82
350.206	158.37
350.588	205.38
350.971	211.25
351.354	245.83
351.737	253.28
352.119	251.7
352.502	286.28
352.884	280.85
353.267	283.11
353.65	300.51
354.032	291.48
354.414	314.75
354.797	344.36
355.179	311.81
355.562	321.53
355.944	332.6
356.326	362.66
356.709	351.36
357.091	348.65
357.473	350.23
357.855	352.49
358.238	361.53
358.62	352.49
359.002	363.56
359.384	355.2
359.766	366.5
360.148	360.85
360.53	369.67
360.912	348.88
361.294	350.91
361.676	350.68
362.057	347.97
362.439	327.18
362.821	343.68
363.203	343.68
363.584	344.58
363.966	351.81
364.348	339.61
364.729	338.03
365.111	349.1
365.493	319.05
365.874	353.39
366.256	324.02
366.637	332.15
367.019	337.35
367.4	336.67
367.781	322.44
368.163	350
368.544	333.28
368.925	334.64
369.306	351.36
369.688	336.9
370.069	337.35
370.45	326.95
370.831	348.88
371.212	320.4
371.593	339.38
371.974	356.11
372.355	334.64
372.736	359.95
373.117	345.26
373.498	335.09
373.879	339.38
374.26	338.71
374.641	338.93
375.021	349.55
375.402	348.88
375.783	347.29
376.163	366.5
376.544	357.69
376.925	348.42
377.305	350.91
377.686	342.77
378.066	341.87
378.447	346.39
378.827	359.5
379.208	337.58
379.588	366.95
379.968	360.63
380.349	345.94
380.729	378.7
381.109	356.11
381.489	368.99
381.87	368.99
382.25	370.12
382.63	375.09
383.01	382.32
383.39	390.46
383.77	373.28
384.15	377.35
384.53	379.61
384.91	386.84
385.29	401.75
385.67	371.93
386.049	381.64
386.429	400.85
386.809	380.29
387.189	382.09
387.568	404.47
387.948	399.5
388.328	408.53
388.707	413.05
389.087	389.33
389.466	407.86
389.846	411.47
390.225	423.45
390.605	426.39
390.984	397.69
391.363	399.04
391.743	407.4
392.122	413.73
392.501	435.88
392.881	444.01
393.26	437.23
393.639	419.61
394.018	433.62
394.397	456.44
394.776	446.27
395.155	433.84
395.534	460.28
395.913	431.36
396.292	449.66
396.671	469.55
397.05	430
397.429	446.5
397.808	474.97
398.186	469.55
398.565	456.44
398.944	457.12
399.323	423
399.701	473.39
400.08	486.05
400.458	476.78
400.837	461.87
401.215	470.68
401.594	475.65
401.972	486.5
402.351	480.62
402.729	479.49
403.107	497.8
403.486	482.2
403.864	493.05
404.242	485.14
404.62	466.61
404.999	486.72
405.377	518.59
405.755	502.77
406.133	510.45
406.511	495.76
406.889	519.94
407.267	526.5
407.645	526.27
408.023	528.31
408.401	541.19
408.779	538.02
409.156	535.54
409.534	552.49
409.912	554.52
410.29	545.93
410.667	565.14
411.045	557.23
411.422	554.29
411.8	562.65
412.178	558.36
412.555	566.04
412.933	565.82
413.31	585.48
413.687	580.96
414.065	575.54
414.442	592.03
414.819	602.43
415.197	618.47
415.574	619.6
415.951	601.52
416.328	612.82
416.705	608.3
417.082	613.5
417.46	674.97
417.837	655.08
418.214	643.1
418.591	628.42
418.967	640.62
419.344	637.45
419.721	633.61
420.098	653.5
420.475	638.13
420.852	657.79
421.228	661.86
421.605	666.38
421.982	682.2
422.358	687.85
422.735	698.24
423.111	696.44
423.488	688.98
423.864	702.54
424.241	713.84
424.617	712.71
424.994	716.1
425.37	724.46
425.746	730.79
426.123	728.53
426.499	726.27
426.875	732.82
427.251	750.45
427.627	739.37
428.003	748.41
428.379	780.5
428.756	771.91
429.132	778.69
429.507	789.09
429.883	819.82
430.259	807.39
430.635	819.82
431.011	805.36
431.387	812.14
431.763	820.28
432.138	838.35
432.514	834.74
432.89	834.74
433.265	840.84
433.641	859.14
434.016	873.83
434.392	892.14
434.767	885.58
435.143	875.87
435.518	915.19
435.894	902.76
436.269	940.05
436.644	955.41
437.02	923.55
437.395	935.75
437.77	951.57
438.145	963.77
438.52	949.09
438.895	977.79
439.271	970.1
439.646	964.45
440.021	989.54
440.395	1006.26
440.77	995.41
441.145	999.48
441.52	1023.66
441.895	1030.21
442.27	1012.36
442.645	1001.51
443.019	1039.03
443.394	1051.23
443.769	1065.47
444.143	1034.28
444.518	1053.72
444.892	1062.75
445.267	1057.33
445.641	1081.96
446.016	1072.02
446.39	1096.2
446.764	1105.47
447.139	1075.41
447.513	1122.41
447.887	1107.95
448.262	1117.44
448.636	1154.96
449.01	1139.36
449.384	1129.19
449.758	1174.16
450.132	1154.96
450.506	1177.78
450.88	1147.27
451.254	1180.94
451.628	1189.3
452.002	1192.24
452.376	1218
452.75	1206.25
453.123	1228.63
453.497	1215.97
453.871	1282.18
454.244	1257.78
454.618	1267.49
454.992	1271.56
455.365	1309.75
455.739	1310.88
456.112	1335.06
456.486	1353.82
456.859	1343.88
457.232	1403.31
457.606	1397.21
457.979	1370.77
458.352	1428.62
458.725	1423.65
459.099	1431.78
459.472	1488.28
459.845	1448.06
460.218	1472.01
460.591	1521.5
460.964	1507.71
461.337	1529.86
461.71	1552.46
462.083	1582.97
462.456	1585.9
462.829	1577.54
463.201	1624.32
463.574	1614.15
463.947	1672
464.32	1663.19
464.692	1670.87
465.065	1728.5
465.438	1719.46
465.81	1738.44
466.183	1741.38
466.555	1818.44
466.928	1778.89
467.3	1809.85
467.672	1795.84
468.045	1851.89
468.417	1871.32
468.789	1910.87
469.161	1934.14
469.534	1931.88
469.906	1956.52
470.278	2006.23
470.65	1999.23
471.022	2060.02
471.394	2080.81
471.766	2087.13
472.138	2102.73
472.51	2184.08
472.882	2177.53
473.253	2170.07
473.625	2219.56
473.997	2282.38
474.369	2289.61
474.74	2292.1
475.112	2343.4
475.484	2375.94
475.855	2419.1
476.227	2460.46
476.598	2517.18
476.97	2522.83
477.341	2574.13
477.713	2614.8
478.084	2649.61
478.455	2707.23
478.827	2745.87
479.198	2776.16
479.569	2765.76
479.94	2868.58
480.311	2889.83
480.682	2952.2
481.053	2971.4
481.424	3071.29
481.795	3085.53
482.166	3114.23
482.537	3167.33
482.908	3203.04
483.279	3266.99
483.65	3328.91
484.021	3371.39
484.391	3421.56
484.762	3448
485.133	3467.44
485.503	3549.24
485.874	3561.67
486.244	3654.1
486.615	3697.04
486.985	3779.07
487.356	3775.45
487.726	3836.24
488.097	3897.26
488.467	3917.59
488.837	3980.87
489.207	4045.95
489.578	4106.97
489.948	4127.98
490.318	4208.43
490.688	4230.81
491.058	4292.95
491.428	4379.28
491.798	4408.43
492.168	4507.86
492.538	4495.43
492.908	4535.88
493.278	4620.4
493.648	4623.11
494.017	4709.89
494.387	4723.68
494.757	4719.61
495.126	4824.01
495.496	4840.96
495.866	4896.33
496.235	4940.84
496.605	4976.1
496.974	4993.95
497.344	5028.75
497.713	5100.61
498.082	5139.26
498.452	5229.2
498.821	5276.43
499.19	5259.25
499.559	5286.37
499.928	5325.69
500.298	5369.76
500.667	5434.17
501.036	5479.81
501.405	5512.81
501.774	5475.97
502.143	5557.55
502.512	5611.11
502.88	5654.05
503.249	5645.91
503.618	5747.15
503.987	5745.12
504.356	5777.43
504.724	5806.13
505.093	5859.92
505.462	5861.95
505.83	5976.75
506.199	6002.96
506.567	6095.16
506.936	6104.88
507.304	6146.24
507.672	6139.91
508.041	6269.4
508.409	6340.58
508.777	6365.67
509.145	6390.52
509.514	6350.07
509.882	6520.92
510.25	6489.96
510.618	6532.22
510.986	6567.69
511.354	6671.87
511.722	6684.3
512.09	6804.3
512.458	6800.91
512.826	6870.74
513.193	6869.16
513.561	6890.4
513.929	7038.87
514.297	7117.06
514.664	7145.31
515.032	7161.35
515.4	7278.18
515.767	7209.49
516.135	7417.39
516.502	7342.36
516.869	7477.73
517.237	7463.94
517.604	7510.04
517.972	7628.68
518.339	7671.39
518.706	7730.6
519.073	7758.85
519.44	7825.29
519.808	7943.7
520.175	7907.55
520.542	8089.24
520.909	8133.53
521.276	8154.77
521.643	8258.05
522.009	8341.21
522.376	8394.77
522.743	8426.18
523.11	8489.9
523.477	8576
523.843	8667.53
524.21	8725.6
524.577	8860.97
524.943	8872.04
525.31	8941.42
525.676	9045.37
526.043	9137.12
526.409	9147.97
526.776	9291.24
527.142	9402.42
527.508	9438.35
527.874	9418.92
528.241	9578.69
528.607	9608.97
528.973	9715.18
529.339	9736.42
529.705	9802.64
530.071	9943.65
530.437	10017.55
530.803	10069.07
531.169	10211.44
531.535	10065.91
531.901	10235.39
532.267	10269.07
532.632	10383.41
532.998	10505.9
533.364	10528.95
533.73	10579.79
534.095	10650.07
534.461	10686
534.826	10827.92
535.192	10900.69
535.557	10992.21
535.923	10970.52
536.288	11071.53
536.653	11077.18
537.019	11126.9
537.384	11216.16
537.749	11274.24
538.114	11312.2
538.479	11368.92
538.845	11449.6
539.21	11474.01
539.575	11593.55
539.94	11589.48
540.305	11657.96
540.67	11781.34
541.034	11869.48
541.399	11932.53
541.764	11950.83
542.129	12029.25
542.494	12100.88
542.858	12246.19
543.223	12233.76
543.587	12332.74
543.952	12415.9
544.316	12544.49
544.681	12479.86
545.045	12561.21
545.41	12650.25
545.774	12719.85
546.138	12817.02
546.503	12967.07
546.867	12893.86
547.231	13122.55
547.595	13116.22
547.959	13162.55
548.324	13257.69
548.688	13428.76
549.052	13461.3
549.416	13588.75
549.779	13525.25
550.143	13691.35
550.507	13771.35
550.871	13930.89
551.235	14008.63
551.599	14052.7
551.962	14258.57
552.326	14300.15
552.689	14395.06
553.053	14366.59
553.417	14527.26
553.78	14785.78
554.143	14736.52
554.507	14920.92
554.87	15032.1
555.234	15200.24
555.597	15188.03
555.96	15339.22
556.323	15475.48
556.686	15586.89
557.05	15768.36
557.413	15893.33
557.776	15952.08
558.139	16160.66
558.502	16345.06
558.865	16373.76
559.228	16567.88
559.59	16798.61
559.953	16782.57
560.316	17018.49
560.679	17160.18
561.041	17326.73
561.404	17538.03
561.767	17626.16
562.129	17765.82
562.492	17928.3
562.854	18035.42
563.217	18237.44
563.579	18381.62
563.941	18632.69
564.304	18693.48
564.666	18957.65
565.028	19076.52
565.39	19216.63
565.753	19535.49
566.115	19594.24
566.477	19815.48
566.839	20059.32
567.201	20213.89
567.563	20432.87
567.925	20552.64
568.287	20680.32
568.648	20922.12
569.01	21127.76
569.372	21313.3
569.734	21356.01
570.095	21601.2
570.457	21715.54
570.819	21905.37
571.18	22131.35
571.542	22462.87
571.903	22568.4
572.265	22711
572.626	22953.03
572.987	23091.55
573.349	23320.93
573.71	23469.62
574.071	23610.64
574.432	23693.57
574.794	24059.21
575.155	24251.3
575.516	24191.64
575.877	24557.05
576.238	24602.93
576.599	24792.07
576.96	24918.62
577.32	25098.05
577.681	25263.7
578.042	25338.05
578.403	25411.04
578.763	25670.7
579.124	25723.35
579.485	26038.6
579.845	26242.21
580.206	26399.72
580.566	26462.54
580.927	26448.98
581.287	26776.2
581.648	26789.99
582.008	26876.09
582.368	27029.3
582.728	27078.12
583.089	27266.13
583.449	27394.72
583.809	27368.73
584.169	27714.26
584.529	27610.98
584.889	27956.96
585.249	28011.88
585.609	28059.78
585.969	28235.83
586.329	28173.23
586.688	28386.56
587.048	28422.26
587.408	28632.88
587.768	28628.81
588.127	28739.09
588.487	28779.09
588.846	29084.84
589.206	28964.85
589.565	28979.99
589.925	29220.66
590.284	29361.67
590.643	29419.3
591.003	29498.62
591.362	29785.84
591.721	29725.96
592.08	29780.42
592.44	29911.04
592.799	29991.49
593.158	30106.28
593.517	30291.36
593.876	30282.78
594.235	30296.34
594.593	30401.19
594.952	30588.98
595.311	30610.45
595.67	30819.26
596.029	30956.21
596.387	31011.57
596.746	31090.44
597.104	31139.93
597.463	31197.33
597.822	31451.33
598.18	31377.89
598.538	31385.12
598.897	31723.64
599.255	31440.49
599.613	32035.27
599.972	31806.58
600.33	31973.13
600.688	31979.68
601.046	32363.63
601.404	32465.54
601.762	32414.47
602.12	32486.79
602.478	32673.22
602.836	32881.8
603.194	32787.57
603.552	32823.28
603.91	32752.09
604.268	33073.44
604.625	32949.37
604.983	33186.88
605.341	33208.35
605.698	33493.77
606.056	33577.83
606.413	33631.62
606.771	33696.25
607.128	33857.15
607.485	33674.55
607.843	33885.17
608.2	34246.74
608.557	34513.17
608.914	34235.89
609.272	34449.22
609.629	34586.84
609.986	34696.45
610.343	34666.62
610.7	34942.54
611.057	35062.54
611.414	35137.79
611.771	35102.99
612.127	35257.34
612.484	35234.06
612.841	35616.87
613.198	35500.49
613.554	35607.61
613.911	35898.45
614.267	35889.64
614.624	35867.26
614.98	36109.06
615.337	36237.42
615.693	36440.81
616.05	36366.23
616.406	36707.69
616.762	36522.16
617.118	36604.42
617.475	36696.62
617.831	36890.97
618.187	37023.84
618.543	36975.03
618.899	37262.48
619.255	37318.75
619.611	37235.81
619.967	37413.44
620.323	37632.19
620.678	37588.8
621.034	37698.63
621.39	37622.47
621.746	37617.73
622.101	38061.1
622.457	37907.21
622.812	38015
623.168	38128.67
623.523	38152.4
623.879	38151.5
624.234	37967.77
624.589	38353.53
624.945	38451.15
625.3	38497.48
625.655	38331.83
626.01	38605.72
626.365	38666.74
626.72	38620.19
627.075	38796.68
627.43	38719.62
627.785	38766.62
628.14	38921.42
628.495	38970.01
628.85	38996.22
629.205	38941.31
629.559	39190.57
629.914	38885.49
630.269	38968.65
630.623	39110.12
630.978	39014.07
631.332	39263.11
631.687	39363.67
632.041	39157.12
632.396	39337.91
632.75	39072.6
633.104	39333.39
633.459	39180.17
633.813	39298.13
634.167	39241.86
634.521	39250.68
634.875	39413.16
635.229	39274.63
635.583	39319.83
635.937	39390.79
636.291	39358.7
636.645	39441.86
636.999	39379.04
637.352	39553.95
637.706	39273.73
638.06	39381.52
638.413	39436.43
638.767	39444.34
639.121	39543.32
639.474	39363.67
639.828	39586.26
640.181	39595.3
640.534	39625.36
640.888	39635.3
641.241	39468.07
641.594	39599.59
641.947	39679.37
642.301	39505.13
642.654	39686.6
643.007	39709.65
643.36	39691.8
643.713	39591.68
644.066	39707.16
644.419	39675.52
644.771	39456.32
645.124	39243.45
645.477	39147.18
645.83	38906.05
646.182	38875.09
646.535	38799.39
646.888	38883.23
647.24	38646.4
647.593	38937.46
647.945	38793.74
648.298	38697.47
648.65	38675.55
649.002	38525.05
649.355	38859.73
649.707	38819.73
650.059	39037.8
650.411	39597.56
650.763	39632.14
651.115	40048.4
651.467	39832.81
651.819	39900.38
652.171	39867.16
652.523	39731.34
652.875	39935.86
653.227	39825.58
653.578	40241.61
653.93	40013.59
654.282	40101.95
654.633	39902.19
654.985	40148.28
655.337	40073.48
655.688	40023.09
656.039	40190.31
656.391	39814.5
656.742	40049.53
657.094	40211.56
657.445	40339.46
657.796	40122.74
658.147	40209.07
658.498	40229.41
658.849	40230.99
659.2	40351.89
659.551	40343.76
659.902	40381.95
660.253	40395.28
660.604	40434.15
660.955	40306.02
661.306	40483.19
661.656	40444.32
662.007	40371.78
662.358	40611.55
662.708	40779.68
663.059	40816.29
663.409	40403.42
663.76	40729.96
664.11	40685.67
664.461	40795.27
664.811	40863.29
665.161	40879.33
665.511	40717.76
665.862	40883.4
666.212	41065.54
666.562	41075.49
666.912	40952.78
667.262	41003.85
667.612	41011.08
667.962	41015.6
668.312	41105.54
668.662	41340.11
669.011	41254.47
669.361	41198.42
669.711	41287.46
670.06	41245.2
670.41	41168.82
670.76	41141.47
671.109	41349.38
671.459	41346.44
671.808	41041.36
672.157	41364.52
672.507	41086.56
672.856	41326.78
673.205	41373.33
673.554	41363.39
673.904	41372.2
674.253	41679.31
674.602	41509.37
674.951	40989.61
675.3	40967.92
675.649	41568.81
675.998	41633.44
676.346	41704.85
676.695	41781.01
677.044	41595.7
677.393	41637.73
677.741	41774.23
678.09	41595.7
678.438	41673.66
678.787	41659.88
679.135	41758.18
679.484	41398.19
679.832	41657.62
680.181	41528.13
680.529	41706.88
680.877	41570.84
681.225	41718.18
681.573	41800.44
681.922	41545.76
682.27	41619.88
682.618	41687.45
682.966	41744.62
683.314	41646.32
683.661	41710.95
684.009	41454.69
684.357	41409.04
684.705	41456.04
685.053	41588.02
685.4	41463.95
685.748	41171.53
686.095	41362.49
686.443	41212.21
686.79	41184.41
687.138	41241.81
687.485	41299.44
687.832	41183.28
688.18	41213.11
688.527	41101.48
688.874	41096.73
689.221	41097.41
689.568	40909.16
689.915	40761.37
690.262	40912.55
690.609	40777.42
690.956	40618.1
691.303	40782.39
691.65	40618.55
691.997	40688.83
692.344	40543.75
692.69	40617.87
693.037	40657.87
693.383	40430.08
693.73	40572.22
694.077	40396.41
694.423	40374.94
694.769	40245.91
695.116	40341.27
695.462	40384.43
695.808	40040.49
696.155	40066.93
696.501	39815.41
696.847	39980.15
697.193	39749.87
697.539	39719.82
697.885	39618.12
698.231	39459.71
698.577	39525.02
698.923	39450.9
699.269	39508.52
699.614	39386.94
699.96	39325.7
700.306	39362.54
700.651	39298.81
700.997	39220.62
701.342	39113.73
701.688	39202.09
702.033	39012.49
702.379	39012.49
702.724	38915.32
703.069	39103.79
703.415	38765.94
703.76	38823.57
704.105	38881.87
704.45	38911.48
704.795	38544.03
705.14	38601.43
705.485	38558.27
705.83	38518.04
706.175	38548.32
706.52	38511.71
706.865	38375.22
707.209	38293.64
707.554	38181.33
707.899	38410.47
708.243	38146.53
708.588	38283.24
708.932	38053.19
709.277	38128.45
709.621	38130.48
709.966	37741.11
710.31	38049.13
710.654	37749.7
710.998	37810.49
711.342	37945.85
711.687	37864.05
712.031	37879.87
712.375	37706.54
712.719	37791.96
713.063	37568.24
713.407	37714.22
713.75	37583.15
714.094	37502.93
714.438	37326.21
714.782	37430.39
715.125	37257.06
715.469	37455.02
715.812	37313.78
716.156	37230.62
716.499	37356.26
716.843	37347.45
717.186	37076.27
717.53	37313.33
717.873	37321.01
718.216	37219.32
718.559	37151.98
718.902	36813.9
719.246	37120.11
719.589	36894.81
719.932	36773.68
720.275	36823.4
720.617	36864.98
720.96	36853.9
721.303	36929.38
721.646	36928.25
721.989	36851.42
722.331	36879.21
722.674	36731.42
723.016	36964.64
723.359	36938.42
723.701	36832.44
724.044	36640.8
724.386	36484.87
724.729	36668.37
725.071	36691.65
725.413	36648.49
725.755	36648.03
726.097	36468.83
726.439	36377.98
726.782	36387.7
727.124	36669.5
727.465	36212.56
727.807	36370.07
728.149	36429.06
728.491	36295.5
728.833	36445.1
729.175	36234.71
729.516	36312.68
729.858	36194.03
730.199	36286.01
730.541	36181.15
730.882	36133.92
731.224	36290.98
731.565	36090.76
731.906	36118.33
732.248	36140.25
732.589	35971.89
732.93	35935.06
733.271	35978.9
733.612	35968.96
733.953	36152.23
734.294	35858.68
734.635	35734.84
734.976	35973.48
735.317	35925.57
735.658	35822.97
735.999	35942.97
736.339	35847.38
736.68	35961.72
737.021	35930.99
737.361	35686.7
737.702	36011.21
738.042	35769.64
738.383	35793.59
738.723	35907.94
739.063	35543.2
739.404	35841.73
739.744	35696.19
740.084	35709.53
740.424	35789.75
740.764	35556.76
741.104	35714.72
741.444	35629.76
741.784	35490.32
742.124	35719.47
742.464	35478.8
742.804	35553.6
743.143	35436.09
743.483	35360.84
743.823	35247.62
744.162	35263.44
744.502	35544.79
744.841	35309.31
745.181	35446.71
745.52	35270.67
745.86	35355.41
746.199	35251.46
746.538	35422.98
746.877	35411
747.216	35462.08
747.556	35378.69
747.895	35429.76
748.234	35260.05
748.573	35368.07
748.911	35264.34
749.25	35436.09
749.589	35096.44
749.928	35277.9
750.267	35352.02
750.605	35301.4
750.944	34905.03
751.283	34963.78
751.621	35112.48
751.96	34846.72
752.298	34916.1
752.636	34978.47
752.975	34916.55
753.313	34703.9
753.651	34957
753.989	34712.04
754.327	34703.45
754.666	34627.97
755.004	34658.26
755.342	34729.44
755.679	34672.72
756.017	34408.09
756.355	34428.66
756.693	34382.78
757.031	34408.77
757.368	34243.35
