Data from copper_heatsink_FLMS001491_049.txt Node
Date: Tue Feb 07 10:50:01 GMT 2017
User: dcchb
Spectrometer: FLMS00149
Trigger mode: 0
Integration Time (sec): 2.000000E-2
Scans to average: 10
Electric dark correction enabled: true
Nonlinearity correction enabled: false
Boxcar width: 0
XAxis mode: Wavelengths
Number of Pixels in Spectrum: 2048
>>>>>Begin Spectral Data<<<<<
341.393	1.67
341.776	1.67
342.16	1.67
342.543	-51.44
342.927	-73.59
343.31	-69.07
343.693	-67.26
344.077	-77.65
344.46	-72
344.843	-53.7
345.226	-23.64
345.61	-33.36
345.993	-5.11
346.376	4.15
346.759	-2.63
347.142	18.84
347.525	50.7
347.908	51.38
348.291	87.54
348.674	87.54
349.057	104.26
349.44	130.93
349.823	154.66
350.206	182
350.588	209.12
350.971	224.71
351.354	248.89
351.737	264.94
352.119	272.85
352.502	266.52
352.884	284.82
353.267	292.28
353.65	308.33
354.032	340.41
354.414	304.71
354.797	316.46
355.179	347.42
355.562	356.91
355.944	352.84
356.326	349.45
356.709	346.06
357.091	362.56
357.473	366.85
357.855	388.1
358.238	354.88
358.62	360.08
359.002	369.57
359.384	356.46
359.766	369.57
360.148	373.86
360.53	355.33
360.912	372.28
361.294	351.04
361.676	381.77
362.057	345.39
362.439	344.71
362.821	367.08
363.203	351.94
363.584	337.25
363.966	354.43
364.348	360.75
364.729	357.14
365.111	331.6
365.493	354.88
365.874	353.97
366.256	342
366.637	341.54
367.019	351.94
367.4	343.8
367.781	344.03
368.163	339.74
368.544	352.62
368.925	345.39
369.306	353.75
369.688	357.14
370.069	339.51
370.45	357.59
370.831	370.02
371.212	341.77
371.593	364.37
371.974	348.1
372.355	351.49
372.736	353.52
373.117	339.74
373.498	346.74
373.879	323.47
374.26	349.23
374.641	356.46
375.021	363.01
375.402	363.92
375.783	365.05
376.163	371.6
376.544	365.95
376.925	357.59
377.305	360.53
377.686	350.58
378.066	351.49
378.447	361.43
378.827	380.64
379.208	375.22
379.588	374.99
379.968	364.14
380.349	368.44
380.729	382
381.109	375.89
381.489	371.15
381.87	377.93
382.25	385.61
382.63	364.14
383.01	368.89
383.39	380.64
383.77	403.69
384.15	401.66
384.53	376.35
384.91	404.59
385.29	410.02
385.67	417.25
386.049	425.16
386.429	401.43
386.809	390.81
387.189	399.17
387.568	411.37
387.948	382.67
388.328	432.16
388.707	407.53
389.087	403.24
389.466	413.86
389.846	423.35
390.225	421.99
390.605	407.31
390.984	429
391.363	434.2
391.743	426.97
392.122	440.3
392.501	436.23
392.881	445.27
393.26	426.97
393.639	442.11
394.018	447.08
394.397	433.52
394.776	437.81
395.155	469.22
395.534	446.17
395.913	441.88
396.292	478.49
396.671	458.15
397.05	459.28
397.429	480.07
397.808	462.9
398.186	464.93
398.565	483.24
398.944	487.76
399.323	494.54
399.701	482.11
400.08	459.28
400.458	500.64
400.837	504.03
401.215	461.54
401.594	482.78
401.972	500.64
402.351	499.28
402.729	509
403.107	496.34
403.486	492.5
403.864	511.03
404.242	511.03
404.62	501.31
404.999	513.07
405.377	508.55
405.755	520.3
406.133	519.85
406.511	545.61
406.889	523.23
407.267	536.79
407.645	556
408.023	571.82
408.401	538.6
408.779	564.14
409.156	565.95
409.534	551.26
409.912	572.27
410.29	561.43
410.667	600.75
411.045	583.8
411.422	589.9
411.8	591.93
412.178	597.58
412.555	609.33
412.933	607.98
413.31	607.07
413.687	584.02
414.065	618.6
414.442	614.08
414.819	629.9
415.197	624.7
415.574	620.18
415.951	675.1
416.328	657.69
416.705	644.36
417.082	650.24
417.46	660.63
417.837	675.1
418.214	678.71
418.591	698.15
418.967	677.58
419.344	670.8
419.721	682.33
420.098	691.59
420.475	683.91
420.852	708.54
421.228	703.34
421.605	715.32
421.982	732.49
422.358	735.43
422.735	720.07
423.111	723.68
423.488	723.23
423.864	721.42
424.241	758.71
424.617	751.03
424.994	754.87
425.37	754.64
425.746	778.82
426.123	785.83
426.499	775.43
426.875	794.41
427.251	788.31
427.627	800.06
428.003	808.88
428.379	821.98
428.756	800.29
429.132	838.25
429.507	839.16
429.883	851.59
430.259	848.2
430.635	869.89
431.011	862.89
431.387	875.54
431.763	885.71
432.138	914.19
432.514	901.76
432.89	925.71
433.265	911.02
433.641	932.26
434.016	925.71
434.392	937.91
434.767	989.21
435.143	942.43
435.518	966.39
435.894	989.89
436.269	1007.29
436.644	1017.01
437.02	1020.17
437.395	986.05
437.77	1053.84
438.145	1057.68
438.52	1052.94
438.895	1077.8
439.271	1059.27
439.646	1068.53
440.021	1061.53
440.395	1094.29
440.77	1106.27
441.145	1087.97
441.52	1095.88
441.895	1085.25
442.27	1133.84
442.645	1132.26
443.019	1148.3
443.394	1131.58
443.769	1143.33
444.143	1162.09
444.518	1150.79
444.892	1181.3
445.267	1152.37
445.641	1159.6
446.016	1184.69
446.39	1219.71
446.764	1187.17
447.139	1202.09
447.513	1235.31
447.887	1209.54
448.262	1227.85
448.636	1236.66
449.01	1260.16
449.384	1245.7
449.758	1240.28
450.132	1293.61
450.506	1270.11
450.88	1327.96
451.254	1320.28
451.628	1330.45
452.002	1317.56
452.376	1346.04
452.75	1358.69
453.123	1368.86
453.497	1366.38
453.871	1376.77
454.244	1427.39
454.618	1450.67
454.992	1421.74
455.365	1458.58
455.739	1485.24
456.112	1498.8
456.486	1475.98
456.859	1546.48
457.232	1530.67
457.606	1532.7
457.979	1551
458.352	1580.38
458.725	1605.69
459.099	1587.61
459.472	1627.84
459.845	1643.43
460.218	1664.45
460.591	1693.37
460.964	1691.34
461.337	1746.93
461.71	1721.4
462.083	1777.89
462.456	1767.27
462.829	1805.69
463.201	1835.97
463.574	1841.17
463.947	1851.34
464.32	1877.55
464.692	1865.8
465.065	1897.44
465.438	1943.54
465.81	1971.11
466.183	1974.95
466.555	2022.86
466.928	2043.87
467.3	2051.78
467.672	2045.91
468.045	2115.74
468.417	2100.59
468.789	2137.2
469.161	2141.27
469.534	2190.76
469.906	2253.36
470.278	2257.65
470.65	2272.34
471.022	2312.34
471.394	2353.92
471.766	2416.29
472.138	2389.4
472.51	2455.84
472.882	2483.18
473.253	2528.61
473.625	2549.4
473.997	2610.41
474.369	2628.72
474.74	2649.05
475.112	2681.37
475.484	2761.82
475.855	2792.55
476.227	2785.77
476.598	2850.86
476.97	2898.77
477.341	2970.4
477.713	3021.47
478.084	3026.22
478.455	3150.74
478.827	3158.87
479.198	3231.19
479.569	3217.4
479.94	3307.57
480.311	3328.81
480.682	3428.24
481.053	3506.66
481.424	3593.89
481.795	3583.04
482.166	3656.94
482.537	3688.58
482.908	3772.19
483.279	3826.65
483.65	3905.52
484.021	3955.23
484.391	3992.97
484.762	4083.37
485.133	4109.13
485.503	4156.81
485.874	4261.22
486.244	4346.86
486.615	4406.07
486.985	4429.12
487.356	4535.56
487.726	4539.17
488.097	4625.27
488.467	4666.85
488.837	4768.77
489.207	4884.02
489.578	4924.25
489.948	4977.58
490.318	5042.66
490.688	5066.62
491.058	5172.38
491.428	5210.34
491.798	5273.39
492.168	5345.25
492.538	5451.01
492.908	5552.48
493.278	5629.32
493.648	5605.36
494.017	5732.36
494.387	5782.76
494.757	5885.13
495.126	5843.55
495.496	5945.69
495.866	5976.42
496.235	6053.48
496.605	6145.46
496.974	6138.45
497.344	6306.81
497.713	6253.48
498.082	6305.68
498.452	6408.73
498.821	6467.94
499.19	6506.81
499.559	6582.28
499.928	6659.8
500.298	6739.34
500.667	6815.27
501.036	6862.73
501.405	6930.07
501.774	6933.69
502.143	7030.63
502.512	7138.88
502.88	7111.08
503.249	7149.95
503.618	7203.06
503.987	7272.89
504.356	7307.01
504.724	7493
505.093	7425.43
505.462	7578.64
505.83	7607.34
506.199	7704.51
506.567	7807.34
506.936	7816.38
507.304	7908.8
507.672	8031.29
508.041	8013.89
508.409	8112.41
508.777	8203.26
509.145	8323.71
509.514	8325.97
509.882	8350.83
510.25	8463.59
510.618	8607.54
510.986	8593.31
511.354	8682.12
511.722	8766.63
512.09	8896.8
512.458	8861.32
512.826	9038.04
513.193	9066.51
513.561	9137.7
513.929	9239.84
514.297	9376.56
514.664	9366.84
515.032	9539.72
515.4	9550.79
515.767	9705.59
516.135	9771.35
516.502	9722.77
516.869	9839.37
517.237	9944.23
517.604	10010.67
517.972	10164.79
518.339	10228.52
518.706	10315.07
519.073	10369.08
519.44	10468.51
519.808	10588.05
520.175	10680.93
520.542	10867.14
520.909	10917.31
521.276	11009.51
521.643	11105.33
522.009	11221.94
522.376	11307.58
522.743	11454.92
523.11	11544.19
523.477	11749.83
523.843	11751.19
524.21	11936.49
524.577	12082.48
524.943	12214.68
525.31	12284.51
525.676	12300.1
526.043	12490.38
526.409	12538.29
526.776	12756.36
527.142	12825.74
527.508	12922.91
527.874	13039.97
528.241	13239.28
528.607	13248.78
528.973	13449.67
529.339	13396.57
529.705	13612.61
530.071	13743.23
530.437	13791.81
530.803	13989.32
531.169	14057.34
531.535	14107.74
531.901	14208.98
532.267	14366.03
532.632	14474.51
532.998	14617.1
533.364	14611.9
533.73	14823.2
534.095	14944.55
534.461	14896.87
534.826	15073.13
535.192	15196.75
535.557	15442.16
535.923	15433.35
536.288	15565.1
536.653	15684.87
537.019	15794.02
537.384	15786.56
537.749	15970.96
538.114	16078.31
538.479	16082.83
538.845	16291.18
539.21	16251.63
539.575	16378.19
539.94	16441.91
540.305	16634
540.67	16749.47
541.034	16752.86
541.399	16895.69
541.764	17029.24
542.129	17157.15
542.494	17310.82
542.858	17369.8
543.223	17398.72
543.587	17725.27
543.952	17721.43
544.316	17839.84
544.681	17844.36
545.045	18059.04
545.41	18163.9
545.774	18280.51
546.138	18296.78
546.503	18562.31
546.867	18651.35
547.231	18786.03
547.595	18939.7
547.959	19070.32
548.324	19211.11
548.688	19225.79
549.052	19472.79
549.416	19509.85
549.779	19546.92
550.143	19803.41
550.507	19997.3
550.871	20218.76
551.235	20277.07
551.599	20564.29
551.962	20590.05
552.326	20763.15
552.689	20993.88
553.053	21066.42
553.417	21169.47
553.78	21573.98
554.143	21565.85
554.507	21876.57
554.87	21966.96
555.234	22314.98
555.597	22167.86
555.96	22450.34
556.323	22665.25
556.686	22856.21
557.05	23179.14
557.413	23349.3
557.776	23433.14
558.139	23752.23
558.502	23949.29
558.865	24077.64
559.228	24416.84
559.59	24669.27
559.953	24872.65
560.316	25194.45
560.679	25350.83
561.041	25753.31
561.404	25925.5
561.767	26195.55
562.129	26440.29
562.492	26764.13
562.854	26822.88
563.217	27127.96
563.579	27326.37
563.941	27745.34
564.304	28061.95
564.666	28236.86
565.028	28477.08
565.39	28766.79
565.753	29078.64
566.115	29429.59
566.477	29646.31
566.839	29929.92
567.201	30371.26
567.563	30444.26
567.925	30858.71
568.287	31146.84
568.648	31349.54
569.01	31787.27
569.372	32208.5
569.734	32257.09
570.095	32661.6
570.457	33009.84
570.819	33291.19
571.18	33522.37
571.542	33892.75
571.903	34196.93
572.265	34355.79
572.626	34796.91
572.987	34977.47
573.349	35243.45
573.71	35591.92
574.071	35909.2
574.432	36231.67
574.794	36627.37
575.155	36827.59
575.516	36941.49
575.877	37323.62
576.238	37746.66
576.599	37800.9
576.96	38178.52
577.32	38428.23
577.681	38633.87
578.042	39074.31
578.403	39228.66
578.763	39517.01
579.124	39806.5
579.485	40020.73
579.845	40298.91
580.206	40558.34
580.566	40554.95
580.927	40868.84
581.287	41338.88
581.648	41375.95
582.008	41737.74
582.368	41846.22
582.728	42104.51
583.089	42219.31
583.449	42440.1
583.809	42665.63
584.169	42931.84
584.529	42785.85
584.889	43418.6
585.249	43371.37
585.609	43367.31
585.969	43822.44
586.329	43944.01
586.688	44179.49
587.048	44264.01
587.408	44229.88
587.768	44577.67
588.127	44668.29
588.487	44741.73
588.846	45259.23
589.206	45080.26
589.565	45298.33
589.925	45677.53
590.284	45630.07
590.643	45848.6
591.003	45990.74
591.362	46242.26
591.721	46405.64
592.08	46626.2
592.44	46752.98
592.799	46944.16
593.158	46937.16
593.517	47193.42
593.876	47362
594.235	47425.96
594.593	47613.52
594.952	47771.71
595.311	47867.75
595.67	47890.12
596.029	48349.1
596.387	48495.98
596.746	48648.98
597.104	48554.29
597.463	48660.95
597.822	48906.37
598.18	48964.67
598.538	49038.8
598.897	49442.63
599.255	49089.42
599.613	49802.17
599.972	49758.1
600.33	50042.38
600.688	49955.38
601.046	50230.4
601.404	50451.64
601.762	50404.18
602.12	50618.87
602.478	50652.76
602.836	50870.61
603.194	50821.35
603.552	51108.57
603.91	50973.21
604.268	51333.65
604.625	51256.82
604.983	51471.95
605.341	51417.72
605.698	51827.42
606.056	51875.1
606.413	51956.91
606.771	52032.61
607.128	52168.43
607.485	52231.71
607.843	52384.92
608.2	52745.82
608.557	52817.91
608.914	52803.89
609.272	53091.12
609.629	53146.03
609.986	53199.59
610.343	53238.23
610.7	53429.87
611.057	53510.77
611.414	53622.18
611.771	53680.26
612.127	53896.97
612.484	53915.73
612.841	54167.7
613.198	54154.37
613.554	54218.77
613.911	54513.68
614.267	54474.36
614.624	54488.37
614.98	54631.19
615.337	54860.34
615.693	54874.57
616.05	54942.82
616.406	55162.25
616.762	55108.92
617.118	55201.12
617.475	55246.77
617.831	55355.01
618.187	55496.48
618.543	55620.09
618.899	55741.9
619.255	55848.11
619.611	55850.14
619.967	56036.13
620.323	56099.4
620.678	56070.93
621.034	56023.02
621.39	56179.4
621.746	56173.52
622.101	56604.47
622.457	56312.73
622.812	56485.15
623.168	56631.59
623.523	56799.04
623.879	56802.21
624.234	56694.87
624.589	56849.21
624.945	56924.69
625.3	56951.13
625.655	57033.16
626.01	57116.32
626.365	57143.22
626.72	57182.99
627.075	57161.75
627.43	57171.69
627.785	57229.99
628.14	57286.94
628.495	57456.2
628.85	57491.68
629.205	57308.63
629.559	57617.78
629.914	57434.96
630.269	57521.51
630.623	57542.98
630.978	57640.83
631.332	57694.61
631.687	57829.98
632.041	57745.23
632.396	57820.26
632.75	57751.11
633.104	57865.91
633.459	57816.19
633.813	57823.42
634.167	57879.01
634.521	57929.86
634.875	58020.25
635.229	57992.46
635.583	57927.38
635.937	57968.05
636.291	57977.77
636.645	58004.66
636.999	57962.63
637.352	58101.16
637.706	58005.34
638.06	58139.8
638.413	58126.01
638.767	58091.21
639.121	58150.65
639.474	58097.31
639.828	58182.74
640.181	58199.01
640.534	58196.52
640.888	58196.29
641.241	58204.43
641.594	58295.28
641.947	58389.74
642.301	58394.48
642.654	58431.99
643.007	58445.33
643.36	58452.79
643.713	58413.46
644.066	58548.6
644.419	58478.77
644.771	58468.38
645.124	58323.3
645.477	58281.94
645.83	58137.09
646.182	57971.67
646.535	57887.15
646.888	57901.16
647.24	57804.67
647.593	58022.97
647.945	57904.78
648.298	57787.49
648.65	57825.68
649.002	57740.26
649.355	58029.29
649.707	57924.66
650.059	58196.07
650.411	58579.34
650.763	58625.66
651.115	58830.85
651.467	58899.1
651.819	58826.11
652.171	58799.89
652.523	58766.45
652.875	58857.29
653.227	58784.53
653.578	58954.69
653.93	58907.24
654.282	58863.62
654.633	58800.57
654.985	58937.29
655.337	58926.44
655.688	58935.26
656.039	59029.72
656.391	58932.32
656.742	59010.28
657.094	59053.22
657.445	59213.22
657.796	59165.08
658.147	59099.32
658.498	59109.72
658.849	59147
659.2	59137.51
659.551	59047.57
659.902	59241.46
660.253	59192.65
660.604	59285.08
660.955	59165.76
661.306	59317.85
661.656	59260
662.007	59355.59
662.358	59353.78
662.708	59342.25
663.059	59407.11
663.409	59341.12
663.76	59445.3
664.11	59433.78
664.461	59484.4
664.811	59520.1
665.161	59508.12
665.511	59420.9
665.862	59536.82
666.212	59690.49
666.562	59716.25
666.912	59679.87
667.262	59706.09
667.612	59744.73
667.962	59722.58
668.312	59740.43
668.662	59880.54
669.011	59935.91
669.361	59933.42
669.711	59903.82
670.06	59910.37
670.41	59898.85
670.76	59953.99
671.109	60033.99
671.459	60067.43
671.808	59939.07
672.157	60014.55
672.507	59888.23
672.856	59940.66
673.205	60028.34
673.554	60126.64
673.904	60088
674.253	60157.15
674.602	60144.94
674.951	59763.49
675.3	59757.38
675.649	60199.18
675.998	60160.08
676.346	60215
676.695	60331.38
677.044	60134.77
677.393	60253.42
677.741	60287.31
678.09	60171.61
678.438	60236.47
678.787	60214.09
679.135	60239.63
679.484	60100.43
679.832	60266.75
680.181	60089.35
680.529	60312.62
680.877	60296.8
681.225	60227.65
681.573	60429.91
681.922	60215.22
682.27	60196.47
682.618	60258.16
682.966	60176.58
683.314	60283.47
683.661	60205.51
684.009	60161.67
684.357	60119.18
684.705	60193.98
685.053	60258.16
685.4	60210.93
685.748	60079.86
686.095	60124.15
686.443	60021.78
686.79	60069.92
687.138	60146.53
687.485	60148.11
687.832	60101.1
688.18	60126.41
688.527	59960.54
688.874	59970.26
689.221	59842.58
689.568	59885.97
689.915	59886.65
690.262	60023.14
690.609	59848.45
690.956	59850.26
691.303	59846.65
691.65	59636.26
691.997	59731.4
692.344	59648.23
692.69	59704.73
693.037	59673.32
693.383	59559.65
693.73	59659.08
694.077	59462.93
694.423	59449.6
694.769	59506.32
695.116	59422.25
695.462	59447.34
695.808	59404.62
696.155	59460.89
696.501	59289.83
696.847	59340.22
697.193	59151.75
697.539	59262.93
697.885	59128.47
698.231	59026.56
698.577	59083.73
698.923	59055.71
699.269	58889.84
699.614	58865.2
699.96	58876.05
700.306	58894.36
700.651	58793.12
700.997	58874.24
701.342	58831.31
701.688	58782.72
702.033	58723.51
702.379	58760.35
702.724	58651.88
703.069	58714.25
703.415	58388.83
703.76	58497.53
704.105	58469.96
704.45	58529.17
704.795	58300.25
705.14	58428.83
705.485	58337.53
705.83	58194.49
706.175	58241.27
706.52	58184.54
706.865	58189.29
707.209	58123.3
707.554	58086.24
707.899	58212.11
708.243	58100.7
708.588	58089.18
708.932	57882.4
709.277	57935.06
709.621	57950.2
709.966	57802.63
710.31	57917.21
710.654	57693.48
710.998	57739.36
711.342	57762.63
711.687	57797.89
712.031	57739.58
712.375	57530.32
712.719	57619.59
713.063	57570.77
713.407	57755.63
713.75	57565.8
714.094	57560.61
714.438	57464.34
714.782	57540.94
715.125	57415.07
715.469	57467.5
715.812	57475.86
716.156	57254.17
716.499	57366.26
716.843	57362.19
717.186	57237.45
717.53	57375.75
717.873	57356.32
718.216	57362.87
718.559	57258.47
718.902	57153.16
719.246	57282.42
719.589	57051.69
719.932	57037.91
720.275	57061.18
720.617	57053.5
720.96	56967.63
721.303	56968.3
721.646	56855.09
721.989	56809.44
722.331	56957.01
722.674	56902.32
723.016	56973.73
723.359	56973.28
723.701	57013.5
724.044	56853.96
724.386	56792.72
724.729	56825.48
725.071	56672.27
725.413	56750.01
725.755	56707.29
726.097	56785.48
726.439	56559.05
726.782	56571.93
727.124	56787.74
727.465	56631.59
727.807	56617.81
728.149	56569.22
728.491	56495.77
728.833	56630.91
729.175	56481.54
729.516	56517.24
729.858	56480.18
730.199	56577.13
730.541	56476.79
730.882	56431.37
731.224	56547.07
731.565	56322.9
731.906	56462.78
732.248	56498.26
732.589	56276.35
732.93	56245.39
733.271	56279.28
733.612	56253.07
733.953	56262.11
734.294	56190.25
734.635	56136.24
734.976	56213.3
735.317	56158.61
735.658	56133.75
735.999	56086.75
736.339	56105.05
736.68	56209.45
737.021	56158.61
737.361	55963.81
737.702	56029.35
738.042	55967.88
738.383	55940.08
738.723	56014.88
739.063	55940.31
739.404	56062.79
739.744	56035.45
740.084	56011.04
740.424	55917.48
740.764	55835
741.104	56017.14
741.444	55918.84
741.784	55837.49
742.124	55949.35
742.464	55828.45
742.804	55824.83
743.143	55619.41
743.483	55658.06
743.823	55540.32
744.162	55644.27
744.502	55732.63
744.841	55472.07
745.181	55674.1
745.52	55572.63
745.86	55668.68
746.199	55653.08
746.538	55656.25
746.877	55674.55
747.216	55672.29
747.556	55510.49
747.895	55533.99
748.234	55348.69
748.573	55413.77
748.911	55408.12
749.25	55321.12
749.589	55201.57
749.928	55200.22
750.267	55260.78
750.605	55258.07
750.944	55301.46
751.283	55199.99
751.621	55203.83
751.96	54963.39
752.298	55090.84
752.636	55079.99
752.975	55048.35
753.313	54948.02
753.651	54956.38
753.989	54886.55
754.327	54844.07
754.666	54787.8
755.004	54741.7
755.342	54707.57
755.679	54719.32
756.017	54575.15
756.355	54644.52
756.693	54435.04
