Data from copper_heatsink_FLMS001491_073.txt Node
Date: Tue Feb 07 10:50:33 GMT 2017
User: dcchb
Spectrometer: FLMS00149
Trigger mode: 0
Integration Time (sec): 2.000000E-2
Scans to average: 10
Electric dark correction enabled: true
Nonlinearity correction enabled: false
Boxcar width: 0
XAxis mode: Wavelengths
Number of Pixels in Spectrum: 2048
>>>>>Begin Spectral Data<<<<<
341.393	3.97
341.776	3.97
342.16	3.97
342.543	-55.69
342.927	-76.48
343.31	-70.83
343.693	-73.54
344.077	-52.53
344.46	-66.76
344.843	-46.2
345.226	-50.94
345.61	-22.47
345.993	1.48
346.376	-7.1
346.759	1.26
347.142	31.31
347.525	34.7
347.908	53.91
348.291	77.64
348.674	91.2
349.057	98.88
349.44	122.84
349.823	137.98
350.206	177.52
350.588	225.21
350.971	253
351.354	256.39
351.737	256.17
352.119	273.57
352.502	299.55
352.884	324.86
353.267	305.2
353.65	299.33
354.032	309.05
354.414	337.75
354.797	362.38
355.179	367.58
355.562	353.34
355.944	346.78
356.326	376.61
356.709	373
357.091	379.1
357.473	397.86
357.855	366.45
358.238	372.09
358.62	373.22
359.002	375.71
359.384	373
359.766	382.04
360.148	386.11
360.53	394.24
360.912	375.71
361.294	381.36
361.676	353.79
362.057	381.59
362.439	378.65
362.821	365.09
363.203	388.82
363.584	348.59
363.966	355.37
364.348	351.76
364.729	337.97
365.111	380.68
365.493	360.8
365.874	374.13
366.256	374.81
366.637	332.32
367.019	339.55
367.4	377.97
367.781	358.76
368.163	363.96
368.544	363.28
368.925	367.35
369.306	352.43
369.688	354.02
370.069	346.33
370.45	357.86
370.831	349.27
371.212	364.64
371.593	372.77
371.974	364.41
372.355	377.97
372.736	373.68
373.117	368.93
373.498	371.87
373.879	382.26
374.26	367.8
374.641	339.78
375.021	379.55
375.402	367.12
375.783	377.74
376.163	401.47
376.544	375.48
376.925	386.11
377.305	371.42
377.686	391.53
378.066	378.42
378.447	393.34
378.827	377.29
379.208	397.86
379.588	382.94
379.968	391.76
380.349	396.95
380.729	398.31
381.109	379.1
381.489	389.95
381.87	392.89
382.25	418.87
382.63	410.06
383.01	407.57
383.39	429.72
383.77	392.43
384.15	415.71
384.53	396.5
384.91	419.55
385.29	423.62
385.67	419.55
386.049	419.55
386.429	421.58
386.809	422.26
387.189	425.88
387.568	445.09
387.948	455.93
388.328	448.7
388.707	436.95
389.087	448.25
389.466	436.5
389.846	457.97
390.225	431.08
390.605	445.54
390.984	453.45
391.363	470.17
391.743	445.54
392.122	464.07
392.501	474.01
392.881	464.3
393.26	478.98
393.639	478.76
394.018	478.53
394.397	475.82
394.776	488.7
395.155	485.76
395.534	506.1
395.913	491.64
396.292	482.37
396.671	525.31
397.05	516.5
397.429	471.75
397.808	512.88
398.186	512.66
398.565	502.03
398.944	507.46
399.323	522.83
399.701	537.97
400.08	544.52
400.458	521.24
400.837	519.89
401.215	522.6
401.594	542.26
401.972	544.75
402.351	545.65
402.729	548.14
403.107	563.05
403.486	563.95
403.864	577.06
404.242	543.84
404.62	564.18
404.999	599.43
405.377	582.94
405.755	587.23
406.133	592.65
406.511	602.6
406.889	582.94
407.267	591.52
407.645	623.84
408.023	606.21
408.401	634.91
408.779	596.72
409.156	615.03
409.534	641.47
409.912	647.34
410.29	647.57
410.667	646.66
411.045	647.57
411.422	674.01
411.8	666.78
412.178	683.72
412.555	697.96
412.933	688.92
413.31	689.37
413.687	712.88
414.065	685.08
414.442	717.17
414.819	727.34
415.197	725.98
415.574	722.37
415.951	723.95
416.328	742.71
416.705	775.47
417.082	752.88
417.46	765.3
417.837	770.28
418.214	787.23
418.591	795.36
418.967	771.18
419.344	787.45
419.721	810.5
420.098	791.07
420.475	817.96
420.852	828.81
421.228	820.67
421.605	823.16
421.982	839.65
422.358	838.52
422.735	867.9
423.111	850.05
423.488	898.63
423.864	902.7
424.241	884.62
424.617	894.34
424.994	903.61
425.37	910.16
425.746	901.12
426.123	945.19
426.499	946.32
426.875	941.57
427.251	933.66
427.627	965.53
428.003	975.92
428.379	975.24
428.756	983.6
429.132	1008.01
429.507	1030.61
429.883	1035.58
430.259	1059.76
430.635	1062.7
431.011	1075.13
431.387	1060.21
431.763	1098.63
432.138	1124.39
432.514	1138.63
432.89	1099.76
433.265	1137.05
433.641	1135.01
434.016	1174.11
434.392	1182.24
434.767	1180.89
435.143	1178.4
435.518	1209.59
435.894	1189.7
436.269	1195.8
436.644	1232.41
437.02	1230.6
437.395	1250.04
437.77	1278.29
438.145	1301.11
438.52	1306.31
438.895	1318.28
439.271	1330.71
439.646	1343.14
440.021	1355.12
440.395	1334.56
440.77	1355.57
441.145	1373.65
441.52	1407.32
441.895	1405.51
442.27	1409.36
442.645	1411.39
443.019	1417.04
443.394	1421.11
443.769	1454.55
444.143	1442.35
444.518	1479.41
444.892	1455.46
445.267	1469.47
445.641	1512.18
446.016	1511.5
446.39	1526.64
446.764	1530.48
447.139	1541.33
447.513	1527.32
447.887	1560.76
448.262	1586.07
448.636	1571.61
449.01	1598.73
449.384	1624.72
449.758	1641.89
450.132	1631.72
450.506	1616.58
450.88	1623.81
451.254	1664.26
451.628	1678.5
452.002	1649.35
452.376	1702.46
452.75	1731.38
453.123	1775.67
453.497	1751.72
453.871	1794.43
454.244	1826.75
454.618	1854.54
454.992	1859.97
455.365	1834.43
455.739	1922.79
456.112	1905.84
456.486	1949.23
456.859	1942.9
457.232	1992.17
457.606	1971.6
457.979	2032.16
458.352	2064.93
458.725	2083.46
459.099	2095.21
459.472	2150.81
459.845	2144.03
460.218	2199.84
460.591	2219.28
460.964	2179.73
461.337	2262.67
461.71	2290.91
462.083	2259.5
462.456	2318.94
462.829	2303.8
463.201	2351.93
463.574	2406.17
463.947	2417.46
464.32	2457.46
464.692	2495.2
465.065	2491.81
465.438	2581.53
465.81	2597.12
466.183	2632.37
466.555	2660.17
466.928	2685.25
467.3	2685.71
467.672	2770
468.045	2749.66
468.417	2804.12
468.789	2845.25
469.161	2885.7
469.534	2934.06
469.906	2948.75
470.278	2983.1
470.65	3028.75
471.022	3102.42
471.394	3123.21
471.766	3170.44
472.138	3230.78
472.51	3259.7
472.882	3316.88
473.253	3325.69
473.625	3416.99
473.997	3461.73
474.369	3471.45
474.74	3534.27
475.112	3597.55
475.484	3656.75
475.855	3688.39
476.227	3731.55
476.598	3820.37
476.97	3831.44
477.341	3932
477.713	4012.68
478.084	4035.5
478.455	4146.91
478.827	4124.31
479.198	4300.35
479.569	4275.95
479.94	4394.59
480.311	4446.79
480.682	4545.32
481.053	4632.1
481.424	4731.08
481.795	4764.52
482.166	4797.29
482.537	4914.35
482.908	5023.27
483.279	5038.19
483.65	5188.47
484.021	5197.96
484.391	5292.64
484.762	5345.75
485.133	5397.5
485.503	5512.3
485.874	5562.01
486.244	5608.12
486.615	5720.65
486.985	5858.73
487.356	5933.3
487.726	5960.65
488.097	6124.94
488.467	6131.27
488.837	6225.27
489.207	6347.08
489.578	6430.01
489.948	6533.97
490.318	6560.86
490.688	6682.44
491.058	6692.38
491.428	6872.94
491.798	6871.81
492.168	7044.01
492.538	7070.9
492.908	7134.18
493.278	7265.92
493.648	7287.85
494.017	7358.58
494.387	7449.2
494.757	7463.66
495.126	7629.76
495.496	7680.83
495.866	7686.48
496.235	7785.01
496.605	7874.04
496.974	7870.65
497.344	8028.84
497.713	8069.29
498.082	8135.73
498.452	8220.25
498.821	8303.64
499.19	8339.34
499.559	8380.47
499.928	8461.6
500.298	8584.53
500.667	8599
501.036	8680.58
501.405	8750.41
501.774	8789.27
502.143	8834.7
502.512	8906.56
502.88	8961.93
503.249	9006.67
503.618	9138.42
503.987	9178.42
504.356	9225.65
504.724	9288.92
505.093	9321.46
505.462	9400.56
505.83	9553.55
506.199	9546.54
506.567	9672.64
506.936	9663.15
507.304	9919.87
507.672	9944.72
508.041	9947.89
508.409	10051.39
508.777	10193.31
509.145	10219.97
509.514	10244.6
509.882	10351.72
510.25	10439.4
510.618	10514.2
510.986	10543.8
511.354	10685.5
511.722	10775.66
512.09	10878.71
512.458	10943.12
512.826	11040.51
513.193	11036.67
513.561	11231.24
513.929	11324.58
514.297	11362.31
514.664	11485.7
515.032	11531.12
515.4	11635.75
515.767	11722.98
516.135	11775.86
516.502	11801.62
516.869	11984.22
517.237	12075.06
517.604	12075.29
517.972	12379.01
518.339	12432.79
518.706	12365.45
519.073	12512.11
519.44	12600.02
519.808	12788.94
520.175	12899.45
520.542	13013.34
520.909	13077.52
521.276	13130.63
521.643	13343.96
522.009	13374.24
522.376	13628.24
522.743	13669.15
523.11	13712.99
523.477	13957.5
523.843	14016.71
524.21	14204.05
524.577	14363.37
524.943	14376.02
525.31	14482.68
525.676	14664.6
526.043	14741.89
526.409	14817.82
526.776	15098.71
527.142	15134.19
527.508	15286.73
527.874	15435.88
528.241	15496.44
528.607	15597.01
528.973	15863.21
529.339	15809.43
529.705	16084.68
530.071	16233.37
530.437	16391.79
530.803	16401.05
531.169	16571.44
531.535	16506.81
531.901	16703.64
532.267	16787.03
532.632	16993.8
532.998	17027.25
533.364	17176.62
533.73	17212.33
534.095	17409.39
534.461	17508.37
534.826	17670.17
535.192	17704.29
535.557	17878.53
535.923	18019.77
536.288	18045.75
536.653	18224.73
537.019	18281.23
537.384	18437.61
537.749	18485.29
538.114	18617.26
538.479	18660.88
538.845	18816.58
539.21	18894.77
539.575	19062.68
539.94	19110.13
540.305	19294.76
540.67	19340.18
541.034	19479.16
541.399	19512.61
541.764	19714.41
542.129	19784.92
542.494	19981.3
542.858	19958.7
543.223	20158.69
543.587	20389.87
543.952	20374.73
544.316	20565.01
544.681	20558.91
545.045	20724.1
545.41	20966.58
545.774	21060.82
546.138	21044.55
546.503	21295.61
546.867	21348.04
547.231	21743.06
547.595	21702.38
547.959	21865.31
548.324	21923.84
548.688	22052.2
549.052	22207.45
549.416	22390.72
549.779	22479.76
550.143	22639.53
550.507	22966.98
550.871	23161.1
551.235	23068.67
551.599	23484.03
551.962	23612.16
552.326	23754.3
552.689	24021.87
553.053	23932.38
553.417	24094.41
553.78	24608.29
554.143	24524.45
554.507	24792.92
554.87	25011.9
555.234	25289.41
555.597	25203.31
555.96	25533.47
556.323	25772.78
556.686	26034.02
557.05	26219.78
557.413	26416.83
557.776	26601.69
558.139	26920.32
558.502	27052.75
558.865	27236.93
559.228	27570.02
559.59	27906.06
559.953	28052.95
560.316	28460.17
560.679	28590.79
561.041	28953.49
561.404	29251.79
561.767	29597.09
562.129	29659.69
562.492	30231.65
562.854	30303.29
563.217	30325.21
563.579	30829.82
563.941	31132.64
564.304	31431.17
564.666	31763.13
565.028	31947.31
565.39	32328.09
565.753	32601.08
566.115	32923.78
566.477	33317.44
566.839	33501.17
567.201	33922.85
567.563	34183.41
567.925	34502.72
568.287	34882.83
568.648	35012.77
569.01	35504.28
569.372	35906.53
569.734	35830.15
570.095	36402.33
570.457	36630.35
570.819	37012.94
571.18	37210.9
571.542	37585.58
571.903	37687.5
572.265	38109.18
572.626	38483.41
572.987	38817.19
573.349	39058.08
573.71	39412.65
574.071	39557.51
574.432	40120.43
574.794	40482.23
575.155	40533.3
575.516	40646.06
575.877	41028.43
576.238	41367.85
576.599	41703.21
576.96	41888.07
577.32	42160.15
577.681	42486.24
578.042	42708.83
578.403	42923.74
578.763	43186.56
579.124	43533.22
579.485	43775.25
579.845	44089.36
580.206	44233.54
580.566	44437.38
580.927	44575.23
581.287	44883.01
581.648	44939.74
582.008	45225.83
582.368	45374.75
582.728	45561.87
583.089	45820.17
583.449	45948.52
583.809	46146.26
584.169	46420.6
584.529	46548.28
584.889	46939.68
585.249	46850.19
585.609	46972
585.969	47227.13
586.329	47282.5
586.688	47621.02
587.048	47633.45
587.408	47775.37
587.768	47731.3
588.127	47976.72
588.487	48042.48
588.846	48576.7
589.206	48196.6
589.565	48547.1
589.925	48853.08
590.284	48874.1
590.643	49054.2
591.003	49179.62
591.362	49503.91
591.721	49490.58
592.08	49526.06
592.44	49744.13
592.799	49932.83
593.158	49868.65
593.517	50060.28
593.876	50183.44
594.235	50281.74
594.593	50264.79
594.952	50456.43
595.311	50519.93
595.67	50649.87
596.029	50999.46
596.387	51101.83
596.746	51272.45
597.104	51234.49
597.463	51348.38
597.822	51588.83
598.18	51475.61
598.538	51574.59
598.897	51897.07
599.255	51735.72
599.613	52299.32
599.972	52087.8
600.33	52309.26
600.688	52252.31
601.046	52388.13
601.404	52737.27
601.762	52733.66
602.12	52911.05
602.478	53015.23
602.836	53105.85
603.194	53091.84
603.552	53264.94
603.91	53153.53
604.268	53477.14
604.625	53363.7
604.983	53604.37
605.341	53568.44
605.698	53828.99
606.056	53994.19
606.413	53988.31
606.771	54138.59
607.128	54274.41
607.485	54219.27
607.843	54351.01
608.2	54543.55
608.557	54785.35
608.914	54700.16
609.272	54918.68
609.629	54888.85
609.986	55190.77
610.343	55076.42
610.7	55427.82
611.057	55379.24
611.414	55440.48
611.771	55566.58
612.127	55687.7
612.484	55788.49
612.841	55905.1
613.198	55888.15
613.554	55901.93
613.911	56264.86
614.267	56248.37
614.624	56280
614.98	56382.6
615.337	56560.22
615.693	56611.29
616.05	56591.18
616.406	56804.06
616.762	56799.99
617.118	56886.09
617.475	57012.64
617.831	57056.25
618.187	57160.88
618.543	57220.77
618.899	57455.57
619.255	57364.04
619.611	57413.53
619.967	57529.46
620.323	57614.66
620.678	57619.18
621.034	57616.24
621.39	57749.34
621.746	57705.95
622.101	58007.87
622.457	57918.15
622.812	58053.74
623.168	58092.38
623.523	58160.63
623.879	58239.5
624.234	58159.05
624.589	58335.32
624.945	58433.39
625.3	58432.04
625.655	58471.58
626.01	58578.25
626.365	58583.45
626.72	58670.22
627.075	58718.13
627.43	58707.28
627.785	58779.6
628.14	58906.6
628.495	58921.74
628.85	58928.52
629.205	58862.08
629.559	59093.94
629.914	58961.29
630.269	59061.17
630.623	59055.3
630.978	59065.92
631.332	59224.78
631.687	59291.45
632.041	59168.29
632.396	59265.91
632.75	59241.73
633.104	59355.63
633.459	59256.87
633.813	59206.25
634.167	59338
634.521	59369.41
634.875	59476.08
635.229	59431.56
635.583	59340.71
635.937	59422.52
636.291	59470.65
636.645	59556.98
636.999	59477.43
637.352	59625.9
637.706	59516.3
638.06	59675.85
638.413	59653.7
638.767	59564.21
639.121	59719.91
639.474	59626.13
639.828	59697.99
640.181	59776.86
640.534	59723.08
640.888	59798.78
641.241	59665.68
641.594	59772.57
641.947	59840.14
642.301	59853.24
642.654	59877.2
643.007	59956.29
643.36	59925.33
643.713	59892.79
644.066	60016.18
644.419	59940.25
644.771	59876.97
645.124	59773.02
645.477	59845.11
645.83	59701.38
646.182	59548.39
646.535	59380.49
646.888	59480.15
647.24	59321.73
647.593	59489.86
647.945	59538.22
648.298	59448.06
648.65	59386.36
649.002	59394.5
649.355	59535.28
649.707	59619.35
650.059	59804.88
650.411	60099.34
650.763	60107.25
651.115	60438.76
651.467	60366.9
651.819	60424.75
652.171	60418.2
652.523	60389.73
652.875	60400.57
653.227	60323.06
653.578	60499.33
653.93	60542.04
654.282	60526.22
654.633	60478.99
654.985	60605.99
655.337	60614.8
655.688	60664.29
656.039	60805.76
656.391	60620.23
656.742	60664.52
657.094	60763.05
657.445	60828.36
657.796	60801.47
658.147	60788.81
658.498	60805.76
658.849	60918.3
659.2	60846.66
659.551	60825.65
659.902	60962.59
660.253	60948.58
660.604	61054.79
660.955	60983.38
661.306	61096.83
661.656	61058.63
662.007	61119.42
662.358	61107.45
662.708	61121.68
663.059	61188.8
663.409	61017.96
663.76	61308.57
664.11	61258.86
664.461	61292.98
664.811	61324.16
665.161	61355.35
665.511	61329.81
665.862	61394.45
666.212	61466.31
666.562	61548.79
666.912	61483.03
667.262	61545.85
667.612	61570.71
667.962	61587.66
668.312	61638.05
668.662	61818.84
669.011	61707.21
669.361	61741.33
669.711	61803.93
670.06	61798.73
670.41	61764.38
670.76	61754.89
671.109	61889.35
671.459	61888.67
671.808	61926.41
672.157	62054.99
672.507	61842.12
672.856	61906.3
673.205	61952.4
673.554	62074.43
673.904	62050.92
674.253	62182.9
674.602	62111.26
674.951	61798.05
675.3	61775.23
675.649	62142.67
675.998	62120.3
676.346	62126.63
676.695	62289.11
677.044	62119.62
677.393	62270.35
677.741	62325.72
678.09	62309.22
678.438	62272.39
678.787	62306.29
679.135	62387.87
679.484	62266.06
679.832	62446.85
680.181	62231.03
680.529	62377.7
680.877	62300.64
681.225	62343.12
681.573	62458.37
681.922	62325.49
682.27	62300.41
682.618	62341.54
682.966	62363.01
683.314	62453.17
683.661	62406.85
684.009	62389.9
684.357	62291.14
684.705	62325.72
685.053	62303.35
685.4	62418.6
685.748	62312.61
686.095	62445.94
686.443	62352.16
686.79	62353.52
687.138	62375.21
687.485	62436.23
687.832	62377.47
688.18	62414.08
688.527	62330.69
688.874	62356.23
689.221	62393.06
689.568	62259.51
689.915	62244.82
690.262	62271.03
690.609	62304.7
690.956	62269
691.303	62282.33
691.65	62104.71
691.997	62105.16
692.344	62051.38
692.69	62018.84
693.037	62123.01
693.383	61964.83
693.73	62040.53
694.077	61819.74
694.423	61917.6
694.769	61923.92
695.116	61973.41
695.462	61953.98
695.808	61879.4
696.155	62023.36
696.501	61855.9
696.847	61860.65
697.193	61764.83
697.539	61930.25
697.885	61803.93
698.231	61732.52
698.577	61797.37
698.923	61859.97
699.269	61677.15
699.614	61648.68
699.96	61586.53
700.306	61593.76
700.651	61519.41
700.997	61475.12
701.342	61469.92
701.688	61507.89
702.033	61485.06
702.379	61573.42
702.724	61501.56
703.069	61566.87
703.415	61392.86
703.76	61414.56
704.105	61454.56
704.45	61386.54
704.795	61295.46
705.14	61277.61
705.485	61304.73
705.83	61188.57
706.175	61290.04
706.52	61170.72
706.865	61177.28
707.209	61184.73
707.554	61102.93
707.899	61174.56
708.243	61045.53
708.588	61082.81
708.932	60996.72
709.277	61096.83
709.621	61055.02
709.966	60950.16
710.31	61039.2
710.654	60847.11
710.998	60986.09
711.342	60942.25
711.687	60969.82
712.031	60892.31
712.375	60865.42
712.719	60951.74
713.063	60866.55
713.407	60949.94
713.75	60845.53
714.094	60895.25
714.438	60713.33
714.782	60771.18
715.125	60743.16
715.469	60818.19
715.812	60737.74
716.156	60648.93
716.499	60678.76
716.843	60742.48
717.186	60613.67
717.53	60779.77
717.873	60755.59
718.216	60758.53
718.559	60636.72
718.902	60535.48
719.246	60606.9
719.589	60567.57
719.932	60576.39
720.275	60580.46
720.617	60606.22
720.96	60585.88
721.303	60592.66
721.646	60605.54
721.989	60458.65
722.331	60573
722.674	60447.8
723.016	60584.07
723.359	60522.6
723.701	60523.73
724.044	60405.32
724.386	60346.11
724.729	60490.06
725.071	60452.32
725.413	60483.28
725.755	60473.57
726.097	60388.14
726.439	60353.57
726.782	60405.32
727.124	60489.16
727.465	60453.68
727.807	60359.67
728.149	60353.79
728.491	60366.68
728.833	60444.87
729.175	60435.15
729.516	60364.19
729.858	60378.2
730.199	60477.41
730.541	60427.46
730.882	60426.56
731.224	60396.96
731.565	60268.37
731.906	60309.95
732.248	60372.33
732.589	60319.22
732.93	60283.74
733.271	60280.58
733.612	60395.15
733.953	60356.28
734.294	60346.34
734.635	60279.22
734.976	60384.53
735.317	60344.98
735.658	60285.1
735.999	60307.69
736.339	60314.47
736.68	60363.51
737.021	60356.05
737.361	60206.91
737.702	60370.07
738.042	60206.23
738.383	60137.08
738.723	60273.57
739.063	60236.96
739.404	60301.59
739.744	60304.08
740.084	60267.92
740.424	60333.23
740.764	60290.29
741.104	60346.79
741.444	60247.58
741.784	60164.42
742.124	60214.59
742.464	60210.52
742.804	60203.97
743.143	60159.22
743.483	60216.17
743.823	60086.23
744.162	60172.1
744.502	60190.86
744.841	60101.37
745.181	60180.69
745.52	60074.03
745.86	60291.88
746.199	60146.34
746.538	60147.47
746.877	60226.11
747.216	60221.82
747.556	60263.85
747.895	60197.19
748.234	60146.34
748.573	60091.65
748.911	60141.37
749.25	60180.69
749.589	59954.26
749.928	60131.65
750.267	60064.54
750.605	60126.46
750.944	60090.75
751.283	59950.64
751.621	60003.97
751.96	59865.45
752.298	59876.52
752.636	59991.09
752.975	59879.68
753.313	59808.27
753.651	59936.86
753.989	59747.71
754.327	59693.92
754.666	59628.16
755.004	59842.17
755.342	59785.9
755.679	59721.27
