Data from copper_heatsink_FLMS001491_075.txt Node
Date: Tue Feb 07 10:50:33 GMT 2017
User: dcchb
Spectrometer: FLMS00149
Trigger mode: 0
Integration Time (sec): 2.000000E-2
Scans to average: 10
Electric dark correction enabled: true
Nonlinearity correction enabled: false
Boxcar width: 0
XAxis mode: Wavelengths
Number of Pixels in Spectrum: 2048
>>>>>Begin Spectral Data<<<<<
341.393	-16.47
341.776	-16.47
342.16	-16.47
342.543	-70.25
342.927	-34.77
343.31	-72.29
343.693	-75.68
344.077	-45.17
344.46	-40.42
344.843	-51.95
345.226	-41.55
345.61	-30.93
345.993	-5.4
346.376	1.38
346.759	5.9
347.142	19.46
347.525	41.61
347.908	49.97
348.291	58.56
348.674	79.35
349.057	107.14
349.44	132
349.823	135.62
350.206	181.94
350.588	233.47
350.971	247.71
351.354	261.49
351.737	275.73
352.119	280.7
352.502	295.61
352.884	297.65
353.267	313.47
353.65	314.14
354.032	337.19
354.414	333.13
354.797	339
355.179	353.24
355.562	352.11
355.944	367.93
356.326	398.89
356.709	348.27
357.091	385.33
357.473	395.27
357.855	366.35
358.238	373.58
358.62	391.2
359.002	368.15
359.384	371.09
359.766	381.49
360.148	381.26
360.53	383.75
360.912	386.23
361.294	352.79
361.676	378.55
362.057	359.79
362.439	383.97
362.821	365.44
363.203	371.09
363.584	364.09
363.966	353.92
364.348	363.86
364.729	361.15
365.111	346.01
365.493	360.47
365.874	382.39
366.256	363.86
366.637	361.15
367.019	359.34
367.4	359.79
367.781	369.06
368.163	363.63
368.544	375.16
368.925	344.43
369.306	370.41
369.688	345.78
370.069	373.13
370.45	355.95
370.831	378.78
371.212	374.26
371.593	386.01
371.974	378.32
372.355	364.09
372.736	376.97
373.117	388.04
373.498	367.25
373.879	363.63
374.26	351.66
374.641	359.11
375.021	373.58
375.402	334.93
375.783	374.71
376.163	369.06
376.544	416.51
376.925	404.54
377.305	380.36
377.686	379.68
378.066	390.53
378.447	387.14
378.827	384.2
379.208	403.18
379.588	393.46
379.968	376.74
380.349	391.88
380.729	415.16
381.109	413.58
381.489	417.42
381.87	431.2
382.25	397.08
382.63	429.17
383.01	423.07
383.39	421.26
383.77	398.66
384.15	436.4
384.53	408.15
384.91	426.01
385.29	416.29
385.67	423.52
386.049	442.28
386.429	442.5
386.809	424.88
387.189	422.62
387.568	429.85
387.948	428.49
388.328	433.24
388.707	455.61
389.087	446.12
389.466	459.9
389.846	467.59
390.225	470.3
390.605	464.42
390.984	446.57
391.363	484.08
391.743	492.9
392.122	463.52
392.501	473.91
392.881	477.3
393.26	496.06
393.639	480.24
394.018	498.09
394.397	499.9
394.776	508.94
395.155	492.22
395.534	517.75
395.913	514.37
396.292	506.68
396.671	512.78
397.05	506.68
397.429	506.68
397.808	518.88
398.186	510.52
398.565	524.53
398.944	509.39
399.323	529.96
399.701	527.25
400.08	544.19
400.458	539
400.837	547.13
401.215	553.91
401.594	553.69
401.972	526.57
402.351	555.95
402.729	572.89
403.107	572.89
403.486	553.23
403.864	564.31
404.242	561.82
404.62	569.5
404.999	568.15
405.377	582.16
405.755	583.06
406.133	596.4
406.511	596.85
406.889	595.04
407.267	596.17
407.645	611.99
408.023	619.22
408.401	630.07
408.779	623.29
409.156	639.11
409.534	650.18
409.912	644.76
410.29	646.56
410.667	648.82
411.045	649.73
411.422	682.27
411.8	677.07
412.178	673.46
412.555	678.65
412.933	683.85
413.31	679.11
413.687	699.67
414.065	726.34
414.442	724.75
414.819	733.79
415.197	740.57
415.574	754.58
415.951	756.39
416.328	754.58
416.705	753.45
417.082	740.35
417.46	768.37
417.837	778.99
418.214	771.31
418.591	783.51
418.967	790.97
419.344	798.2
419.721	796.39
420.098	807.01
420.475	798.88
420.852	810.4
421.228	823.06
421.605	828.26
421.982	835.49
422.358	833.9
422.735	852.89
423.111	863.06
423.488	862.6
423.864	880.46
424.241	867.35
424.617	902.15
424.994	894.24
425.37	896.95
425.746	909.61
426.123	924.98
426.499	952.55
426.875	920
427.251	949.38
427.627	962.49
428.003	995.93
428.379	1014.46
428.756	990.96
429.132	984.86
429.507	1033
429.883	1009.72
430.259	1033.9
430.635	1044.52
431.011	1048.81
431.387	1077.51
431.763	1083.62
432.138	1096.95
432.514	1127.91
432.89	1096.27
433.265	1120.22
433.641	1134.24
434.016	1170.84
434.392	1168.36
434.767	1190.05
435.143	1200
435.518	1220.34
435.894	1211.75
436.269	1231.18
436.644	1232.54
437.02	1245.19
437.395	1247.23
437.77	1283.61
438.145	1301.01
438.52	1314.57
438.895	1314.12
439.271	1344.4
439.646	1352.99
440.021	1325.87
440.395	1395.92
440.77	1393.66
441.145	1363.61
441.52	1399.09
441.895	1388.92
442.27	1409.71
442.645	1403.16
443.019	1457.39
443.394	1402.7
443.769	1460.78
444.143	1456.71
444.518	1468.01
444.892	1467.56
445.267	1511.4
445.641	1483.61
446.016	1519.08
446.39	1535.58
446.764	1556.6
447.139	1541
447.513	1567.44
447.887	1573.77
448.262	1563.83
448.636	1581.91
449.01	1598.63
449.384	1646.76
449.758	1622.13
450.132	1613.32
450.506	1663.26
450.88	1669.59
451.254	1654
451.628	1684.28
452.002	1704.62
452.376	1703.71
452.75	1740.77
453.123	1745.07
453.497	1745.97
453.871	1787.33
454.244	1808.79
454.618	1841.11
454.992	1874.56
455.365	1846.99
455.739	1902.13
456.112	1916.36
456.486	1954.55
456.859	1933.54
457.232	1989.13
457.606	1964.5
457.979	2030.26
458.352	2017.38
458.725	2086.08
459.099	2082.69
459.472	2140.99
459.845	2158.84
460.218	2184.15
460.591	2206.52
460.964	2218.28
461.337	2263.7
461.71	2278.61
462.083	2328.55
462.456	2313.19
462.829	2343.7
463.201	2355.22
463.574	2375.78
463.947	2425.73
464.32	2493.3
464.692	2489.91
465.065	2513.18
465.438	2563.58
465.81	2581.66
466.183	2580.75
466.555	2655.55
466.928	2686.96
467.3	2719.5
467.672	2745.94
468.045	2776.45
468.417	2787.98
468.789	2811.71
469.161	2851.7
469.534	2883.57
469.906	2999.95
470.278	2997.46
470.65	3011.25
471.022	3062.55
471.394	3140.28
471.766	3140.51
472.138	3201.07
472.51	3285.59
472.882	3344.8
473.253	3335.31
473.625	3414.4
473.997	3458.92
474.369	3453.27
474.74	3472.25
475.112	3583.21
475.484	3609.88
475.855	3710.67
476.227	3709.31
476.598	3832.92
476.97	3852.36
477.341	3907.95
477.713	3999.7
478.084	4065.23
478.455	4149.75
478.827	4224.78
479.198	4263.64
479.569	4250.76
479.94	4416.64
480.311	4434.94
480.682	4543.41
481.053	4673.8
481.424	4702.28
481.795	4764.2
482.166	4795.61
482.537	4909.73
482.908	5002.38
483.279	5041.25
483.65	5088.03
484.021	5262.94
484.391	5298.42
484.762	5370.51
485.133	5397.63
485.503	5468.13
485.874	5578.19
486.244	5633.33
486.615	5775.7
486.985	5808.69
487.356	5913.55
487.726	5998.29
488.097	6099.53
488.467	6133.65
488.837	6280.77
489.207	6352.86
489.578	6383.36
489.948	6498.16
490.318	6580.87
490.688	6561.21
491.058	6734.31
491.428	6771.15
491.798	6847.08
492.168	7021.54
492.538	7071.03
492.908	7146.06
493.278	7216.11
493.648	7255.2
494.017	7416.56
494.387	7481.19
494.757	7486.16
495.126	7593.5
495.496	7645.02
495.866	7771.8
496.235	7771.8
496.605	7877.34
496.974	7930.67
497.344	7978.35
497.713	8075.52
498.082	8152.13
498.452	8304.22
498.821	8258.12
499.19	8329.07
499.559	8399.36
499.928	8500.37
500.298	8454.72
500.667	8587.15
501.036	8677.54
501.405	8687.48
501.774	8792.34
502.143	8825.78
502.512	8884.54
502.88	9010.86
503.249	8962.73
503.618	9098.32
503.987	9162.73
504.356	9260.12
504.724	9273.91
505.093	9373.57
505.462	9459.21
505.83	9432.77
506.199	9543.28
506.567	9717.74
506.936	9661.7
507.304	9854.01
507.672	9983.72
508.041	9990.73
508.409	10054.45
508.777	10127.9
509.145	10248.8
509.514	10296.71
509.882	10343.71
510.25	10321.11
510.618	10559.75
510.986	10557.26
511.354	10633.87
511.722	10814.21
512.09	10911.83
512.458	10882.91
512.826	11046.74
513.193	11126.29
513.561	11176.46
513.929	11290.8
514.297	11415.1
514.664	11466.39
515.032	11567.86
515.4	11671.36
515.767	11755.88
516.135	11776.44
516.502	11806.05
516.869	12060.28
517.237	12111.35
517.604	12140.27
517.972	12291.46
518.339	12435.86
518.706	12453.94
519.073	12590.21
519.44	12655.97
519.808	12787.49
520.175	12771.44
520.542	13005.34
520.909	13092.79
521.276	13137.99
521.643	13222.96
522.009	13448.26
522.376	13606
522.743	13636.51
523.11	13733.45
523.477	13963.95
523.843	14061.35
524.21	14223.16
524.577	14380.67
524.943	14437.84
525.31	14523.49
525.676	14723.48
526.043	14874.44
526.409	14878.73
526.776	15145.39
527.142	15095.22
527.508	15276.91
527.874	15416.57
528.241	15526.85
528.607	15651.14
528.973	15732.72
529.339	15835.09
529.705	16091.58
530.071	16224.91
530.437	16242.54
530.803	16412.7
531.169	16462.87
531.535	16581.29
531.901	16665.35
532.267	16794.39
532.632	16893.14
532.998	17026.02
533.364	17177.2
533.73	17261.27
534.095	17358.22
534.461	17566.12
534.826	17597.08
535.192	17779.67
535.557	17965.66
535.923	17943.96
536.288	18061.93
536.653	18227.35
537.019	18174.69
537.384	18396.83
537.749	18479.32
538.114	18599.31
538.479	18695.81
538.845	18828.23
539.21	18950.72
539.575	18971.96
539.94	18996.59
540.305	19329.46
540.67	19359.07
541.034	19506.41
541.399	19590.02
541.764	19667.08
542.129	19944.36
542.494	19908.43
542.858	20105.71
543.223	20170.57
543.587	20290.57
543.952	20416.89
544.316	20484.24
544.681	20600.16
545.045	20762.19
545.41	20985.69
545.774	21060.04
546.138	21170.32
546.503	21180.71
546.867	21470.2
547.231	21680.14
547.595	21793.35
547.959	21770.53
548.324	21984.08
548.688	22019.11
549.052	22389.95
549.416	22485.09
549.779	22538.42
550.143	22760.56
550.507	22924.4
550.871	23105.64
551.235	23186.99
551.599	23449.13
551.962	23581.1
552.326	23726.86
552.689	23925.27
553.053	23904.03
553.417	24187.64
553.78	24519.38
554.143	24608.65
554.507	24903.55
554.87	24971.8
555.234	25259.48
555.597	25315.29
555.96	25497.89
556.323	25693.14
556.686	25900.59
557.05	26280.24
557.413	26538.31
557.776	26607.69
558.139	26947.57
558.502	27089.94
558.865	27288.35
559.228	27610.38
559.59	27845.17
559.953	28059.86
560.316	28472.73
560.679	28646.28
561.041	29002.43
561.404	29255.53
561.767	29683.09
562.129	29664.33
562.492	30145.22
562.854	30286.24
563.217	30423.18
563.579	30824.08
563.941	31151.3
564.304	31540.67
564.666	31814.78
565.028	32009.58
565.39	32268.11
565.753	32661.54
566.115	32976.56
566.477	33265.82
566.839	33567.51
567.201	34060.38
567.563	34119.81
567.925	34494.94
568.287	34773.8
568.648	35052.44
569.01	35456.05
569.372	35806.54
569.734	36034.34
570.095	36364.04
570.457	36647.43
570.819	36892.84
571.18	37280.86
571.542	37543.9
571.903	37814.63
572.265	38181.85
572.626	38456.42
572.987	38977.53
573.349	39126.01
573.71	39431.99
574.071	39833.33
574.432	40000.11
574.794	40441.22
575.155	40587.89
575.516	40679.41
575.877	41046.18
576.238	41442.78
576.599	41665.6
576.96	41919.15
577.32	42164.34
577.681	42493.15
578.042	42645.69
578.403	42988.95
578.763	43273.69
579.124	43573.8
579.485	43852.66
579.845	44136.04
580.206	44164.06
580.566	44404.74
580.927	44606.76
581.287	44857.61
581.648	44889.47
582.008	45271.83
582.368	45456.46
582.728	45613.29
583.089	45881.08
583.449	45794.98
583.809	46172.15
584.169	46380.96
584.529	46430.9
584.889	46958.12
585.249	46829.76
585.609	46905.91
585.969	47269.07
586.329	47321.04
586.688	47444.66
587.048	47707.93
587.408	47708.6
587.768	47844.19
588.127	47950.86
588.487	48078.99
588.846	48537.28
589.206	48331.64
589.565	48467.23
589.925	48771.85
590.284	48875.58
590.643	48937.27
591.003	49198.28
591.362	49395.79
591.721	49489.57
592.08	49434.21
592.44	49629.01
592.799	49888.43
593.158	49961.65
593.517	50029.45
593.876	50153.29
594.235	50203.45
594.593	50334.98
594.952	50523.45
595.311	50466.27
595.67	50662.65
596.029	50995.98
596.387	51053.83
596.746	51242.75
597.104	51206.59
597.463	51379.02
597.822	51572.46
598.18	51397.32
598.538	51618.56
598.897	51909.4
599.255	51812
599.613	52305.55
599.972	52113.01
600.33	52296.51
600.688	52183.29
601.046	52501.25
601.404	52719.55
601.762	52672.99
602.12	52872.76
602.478	52895.81
602.836	53046.32
603.194	52974.23
603.552	53194.56
603.91	53231.4
604.268	53369.47
604.625	53419.41
604.983	53614.44
605.341	53543.25
605.698	53797.26
606.056	54004.03
606.413	53963.36
606.771	54194.08
607.128	54297.58
607.485	54179.85
607.843	54368.54
608.2	54502.1
608.557	54782.54
608.914	54682.43
609.272	54906.61
609.629	54929.88
609.986	55144.34
610.343	55144.79
610.7	55384.33
611.057	55337.1
611.414	55422.75
611.771	55545.01
612.127	55728.51
612.484	55764.21
612.841	55915.17
613.198	55866.81
613.554	55956.98
613.911	56229.51
614.267	56197.65
614.624	56280.58
614.98	56370.75
615.337	56507.02
615.693	56555.38
616.05	56617.97
616.406	56840.79
616.762	56773.9
617.118	56790.4
617.475	57005.99
617.831	57075.14
618.187	57164.17
618.543	57252.53
618.899	57388.12
619.255	57344.96
619.611	57453.21
619.967	57546.09
620.323	57649.81
620.678	57598.97
621.034	57683.94
621.39	57695.46
621.746	57793.99
622.101	58086.64
622.457	57900.43
622.812	57986.98
623.168	58117.14
623.523	58106.52
623.879	58304.03
624.234	58181.78
624.589	58347.19
624.945	58442.11
625.3	58470.13
625.655	58418.61
626.01	58533.63
626.365	58628.77
626.72	58610.24
627.075	58726.62
627.43	58764.58
627.785	58777.47
628.14	58847.97
628.495	58913.06
628.85	58903.79
629.205	58889.78
629.559	59070.79
629.914	59004.13
630.269	58989.89
630.623	58991.02
630.978	59028.76
631.332	59170.45
631.687	59269.66
632.041	59206.16
632.396	59335.19
632.75	59260.16
633.104	59329.99
633.459	59242.76
633.813	59283.22
634.167	59345.36
634.521	59367.51
634.875	59429.43
635.229	59404.34
635.583	59384.68
635.937	59447.28
636.291	59467.17
636.645	59577.9
636.999	59419.26
637.352	59572.7
637.706	59507.16
638.06	59731.57
638.413	59636.65
638.767	59569.31
639.121	59757.33
639.474	59560.72
639.828	59624.45
640.181	59779.47
640.534	59850.21
640.888	59718.23
641.241	59648.86
641.594	59757.55
641.947	59867.38
642.301	59838
642.654	59924.55
643.007	59891.56
643.36	59941.5
643.713	59932.24
644.066	59955.51
644.419	59884.78
644.771	59906.25
645.124	59763.65
645.477	59768.17
645.83	59649.08
646.182	59494.74
646.535	59398.92
646.888	59476.43
647.24	59303.33
647.593	59497.22
647.945	59474.62
648.298	59475.3
648.65	59446.37
649.002	59373.38
649.355	59612.47
649.707	59619.25
650.059	59772.24
650.411	60128.39
650.763	60146.02
651.115	60433.24
651.467	60339.68
651.819	60448.38
652.171	60377.42
652.523	60411.32
652.875	60428.04
653.227	60388.95
653.578	60554.37
653.93	60547.59
654.282	60499.23
654.633	60421.94
654.985	60591.2
655.337	60641.82
655.688	60659.22
656.039	60799.11
656.391	60579
656.742	60619.9
657.094	60719.11
657.445	60807.24
657.796	60782.38
658.147	60832.1
658.498	60811.76
658.849	60906.22
659.2	60872.78
659.551	60911.87
659.902	60991.64
660.253	61007.46
660.604	61086.33
660.955	60961.82
661.306	61071.64
661.656	61026.9
662.007	61095.82
662.358	61138.76
662.708	61253.33
663.059	61212.66
663.409	61083.17
663.76	61313.67
664.11	61269.83
664.461	61346.21
664.811	61339.88
665.161	61364.74
665.511	61314.35
665.862	61414.91
666.212	61507.56
666.562	61523.83
666.912	61473.21
667.262	61533.55
667.612	61583.04
667.962	61564.06
668.312	61583.04
668.662	61786.88
669.011	61761.57
669.361	61739.65
669.711	61834.11
670.06	61732.87
670.41	61762.92
670.76	61755.92
671.109	61854.67
671.459	61876.59
671.808	61956.14
672.157	61955.01
672.507	61866.88
672.856	61914.33
673.205	62037.95
673.554	62109.58
673.904	62075.68
674.253	62157.26
674.602	62061.22
674.951	61801.57
675.3	61673.89
675.649	62146.19
675.998	62095.34
676.346	62170.14
676.695	62294.44
677.044	62111.62
677.393	62283.36
677.741	62385.96
678.09	62231.84
678.438	62247.43
678.787	62301.44
679.135	62338.05
679.484	62270.03
679.832	62397.48
680.181	62268.9
680.529	62365.17
680.877	62291.95
681.225	62316.13
681.573	62493.3
681.922	62360.87
682.27	62320.2
682.618	62392.74
682.966	62378.73
683.314	62422.79
683.661	62390.7
684.009	62365.39
684.357	62360.87
684.705	62308.9
685.053	62404.94
685.4	62391.38
685.748	62320.65
686.095	62409.01
686.443	62398.39
686.79	62369.01
687.138	62348.67
687.485	62482.68
687.832	62345.06
688.18	62413.08
688.527	62361.55
688.874	62409.01
689.221	62325.85
689.568	62325.4
689.915	62310.25
690.262	62313.64
690.609	62275.68
690.956	62182.35
691.303	62187.55
691.65	62141.45
691.997	62074.78
692.344	62077.49
692.69	61994.1
693.037	62113.88
693.383	61958.17
693.73	62084.27
694.077	61944.84
694.423	61965.86
694.769	61961.11
695.116	61949.36
695.462	61992.52
695.808	61905.97
696.155	61966.76
696.501	61852.64
696.847	61886.76
697.193	61807.67
697.539	61917.27
697.885	61789.14
698.231	61730.38
698.577	61851.06
698.923	61803.6
699.269	61692.42
699.614	61707.78
699.96	61625.3
700.306	61598.86
700.651	61546.66
700.997	61489.94
701.342	61487.9
701.688	61489.03
702.033	61473.21
702.379	61530.39
702.724	61521.57
703.069	61554.12
703.415	61380.56
703.76	61476.15
704.105	61448.13
704.45	61411.97
704.795	61288.81
705.14	61237.74
705.485	61283.39
705.83	61219.21
706.175	61234.35
706.52	61201.13
706.865	61160.45
707.209	61148.7
707.554	61145.77
707.899	61252.2
708.243	61062.15
708.588	61111.87
708.932	61015.15
709.277	61024.64
709.621	61080.46
709.966	60983.74
710.31	61082.72
710.654	60826
710.998	60971.76
711.342	60906.22
711.687	60952.32
712.031	60870.07
712.375	60835.72
712.719	60960.46
713.063	60858.77
713.407	60980.57
713.75	60865.09
714.094	60901.48
714.438	60685.44
714.782	60786
715.125	60732.22
715.469	60799.33
715.812	60722.27
716.156	60660.13
716.499	60666.23
716.843	60739.67
717.186	60642.73
717.53	60781.48
717.873	60846.56
718.216	60746.91
718.559	60640.02
718.902	60540.13
719.246	60535.16
719.589	60621.26
719.932	60589.17
720.275	60562.05
720.617	60581.94
720.96	60639.56
721.303	60583.29
721.646	60599.79
721.989	60554.37
722.331	60576.97
722.674	60489.96
723.016	60582.39
723.359	60543.52
723.701	60632.33
724.044	60480.92
724.386	60372.9
724.729	60523.41
725.071	60460.81
725.413	60501.26
725.755	60442.96
726.097	60428.72
726.439	60323.41
726.782	60397.31
727.124	60516.18
727.465	60377.42
727.807	60370.64
728.149	60416.52
728.491	60365.67
728.833	60388.5
729.175	60471.43
729.516	60432.56
729.858	60310.31
730.199	60482.96
730.541	60427.82
730.882	60379.91
731.224	60444.09
731.565	60290.65
731.906	60259.91
732.248	60411.55
732.589	60268.5
732.93	60161.16
733.271	60310.76
733.612	60380.81
733.953	60440.7
734.294	60312.11
734.635	60324.54
734.976	60369.29
735.317	60252
735.658	60310.08
735.999	60293.13
736.339	60339.91
736.68	60334.49
737.021	60280.93
737.361	60220.82
737.702	60356.18
738.042	60255.39
738.383	60239.8
738.723	60253.36
739.063	60253.59
739.404	60274.38
739.744	60245.22
740.084	60211.33
740.424	60294.26
740.764	60264.66
741.104	60381.04
741.444	60249.52
741.784	60282.74
742.124	60282.96
742.464	60213.59
742.804	60190.99
743.143	60222.63
743.483	60198.45
743.823	60102.18
744.162	60150.31
744.502	60159.8
744.841	60123.42
745.181	60253.81
745.52	60154.6
745.86	60275.05
746.199	60226.47
746.538	60114.61
746.877	60259.91
747.216	60282.74
747.556	60182.17
747.895	60220.37
748.234	60120.93
748.573	60139.24
748.911	60113.25
749.25	60156.19
749.589	60027.83
749.928	60061.05
750.267	60130.88
750.605	60086.36
750.944	60027.6
751.283	60033.48
751.621	60030.99
751.96	59889.3
752.298	59895.4
752.636	59936.53
752.975	59862.18
753.313	59830.55
753.651	59962.07
753.989	59772.24
754.327	59840.94
754.666	59680.94
755.004	59779.02
755.342	59801.17
