Data from copper_heatsink_FLMS001491_041.txt Node
Date: Tue Feb 07 10:50:00 GMT 2017
User: dcchb
Spectrometer: FLMS00149
Trigger mode: 0
Integration Time (sec): 2.000000E-2
Scans to average: 10
Electric dark correction enabled: true
Nonlinearity correction enabled: false
Boxcar width: 0
XAxis mode: Wavelengths
Number of Pixels in Spectrum: 2048
>>>>>Begin Spectral Data<<<<<
341.393	-3.94
341.776	-3.94
342.16	-3.94
342.543	-62.47
342.927	-50.72
343.31	-61.11
343.693	-62.7
344.077	-71.06
344.46	-46.2
344.843	-52.53
345.226	-47.33
345.61	-38.97
345.993	-19.08
346.376	-18.63
346.759	13.01
347.142	19.11
347.525	42.16
347.908	48.71
348.291	85.77
348.674	98.43
349.057	110.41
349.44	143.4
349.823	115.83
350.206	144.53
350.588	216.17
350.971	238.99
351.354	253.23
351.737	244.41
352.119	262.95
352.502	293.9
352.884	284.41
353.267	297.75
353.65	308.14
354.032	322.83
354.414	341.81
354.797	333.9
355.179	340.46
355.562	352.89
355.944	349.27
356.326	328.71
356.709	332.1
357.091	371.42
357.473	365.54
357.855	353.79
358.238	365.99
358.62	352.89
359.002	360.34
359.384	358.31
359.766	342.04
360.148	359.21
360.53	366.22
360.912	353.11
361.294	355.15
361.676	375.26
362.057	347.46
362.439	352.66
362.821	368.7
363.203	339.1
363.584	356.28
363.966	371.87
364.348	364.41
364.729	348.14
365.111	353.56
365.493	361.7
365.874	337.07
366.256	358.08
366.637	345.88
367.019	330.06
367.4	355.15
367.781	361.25
368.163	330.51
368.544	341.14
368.925	339.78
369.306	345.2
369.688	340.91
370.069	352.21
370.45	353.34
370.831	369.16
371.212	339.78
371.593	352.43
371.974	331.87
372.355	356.28
372.736	362.15
373.117	356.28
373.498	353.34
373.879	366.22
374.26	355.15
374.641	356.73
375.021	346.33
375.402	340.68
375.783	344.3
376.163	340.01
376.544	378.42
376.925	362.6
377.305	373.68
377.686	360.57
378.066	372.77
378.447	356.5
378.827	375.26
379.208	366.45
379.588	380
379.968	361.7
380.349	386.33
380.729	373.22
381.109	376.39
381.489	377.97
381.87	382.72
382.25	371.64
382.63	399.89
383.01	408.03
383.39	402.38
383.77	390.63
384.15	395.82
384.53	379.78
384.91	402.15
385.29	403.96
385.67	402.15
386.049	412.55
386.429	401.25
386.809	430.4
387.189	403.96
387.568	426.78
387.948	405.99
388.328	413.68
388.707	426.33
389.087	404.18
389.466	424.3
389.846	409.83
390.225	420.91
390.605	428.36
390.984	442.38
391.363	416.84
391.743	424.97
392.122	436.05
392.501	441.7
392.881	427.23
393.26	439.21
393.639	453.45
394.018	438.31
394.397	430.4
394.776	456.16
395.155	443.28
395.534	449.83
395.913	467.23
396.292	442.6
396.671	456.39
397.05	466.1
397.429	474.24
397.808	485.76
398.186	471.3
398.565	485.09
398.944	484.18
399.323	482.37
399.701	472.88
400.08	498.42
400.458	486.44
400.837	495.03
401.215	495.93
401.594	493.67
401.972	457.97
402.351	475.82
402.729	486.67
403.107	501.36
403.486	516.27
403.864	508.14
404.242	500.23
404.62	496.16
404.999	511.07
405.377	546.33
405.755	526.67
406.133	514.01
406.511	515.14
406.889	520.34
407.267	546.78
407.645	551.75
408.023	558.76
408.401	566.21
408.779	551.07
409.156	559.66
409.534	567.12
409.912	554.24
410.29	592.65
410.667	587.91
411.045	559.89
411.422	585.42
411.8	592.43
412.178	579.77
412.555	597.85
412.933	613.22
413.31	615.93
413.687	616.16
414.065	636.72
414.442	626.33
414.819	619.32
415.197	636.49
415.574	637.62
415.951	632.43
416.328	645.53
416.705	636.04
417.082	643.95
417.46	668.58
417.837	661.8
418.214	664.52
418.591	671.3
418.967	671.75
419.344	680.56
419.721	697.51
420.098	692.99
420.475	695.7
420.852	685.53
421.228	690.28
421.605	682.14
421.982	714.01
422.358	712.42
422.735	725.08
423.111	728.24
423.488	750.62
423.864	736.38
424.241	721.01
424.617	759.88
424.994	749.26
425.37	736.6
425.746	777.51
426.123	771.63
426.499	765.98
426.875	773.89
427.251	795.13
427.627	816.15
428.003	824.51
428.379	837.17
428.756	809.82
429.132	822.03
429.507	849.37
429.883	839.43
430.259	849.37
430.635	869.71
431.011	854.34
431.387	901.57
431.763	901.57
432.138	902.25
432.514	897.28
432.89	922.36
433.265	934.11
433.641	955.81
434.016	914
434.392	927.79
434.767	942.02
435.143	994.9
435.518	980.44
435.894	962.81
436.269	1010.72
436.644	990.38
437.02	999.42
437.395	1014.56
437.77	1042.36
438.145	1053.43
438.52	1047.11
438.895	1042.81
439.271	1055.01
439.646	1096.37
440.021	1065.64
440.395	1080.32
440.77	1080.1
441.145	1074
441.52	1110.83
441.895	1102.7
442.27	1112.64
442.645	1148.12
443.019	1132.98
443.394	1145.86
443.769	1148.35
444.143	1135.01
444.518	1159.42
444.892	1166.2
445.267	1194.67
445.641	1205.29
446.016	1190.15
446.39	1174.11
446.764	1214.11
447.139	1202.36
447.513	1207.1
447.887	1213.65
448.262	1227.89
448.636	1224.95
449.01	1269.7
449.384	1253.65
449.758	1278.96
450.132	1252.98
450.506	1316.02
450.88	1290.26
451.254	1300.88
451.628	1317.83
452.002	1306.99
452.376	1335.46
452.75	1330.26
453.123	1366.64
453.497	1359.64
453.871	1398.73
454.244	1405.29
454.618	1422.24
454.992	1443.48
455.365	1462.69
455.739	1500.65
456.112	1486.19
456.486	1485.96
456.859	1495
457.232	1526.41
457.606	1550.37
457.979	1546.08
458.352	1562.12
458.725	1605.51
459.099	1591.05
459.472	1672.85
459.845	1659.29
460.218	1681.89
460.591	1676.69
460.964	1689.8
461.337	1713.53
461.71	1718.27
462.083	1789.68
462.456	1750.82
462.829	1775.67
463.201	1828.78
463.574	1814.77
463.947	1850.7
464.32	1871.49
464.692	1897.7
465.065	1911.72
465.438	1928.21
465.81	1977.7
466.183	1953.52
466.555	2025.38
466.928	2014.54
467.3	1991.26
467.672	2071.49
468.045	2066.51
468.417	2135.21
468.789	2102.44
469.161	2153.06
469.534	2185.38
469.906	2271.25
470.278	2244.14
470.65	2305.38
471.022	2287.07
471.394	2360.07
471.766	2378.14
472.138	2391.02
472.51	2451.81
472.882	2474.86
473.253	2506.28
473.625	2576.56
473.997	2593.96
474.369	2621.3
474.74	2645.48
475.112	2717.12
475.484	2755.08
475.855	2791.47
476.227	2816.78
476.598	2879.83
476.97	2928.64
477.341	2969.31
477.713	3057.67
478.084	3004.12
478.455	3116.2
478.827	3119.82
479.198	3222.19
479.569	3251.79
479.94	3363.65
480.311	3346.93
480.682	3453.14
481.053	3499.7
481.424	3547.6
481.795	3600.03
482.166	3645
482.537	3701.05
482.908	3815.85
483.279	3871.44
483.65	3903.3
484.021	3977.88
484.391	4037.76
484.762	4079.57
485.133	4123.63
485.503	4150.75
485.874	4303.97
486.244	4292.9
486.615	4378.77
486.985	4442.72
487.356	4541.7
487.726	4560.01
488.097	4731.53
488.467	4687.46
488.837	4785.31
489.207	4852.43
489.578	4949.6
489.948	4952.31
490.318	5075.47
490.688	5087.68
491.058	5168.13
491.428	5239.31
491.798	5340.33
492.168	5449.25
492.538	5445.86
492.908	5567.44
493.278	5555.01
493.648	5628
494.017	5684.27
494.387	5766.53
494.757	5882.68
495.126	5914.55
495.496	5986.64
495.866	6013.08
496.235	6094.88
496.605	6141.66
496.974	6204.03
497.344	6289.45
497.713	6363.35
498.082	6346.85
498.452	6420.52
498.821	6544.36
499.19	6550.24
499.559	6684.92
499.928	6731.7
500.298	6782.77
500.667	6853.73
501.036	6858.03
501.405	6855.09
501.774	6925.14
502.143	7067.74
502.512	7083.33
502.88	7158.58
503.249	7185.25
503.618	7210.78
503.987	7296.43
504.356	7324.68
504.724	7516.31
505.093	7530.55
505.462	7568.97
505.83	7610.1
506.199	7701.62
506.567	7883.76
506.936	7866.81
507.304	7966.92
507.672	8048.73
508.041	8085.56
508.409	8125.79
508.777	8237.42
509.145	8346.8
509.514	8415.73
509.882	8454.14
510.25	8527.36
510.618	8563.52
510.986	8673.12
511.354	8788.6
511.722	8866.33
512.09	8899.33
512.458	8947.91
512.826	9110.85
513.193	9193.56
513.561	9195.14
513.929	9309.94
514.297	9380.45
514.664	9524.62
515.032	9558.29
515.4	9622.92
515.767	9709.25
516.135	9740.44
516.502	9649.36
516.869	9992.86
517.237	10028.34
517.604	10145.62
517.972	10198.05
518.339	10248.22
518.706	10327.09
519.073	10377.03
519.44	10489.34
519.808	10695.44
520.175	10699.28
520.542	10930.69
520.909	10960.74
521.276	11017.24
521.643	11103.11
522.009	11290.9
522.376	11379.04
522.743	11406.38
523.11	11646.6
523.477	11760.95
523.843	11927.27
524.21	12007.04
524.577	12097.21
524.943	12206.59
525.31	12316.19
525.676	12488.84
526.043	12477.09
526.409	12627.37
526.776	12800.47
527.142	12884.76
527.508	12990.75
527.874	13113.45
528.241	13137.86
528.607	13218.08
528.973	13428.47
529.339	13493.78
529.705	13631.18
530.071	13834.11
530.437	13833.66
530.803	14050.83
531.169	14105.52
531.535	14155.69
531.901	14263.03
532.267	14384.61
532.632	14510.93
532.998	14534.43
533.364	14724.26
533.73	14827.08
534.095	14989.79
534.461	15061.2
534.826	15212.16
535.192	15277.01
535.557	15364.69
535.923	15499.61
536.288	15582.09
536.653	15712.71
537.019	15667.96
537.384	15876.09
537.749	15945.47
538.114	16051.91
538.479	16190.89
538.845	16262.07
539.21	16279.7
539.575	16481.28
539.94	16539.58
540.305	16603.76
540.67	16727.82
541.034	16891.21
541.399	16993.8
541.764	17085.55
542.129	17165.1
542.494	17334.59
542.858	17381.82
543.223	17540.68
543.587	17699.77
543.952	17751.52
544.316	17853.22
544.681	17964.85
545.045	18165.3
545.41	18274.67
545.774	18395.58
546.138	18370.49
546.503	18580.2
546.867	18588.34
547.231	18894.09
547.595	19006.41
547.959	19124.14
548.324	19176.57
548.688	19289.79
549.052	19401.2
549.416	19564.81
549.779	19666.28
550.143	19864.92
550.507	20155.08
550.871	20266.94
551.235	20307.39
551.599	20629.19
551.962	20727.27
552.326	20810.65
552.689	21033.47
553.053	20957.54
553.417	21266.23
553.78	21668.71
554.143	21649.73
554.507	21844.07
554.87	22003.39
555.234	22379.43
555.597	22292.42
555.96	22560.21
556.323	22781.45
556.686	23003.36
557.05	23281.77
557.413	23465.72
557.776	23559.73
558.139	23895.54
558.502	24029.78
558.865	24102.09
559.228	24625.02
559.59	24712.7
559.953	24882.86
560.316	25417.54
560.679	25414.83
561.041	25749.28
561.404	26008.93
561.767	26342.26
562.129	26398.76
562.492	26912.19
562.854	27046.42
563.217	27169.81
563.579	27521.21
563.941	27864.25
564.304	27973.85
564.666	28371.81
565.028	28711.01
565.39	28962.08
565.753	29302.41
566.115	29514.38
566.477	29768.38
566.839	30024.2
567.201	30401.59
567.563	30662.37
567.925	30971.29
568.287	31105.52
568.648	31451.73
569.01	31933.3
569.372	32243.57
569.734	32290.35
570.095	32806.95
570.457	33184.11
570.819	33470.89
571.18	33582.52
571.542	34094.82
571.903	34201.94
572.265	34547.92
572.626	34956.95
572.987	35143.38
573.349	35434.9
573.71	35693.65
574.071	36172.06
574.432	36357.59
574.794	36732.27
575.155	36948.76
575.516	37052.71
575.877	37481.85
576.238	37705.58
576.599	38053.59
576.96	38311.66
577.32	38497.65
577.681	38883.85
578.042	39249.26
578.403	39392.99
578.763	39604.51
579.124	39842.24
579.485	40197.94
579.845	40514.54
580.206	40664.37
580.566	40759.96
580.927	41156.56
581.287	41332.6
581.648	41584.12
582.008	41915.86
582.368	41858.24
582.728	42121.05
583.089	42391.55
583.449	42582.96
583.809	42815.95
584.169	43020.24
584.529	43101.14
584.889	43613.44
585.249	43567.57
585.609	43583.16
585.969	44072.87
586.329	44002.13
586.688	44278.06
587.048	44364.61
587.408	44417.49
587.768	44614.32
588.127	44927.76
588.487	45036.01
588.846	45335.21
589.206	45303.57
589.565	45430.57
589.925	45828.07
590.284	45798.24
590.643	46045.92
591.003	46177.67
591.362	46462.41
591.721	46591.67
592.08	46785.34
592.44	46943.3
592.799	47027.82
593.158	47073.69
593.517	47278.66
593.876	47514.58
594.235	47386.68
594.593	47734.69
594.952	47868.92
595.311	47958.64
595.67	48195.02
596.029	48406.99
596.387	48535.57
596.746	48733.76
597.104	48627.78
597.463	48790.26
597.822	49143.02
598.18	49079.29
598.538	49185.05
598.897	49465.27
599.255	49305.27
599.613	49906.84
599.972	49799.27
600.33	50073.39
600.688	50060.73
601.046	50367.62
601.404	50458.01
601.762	50420.95
602.12	50708.62
602.478	50850.77
602.836	50991.78
603.194	50925.12
603.552	51180.02
603.91	51062.97
604.268	51423.63
604.625	51333.92
604.983	51531.65
605.341	51437.64
605.698	51860.23
606.056	51956.73
606.413	52028.82
606.771	52167.34
607.128	52278.98
607.485	52356.26
607.843	52498.18
608.2	52652.53
608.557	52874.9
608.914	52873.54
609.272	53129.13
609.629	53238.95
609.986	53363.02
610.343	53264.72
610.7	53547.19
611.057	53569.79
611.414	53706.51
611.771	53805.49
612.127	53937.69
612.484	54083.45
612.841	54332.26
613.198	54227.4
613.554	54293.61
613.911	54571.12
614.267	54604.34
614.624	54559.82
614.98	54757.11
615.337	54905.58
615.693	54980.83
616.05	55054.27
616.406	55259.47
616.762	55139.69
617.118	55345.79
617.475	55314.15
617.831	55514.15
618.187	55577.42
618.543	55700.81
618.899	55922.95
619.255	55860.58
619.611	55947.81
619.967	56082.27
620.323	56124.3
620.678	56196.84
621.034	56113.45
621.39	56246.78
621.746	56290.85
622.101	56614.23
622.457	56409.49
622.812	56604.06
623.168	56684.06
623.523	56703.04
623.879	56836.37
624.234	56770.61
624.589	56945.75
624.945	56960.89
625.3	56992.53
625.655	57050.6
626.01	57164.05
626.365	57260.77
626.72	57251.28
627.075	57229.58
627.43	57255.34
627.785	57286.08
628.14	57432.97
628.495	57533.08
628.85	57497.82
629.205	57467.99
629.559	57611.72
629.914	57553.87
630.269	57666.86
630.623	57632.06
630.978	57646.75
631.332	57739.85
631.687	57864.82
632.041	57844.71
632.396	57893.29
632.75	57912.05
633.104	57994.08
633.459	57947.53
633.813	57907.98
634.167	57998.38
634.521	57939.39
634.875	58098.03
635.229	58088.54
635.583	58021.65
635.937	58018.94
636.291	58083.8
636.645	58199.05
636.999	58130.35
637.352	58154.98
637.706	58119.73
638.06	58219.61
638.413	58163.12
638.767	58224.36
639.121	58266.39
639.474	58092.16
639.828	58229.56
640.181	58388.42
640.534	58316.56
640.888	58266.39
641.241	58244.47
641.594	58341.64
641.947	58452.6
642.301	58408.08
642.654	58397.01
643.007	58438.59
643.36	58517.91
643.713	58508.42
644.066	58611.69
644.419	58516.78
644.771	58539.83
645.124	58414.18
645.477	58343.23
645.83	58196.79
646.182	58075.44
646.535	57899.85
646.888	57994.31
647.24	57860.75
647.593	58092.38
647.945	58065.04
648.298	57922.45
648.65	57887.19
649.002	57868.21
649.355	57996.12
649.707	57960.64
650.059	58357.46
650.411	58693.5
650.763	58643.1
651.115	58891.23
651.467	58925.81
651.819	58922.42
652.171	58861.63
652.523	58927.62
652.875	58910.67
653.227	58958.58
653.578	59077.9
653.93	58946.15
654.282	58953.15
654.633	58891.69
654.985	58942.31
655.337	59043.09
655.688	59088.52
656.039	59239.93
656.391	59001.06
656.742	59077.22
657.094	59112.25
657.445	59272.01
657.796	59191.11
658.147	59129.42
658.498	59189.98
658.849	59255.07
659.2	59172.81
659.551	59173.71
659.902	59307.72
660.253	59332.8
660.604	59342.3
660.955	59194.28
661.306	59345.23
661.656	59389.98
662.007	59427.72
662.358	59458
662.708	59459.13
663.059	59555.62
663.409	59354.27
663.76	59532.35
664.11	59489.64
664.461	59501.39
664.811	59562.18
665.161	59534.15
665.511	59479.69
665.862	59615.73
666.212	59712.23
666.562	59718.1
666.912	59802.4
667.262	59732.79
667.612	59785
667.962	59824.99
668.312	59759.01
668.662	60022.96
669.011	60002.39
669.361	60005.55
669.711	60051.2
670.06	60035.38
670.41	60027.48
670.76	60003.52
671.109	60091.43
671.459	60056.85
671.808	59977.31
672.157	60100.92
672.507	60008.49
672.856	60019.11
673.205	60093.46
673.554	60136.62
673.904	60174.82
674.253	60292.55
674.602	60196.96
674.951	59858.21
675.3	59786.13
675.649	60228.6
675.998	60237.19
676.346	60274.47
676.695	60438.54
677.044	60184.99
677.393	60332.33
677.741	60350.18
678.09	60269.05
678.438	60245.1
678.787	60357.41
679.135	60295.04
679.484	60191.09
679.832	60278.77
680.181	60147.7
680.529	60344.08
680.877	60335.94
681.225	60327.35
681.573	60493.68
681.922	60335.04
682.27	60302.04
682.618	60326.45
682.966	60239.22
683.314	60319.45
683.661	60250.97
684.009	60221.14
684.357	60255.49
684.705	60169.17
685.053	60324.42
685.4	60287.13
685.748	60126.91
686.095	60201.93
686.443	60140.47
686.79	60144.76
687.138	60223.4
687.485	60261.14
687.832	60126.91
688.18	60136.17
688.527	60021.83
688.874	60090.07
689.221	60029.28
689.568	59967.36
689.915	59919.91
690.262	60038.32
690.609	59921.26
690.956	59939.12
691.303	59909.51
691.65	59763.08
691.997	59803.98
692.344	59640.14
692.69	59720.36
693.037	59801.04
693.383	59576.64
693.73	59690.31
694.077	59552.23
694.423	59511.1
694.769	59478.11
695.116	59475.17
695.462	59416.19
695.808	59408.28
696.155	59482.18
696.501	59305.46
696.847	59385.46
697.193	59248.96
697.539	59386.81
697.885	59142.53
698.231	59080.61
698.577	59214.16
698.923	59116.31
699.269	59000.61
699.614	58916.54
699.96	58893.49
700.306	58940.27
700.651	58884.23
700.997	58834.96
701.342	58853.49
701.688	58792.48
702.033	58842.87
702.379	58800.16
702.724	58778.02
703.069	58789.99
703.415	58518.14
703.76	58526.27
704.105	58576.21
704.45	58555.2
704.795	58432.04
705.14	58376.9
705.485	58446.27
705.83	58268.2
706.175	58347.07
706.52	58245.83
706.865	58259.84
707.209	58223.91
707.554	58156.34
707.899	58249.22
708.243	58190.01
708.588	58163.34
708.932	58001.77
709.277	58005.38
709.621	57978.49
709.966	57859.4
710.31	58013.07
710.654	57714.77
710.998	57831.37
711.342	57860.3
711.687	57822.34
712.031	57747.76
712.375	57570.82
712.719	57727.42
713.063	57631.15
713.407	57757.48
713.75	57529.91
714.094	57593.42
714.438	57548.22
714.782	57688.33
715.125	57442.23
715.469	57592.06
715.812	57491.95
716.156	57362.01
716.499	57350.71
716.843	57439.29
717.186	57252.41
717.53	57373.08
717.873	57414.21
718.216	57373.76
718.559	57354.1
718.902	57153.88
719.246	57306.19
719.589	57186.87
719.932	57083.15
720.275	57100.09
720.617	57066.65
720.96	57072.52
721.303	57071.62
721.646	57024.84
721.989	56885.41
722.331	57043.37
722.674	56998.18
723.016	57015.58
723.359	56952.53
723.701	57061
724.044	56859.65
724.386	56786.66
724.729	56989.59
725.071	56823.72
725.413	56750.05
725.755	56798.41
726.097	56754.34
726.439	56600.67
726.782	56690.84
727.124	56892.19
727.465	56656.94
727.807	56715.02
728.149	56626.89
728.491	56599.54
728.833	56695.59
729.175	56569.26
729.516	56589.83
729.858	56562.03
730.199	56606.1
730.541	56493.56
730.882	56474.12
731.224	56620.56
731.565	56367.01
731.906	56484.52
732.248	56472.31
732.589	56347.35
732.93	56239.55
733.271	56315.03
733.612	56280
733.953	56324.75
734.294	56269.38
734.635	56277.07
734.976	56299.44
735.317	56239.78
735.658	56279.78
735.999	56227.8
736.339	56164.53
736.68	56326.1
737.021	56189.61
737.361	56071.2
737.702	56157.97
738.042	56121.14
738.383	56079.33
738.723	56112.55
739.063	55971.99
739.404	56120.69
739.744	56017.64
740.084	55974.93
740.424	56022.61
740.764	55971.99
741.104	56068.26
741.444	55955.49
741.784	55860.35
742.124	55957.75
742.464	55958.43
742.804	55923.4
743.143	55820.58
743.483	55826.23
743.823	55726.8
744.162	55770.64
744.502	55719.57
744.841	55637.76
745.181	55833.24
745.52	55668.95
745.86	55766.8
746.199	55684.31
746.538	55725.22
746.877	55746.68
747.216	55786.23
747.556	55659.91
747.895	55608.61
748.234	55453.13
748.573	55408.61
748.911	55386.02
749.25	55382.17
749.589	55216.98
749.928	55246.81
750.267	55300.14
750.605	55289.75
750.944	55306.47
751.283	55240.26
751.621	55244.1
751.96	55018.79
752.298	55078.45
752.636	55184.89
752.975	55074.84
753.313	54973.37
753.651	55097.21
753.989	54943.54
754.327	54953.94
754.666	54809.31
755.004	54921.85
755.342	54873.03
755.679	54827.61
756.017	54649.99
