Data from copper_heatsink_FLMS001491_082.txt Node
Date: Tue Feb 07 10:50:42 GMT 2017
User: dcchb
Spectrometer: FLMS00149
Trigger mode: 0
Integration Time (sec): 2.000000E-2
Scans to average: 10
Electric dark correction enabled: true
Nonlinearity correction enabled: false
Boxcar width: 0
XAxis mode: Wavelengths
Number of Pixels in Spectrum: 2048
>>>>>Begin Spectral Data<<<<<
341.393	-0.2
341.776	-0.2
342.16	-0.2
342.543	-44.49
342.927	-68.22
343.31	-77.26
343.693	-74.55
344.077	-86.75
344.46	-58.95
344.843	-63.92
345.226	-46.75
345.61	-18.28
345.993	2.51
346.376	19.69
346.759	17.2
347.142	14.94
347.525	49.07
347.908	53.59
348.291	56.75
348.674	91.1
349.057	121.61
349.44	119.57
349.823	137.65
350.206	150.08
350.588	211.1
350.971	230.08
351.354	260.81
351.737	265.33
352.119	283.64
352.502	259.91
352.884	293.58
353.267	321.15
353.65	299
354.032	297.42
354.414	336.74
354.797	326.8
355.179	347.36
355.562	313.47
355.944	356.63
356.326	356.86
356.709	343.75
357.091	362.5
357.473	368.61
357.855	348.04
358.238	364.31
358.62	332.67
359.002	350.98
359.384	339.68
359.766	363.41
360.148	380.58
360.53	354.14
360.912	361.15
361.294	327.48
361.676	341.71
362.057	374.48
362.439	371.32
362.821	335.61
363.203	354.6
363.584	375.84
363.966	355.05
364.348	350.3
364.729	330.87
365.111	333.13
365.493	347.14
365.874	348.49
366.256	349.62
366.637	362.96
367.019	364.09
367.4	344.65
367.781	341.04
368.163	328.16
368.544	334.26
368.925	345.78
369.306	351.21
369.688	332.9
370.069	343.3
370.45	338.32
370.831	354.82
371.212	357.31
371.593	334.48
371.974	351.21
372.355	334.48
372.736	360.02
373.117	341.49
373.498	365.44
373.879	333.13
374.26	341.71
374.641	362.28
375.021	346.69
375.402	331.09
375.783	371.09
376.163	360.02
376.544	358.66
376.925	380.13
377.305	338.32
377.686	379.68
378.066	359.79
378.447	366.35
378.827	369.06
379.208	343.3
379.588	362.96
379.968	378.1
380.349	369.28
380.729	380.81
381.109	358.66
381.489	401.6
381.87	394.82
382.25	381.26
382.63	378.1
383.01	379.68
383.39	387.36
383.77	374.03
384.15	387.59
384.53	389.4
384.91	368.38
385.29	383.3
385.67	387.81
386.049	369.06
386.429	399.11
386.809	396.4
387.189	405.67
387.568	406.57
387.948	396.18
388.328	416.29
388.707	416.06
389.087	427.36
389.466	426.68
389.846	412.9
390.225	405.89
390.605	433.92
390.984	439.34
391.363	434.59
391.743	437.76
392.122	450.19
392.501	462.61
392.881	458.55
393.26	450.86
393.639	453.58
394.018	429.62
394.397	432.79
394.776	468.26
395.155	440.24
395.534	447.02
395.913	458.1
396.292	486.57
396.671	449.51
397.05	468.72
397.429	462.39
397.808	471.43
398.186	479.56
398.565	478.43
398.944	480.47
399.323	473.91
399.701	478.43
400.08	483.86
400.458	480.02
400.837	487.25
401.215	482.28
401.594	491.99
401.972	483.18
402.351	503.97
402.729	484.08
403.107	491.99
403.486	509.17
403.864	490.18
404.242	484.76
404.62	506.91
404.999	510.52
405.377	515.04
405.755	524.08
406.133	506
406.511	536.51
406.889	552.1
407.267	521.6
407.645	520.47
408.023	560.92
408.401	541.26
408.779	562.05
409.156	593.23
409.534	567.02
409.912	577.41
410.29	558.21
410.667	566.34
411.045	584.19
411.422	586.91
411.8	596.85
412.178	586
412.555	616.51
412.933	616.51
413.31	602.5
413.687	626.9
414.065	627.36
414.442	635.04
414.819	636.17
415.197	629.16
415.574	632.1
415.951	636.62
416.328	641.14
416.705	664.19
417.082	651.31
417.46	648.82
417.837	647.69
418.214	651.76
418.591	680.91
418.967	661.48
419.344	683.85
419.721	689.5
420.098	687.69
420.475	710.07
420.852	682.72
421.228	670.52
421.605	709.39
421.982	723.63
422.358	707.35
422.735	703.74
423.111	725.21
423.488	750.74
423.864	742.83
424.241	745.77
424.617	755.49
424.994	749.39
425.37	734.7
425.746	754.36
426.123	750.97
426.499	758.43
426.875	778.76
427.251	795.71
427.627	786.9
428.003	806.79
428.379	804.98
428.756	806.79
429.132	829.84
429.507	838.42
429.883	825.54
430.259	827.35
430.635	870.29
431.011	850.85
431.387	902.38
431.763	860.12
432.138	898.31
432.514	913.22
432.89	885.2
433.265	920
433.641	925.43
434.016	933.56
434.392	954.35
434.767	950.74
435.143	961.36
435.518	974.92
435.894	961.36
436.269	971.75
436.644	985.99
437.02	1019.21
437.395	981.7
437.77	999.32
438.145	1027.57
438.52	1033
438.895	1028.02
439.271	1035.48
439.646	1044.97
440.021	1063.73
440.395	1054.01
440.77	1057.63
441.145	1071.41
441.52	1083.84
441.895	1088.36
442.27	1095.14
442.645	1116.38
443.019	1103.73
443.394	1124.29
443.769	1112.99
444.143	1081.36
444.518	1125.87
444.892	1116.61
445.267	1145.31
445.641	1178.3
446.016	1167.68
446.39	1183.05
446.764	1174.46
447.139	1179.88
447.513	1188.92
447.887	1190.28
448.262	1206.78
448.636	1184.18
449.01	1230.73
449.384	1228.92
449.758	1228.02
450.132	1237.51
450.506	1245.42
450.88	1241.58
451.254	1264.18
451.628	1284.74
452.002	1271.63
452.376	1272.54
452.75	1286.1
453.123	1314.34
453.497	1325.42
453.871	1344.17
454.244	1340.56
454.618	1364.74
454.992	1356.15
455.365	1386.21
455.739	1410.16
456.112	1448.13
456.486	1447.45
456.859	1434.79
457.232	1450.16
457.606	1488.8
457.979	1495.13
458.352	1529.03
458.725	1532.87
459.099	1530.84
459.472	1589.59
459.845	1588.24
460.218	1607.9
460.591	1612.42
460.964	1651.51
461.337	1696.48
461.71	1683.6
462.083	1665.3
462.456	1706.2
462.829	1726.08
463.201	1733.99
463.574	1721.56
463.947	1736.25
464.32	1796.82
464.692	1809.92
465.065	1809.92
465.438	1841.11
465.81	1849.7
466.183	1877.27
466.555	1916.59
466.928	1939.64
467.3	1945.74
467.672	1955.68
468.045	2002.01
468.417	2012.86
468.789	2002.01
469.161	2038.84
469.534	2050.6
469.906	2137.15
470.278	2137.6
470.65	2161.55
471.022	2190.71
471.394	2244.04
471.766	2248.1
472.138	2273.19
472.51	2309.57
472.882	2387.99
473.253	2379.17
473.625	2415.33
473.997	2440.64
474.369	2470.92
474.74	2492.62
475.112	2556.35
475.484	2579.17
475.855	2607.64
476.227	2635.89
476.598	2696.68
476.97	2683.57
477.341	2804.25
477.713	2797.47
478.084	2829.33
478.455	2868.43
478.827	2959.72
479.198	3018.48
479.569	3041.08
479.94	3088.99
480.311	3126.5
480.682	3155.65
481.053	3259.38
481.424	3319.49
481.795	3347.28
482.166	3376.89
482.537	3446.27
482.908	3519.94
483.279	3576.88
483.65	3583.89
484.021	3630.89
484.391	3686.71
484.762	3734.17
485.133	3798.35
485.503	3796.76
485.874	3909.08
486.244	3941.39
486.615	3996.31
486.985	4029.75
487.356	4093.71
487.726	4168.96
488.097	4206.92
488.467	4261.16
488.837	4329.18
489.207	4390.42
489.578	4456.41
489.948	4502.96
490.318	4515.62
490.688	4528.95
491.058	4653.92
491.428	4704.76
491.798	4792.44
492.168	4870.63
492.538	4899.33
492.908	4924.87
493.278	4979.56
493.648	5008.03
494.017	5071.99
494.387	5093
494.757	5185.65
495.126	5246.9
495.496	5262.26
495.866	5305.2
496.235	5360.34
496.605	5446.89
496.974	5469.94
497.344	5485.99
497.713	5588.13
498.082	5578.41
498.452	5597.17
498.821	5657.51
499.19	5735.02
499.559	5737.05
499.928	5765.3
500.298	5817.5
500.667	5920.1
501.036	5890.95
501.405	5963.71
501.774	6017.72
502.143	6028.12
502.512	6099.3
502.88	6129.58
503.249	6186.98
503.618	6193.99
503.987	6239.64
504.356	6307.21
504.724	6383.82
505.093	6488.22
505.462	6398.05
505.83	6447.54
506.199	6542.23
506.567	6613.19
506.936	6565.05
507.304	6678.04
507.672	6739.06
508.041	6843.46
508.409	6876.46
508.777	6920.98
509.145	7033.52
509.514	7014.31
509.882	7034.87
510.25	7177.01
510.618	7105.83
510.986	7197.35
511.354	7240.74
511.722	7301.76
512.09	7393.05
512.458	7382.88
512.826	7520.28
513.193	7521.64
513.561	7570.45
513.929	7640.51
514.297	7692.26
514.664	7790.11
515.032	7819.94
515.4	7905.58
515.767	7911.01
516.135	8025.58
516.502	8042.3
516.869	8159.14
517.237	8221.06
517.604	8150.77
517.972	8343.31
518.339	8403.65
518.706	8433.03
519.073	8445.23
519.44	8500.6
519.808	8661.27
520.175	8593.7
520.542	8828.04
520.909	8908.49
521.276	8835.73
521.643	8979.68
522.009	9080.47
522.376	9192.33
522.743	9155.04
523.11	9352.55
523.477	9409.05
523.843	9467.12
524.21	9538.76
524.577	9591.87
524.943	9732.2
525.31	9778.08
525.676	9876.38
526.043	9932.65
526.409	10117.73
526.776	10167.67
527.142	10193.43
527.508	10286.09
527.874	10409.7
528.241	10465.97
528.607	10542.35
528.973	10729.24
529.339	10658.05
529.705	10828.9
530.071	10865.05
530.437	10908.22
530.803	11018.04
531.169	11131.04
531.535	11123.13
531.901	11237.02
532.267	11264.82
532.632	11419.61
532.998	11360.41
533.364	11516.34
533.73	11568.76
534.095	11686.27
534.461	11731.02
534.826	11821.41
535.192	11961.75
535.557	12033.84
535.923	12036.55
536.288	12171.01
536.653	12291.68
537.019	12177.34
537.384	12302.08
537.749	12396.54
538.114	12480.83
538.479	12498.91
538.845	12643.99
539.21	12603.31
539.575	12738
539.94	12843.76
540.305	12820.03
540.67	12926.24
541.034	12966.02
541.399	13061.61
541.764	13174.82
542.129	13236.74
542.494	13374.59
542.858	13377.3
543.223	13479.67
543.587	13666.11
543.952	13655.26
544.316	13718.54
544.681	13739.55
545.045	13907.69
545.41	13921.47
545.774	14022.71
546.138	14107.91
546.503	14207.34
546.867	14259.77
547.231	14403.27
547.595	14449.82
547.959	14501.34
548.324	14614.56
548.688	14729.81
549.052	14803.48
549.416	14902.46
549.779	15067.65
550.143	15141.78
550.507	15311.94
550.871	15381.32
551.235	15360.3
551.599	15623.57
551.962	15611.82
552.326	15783.79
552.689	16006.61
553.053	15988.53
553.417	16030.34
553.78	16372.25
554.143	16287.06
554.507	16522.76
554.87	16648.4
555.234	16821.96
555.597	16827.38
555.96	16933.14
556.323	17108.5
556.686	17292.91
557.05	17560.02
557.413	17606.8
557.776	17699.68
558.139	17968.14
558.502	17939.9
558.865	18172.21
559.228	18379.88
559.59	18524.96
559.953	18567.22
560.316	18880.44
560.679	19077.72
561.041	19266.19
561.404	19403.13
561.767	19744.59
562.129	19729
562.492	19880.86
562.854	20116.11
563.217	20199.95
563.579	20510.22
563.941	20595.19
564.304	20805.36
564.666	20980.72
565.028	21055.29
565.39	21413.93
565.753	21664.09
566.115	21820.47
566.477	22030.18
566.839	22185.89
567.201	22455.48
567.563	22534.8
567.925	22788.58
568.287	23045.07
568.648	23130.27
569.01	23495.23
569.372	23774.09
569.734	23742.91
570.095	24021.09
570.457	24308.09
570.819	24511.93
571.18	24529.55
571.542	24826.72
571.903	24956.66
572.265	25327.95
572.626	25498.57
572.987	25618.79
573.349	25839.12
573.71	26021.04
574.071	26223.52
574.432	26509.84
574.794	26841.13
575.155	26868.47
575.516	26988.02
575.877	27237.05
576.238	27352.3
576.599	27551.62
576.96	27762.69
577.32	27862.35
577.681	28021.21
578.042	28250.81
578.403	28305.05
578.763	28543.68
579.124	28782.55
579.485	28892.15
579.845	29202.42
580.206	29063.9
580.566	29481.96
580.927	29393.15
581.287	29771
581.648	29766.03
582.008	30125.34
582.368	30119.91
582.728	30297.31
583.089	30336.41
583.449	30486.91
583.809	30580.92
584.169	30729.39
584.529	30845.32
584.889	31117.4
585.249	31076.95
585.609	31177.97
585.969	31305.87
586.329	31443.04
586.688	31607.78
587.048	31656.37
587.408	31706.77
587.768	31746.76
588.127	31912.64
588.487	31857.27
588.846	32151.95
589.206	32099.3
589.565	32273.76
589.925	32513.07
590.284	32705.61
590.643	32774.53
591.003	32779.28
591.362	32996.67
591.721	32988.77
592.08	33065.6
592.44	33322.99
592.799	33396.21
593.158	33283.67
593.517	33386.27
593.876	33570.67
594.235	33594.17
594.593	33799.37
594.952	33969.53
595.311	34055.4
595.67	34020.15
596.029	34384.21
596.387	34462.85
596.746	34534.49
597.104	34527.93
597.463	34389.41
597.822	34639.57
598.18	34745.1
598.538	34943.29
598.897	34973.57
599.255	34815.84
599.613	35420.57
599.972	35359.32
600.33	35416.5
600.688	35371.53
601.046	35744.4
601.404	35868.92
601.762	35863.04
602.12	36090.38
602.478	36278.4
602.836	36168.79
603.194	36057.16
603.552	36433.19
603.91	36322.46
604.268	36589.12
604.625	36610.14
604.983	36850.13
605.341	36645.17
605.698	37000.86
606.056	37148.2
606.413	37249.44
606.771	37397.01
607.128	37542.77
607.485	37406.5
607.843	37562.66
608.2	37786.61
608.557	38006.49
608.914	37767.62
609.272	38237.67
609.629	38334.16
609.986	38403.31
610.343	38375.97
610.7	38707.49
611.057	38685.34
611.414	38716.52
611.771	38853.7
612.127	38982.96
612.484	39216.4
612.841	39410.29
613.198	39140.24
613.554	39370.07
613.911	39750.62
614.267	39692.54
614.624	39847.34
614.98	39909.94
615.337	40233.77
615.693	40198.07
616.05	40292.08
616.406	40389.25
616.762	40391.51
617.118	40501.11
617.475	40507.89
617.831	40881.44
618.187	40867.2
618.543	41054.32
618.899	41208.44
619.255	41044.15
619.611	41092.96
619.967	41371.37
620.323	41598.03
620.678	41523.23
621.034	41470.12
621.39	41519.39
621.746	41507.19
622.101	42008.87
622.457	41708.31
622.812	41746.95
623.168	42117.11
623.523	42035.99
623.879	42273.49
624.234	41979.94
624.589	42348.29
624.945	42345.36
625.3	42448.86
625.655	42433.26
626.01	42525.46
626.365	42552.13
626.72	42679.81
627.075	42709.19
627.43	42805.46
627.785	42586.25
628.14	42813.59
628.495	42972.91
628.85	42852.91
629.205	42915.06
629.559	43260.13
629.914	42888.39
630.269	43010.87
630.623	43109.18
630.978	43020.14
631.332	43254.48
631.687	43258.55
632.041	43284.54
632.396	43415.84
632.75	43224.2
633.104	43397.53
633.459	43150.98
633.813	43260.13
634.167	43268.72
634.521	43292.22
634.875	43490.18
635.229	43378.55
635.583	43262.17
635.937	43260.81
636.291	43375.84
636.645	43515.27
636.999	43486.12
637.352	43562.5
637.706	43251.09
638.06	43609.28
638.413	43527.02
638.767	43494.7
639.121	43676.17
639.474	43363.18
639.828	43422.16
640.181	43582.61
640.534	43467.36
640.888	43511.65
641.241	43372.9
641.594	43595.49
641.947	43514.82
642.301	43582.39
642.654	43607.02
643.007	43747.58
643.36	43732.44
643.713	43721.59
644.066	43893.11
644.419	43673.91
644.771	43374.48
645.124	43247.7
645.477	43141.72
645.83	43009.29
646.182	42852.46
646.535	42775.4
646.888	42859.92
647.24	42711.9
647.593	42848.39
647.945	42957.99
648.298	42715.06
648.65	42531.34
649.002	42437.33
649.355	42893.59
649.707	42845
650.059	43068.95
650.411	43478.43
650.763	43703.74
651.115	44059.43
651.467	44055.14
651.819	44007.91
652.171	44007.23
652.523	43948.25
652.875	43899.89
653.227	43912.77
653.578	44163.39
653.93	44064.18
654.282	43928.14
654.633	43844.98
654.985	43980.79
655.337	44077.29
655.688	44228.47
656.039	44289.49
656.391	43897.86
656.742	44157.96
657.094	44193.22
657.445	44317.06
657.796	44272.08
658.147	44228.47
658.498	44260.11
658.849	44311.41
659.2	44301.69
659.551	44273.67
659.902	44477.73
660.253	44381.91
660.604	44610.38
660.955	44382.14
661.306	44594.11
661.656	44570.83
662.007	44527.22
662.358	44716.82
662.708	44697.38
663.059	44736.03
663.409	44525.64
663.76	44768.12
664.11	44756.82
664.461	44953.42
664.811	44909.58
665.161	44896.7
665.511	44831.17
665.862	44836.36
666.212	45096.24
666.562	45023.93
666.912	45043.82
667.262	44872.52
667.612	45061.44
667.962	45067.54
668.312	45058.73
668.662	45333.75
669.011	45303.47
669.361	45177.82
669.711	45180.76
670.06	45185.05
670.41	45345.73
670.76	45300.98
671.109	45455.56
671.459	45462.56
671.808	45344.82
672.157	45538.94
672.507	45309.12
672.856	45247.88
673.205	45288.1
673.554	45456.01
673.904	45374.43
674.253	45597.25
674.602	45502.11
674.951	45133.3
675.3	44721.11
675.649	45524.03
675.998	45506.63
676.346	45644.25
676.695	45849.22
677.044	45686.74
677.393	45687.64
677.741	45715.89
678.09	45663.23
678.438	45680.18
678.787	45863
679.135	45789.33
679.484	45624.59
679.832	45782.1
680.181	45585.04
680.529	45823.68
680.877	45600.64
681.225	45607.42
681.573	45971.25
681.922	45751.14
682.27	45630.01
682.618	45600.86
682.966	45551.15
683.314	45607.19
683.661	45548.21
684.009	45381.21
684.357	45480.64
684.705	45271.38
685.053	45608.32
685.4	45456.46
685.748	45325.39
686.095	45362.68
686.443	45345.95
686.79	45315.9
687.138	45432.51
687.485	45387.76
687.832	45221.44
688.18	45270.48
688.527	45115.9
688.874	45265.5
689.221	45106.86
689.568	44948.45
689.915	45046.08
690.262	45078.84
690.609	45047.21
690.956	44901.22
691.303	44816.7
691.65	44708.91
691.997	44821.45
692.344	44649.02
692.69	44613.32
693.037	44775.57
693.383	44347.56
693.73	44654.45
694.077	44356.15
694.423	44287.23
694.769	44141.47
695.116	44252.2
695.462	44241.12
695.808	44077.29
696.155	44309.6
696.501	44030.73
696.847	44027.8
697.193	43743.28
697.539	43877.97
697.885	43655.83
698.231	43683.17
698.577	43669.16
698.923	43542.39
699.269	43362.28
699.614	43302.62
699.96	43339.91
700.306	43483.86
700.651	43195.05
700.997	43123.87
701.342	43159.57
701.688	43012.68
702.033	42875.96
702.379	43095.39
702.724	43056.52
703.069	43084.55
703.415	42714.39
703.76	42814.27
704.105	42714.61
704.45	42726.81
704.795	42674.16
705.14	42561.17
705.485	42531.79
705.83	42344.68
706.175	42395.75
706.52	42557.55
706.865	42312.14
707.209	42195.08
707.554	42201.4
707.899	42233.95
708.243	42322.53
708.588	42125.02
708.932	41902.43
709.277	41963.9
709.621	41964.35
709.966	41642.78
710.31	41866.5
710.654	41534.53
710.998	41731.36
711.342	41724.58
711.687	41658.82
712.031	41612.72
712.375	41582.66
712.719	41748.76
713.063	41591.03
713.407	41654.53
713.75	41301.09
714.094	41440.29
714.438	41306.06
714.782	41442.55
715.125	41249.11
715.469	41368.88
715.812	41395.55
716.156	41135.22
716.499	41159.4
716.843	41201.88
717.186	40975.9
717.53	41299.96
717.873	41200.98
718.216	41292.95
718.559	40986.07
718.902	40807.54
719.246	40825.17
719.589	40826.3
719.932	40693.2
720.275	40796.7
720.617	41029.46
720.96	40772.29
721.303	40878.28
721.646	40752.18
721.989	40802.57
722.331	40894.32
722.674	40713.08
723.016	40962.12
723.359	40670.15
723.701	40842.34
724.044	40536.14
724.386	40481.45
724.729	40598.06
725.071	40453.2
725.413	40459.98
725.755	40327.33
726.097	40269.03
726.439	40184.96
726.782	40341.57
727.124	40550.15
727.465	40309.02
727.807	40355.13
728.149	40160.55
728.491	40203.26
728.833	40099.09
729.175	40088.69
729.516	40130.5
729.858	40098.18
730.199	40214.34
730.541	40085.3
730.882	40035.59
731.224	40144.51
731.565	40013.67
731.906	40032.65
732.248	40033.55
732.589	39920.56
732.93	39878.08
733.271	40041.01
733.612	40139.31
733.953	40108.13
734.294	39938.19
734.635	39996.26
734.976	39986.55
735.317	39628.36
735.658	39652.77
735.999	39839.43
736.339	39810.28
736.68	39901.35
737.021	39785.2
737.361	39642.83
737.702	39758.98
738.042	39514.92
738.383	39694.13
738.723	39832.43
739.063	39681.47
739.404	39727.57
739.744	39753.79
740.084	39476.5
740.424	39621.59
740.764	39579.78
741.104	39734.58
741.444	39504.98
741.784	39351.99
742.124	39545.88
742.464	39549.27
742.804	39524.19
743.143	39585.43
743.483	39620.91
743.823	39277.41
744.162	39446.22
744.502	39600.34
744.841	39281.93
745.181	39481.02
745.52	39336.4
745.86	39340.24
746.199	39354.7
746.538	39473.57
746.877	39561.93
747.216	39349.95
747.556	39087.14
747.895	39238.09
748.234	39134.37
748.573	39286.23
748.911	39194.03
749.25	39259.56
749.589	39199.22
749.928	39172.33
750.267	39220.24
750.605	38969.63
750.944	39055.05
751.283	39045.33
751.621	39100.47
751.96	38821.38
752.298	38918.78
752.636	38816.63
752.975	38650.31
753.313	38531.44
753.651	38688.5
753.989	38441.28
754.327	38575.51
754.666	38418.23
755.004	38354.27
755.342	38539.35
755.679	38361.51
756.017	38223.43
756.355	38314.73
756.693	38140.04
757.031	38321.05
