Data from copper_heatsink_FLMS001491_047.txt Node
Date: Tue Feb 07 10:50:01 GMT 2017
User: dcchb
Spectrometer: FLMS00149
Trigger mode: 0
Integration Time (sec): 2.000000E-2
Scans to average: 10
Electric dark correction enabled: true
Nonlinearity correction enabled: false
Boxcar width: 0
XAxis mode: Wavelengths
Number of Pixels in Spectrum: 2048
>>>>>Begin Spectral Data<<<<<
341.393	1.13
341.776	1.13
342.16	1.13
342.543	-58.08
342.927	-56.5
343.31	-65.31
343.693	-44.07
344.077	-61.69
344.46	-49.72
344.843	-52.43
345.226	-42.71
345.61	-51.52
345.993	-8.59
346.376	4.52
346.759	3.62
347.142	30.28
347.525	43.84
347.908	48.81
348.291	54.46
348.674	78.42
349.057	112.09
349.44	144.63
349.823	136.49
350.206	178.07
350.588	199.99
350.971	235.47
351.354	260.78
351.737	267.79
352.119	270.28
352.502	280.44
352.884	302.59
353.267	295.81
353.65	319.09
354.032	332.65
354.414	349.37
354.797	343.72
355.179	326.77
355.562	335.81
355.944	367.45
356.326	367.9
356.709	379.88
357.091	369.03
357.473	364.28
357.855	350.5
358.238	386.66
358.62	367
359.002	376.71
359.384	347.11
359.766	358.86
360.148	367
360.53	355.24
360.912	352.76
361.294	374.23
361.676	366.77
362.057	366.32
362.439	363.61
362.821	373.1
363.203	369.48
363.584	358.86
363.966	350.73
364.348	350.05
364.729	368.8
365.111	347.34
365.493	373.1
365.874	346.66
366.256	322.25
366.637	371.06
367.019	336.71
367.4	341.69
367.781	350.05
368.163	344.4
368.544	374.91
368.925	343.95
369.306	352.76
369.688	329.03
370.069	345.98
370.45	350.73
370.831	345.53
371.212	348.47
371.593	339.88
371.974	364.96
372.355	349.14
372.736	351.63
373.117	343.04
373.498	366.77
373.879	352.99
374.26	357.96
374.641	358.63
375.021	344.62
375.402	334.91
375.783	343.04
376.163	393.89
376.544	360.22
376.925	375.36
377.305	371.74
377.686	364.06
378.066	373.1
378.447	368.58
378.827	383.49
379.208	375.36
379.588	377.62
379.968	361.12
380.349	395.02
380.729	401.12
381.109	368.8
381.489	401.57
381.87	393.21
382.25	393.66
382.63	367.9
383.01	396.37
383.39	383.49
383.77	393.66
384.15	405.64
384.53	394.11
384.91	414.9
385.29	383.94
385.67	402.7
386.049	413.77
386.429	402.7
386.809	392.31
387.189	423.04
387.568	418.07
387.948	437.05
388.328	416.03
388.707	413.32
389.087	421.68
389.466	398.63
389.846	428.24
390.225	414.23
390.605	443.83
390.984	434.11
391.363	423.49
391.743	435.02
392.122	429.82
392.501	424.62
392.881	447.67
393.26	442.47
393.639	435.24
394.018	446.54
394.397	439.54
394.776	471.17
395.155	470.04
395.534	486.54
395.913	453.32
396.292	454.23
396.671	461.68
397.05	457.16
397.429	477.73
397.808	452.64
398.186	465.52
398.565	454.9
398.944	472.3
399.323	473.66
399.701	470.72
400.08	472.08
400.458	473.43
400.837	493.32
401.215	480.89
401.594	504.85
401.972	523.6
402.351	490.16
402.729	511.85
403.107	532.19
403.486	520.21
403.864	508.01
404.242	510.95
404.62	534.22
404.999	531.51
405.377	499.2
405.755	532.42
406.133	532.42
406.511	543.94
406.889	537.61
407.267	537.61
407.645	546.43
408.023	555.47
408.401	552.98
408.779	557.5
409.156	554.56
409.534	557.5
409.912	579.65
410.29	575.35
410.667	571.06
411.045	576.93
411.422	614.67
411.8	587.78
412.178	615.8
412.555	614.67
412.933	636.37
413.31	632.3
413.687	628.68
414.065	627.33
414.442	626.88
414.819	616.93
415.197	650.6
415.574	661.45
415.951	667.33
416.328	661
416.705	652.64
417.082	660.1
417.46	671.17
417.837	673.88
418.214	668.46
418.591	660.77
418.967	681.56
419.344	683.37
419.721	689.25
420.098	682.47
420.475	699.64
420.852	707.33
421.228	693.54
421.605	715.69
421.982	720.88
422.358	705.52
422.735	731.28
423.111	722.24
423.488	736.48
423.864	745.07
424.241	761.79
424.617	744.39
424.994	743.26
425.37	761.56
425.746	761.34
426.123	765.18
426.499	753.65
426.875	760.66
427.251	786.87
427.627	815.8
428.003	789.58
428.379	820.77
428.756	796.82
429.132	828.45
429.507	855.34
429.883	866.64
430.259	852.41
430.635	869.81
431.011	872.07
431.387	886.76
431.763	886.98
432.138	911.84
432.514	909.13
432.89	908.22
433.265	917.04
433.641	943.48
434.016	932.63
434.392	952.07
434.767	982.35
435.143	944.38
435.518	981.22
435.894	966.98
436.269	1006.53
436.644	1008.79
437.02	1002.46
437.395	1042.68
437.77	996.36
438.145	1054.21
438.52	1045.85
438.895	1066.19
439.271	1057.6
439.646	1058.5
440.021	1088.78
440.395	1062.57
440.77	1103.93
441.145	1066.64
441.52	1125.62
441.895	1112.29
442.27	1136.69
442.645	1133.76
443.019	1140.31
443.394	1147.09
443.769	1153.64
444.143	1154.32
444.518	1195.22
444.892	1155.68
445.267	1169.01
445.641	1192.74
446.016	1204.71
446.39	1201.55
446.764	1235.22
447.139	1194.32
447.513	1216.47
447.887	1235.22
448.262	1231.15
448.636	1221.66
449.01	1263.02
449.384	1298.95
449.758	1266.18
450.132	1270.25
450.506	1272.28
450.88	1312.96
451.254	1310.7
451.628	1327.87
452.002	1326.97
452.376	1324.26
452.75	1334.43
453.123	1366.97
453.497	1401.32
453.871	1412.17
454.244	1429.34
454.618	1426.4
454.992	1431.83
455.365	1410.13
455.739	1455.78
456.112	1481.09
456.486	1520.64
456.859	1490.36
457.232	1544.14
457.606	1489.68
457.979	1543.69
458.352	1576.91
458.725	1592.73
459.099	1618.71
459.472	1633.18
459.845	1669.11
460.218	1689.45
460.591	1689
460.964	1710.46
461.337	1731.25
461.71	1755.66
462.083	1792.04
462.456	1745.49
462.829	1773.74
463.201	1795.43
463.574	1817.58
463.947	1862.1
464.32	1889.67
464.692	1894.87
465.065	1912.04
465.438	1962.66
465.81	1968.99
466.183	1952.04
466.555	1983
466.928	2037.91
467.3	2025.26
467.672	2026.84
468.045	2107.52
468.417	2099.15
468.789	2128.98
469.161	2162.88
469.534	2191.35
469.906	2226.16
470.278	2266.38
470.65	2285.36
471.022	2328.53
471.394	2328.3
471.766	2405.13
472.138	2404.23
472.51	2437.68
472.882	2498.01
473.253	2500.5
473.625	2540.72
473.997	2573.04
474.369	2597.67
474.74	2665.24
475.112	2682.19
475.484	2714.96
475.855	2750.66
476.227	2807.61
476.598	2875.18
476.97	2911.56
477.341	2977.32
477.713	3003.31
478.084	3054.38
478.455	3086.92
478.827	3132.57
479.198	3278.78
479.569	3247.82
479.94	3309.74
480.311	3358.33
480.682	3437.2
481.053	3503.86
481.424	3586.35
481.795	3603.97
482.166	3637.42
482.537	3710.64
482.908	3792.67
483.279	3837.87
483.65	3877.19
484.021	3994.92
484.391	4027.24
484.762	4082.83
485.133	4083.51
485.503	4148.82
485.874	4240.57
486.244	4295.48
486.615	4392.43
486.985	4455.02
487.356	4501.8
487.726	4574.79
488.097	4675.58
488.467	4780.44
488.837	4772.76
489.207	4846.65
489.578	4946.99
489.948	4990.15
490.318	5114.22
490.688	5074.22
491.058	5164.84
491.428	5257.49
491.798	5306.75
492.168	5432.85
492.538	5465.62
492.908	5539.29
493.278	5589.01
493.648	5566.41
494.017	5705.16
494.387	5709.68
494.757	5868.77
495.126	5889.79
495.496	5894.76
495.866	6014.53
496.235	6043.23
496.605	6136.11
496.974	6214.98
497.344	6240.97
497.713	6277.12
498.082	6354.64
498.452	6453.16
498.821	6518.02
499.19	6530.68
499.559	6599.6
499.928	6650.9
500.298	6669.2
500.667	6797.79
501.036	6845.24
501.405	6960.95
501.774	6889.31
502.143	7024.45
502.512	7044.33
502.88	7132.92
503.249	7145.35
503.618	7212.69
503.987	7326.14
504.356	7350.54
504.724	7430.31
505.093	7504.21
505.462	7518.22
505.83	7626.01
506.199	7702.85
506.567	7818.78
506.936	7832.56
507.304	7957.08
507.672	8043.63
508.041	8016.96
508.409	8107.13
508.777	8211.99
509.145	8304.87
509.514	8287.01
509.882	8385.09
510.25	8446.56
510.618	8553.67
510.986	8600
511.354	8705.99
511.722	8831.18
512.09	8882.7
512.458	8961.57
512.826	9042.7
513.193	9126.54
513.561	9117.05
513.929	9283.37
514.297	9257.84
514.664	9436.59
515.032	9536.02
515.4	9555.23
515.767	9657.83
516.135	9750.7
516.502	9711.84
516.869	9881.55
517.237	9976.23
517.604	10040.41
517.972	10245.15
518.339	10221.43
518.706	10275.89
519.073	10407.18
519.44	10501.87
519.808	10650.12
520.175	10637.23
520.542	10809.89
520.909	10925.36
521.276	10936.89
521.643	11069.99
522.009	11208.07
522.376	11273.6
522.743	11451
523.11	11560.37
523.477	11672.91
523.843	11800.59
524.21	11971.21
524.577	12096.63
524.943	12133.92
525.31	12173.69
525.676	12354.93
526.043	12528.26
526.409	12600.12
526.776	12764.86
527.142	12744.3
527.508	12892.54
527.874	13048.7
528.241	13154.46
528.607	13184.96
528.973	13347.45
529.339	13423.38
529.705	13589.02
530.071	13693.88
530.437	13844.61
530.803	13939.07
531.169	14087.09
531.535	14083.02
531.901	14221.32
532.267	14289.79
532.632	14371.37
532.998	14503.35
533.364	14634.64
533.73	14780.4
534.095	14901.98
534.461	14972.04
534.826	15120.96
535.192	15175.65
535.557	15391.23
535.923	15385.36
536.288	15527.5
536.653	15618.57
537.019	15620.83
537.384	15825.57
537.749	15934.95
538.114	15937.43
538.479	16132.01
538.845	16223.08
539.21	16260.82
539.575	16394.37
539.94	16504.2
540.305	16525.89
540.67	16600.69
541.034	16712.33
541.399	16876.84
541.764	16992.1
542.129	17153.9
542.494	17248.59
542.858	17412.65
543.223	17480.44
543.587	17679.76
543.952	17618.52
544.316	17839.76
544.681	17782.13
545.045	17972.86
545.41	18223.02
545.774	18333.08
546.138	18412.4
546.503	18421.66
546.867	18652.39
547.231	18805.61
547.595	18888.32
547.959	19040.4
548.324	19122.89
548.688	19238.59
549.052	19474.52
549.416	19441.52
549.779	19636.09
550.143	19870.66
550.507	19900.27
550.871	20218.9
551.235	20210.32
551.599	20517.88
551.962	20647.37
552.326	20831.09
552.689	20859.79
553.053	20944.08
553.417	21205.77
553.78	21474.24
554.143	21471.75
554.507	21783.16
554.87	21981.57
555.234	22199.19
555.597	22185.86
555.96	22492.74
556.323	22701.32
556.686	22823.35
557.05	23156.68
557.413	23259.95
557.776	23423.79
558.139	23610
558.502	23848.41
558.865	24038.46
559.228	24416.31
559.59	24601.61
559.953	24755.51
560.316	25110.98
560.679	25329.73
561.041	25598.2
561.404	25888.13
561.767	26189.37
562.129	26435.69
562.492	26661.67
562.854	26758.84
563.217	27005.17
563.579	27485.38
563.941	27712.27
564.304	27921.53
564.666	28277
565.028	28442.64
565.39	28625.69
565.753	29089.18
566.115	29323.07
566.477	29666.56
566.839	29922.83
567.201	30368.92
567.563	30525.53
567.925	30862.24
568.287	31048.22
568.648	31287.76
569.01	31796
569.372	32117.8
569.734	32243.22
570.095	32602.53
570.457	33035.29
570.819	33170.2
571.18	33456.3
571.542	33811.77
571.903	34111.42
572.265	34487.91
572.626	34797.96
572.987	34942.81
573.349	35245.63
573.71	35580.53
574.071	36019.39
574.432	36289.67
574.794	36599.04
575.155	36741.18
575.516	36825.47
575.877	37295.97
576.238	37555.17
576.599	37764.2
576.96	38076.29
577.32	38383.4
577.681	38681.02
578.042	39055.02
578.403	39176.37
578.763	39469.24
579.124	39761.21
579.485	39969.12
579.845	40323.23
580.206	40440.29
580.566	40665.6
580.927	41014.29
581.287	41287.73
581.648	41200.5
582.008	41712.35
582.368	41689.3
582.728	42077.31
583.089	42183.75
583.449	42477.3
583.809	42590.52
584.169	42858.53
584.529	42955.25
584.889	43444.96
585.249	43340.1
585.609	43617.61
585.969	43843.14
586.329	43823.25
586.688	44027.32
587.048	44157.26
587.408	44232.06
587.768	44498.49
588.127	44742.1
588.487	44904.58
588.846	45205.59
589.206	45155.42
589.565	45386.15
589.925	45694.84
590.284	45587.28
590.643	45830.66
591.003	46082.86
591.362	46224.1
591.721	46375.05
592.08	46537.99
592.44	46893
592.799	46805.32
593.158	46962.16
593.517	47084.19
593.876	47365.53
594.235	47407.57
594.593	47697.05
594.952	47775.01
595.311	47731.4
595.67	48041.9
596.029	48259.52
596.387	48407.31
596.746	48485.28
597.104	48514.66
597.463	48648.44
597.822	48786.74
598.18	48914.19
598.538	48955.32
598.897	49218.82
599.255	49178.82
599.613	49878.24
599.972	49788.07
600.33	50011.79
600.688	50001.85
601.046	50117.33
601.404	50341.73
601.762	50402.06
602.12	50612.23
602.478	50741.26
602.836	50848.38
603.194	50869.4
603.552	50982.61
603.91	50994.82
604.268	51289.72
604.625	51251.08
604.983	51472.32
605.341	51411.76
605.698	51663.73
606.056	51879.31
606.413	51890.16
606.771	52069.14
607.128	52133.09
607.485	52136.48
607.843	52352.3
608.2	52672.06
608.557	52822.34
608.914	52772.17
609.272	52917.93
609.629	53047.87
609.986	53226.17
610.343	53196.79
610.7	53375.55
611.057	53431.36
611.414	53566.5
611.771	53670.91
612.127	53950.22
612.484	53873.39
612.841	54177.78
613.198	54098.92
613.554	54167.62
613.911	54408.74
614.267	54505.01
614.624	54476.76
614.98	54649.18
615.337	54839.69
615.693	54904.09
616.05	54901.83
616.406	55169.85
616.762	55137.53
617.118	55138.44
617.475	55186.35
617.831	55381.82
618.187	55547.01
618.543	55498.65
618.899	55763.05
619.255	55744.52
619.611	55887.57
619.967	55953.78
620.323	56072.65
620.678	56027.68
621.034	56055.93
621.39	56168.01
621.746	56111.52
622.101	56521.68
622.457	56312.64
622.812	56485.75
623.168	56648.68
623.523	56659.53
623.879	56785.4
624.234	56725.06
624.589	56862.91
624.945	56869.24
625.3	56911.27
625.655	56993.53
626.01	57038.05
626.365	57128.44
626.72	57117.37
627.075	57227.87
627.43	57199.17
627.785	57239.17
628.14	57327.31
628.495	57487.75
628.85	57386.51
629.205	57327.76
629.559	57538.6
629.914	57450.01
630.269	57514.42
630.623	57564.14
630.978	57529.79
631.332	57685.94
631.687	57840.29
632.041	57730.46
632.396	57765.71
632.75	57713.06
633.104	57893.62
633.459	57849.33
633.813	57826.05
634.167	57931.81
634.521	57900.4
634.875	58004.35
635.229	57992.83
635.583	57881.64
635.937	57965.03
636.291	57997.8
636.645	58040.51
636.999	57964.58
637.352	58084.12
637.706	58014.97
638.06	58128.64
638.413	58068.76
638.767	58066.5
639.121	58171.35
639.474	58081.64
639.828	58144.46
640.181	58245.93
640.534	58229.2
640.888	58193.27
641.241	58205.93
641.594	58283.21
641.947	58353.04
642.301	58304.91
642.654	58409.99
643.007	58361.4
643.36	58445.69
643.713	58379.93
644.066	58548.07
644.419	58473.72
644.771	58428.75
645.124	58284.57
645.477	58317.34
645.83	58120.96
646.182	57980.85
646.535	57863.79
646.888	57899.72
647.24	57779.5
647.593	57910.57
647.945	57963.67
648.298	57880.29
648.65	57821.76
649.002	57781.76
649.355	57939.04
649.707	57984.69
650.059	58240.73
650.411	58526.6
650.763	58540.16
651.115	58854.27
651.467	58852.92
651.819	58834.61
652.171	58770.43
652.523	58763.2
652.875	58784.89
653.227	58788.96
653.578	59052.46
653.93	58909.19
654.282	58825.35
654.633	58826.7
654.985	58925.23
655.337	58980.82
655.688	58939.69
656.039	59047.49
656.391	58905.34
656.742	58987.15
657.094	59018.11
657.445	59197.31
657.796	59110.54
658.147	59098.56
658.498	58990.99
658.849	59203.19
659.2	59122.06
659.551	59058.11
659.902	59206.35
660.253	59172.91
660.604	59231.89
660.955	59201.61
661.306	59285.67
661.656	59306.01
662.007	59291.77
662.358	59320.7
662.708	59378.1
663.059	59389.17
663.409	59275.28
663.76	59482.5
664.11	59394.6
664.461	59501.71
664.811	59496.74
665.161	59467.36
665.511	59482.28
665.862	59512.56
666.212	59669.62
666.562	59663.97
666.912	59726.79
667.262	59694.02
667.612	59738.09
667.962	59797.07
668.312	59768.6
668.662	59904.19
669.011	59891.98
669.361	59909.84
669.711	59891.53
670.06	59929.95
670.41	59915.94
670.76	59901.93
671.109	59987.35
671.459	59976.28
671.808	59951.87
672.157	60075.26
672.507	59899.22
672.856	59927.46
673.205	60053.56
673.554	60100.57
673.904	60044.3
674.253	60278.64
674.602	60164.29
674.951	59766.56
675.3	59701.03
675.649	60105.76
675.998	60199.1
676.346	60196.61
676.695	60341.01
677.044	60087.23
677.393	60251.52
677.741	60292.2
678.09	60211.07
678.438	60168.81
678.787	60214.01
679.135	60289.26
679.484	60095.82
679.832	60230.96
680.181	60045.65
680.529	60221.24
680.877	60272.31
681.225	60243.16
681.573	60363.84
681.922	60218.08
682.27	60156.16
682.618	60245.87
682.966	60160.23
683.314	60242.26
683.661	60190.51
684.009	60149.6
684.357	60179.43
684.705	60177.63
685.053	60218.76
685.4	60177.85
685.748	60044.07
686.095	60077.06
686.443	60048.14
686.79	60074.35
687.138	60136.5
687.485	60131.53
687.832	60093.79
688.18	60074.13
688.527	59926.79
688.874	59964.07
689.221	59849.5
689.568	59906.67
689.915	59862.15
690.262	59936.05
690.609	59844.75
690.956	59830.97
691.303	59822.83
691.65	59647.02
691.997	59743.97
692.344	59608.15
692.69	59691.54
693.037	59755.49
693.383	59484.76
693.73	59604.99
694.077	59464.2
694.423	59482.28
694.769	59468.94
695.116	59381.72
695.462	59391.43
695.808	59332.23
696.155	59479.11
696.501	59273.02
696.847	59243.19
697.193	59217.2
697.539	59223.53
697.885	59101.95
698.231	59025.34
698.577	59081.84
698.923	59044.55
699.269	58902.18
699.614	58889.98
699.96	58807.49
700.306	58891.78
700.651	58837.55
700.997	58784.9
701.342	58764.78
701.688	58754.39
702.033	58664.9
702.379	58698.57
702.724	58700.6
703.069	58707.16
703.415	58446.15
703.76	58487.73
704.105	58492.93
704.45	58526.82
704.795	58399.59
705.14	58357.56
705.485	58372.48
705.83	58190.33
706.175	58253.61
706.52	58181.07
706.865	58155.53
707.209	58143.33
707.554	58093.61
707.899	58184.68
708.243	58115.53
708.588	58070.79
708.932	57834.41
709.277	57898.14
709.621	57907.4
709.966	57795.77
710.31	57926.61
710.654	57629.9
710.998	57731.59
711.342	57715.09
711.687	57688.43
712.031	57633.96
712.375	57514.87
712.719	57591.48
713.063	57600.97
713.407	57697.01
713.75	57557.81
714.094	57581.99
714.438	57484.59
714.782	57502.67
715.125	57418.38
715.469	57473.97
715.812	57412.05
716.156	57261.55
716.499	57300.64
716.843	57324.59
717.186	57201.89
717.53	57352.39
717.873	57309.68
718.216	57295.22
718.559	57285.27
718.902	57118.5
719.246	57209.57
719.589	57102.68
719.932	56999.63
720.275	57020.2
720.617	57020.87
720.96	57045.28
721.303	56927.54
721.646	56965.73
721.989	56886.64
722.331	56981.1
722.674	56897.49
723.016	56943.81
723.359	56909.46
723.701	56982
724.044	56792.41
724.386	56818.62
724.729	56915.57
725.071	56688
725.413	56736.14
725.755	56740.43
726.097	56636.02
726.439	56544.5
726.782	56584.5
727.124	56758.28
727.465	56605.52
727.807	56581.56
728.149	56619.53
728.491	56480.32
728.833	56591.96
729.175	56501.11
729.516	56538.63
729.858	56462.47
730.199	56595.12
730.541	56490.94
730.882	56460.21
731.224	56455.46
731.565	56345.19
731.906	56427.89
732.248	56433.32
732.589	56294.57
732.93	56225.64
733.271	56236.04
733.612	56234.91
733.953	56261.12
734.294	56135.47
734.635	56142.03
734.976	56210.5
735.317	56116.72
735.658	56107.9
735.999	56053.22
736.339	56107.45
736.68	56155.36
737.021	56038.3
737.361	55991.97
737.702	56098.41
738.042	55900.68
738.383	56007.57
738.723	55965.08
739.063	55869.04
739.404	56018.64
739.744	55989.94
740.084	55897.29
740.424	55940.45
740.764	55798.53
741.104	56000.34
741.444	55874.01
741.784	55734.81
742.124	55807.12
742.464	55867.46
742.804	55815.71
743.143	55733
743.483	55712.89
743.823	55565.32
744.162	55622.49
744.502	55648.25
744.841	55529.16
745.181	55697.97
745.52	55537.3
745.86	55718.53
746.199	55712.89
746.538	55725.09
746.877	55698.2
747.216	55734.13
747.556	55676.95
747.895	55575.94
748.234	55350.18
748.573	55326.45
748.911	55308.83
749.25	55246.46
749.589	55242.62
749.928	55278.32
750.267	55216.63
750.605	55239.68
750.944	55263.63
751.283	55122.62
751.621	55165.33
751.96	55017.76
752.298	54959.01
752.636	55068.83
752.975	54999.46
753.313	54945.9
753.651	55058.89
753.989	54792.01
754.327	54780.03
754.666	54724.89
755.004	54755.4
755.342	54727.83
755.679	54731.89
756.017	54566.47
756.355	54625
756.693	54520.37
