Data from copper_heatsink_FLMS001491_089.txt Node
Date: Tue Feb 07 10:50:43 GMT 2017
User: dcchb
Spectrometer: FLMS00149
Trigger mode: 0
Integration Time (sec): 2.000000E-2
Scans to average: 10
Electric dark correction enabled: true
Nonlinearity correction enabled: false
Boxcar width: 0
XAxis mode: Wavelengths
Number of Pixels in Spectrum: 2048
>>>>>Begin Spectral Data<<<<<
341.393	-15.4
341.776	-15.4
342.16	-15.4
342.543	-47.26
342.927	-63.3
343.31	-62.85
343.693	-85.9
344.077	-68.28
344.46	-53.59
344.843	-45.9
345.226	-48.61
345.61	-30.99
345.993	-9.29
346.376	-11.1
346.759	3.36
347.142	33.42
347.525	48.78
347.908	51.95
348.291	84.49
348.674	84.49
349.057	110.03
349.44	136.47
349.823	123.13
350.206	165.62
350.588	220.3
350.971	242.45
351.354	242
351.737	257.82
352.119	254.2
352.502	271.6
352.884	283.58
353.267	295.78
353.65	298.49
354.032	292.39
354.414	308.21
354.797	330.36
355.179	345.27
355.562	340.08
355.944	340.98
356.326	369.45
356.709	345.27
357.091	351.15
357.473	354.09
357.855	356.57
358.238	383.01
358.62	356.57
359.002	357.7
359.384	369.23
359.766	368.78
360.148	353.86
360.53	358.38
360.912	348.21
361.294	379.17
361.676	351.6
362.057	340.53
362.439	362.22
362.821	367.19
363.203	347.76
363.584	356.57
363.966	341.43
364.348	365.84
364.729	349.57
365.111	341.88
365.493	358.15
365.874	327.65
366.256	337.14
366.637	328.78
367.019	326.06
367.4	331.94
367.781	351.83
368.163	325.39
368.544	341.43
368.925	351.15
369.306	367.65
369.688	325.84
370.069	338.95
370.45	370.13
370.831	342.79
371.212	353.18
371.593	327.19
371.974	345.5
372.355	348.44
372.736	344.82
373.117	332.84
373.498	336.69
373.879	368.78
374.26	357.7
374.641	356.8
375.021	368.78
375.402	334.65
375.783	356.35
376.163	353.86
376.544	358.61
376.925	372.84
377.305	376.23
377.686	350.02
378.066	377.14
378.447	382.33
378.827	361.32
379.208	377.14
379.588	363.13
379.968	371.49
380.349	389.57
380.729	371.26
381.109	372.84
381.489	389.57
381.87	356.57
382.25	375.1
382.63	388.66
383.01	401.09
383.39	399.51
383.77	398.15
384.15	404.48
384.53	390.47
384.91	406.29
385.29	396.12
385.67	407.87
386.049	409.9
386.429	407.87
386.809	407.87
387.189	408.1
387.568	431.15
387.948	403.35
388.328	425.05
388.707	413.29
389.087	426.18
389.466	423.92
389.846	442.45
390.225	430.47
390.605	446.51
390.984	423.92
391.363	425.95
391.743	409.9
392.122	444.71
392.501	450.81
392.881	446.97
393.26	426.63
393.639	415.55
394.018	425.05
394.397	449.68
394.776	466.4
395.155	454.65
395.534	438.83
395.913	451.71
396.292	454.65
396.671	451.26
397.05	479.73
397.429	477.93
397.808	482.9
398.186	484.25
398.565	472.05
398.944	473.18
399.323	505.27
399.701	489.9
400.08	485.38
400.458	496.68
400.837	489
401.215	506.63
401.594	495.78
401.972	503.46
402.351	514.08
402.729	489
403.107	513.63
403.486	507.3
403.864	508.43
404.242	519.05
404.62	489.9
404.999	512.73
405.377	537.81
405.755	534.42
406.133	539.62
406.511	536.91
406.889	531.94
407.267	561.99
407.645	523.57
408.023	537.58
408.401	554.53
408.779	561.31
409.156	559.51
409.534	568.54
409.912	584.82
410.29	579.39
410.667	594.53
411.045	586.62
411.422	581.88
411.8	580.75
412.178	588.43
412.555	597.47
412.933	614.87
413.31	617.58
413.687	602.67
414.065	606.74
414.442	604.93
414.819	623.23
415.197	609
415.574	640.63
415.951	620.75
416.328	651.03
416.705	650.58
417.082	637.02
417.46	669.11
417.837	667.52
418.214	638.6
418.591	679.73
418.967	675.43
419.344	671.59
419.721	683.57
420.098	696.22
420.475	696.9
420.852	687.19
421.228	710.69
421.605	705.72
421.982	711.59
422.358	723.57
422.735	716.79
423.111	708.43
423.488	705.04
423.864	754.3
424.241	762.66
424.617	748.43
424.994	741.65
425.37	736.68
425.746	752.49
426.123	746.39
426.499	764.92
426.875	780.74
427.251	796.11
427.627	795.88
428.003	788.88
428.379	794.53
428.756	809.89
429.132	785.49
429.507	824.81
429.883	839.5
430.259	864.58
430.635	831.36
431.011	868.42
431.387	891.25
431.763	859.61
432.138	877.24
432.514	902.55
432.89	898.48
433.265	918.37
433.641	896.9
434.016	922.43
434.392	950.68
434.767	963.79
435.143	951.13
435.518	975.77
435.894	955.2
436.269	998.36
436.644	964.69
437.02	989.78
437.395	984.13
437.77	1002.88
438.145	1001.75
438.52	1036.78
438.895	1024.35
439.271	1038.59
439.646	1045.82
440.021	1055.09
440.395	1067.74
440.77	1053.5
441.145	1075.65
441.52	1091.92
441.895	1109.32
442.27	1108.64
442.645	1085.37
443.019	1075.2
443.394	1120.62
443.769	1128.3
444.143	1107.29
444.518	1150.45
444.892	1150
445.267	1143.67
445.641	1158.13
446.016	1149.09
446.39	1204.23
446.764	1167.17
447.139	1189.77
447.513	1180.73
447.887	1203.1
448.262	1179.6
448.636	1187.96
449.01	1223.44
449.384	1208.75
449.758	1253.05
450.132	1226.83
450.506	1246.94
450.88	1225.93
451.254	1274.74
451.628	1290.56
452.002	1280.84
452.376	1289.43
452.75	1305.7
453.123	1294.85
453.497	1325.81
453.871	1363.55
454.244	1362.2
454.618	1392.03
454.992	1398.35
455.365	1344.12
455.739	1406.94
456.112	1420.73
456.486	1444.23
456.859	1471.57
457.232	1488.29
457.606	1441.97
457.979	1474.28
458.352	1525.58
458.725	1545.02
459.099	1528.52
459.472	1594.05
459.845	1572.13
460.218	1574.39
460.591	1625.01
460.964	1638.57
461.337	1651.45
461.71	1669.76
462.083	1705.24
462.456	1683.54
462.829	1708.18
463.201	1721.06
463.574	1740.04
463.947	1771.22
464.32	1792.24
464.692	1804.44
465.065	1812.81
465.438	1834.27
465.81	1890.54
466.183	1847.61
466.555	1930.54
466.928	1953.82
467.3	1928.96
467.672	1949.07
468.045	2009.86
468.417	2023.65
468.789	2026.36
469.161	2055.06
469.534	2069.75
469.906	2116.07
470.278	2133.47
470.65	2162.63
471.022	2181.16
471.394	2267.93
471.766	2233.59
472.138	2276.3
472.51	2296.63
472.882	2342.74
473.253	2363.75
473.625	2381.83
473.997	2434.94
474.369	2477.65
474.74	2492.56
475.112	2538.66
475.484	2583.41
475.855	2621.82
476.227	2615.95
476.598	2726
476.97	2748.83
477.341	2751.09
477.713	2818.88
478.084	2876.96
478.455	2937.07
478.827	2966.9
479.198	3002.83
479.569	3024.75
479.94	3071.53
480.311	3149.95
480.682	3177.97
481.053	3258.87
481.424	3310.39
481.795	3327.57
482.166	3387.91
482.537	3471.97
482.908	3491.86
483.279	3477.62
483.65	3593.55
484.021	3644.17
484.391	3691.63
484.762	3794.45
485.133	3784.28
485.503	3810.94
485.874	3902.92
486.244	3923.26
486.615	3996.48
486.985	4051.16
487.356	4158.28
487.726	4124.16
488.097	4233.76
488.467	4272.18
488.837	4333.42
489.207	4371.61
489.578	4471.72
489.948	4483.02
490.318	4568.67
490.688	4595.78
491.058	4628.32
491.428	4729.56
491.798	4794.42
492.168	4817.47
492.538	4871.48
492.908	4892.27
493.278	5006.85
493.648	4994.19
494.017	5108.54
494.387	5117.8
494.757	5206.39
495.126	5274.86
495.496	5228.31
495.866	5270.12
496.235	5334.97
496.605	5404.12
496.974	5407.29
497.344	5465.14
497.713	5547.17
498.082	5580.84
498.452	5627.39
498.821	5624.91
499.19	5700.84
499.559	5758.46
499.928	5774.51
500.298	5894.28
500.667	5893.6
501.036	5923.66
501.405	6010.21
501.774	5963.43
502.143	6085.46
502.512	6080.04
502.88	6147.83
503.249	6109.64
503.618	6179.92
503.987	6272.35
504.356	6252.91
504.724	6332.91
505.093	6379.24
505.462	6423.76
505.83	6512.12
506.199	6539.91
506.567	6611.32
506.936	6642.06
507.304	6750.3
507.672	6741.94
508.041	6754.6
508.409	6825.55
508.777	6920.47
509.145	6990.07
509.514	6974.03
509.882	7063.51
510.25	7131.08
510.618	7200.91
510.986	7198.88
511.354	7278.65
511.722	7315.49
512.09	7388.48
512.458	7358.42
512.826	7484.29
513.193	7483.84
513.561	7621.92
513.929	7694.91
514.297	7697.62
514.664	7809.94
515.032	7836.83
515.4	7963.83
515.767	7938.29
516.135	8051.74
516.502	7985.07
516.869	8192.75
517.237	8158.85
517.604	8235.01
517.972	8281.11
518.339	8391.16
518.706	8429.58
519.073	8431.16
519.44	8586.64
519.808	8645.39
520.175	8700.53
520.542	8823.47
520.909	8851.49
521.276	8802.45
521.643	9003.12
522.009	9078.15
522.376	9172.61
522.743	9270.24
523.11	9303.23
523.477	9358.82
523.843	9471.81
524.21	9548.42
524.577	9687.4
524.943	9741.64
525.31	9743.9
525.676	9850.11
526.043	9998.13
526.409	10108.18
526.776	10142.76
527.142	10205.81
527.508	10254.84
527.874	10361.06
528.241	10454.39
528.607	10494.16
528.973	10683.53
529.339	10636.75
529.705	10760.59
530.071	10917.88
530.437	10895.5
530.803	11045.11
531.169	11088.95
531.535	11138.21
531.901	11213.69
532.267	11278.09
532.632	11426.11
532.998	11413.46
533.364	11514.47
533.73	11587.46
534.095	11672.66
534.461	11814.35
534.826	11814.58
535.192	11950.62
535.557	12028.36
535.923	12050.28
536.288	12148.35
536.653	12196.04
537.019	12193.78
537.384	12304.96
537.749	12455.01
538.114	12437.84
538.479	12472.64
538.845	12635.35
539.21	12566.65
539.575	12848.45
539.94	12844.38
540.305	12920.99
540.67	12970.03
541.034	13045.05
541.399	13081.21
541.764	13120.08
542.129	13301.54
542.494	13306.06
542.858	13448.43
543.223	13393.97
543.587	13603.46
543.952	13685.71
544.316	13731.36
544.681	13793.96
545.045	13874.64
545.41	14000.73
545.774	14057.46
546.138	14151.92
546.503	14208.86
546.867	14181.29
547.231	14406.37
547.595	14505.13
547.959	14521.4
548.324	14635.07
548.688	14670.32
549.052	14870.09
549.416	14964.78
549.779	15060.82
550.143	15092.23
550.507	15273.02
550.871	15281.15
551.235	15400.92
551.599	15508.26
551.962	15679.56
552.326	15775.15
552.689	15834.36
553.053	15909.61
553.417	16071.41
553.78	16352.99
554.143	16379.43
554.507	16503.27
554.87	16575.81
555.234	16829.36
555.597	16857.16
555.96	17015.8
556.323	17153.42
556.686	17252.17
557.05	17399.97
557.413	17576.68
557.776	17738.71
558.139	17860.52
558.502	18097.12
558.865	18237.46
559.228	18386.38
559.59	18476.1
559.953	18654.62
560.316	19000.15
560.679	19011.22
561.041	19213.93
561.404	19399.46
561.767	19632.68
562.129	19571.66
562.492	19921.48
562.854	20133.68
563.217	20158.31
563.579	20433.78
563.941	20683.04
564.304	20831.51
564.666	20984.28
565.028	21179.53
565.39	21380.43
565.753	21636.69
566.115	21786.97
566.477	22001.43
566.839	22256.34
567.201	22467.86
567.563	22532.03
567.925	22897
568.287	22936.32
568.648	23099.48
569.01	23385.8
569.372	23728.84
569.734	23814.49
570.095	23975.61
570.457	24079.34
570.819	24477.75
571.18	24521.36
571.542	24748.93
571.903	24993.89
572.265	25303.04
572.626	25490.37
572.987	25642.91
573.349	25945.73
573.71	26073.18
574.071	26213.97
574.432	26497.81
574.794	26806.5
575.155	26925.59
575.516	26900.96
575.877	27115.42
576.238	27315.64
576.599	27646.93
576.96	27806.02
577.32	27823.19
577.681	28009.18
578.042	28215.73
578.403	28441.48
578.763	28520.13
579.124	28758.76
579.485	29029.04
579.845	29161.24
580.206	29206.21
580.566	29359.43
580.927	29459.54
581.287	29665.18
581.648	29742.24
582.008	30017.49
582.368	29960.09
582.728	30226.3
583.089	30337.48
583.449	30379.29
583.809	30530.47
584.169	30832.16
584.529	30849.56
584.889	31167.06
585.249	31078.02
585.609	31276.21
585.969	31369.77
586.329	31397.56
586.688	31478.24
587.048	31585.36
587.408	31681.4
587.768	31903.54
588.127	31942.63
588.487	31975.63
588.846	32182.63
589.206	32109.64
589.565	32245.45
589.925	32463.98
590.284	32616.74
590.643	32839.79
591.003	32975.38
591.362	32990.06
591.721	32941.93
592.08	33175.82
592.44	33301.47
592.799	33273
593.158	33374.91
593.517	33341.92
593.876	33508.92
594.235	33591.4
594.593	33796.15
594.952	33916.82
595.311	33894.67
595.67	34126.98
596.029	34355.45
596.387	34369.69
596.746	34582.34
597.104	34349.13
597.463	34484.94
597.822	34834.08
598.18	34801.77
598.538	34774.65
598.897	35191.14
599.255	35014.64
599.613	35517.68
599.972	35345.71
600.33	35468.87
600.688	35257.12
601.046	35625.02
601.404	35906.6
601.762	35867.96
602.12	36152.69
602.478	36286.48
602.836	36163.31
603.194	36218.23
603.552	36394.5
603.91	36380.71
604.268	36670.19
604.625	36582.29
604.983	36771.43
605.341	36554.49
605.698	37016.4
606.056	37183.4
606.413	37122.16
606.771	37360.8
607.128	37560.57
607.485	37454.81
607.843	37595.82
608.2	37866.55
608.557	38027.22
608.914	38107.44
609.272	38148.8
609.629	38348.12
609.986	38514.44
610.343	38376.14
610.7	38714.21
611.057	38643.48
611.414	38855
611.771	38803.02
612.127	39008.66
612.484	39046.4
612.841	39356
613.198	39291.14
613.554	39284.14
613.911	39627.18
614.267	39667.63
614.624	39809.55
614.98	39751.02
615.337	40186.49
615.693	40161.63
616.05	40138.58
616.406	40516.65
616.762	40529.08
617.118	40471.45
617.475	40636.19
617.831	40819.92
618.187	40939.46
618.543	40971.1
618.899	41101.49
619.255	41049.06
619.611	41093.81
619.967	41462.84
620.323	41500.12
620.678	41562.49
621.034	41466.45
621.39	41469.62
621.746	41522.04
622.101	41986.21
622.457	41767.24
622.812	41856.05
623.168	42096.94
623.523	42168.35
623.879	42282.02
624.234	41992.31
624.589	42454.45
624.945	42420.78
625.3	42563.15
625.655	42550.04
626.01	42579.87
626.365	42670.49
626.72	42674.1
627.075	42687.89
627.43	42665.29
627.785	42618.74
628.14	42873.42
628.495	43027.54
628.85	42867.55
629.205	42846.08
629.559	43145.28
629.914	42993.64
630.269	43067.99
630.623	43107.54
630.978	43131.04
631.332	43348.21
631.687	43387.98
632.041	43388.89
632.396	43449.68
632.75	43193.86
633.104	43284.26
633.459	43157.48
633.813	43393.18
634.167	43279.96
634.521	43465.72
634.875	43467.3
635.229	43390.24
635.583	43340.53
635.937	43407.87
636.291	43408.32
636.645	43430.47
636.999	43482.9
637.352	43720.18
637.706	43420.3
638.06	43534.19
638.413	43484.7
638.767	43476.79
639.121	43536.45
639.474	43408.77
639.828	43507.3
640.181	43632.04
640.534	43607.19
640.888	43471.15
641.241	43430.92
641.594	43681.54
641.947	43771.7
642.301	43451.48
642.654	43677.92
643.007	43732.61
643.36	43676.56
643.713	43738.26
644.066	44125.37
644.419	43644.02
644.771	43400.86
645.124	43289.68
645.477	43213.07
645.83	42972.63
646.182	42773.99
646.535	42787.55
646.888	42897.83
647.24	42714.33
647.593	42974.44
647.945	42873.65
648.298	42729.7
648.65	42640.21
649.002	42630.72
649.355	42758.4
649.707	42699.87
650.059	43062.57
650.411	43593.4
650.763	43528.54
651.115	43964.01
651.467	43915.43
651.819	44097.8
652.171	43928.76
652.523	43842.66
652.875	44061.19
653.227	43915.43
653.578	44086.72
653.93	43919.27
654.282	44024.35
654.633	43906.84
654.985	43959.95
655.337	43954.3
655.688	44051.02
656.039	44238.36
656.391	44027.97
656.742	44226.83
657.094	44227.28
657.445	44436.32
657.796	44276.1
658.147	44263.89
658.498	44169.43
658.849	44328.52
659.2	44386.38
659.551	44380.5
659.902	44530.78
660.253	44425.47
660.604	44524
660.955	44391.8
661.306	44638.35
661.656	44583.66
662.007	44624.34
662.358	44669.53
662.708	44542.08
663.059	44617.56
663.409	44586.82
663.76	44753.15
664.11	44957.43
664.461	44954.72
664.811	44812.13
665.161	44840.6
665.511	44785.23
665.862	45029.75
666.212	44978.45
666.562	45038.34
666.912	44914.05
667.262	44923.99
667.612	45016.42
667.962	45132.57
668.312	45035.85
668.662	45313.36
669.011	45295.5
669.361	45208.27
669.711	45189.07
670.06	45142.29
670.41	45273.81
670.76	45366.91
671.109	45410.76
671.459	45356.07
671.808	45290.08
672.157	45496.18
672.507	45170.08
672.856	45227.48
673.205	45301.38
673.554	45556.51
673.904	45270.19
674.253	45673.35
674.602	45588.83
674.951	45106.81
675.3	45067.49
675.649	45613.01
675.998	45654.14
676.346	45745.21
676.695	45876.51
677.044	45503.18
677.393	45732.55
677.741	45652.56
678.09	45665.66
678.438	45682.61
678.787	45866.79
679.135	45805.77
679.484	45524.65
679.832	45803.06
680.181	45558.77
680.529	45784.76
680.877	45655.27
681.225	45665.21
681.573	45938.42
681.922	45695.95
682.27	45638.77
682.618	45580.02
682.966	45536.63
683.314	45667.25
683.661	45674.7
684.009	45520.81
684.357	45601.03
684.705	45450.08
685.053	45574.82
685.4	45432.22
685.748	45498.66
686.095	45410.08
686.443	45399
686.79	45370.53
687.138	45570.07
687.485	45413.01
687.832	45250.08
688.18	45366.24
688.527	45150.87
688.874	45253.25
689.221	45085.79
689.568	44990.43
689.915	44907.94
690.262	45065.91
690.609	44961.28
690.956	44848.96
691.303	44912.46
691.65	44876.08
691.997	44810.77
692.344	44576.88
692.69	44654.39
693.037	44774.61
693.383	44418.46
693.73	44560.38
694.077	44336.66
694.423	44261.63
694.769	44190.45
695.116	44342.31
695.462	44156.78
695.808	44091.92
696.155	44265.47
696.501	44064.8
696.847	44168.53
697.193	43646.73
697.539	43805.83
697.885	43639.95
698.231	43663.23
698.577	43560.18
698.923	43451.26
699.269	43372.62
699.614	43249.68
699.96	43318.38
700.306	43491.03
700.651	43285.16
700.997	43240.19
701.342	43077.71
701.688	43023.02
702.033	42945.74
702.379	43114.09
702.724	42990.71
703.069	43161.32
703.415	42761.79
703.76	42668.68
704.105	42743.03
704.45	42764.27
704.795	42695.35
705.14	42678.62
705.485	42536.93
705.83	42310.5
706.175	42584.84
706.52	42567.67
706.865	42208.13
707.209	42204.51
707.554	42247
707.899	42319.76
708.243	42154.57
708.588	42227.11
708.932	41965.2
709.277	41904.86
709.621	42026.66
709.966	41661.02
710.31	41801.58
710.654	41542.38
710.998	41663.74
711.342	41863.96
711.687	41834.58
712.031	41626.22
712.375	41621.02
712.719	41885.2
713.063	41615.15
713.407	41596.39
713.75	41362.27
714.094	41539.22
714.438	41328.83
714.782	41379
715.125	41319.34
715.469	41309.62
715.812	41267.81
716.156	41180.81
716.499	41177.87
716.843	41358.66
717.186	40962.28
717.53	41182.62
717.873	41263.75
718.216	41228.94
718.559	41031.66
718.902	40772.23
719.246	40947.37
719.589	40844.55
719.932	40688.85
720.275	40849.97
720.617	40876.41
720.96	40801.38
721.303	40809.75
721.646	40967.93
721.989	40743.31
722.331	40964.77
722.674	40781.5
723.016	40864.21
723.359	40826.92
723.701	40831.67
724.044	40620.6
724.386	40414.73
724.729	40617.89
725.071	40517.55
725.413	40553.48
725.755	40543.54
726.097	40312.13
726.439	40149.2
726.782	40301.74
727.124	40396.2
727.465	40443.88
727.807	40326.82
728.149	40277.1
728.491	40120.5
728.833	40331.57
729.175	40011.35
729.516	40162.31
729.858	40071.69
730.199	40146.94
730.541	40101.29
730.882	40082.08
731.224	40142.65
731.565	40096.54
731.906	40098.35
732.248	40245.24
732.589	40066.71
732.93	40023.33
733.271	39940.39
733.612	40145.58
733.953	40095.87
734.294	39949.66
734.635	39994.4
734.976	39880.96
735.317	39826.95
735.658	39807.06
735.999	39757.8
736.339	39743.33
736.68	39798.7
737.021	39655.2
737.361	39665.82
737.702	39861.07
738.042	39613.39
738.383	39650.91
738.723	39933.61
739.063	39695.43
739.404	39761.19
739.744	39685.71
740.084	39593.05
740.424	39616.11
740.764	39557.12
741.104	39693.17
741.444	39461.76
741.784	39438.26
742.124	39474.41
742.464	39549.44
742.804	39466.28
743.143	39550.8
743.483	39657.01
743.823	39318.26
744.162	39487.07
744.502	39416.34
744.841	39217.25
745.181	39537.46
745.52	39443.68
745.86	39523.9
746.199	39194.2
746.538	39348.77
746.877	39522.55
747.216	39308.99
747.556	39281.42
747.895	39151.94
748.234	39112.39
748.573	39153.97
748.911	39140.86
749.25	39327.3
749.589	39285.27
749.928	39166.4
750.267	39103.58
750.605	39042.11
750.944	39187.64
751.283	39034.2
751.621	39072.84
751.96	38791.04
752.298	38817.26
752.636	38770.25
752.975	38701.1
753.313	38552.86
753.651	38549.24
753.989	38419.3
754.327	38663.36
754.666	38487.1
755.004	38602.8
755.342	38594.21
755.679	38397.15
756.017	38272.86
756.355	38477.83
756.693	38184.5
757.031	38372.07
