Data from copper_heatsink_FLMS001491_091.txt Node
Date: Tue Feb 07 10:50:52 GMT 2017
User: dcchb
Spectrometer: FLMS00149
Trigger mode: 0
Integration Time (sec): 2.000000E-2
Scans to average: 10
Electric dark correction enabled: true
Nonlinearity correction enabled: false
Boxcar width: 0
XAxis mode: Wavelengths
Number of Pixels in Spectrum: 2048
>>>>>Begin Spectral Data<<<<<
341.393	0.95
341.776	0.95
342.16	0.95
342.543	-54.42
342.927	-65.94
343.31	-78.6
343.693	-60.52
344.077	-86.74
344.46	-67.07
344.843	-59.17
345.226	-23.01
345.61	-29.11
345.993	-19.39
346.376	-36.34
346.759	12.47
347.142	58.12
347.525	46.14
347.908	88.85
348.291	56.76
348.674	101.06
349.057	96.54
349.44	139.25
349.823	151.9
350.206	164.78
350.588	197.1
350.971	210.43
351.354	225.8
351.737	240.04
352.119	252.01
352.502	251.79
352.884	264.22
353.267	285.23
353.65	295.18
354.032	298.79
354.414	317.32
354.797	305.35
355.179	304.67
355.562	323.42
355.944	319.81
356.326	334.5
356.709	322.29
357.091	346.02
357.473	327.72
357.855	349.64
358.238	355.51
358.62	342.18
359.002	362.52
359.384	335.17
359.766	327.27
360.148	332.69
360.53	322.75
360.912	333.82
361.294	333.82
361.676	367.26
362.057	315.51
362.439	331.11
362.821	308.28
363.203	328.85
363.584	307.38
363.966	322.97
364.348	320.03
364.729	332.24
365.111	322.07
365.493	329.07
365.874	319.58
366.256	323.88
366.637	326.36
367.019	316.87
367.4	322.52
367.781	339.47
368.163	305.57
368.544	317.32
368.925	324.33
369.306	318.9
369.688	311.67
370.069	332.91
370.45	333.37
370.831	319.13
371.212	307.15
371.593	308.96
371.974	311.22
372.355	340.6
372.736	345.57
373.117	323.65
373.498	323.65
373.879	328.62
374.26	315.97
374.641	318.68
375.021	320.94
375.402	306.02
375.783	332.69
376.163	345.34
376.544	329.53
376.925	330.2
377.305	345.57
377.686	319.36
378.066	337.43
378.447	343.54
378.827	343.54
379.208	352.8
379.588	348.96
379.968	353.03
380.349	349.19
380.729	333.59
381.109	343.54
381.489	347.83
381.87	340.6
382.25	371.33
382.63	341.73
383.01	350.32
383.39	358
383.77	333.59
384.15	338.11
384.53	354.38
384.91	348.51
385.29	366.36
385.67	359.58
386.049	353.25
386.429	360.26
386.809	370.43
387.189	348.73
387.568	379.24
387.948	369.75
388.328	354.84
388.707	360.26
389.087	359.35
389.466	394.16
389.846	406.36
390.225	383.54
390.605	367.26
390.984	379.92
391.363	376.76
391.743	369.07
392.122	377.89
392.501	400.48
392.881	398.68
393.26	394.16
393.639	412.46
394.018	375.4
394.397	399.81
394.776	383.99
395.155	419.92
395.534	414.04
395.913	405.91
396.292	407.94
396.671	393.93
397.05	438.9
397.429	410.88
397.808	403.2
398.186	410.43
398.565	402.97
398.944	398.9
399.323	423.76
399.701	422.18
400.08	403.65
400.458	409.75
400.837	427.83
401.215	435.06
401.594	421.27
401.972	415.62
402.351	414.72
402.729	418.34
403.107	434.38
403.486	434.16
403.864	433.25
404.242	422.86
404.62	435.06
404.999	435.06
405.377	455.62
405.755	442.74
406.133	453.59
406.511	452.01
406.889	421.05
407.267	450.43
407.645	484.78
408.023	443.19
408.401	464.89
408.779	460.6
409.156	458.56
409.534	490.65
409.912	484.32
410.29	466.02
410.667	495.85
411.045	464.89
411.422	478
411.8	488.62
412.178	478.67
412.555	510.99
412.933	489.07
413.31	502.63
413.687	505.11
414.065	520.71
414.442	531.1
414.819	494.04
415.197	498.11
415.574	517.54
415.951	494.72
416.328	529.75
416.705	530.2
417.082	562.06
417.46	544.21
417.837	539.24
418.214	548.05
418.591	530.88
418.967	535.85
419.344	555.06
419.721	546.69
420.098	547.37
420.475	574.26
420.852	551.89
421.228	550.54
421.605	548.73
421.982	554.6
422.358	574.94
422.735	547.37
423.111	555.73
423.488	549.63
423.864	581.27
424.241	591.89
424.617	587.15
424.994	605.22
425.37	580.82
425.746	603.87
426.123	593.47
426.499	598.9
426.875	606.35
427.251	605.9
427.627	601.83
428.003	632.79
428.379	647.93
428.756	645.22
429.132	647.48
429.507	654.04
429.883	655.17
430.259	654.49
430.635	642.29
431.011	663.53
431.387	670.53
431.763	661.72
432.138	673.02
432.514	677.09
432.89	684.32
433.265	695.62
433.641	711.66
434.016	708.27
434.392	705.56
434.767	710.98
435.143	730.19
435.518	712.11
435.894	737.88
436.269	741.94
436.644	761.15
437.02	734.03
437.395	735.62
437.77	770.42
438.145	756.63
438.52	780.36
438.895	771.1
439.271	772.68
439.646	784.43
440.021	790.53
440.395	796.41
440.77	782.17
441.145	787.82
441.52	814.94
441.895	791.66
442.27	806.8
442.645	804.99
443.019	809.74
443.394	808.38
443.769	813.81
444.143	817.42
444.518	797.76
444.892	832.34
445.267	830.53
445.641	858.78
446.016	865.78
446.39	856.52
446.764	872.34
447.139	844.54
447.513	854.94
447.887	855.61
448.262	880.02
448.636	853.58
449.01	895.39
449.384	865.56
449.758	897.65
450.132	898.55
450.506	917.53
450.88	915.72
451.254	912.11
451.628	896.52
452.002	924.99
452.376	934.26
452.75	940.81
453.123	910.3
453.497	947.36
453.871	961.82
454.244	928.83
454.618	971.54
454.992	976.74
455.365	979
455.739	994.59
456.112	1026
456.486	1025.78
456.859	1030.52
457.232	1047.25
457.606	1072.56
457.979	1063.74
458.352	1073.46
458.725	1078.43
459.099	1099.22
459.472	1119.56
459.845	1120.24
460.218	1110.75
460.591	1122.72
460.964	1153.01
461.337	1164.98
461.71	1175.15
462.083	1162.72
462.456	1198.65
462.829	1165.44
463.201	1226.68
463.574	1218.54
463.947	1236.17
464.32	1247.47
464.692	1269.39
465.065	1266.68
465.438	1289.95
465.81	1298.31
466.183	1292.44
466.555	1326.56
466.928	1350.06
467.3	1357.52
467.672	1356.39
468.045	1388.71
468.417	1417.63
468.789	1411.08
469.161	1414.92
469.534	1432.32
469.906	1462.6
470.278	1458.76
470.65	1500.79
471.022	1519.32
471.394	1541.92
471.766	1520.45
472.138	1555.48
472.51	1554.35
472.882	1608.81
473.253	1640
473.625	1645.2
473.997	1665.08
474.369	1703.5
474.74	1701.69
475.112	1717.74
475.484	1789.37
475.855	1770.39
476.227	1814.01
476.598	1840.9
476.97	1847.23
477.341	1891.97
477.713	1930.16
478.084	1929.94
478.455	1947.56
478.827	1976.71
479.198	2046.32
479.569	2048.35
479.94	2104.62
480.311	2102.13
480.682	2155.24
481.053	2226.65
481.424	2188.46
481.795	2213.77
482.166	2300.77
482.537	2330.6
482.908	2333.54
483.279	2363.14
483.65	2411.73
484.021	2464.61
484.391	2494.44
484.762	2553.2
485.133	2507.55
485.503	2568.34
485.874	2655.11
486.244	2669.35
486.615	2702.34
486.985	2754.77
487.356	2774.88
487.726	2759.74
488.097	2862.79
488.467	2886.07
488.837	2919.51
489.207	2922.9
489.578	2976.24
489.948	3030.25
490.318	3068.44
490.688	3066.85
491.058	3092.84
491.428	3147.53
491.798	3172.16
492.168	3229.34
492.538	3246.74
492.908	3310.69
493.278	3328.32
493.648	3353.85
494.017	3411.7
494.387	3401.99
494.757	3443.34
495.126	3464.13
495.496	3514.3
495.866	3503.23
496.235	3561.08
496.605	3604.47
496.974	3623.22
497.344	3666.39
497.713	3669.78
498.082	3719.27
498.452	3732.37
498.821	3769.66
499.19	3766.95
499.559	3803.78
499.928	3849.88
500.298	3889.21
500.667	3932.82
501.036	3897.57
501.405	3981.86
501.774	3997.68
502.143	4012.82
502.512	4032.03
502.88	4042.42
503.249	4083.1
503.618	4116.77
503.987	4156.09
504.356	4188.18
504.724	4207.16
505.093	4257.33
505.462	4270.21
505.83	4258.69
506.199	4268.18
506.567	4393.15
506.936	4389.53
507.304	4405.12
507.672	4461.85
508.041	4494.16
508.409	4481.51
508.777	4540.26
509.145	4574.61
509.514	4600.6
509.882	4631.56
510.25	4639.92
510.618	4709.52
510.986	4734.38
511.354	4760.37
511.722	4816.41
512.09	4871.55
512.458	4859.8
512.826	4917.43
513.193	4985.67
513.561	4972.34
513.929	5007.82
514.297	5043.07
514.664	5133.01
515.032	5165.78
515.4	5189.51
515.767	5212.11
516.135	5241.26
516.502	5202.17
516.869	5293.69
517.237	5320.13
517.604	5335.72
517.972	5406.45
518.339	5468.15
518.706	5506.34
519.073	5481.25
519.44	5544.08
519.808	5632.66
520.175	5679.67
520.542	5694.81
520.909	5758.76
521.276	5775.03
521.643	5836.27
522.009	5896.84
522.376	5948.81
522.743	5967.57
523.11	5999.66
523.477	6068.13
523.843	6126.89
524.21	6257.05
524.577	6253.89
524.943	6277.17
525.31	6299.31
525.676	6394.22
526.043	6448.91
526.409	6473.32
526.776	6507.67
527.142	6620.66
527.508	6589.7
527.874	6678.06
528.241	6728
528.607	6726.42
528.973	6800.32
529.339	6873.08
529.705	6936.81
530.071	6959.18
530.437	7036.02
530.803	7123.24
531.169	7120.99
531.535	7170.93
531.901	7175.22
532.267	7229.46
532.632	7320.53
532.998	7322.56
533.364	7315.78
533.73	7384.93
534.095	7479.17
534.461	7547.41
534.826	7509.9
535.192	7613.85
535.557	7720.29
535.923	7723.68
536.288	7748.77
536.653	7788.09
537.019	7767.3
537.384	7859.72
537.749	7957.12
538.114	7904.24
538.479	8005.03
538.845	8033.05
539.21	8073.05
539.575	8129.77
539.94	8180.17
540.305	8238.92
540.67	8206.83
541.034	8251.12
541.399	8324.8
541.764	8391.46
542.129	8494.06
542.494	8517.11
542.858	8492.7
543.223	8560.27
543.587	8637.33
543.952	8649.76
544.316	8680.27
544.681	8670.1
545.045	8791
545.41	8805.46
545.774	8865.35
546.138	8918.23
546.503	9074.38
546.867	9034.83
547.231	9114.15
547.595	9136.98
547.959	9265.11
548.324	9317.31
548.688	9348.27
549.052	9363.41
549.416	9375.16
549.779	9509.17
550.143	9515.95
550.507	9632.11
550.871	9676.62
551.235	9795.72
551.599	9801.37
551.962	9887.01
552.326	9957.07
552.689	10027.58
553.053	9985.54
553.417	10094.69
553.78	10219.89
554.143	10280.22
554.507	10397.51
554.87	10486.55
555.234	10571.29
555.597	10631.85
555.96	10661.23
556.323	10796.37
556.686	10851.51
557.05	10924.73
557.413	11029.81
557.776	11084.5
558.139	11142.57
558.502	11296.69
558.865	11402
559.228	11489.46
559.59	11580.98
559.953	11731.03
560.316	11826.17
560.679	11901.42
561.041	12021.42
561.404	12178.93
561.767	12252.15
562.129	12375.31
562.492	12599.03
562.854	12599.49
563.217	12594.51
563.579	12775.98
563.941	12955.86
564.304	12983.66
564.666	13185.68
565.028	13356.08
565.39	13443.98
565.753	13524.88
566.115	13698.21
566.477	13829.96
566.839	13821.37
567.201	14097.98
567.563	14148.37
567.925	14354.47
568.287	14396.05
568.648	14560.11
569.01	14615.03
569.372	14880.33
569.734	14881.01
570.095	15081.68
570.457	15168.68
570.819	15360.77
571.18	15415.23
571.542	15634.21
571.903	15733.64
572.265	15833.75
572.626	15963.24
572.987	16074.42
573.349	16144.02
573.71	16391.25
574.071	16367.52
574.432	16650.45
574.794	16773.84
575.155	16864.01
575.516	16912.82
575.877	17104.9
576.238	17231.91
576.599	17322.07
576.96	17425.35
577.32	17563.2
577.681	17660.14
578.042	17811.33
578.403	17760.93
578.763	17874.6
579.124	18030.3
579.485	18131.99
579.845	18215.16
580.206	18358.88
580.566	18393.23
580.927	18484.53
581.287	18703.05
581.648	18804.52
582.008	18843.16
582.368	18883.39
582.728	18999.09
583.089	19054.68
583.449	19186.2
583.809	19167.22
584.169	19347.33
584.529	19367.44
584.889	19552.52
585.249	19430.49
585.609	19639.3
585.969	19834.1
586.329	19848.33
586.688	19826.64
587.048	19858.73
587.408	19968.33
587.768	19978.05
588.127	20038.39
588.487	20104.82
588.846	20283.35
589.206	20235.22
589.565	20356.12
589.925	20428.66
590.284	20427.53
590.643	20544.36
591.003	20600.63
591.362	20869.55
591.721	20782.32
592.08	20846.27
592.44	20921.98
592.799	21032.48
593.158	20895.76
593.517	21053.73
593.876	21137.57
594.235	21147.73
594.593	21276.55
594.952	21358.8
595.311	21381.4
595.67	21463.43
596.029	21554.5
596.387	21607.16
596.746	21766.93
597.104	21628.17
597.463	21645.57
597.822	21873.59
598.18	21811.67
598.538	21881.27
598.897	22045.34
599.255	22010.31
599.613	22368.95
599.972	22193.13
600.33	22406.68
600.688	22236.97
601.046	22509.06
601.404	22612.56
601.762	22624.76
602.12	22740.46
602.478	22754.7
602.836	22748.14
603.194	22738.88
603.552	22897.29
603.91	22856.84
604.268	23090.28
604.625	23016.61
604.983	23185.42
605.341	23155.14
605.698	23285.76
606.056	23245.98
606.413	23299.54
606.771	23552.87
607.128	23571.63
607.485	23491.85
607.843	23652.75
608.2	23755.35
608.557	23897.27
608.914	23735.01
609.272	24021.33
609.629	24105.62
609.986	24188.33
610.343	24075.57
610.7	24360.53
611.057	24449.34
611.414	24325.96
611.771	24464.71
612.127	24620.64
612.484	24649.79
612.841	24809.33
613.198	24691.14
613.554	24664.48
613.911	24972.49
614.267	24856.56
614.624	24923.68
614.98	24995.77
615.337	25204.13
615.693	25245.48
616.05	25190.11
616.406	25351.24
616.762	25324.57
617.118	25443.22
617.475	25510.33
617.831	25591.23
618.187	25516.66
618.543	25775.64
618.899	25935.41
619.255	25914.84
619.611	25991
619.967	25974.05
620.323	26081.39
620.678	25997.78
621.034	26017.89
621.39	25999.58
621.746	26087.04
622.101	26475.73
622.457	26272.57
622.812	26388.28
623.168	26467.6
623.523	26539.01
623.879	26592.34
624.234	26364.77
624.589	26550.3
624.945	26596.86
625.3	26607.25
625.655	26619
626.01	26640.92
626.365	26748.27
626.72	26781.94
627.075	26802.5
627.43	26805.44
627.785	26718.21
628.14	26840.24
628.495	26939
628.85	26862.16
629.205	26818.32
629.559	27063.51
629.914	26857.19
630.269	27006.79
630.623	26980.8
630.978	27099.44
631.332	27072.55
631.687	27121.82
632.041	26973.12
632.396	27187.58
632.75	27078.65
633.104	27162.04
633.459	27061.48
633.813	27176.5
634.167	27178.99
634.521	27127.69
634.875	27262.38
635.229	27129.5
635.583	27058.77
635.937	27059.9
636.291	27108.26
636.645	27094.7
636.999	27108.71
637.352	27247.91
637.706	27194.81
638.06	27220.57
638.413	27239.1
638.767	27229.61
639.121	27317.97
639.474	27192.1
639.828	27192.77
640.181	27170.63
640.534	27293.56
640.888	27283.39
641.241	27181.7
641.594	27189.16
641.947	27251.08
642.301	27173.79
642.654	27239.55
643.007	27370.4
643.36	27226.67
643.713	27251.76
644.066	27409.04
644.419	27213.56
644.771	27101.25
645.124	26773.58
645.477	26756.18
645.83	26574.48
646.182	26492.23
646.535	26431.44
646.888	26608.83
647.24	26628.49
647.593	26664.43
647.945	26643.41
648.298	26613.81
648.65	26602.51
649.002	26454.26
649.355	26597.31
649.707	26670.3
650.059	26583.52
650.411	26856.96
650.763	26960.69
651.115	27291.08
651.467	27285.2
651.819	27266.9
652.171	27222.83
652.523	27268.03
652.875	27256.27
653.227	27178.08
653.578	27267.35
653.93	27281.36
654.282	27201.81
654.633	27133.34
654.985	27235.71
655.337	27221.7
655.688	27299.89
656.039	27441.81
656.391	27188.03
656.742	27339.66
657.094	27387.57
657.445	27529.71
657.796	27353.45
658.147	27291.75
658.498	27266.44
658.849	27368.59
659.2	27222.6
659.551	27276.39
659.902	27390.51
660.253	27336.27
660.604	27416.04
660.955	27373.33
661.306	27375.82
661.656	27397.06
662.007	27486.55
662.358	27457.17
662.708	27518.41
663.059	27514.8
663.409	27419.21
663.76	27539.21
664.11	27656.94
664.461	27618.75
664.811	27595.25
665.161	27724.96
665.511	27546.21
665.862	27737.62
666.212	27737.39
666.562	27832.3
666.912	27812.64
667.262	27746.66
667.612	27874.34
667.962	27788.92
668.312	27690.61
668.662	27897.61
669.011	27860.33
669.361	27856.03
669.711	27756.83
670.06	27799.99
670.41	27821.01
670.76	27720.22
671.109	27884.05
671.459	27824.4
671.808	27763.15
672.157	27898.74
672.507	27639.09
672.856	27675.92
673.205	27884.28
673.554	27910.27
673.904	27900.1
674.253	28035.46
674.602	27944.17
674.951	27541.24
675.3	27393.22
675.649	28010.38
675.998	28000.21
676.346	27868.91
676.695	27964.96
677.044	27878.18
677.393	27934
677.741	28032.98
678.09	27952.53
678.438	27965.86
678.787	28002.92
679.135	28088.57
679.484	27724.06
679.832	27951.62
680.181	27767.45
680.529	27943.71
680.877	27871.4
681.225	27870.95
681.573	27920.66
681.922	27918.63
682.27	27823.04
682.618	27653.55
682.966	27684.74
683.314	27820.1
683.661	27720.67
684.009	27612.2
684.357	27646.55
684.705	27529.26
685.053	27631.41
685.4	27694.91
685.748	27416.5
686.095	27402.03
686.443	27460.34
686.79	27434.8
687.138	27451.98
687.485	27445.42
687.832	27407.46
688.18	27489.94
688.527	27248.37
688.874	27354.8
689.221	27328.14
689.568	27124.98
689.915	27157.75
690.262	27171.76
690.609	27115.94
690.956	27008.37
691.303	27088.37
691.65	26835.27
691.997	26845.44
692.344	26807.25
692.69	26869.62
693.037	26827.36
693.383	26616.07
693.73	26726.8
694.077	26599.12
694.423	26578.1
694.769	26575.39
695.116	26581.49
695.462	26475.5
695.808	26398.44
696.155	26388.05
696.501	26228.73
696.847	26210.43
697.193	26104.67
697.539	26233.48
697.885	26152.12
698.231	26053.14
698.577	26055.18
698.923	26047.49
699.269	25913.94
699.614	25817.44
699.96	25871
700.306	25940.15
700.651	25778.8
700.997	25772.47
701.342	25822.64
701.688	25687.95
702.033	25729.99
702.379	25466.49
702.724	25573.61
703.069	25607.96
703.415	25290.45
703.76	25365.25
704.105	25387.4
704.45	25383.33
704.795	25096.78
705.14	25233.05
705.485	25219.27
705.83	25128.87
706.175	25164.8
706.52	25142.66
706.865	24981.08
707.209	24814.76
707.554	24847.52
707.899	24912.38
708.243	24819.5
708.588	24750.13
708.932	24696.34
709.277	24766.85
709.621	24746.96
709.966	24573.41
710.31	24687.3
710.654	24393.98
710.998	24598.04
711.342	24574.76
711.687	24508.32
712.031	24440.3
712.375	24299.52
712.719	24472.85
713.063	24251.16
713.407	24254.32
713.75	24328.89
714.094	24288.44
714.438	24241.66
714.782	24294.77
715.125	23995.34
715.469	24143.14
715.812	24072.86
716.156	23985.17
716.499	23971.39
716.843	23947.66
717.186	23827.21
717.53	23971.39
717.873	23923.48
718.216	23977.72
718.559	23813.43
718.902	23692.53
719.246	23823.6
719.589	23724.62
719.932	23595.81
720.275	23717.16
720.617	23703.15
720.96	23669.93
721.303	23744.73
721.646	23716.25
721.989	23522.59
722.331	23715.8
722.674	23592.42
723.016	23575.02
723.359	23626.54
723.701	23690.04
724.044	23442.14
724.386	23294.35
724.729	23527.33
725.071	23425.87
725.413	23424.29
725.755	23453.89
726.097	23292.76
726.439	23236.49
726.782	23275.81
727.124	23510.61
727.465	23344.97
727.807	23254.35
728.149	23102.03
728.491	23173.22
728.833	23309.71
729.175	23253.67
729.516	23129.38
729.858	23036.27
730.199	23112.65
730.541	23019.1
730.882	23083.96
731.224	23228.36
731.565	23063.39
731.906	23059.32
732.248	23125.31
732.589	23004.18
732.93	22933.45
733.271	23011.64
733.612	23161.24
733.953	23098.42
734.294	22995.6
734.635	22830.63
734.976	23043.05
735.317	22873.34
735.658	22839.67
735.999	22898.42
736.339	22720.12
736.68	22799.22
737.021	22689.16
737.361	22718.54
737.702	22835.15
738.042	22678.77
738.383	22716.96
738.723	22781.36
739.063	22590.63
739.404	22647.36
739.744	22592.89
740.084	22519.22
740.424	22738.65
740.764	22627.92
741.104	22697.98
741.444	22644.87
741.784	22654.59
742.124	22673.12
742.464	22619.79
742.804	22586.34
743.143	22498.89
743.483	22502.5
743.823	22345.22
744.162	22340.92
744.502	22421.6
744.841	22352.67
745.181	22435.38
745.52	22288.27
745.86	22312.45
746.199	22208.72
746.538	22255.73
746.877	22354.71
747.216	22331.21
747.556	22227.25
747.895	22267.93
748.234	22131.21
748.573	22092.34
748.911	22173.24
749.25	22144.09
749.589	21941.61
749.928	22111.78
750.267	22014.38
750.605	22055.73
750.944	21941.39
751.283	21862.74
751.621	21955.4
751.96	21803.76
752.298	21800.37
752.636	21905
752.975	21810.54
753.313	21675.4
753.651	21851.9
753.989	21719.7
754.327	21621.85
754.666	21557.89
755.004	21692.58
755.342	21803.31
755.679	21627.27
756.017	21539.14
756.355	21532.81
756.693	21475.41
757.031	21446.48
757.368	21391.57
757.706	21404.23
758.044	21201.97
758.381	21346.83
758.719	21263.44
759.056	21256.43
