Data from copper_heatsink_FLMS001491_034.txt Node
Date: Tue Feb 07 10:49:50 GMT 2017
User: dcchb
Spectrometer: FLMS00149
Trigger mode: 0
Integration Time (sec): 2.000000E-2
Scans to average: 10
Electric dark correction enabled: true
Nonlinearity correction enabled: false
Boxcar width: 0
XAxis mode: Wavelengths
Number of Pixels in Spectrum: 2048
>>>>>Begin Spectral Data<<<<<
341.393	-10.52
341.776	-10.52
342.16	-10.52
342.543	-76.51
342.927	-50.52
343.31	-61.59
343.693	-77.64
344.077	-57.07
344.46	-60.92
344.843	-46.45
345.226	-50.75
345.61	-15.72
345.993	-15.95
346.376	-9.39
346.759	4.62
347.142	37.61
347.525	32.64
347.908	53.43
348.291	69.48
348.674	81.23
349.057	116.48
349.44	109.47
349.823	138.17
350.206	168.46
350.588	209.13
350.971	229.92
351.354	246.87
351.737	235.8
352.119	255.46
352.502	263.14
352.884	290.71
353.267	299.53
353.65	310.83
354.032	311.28
354.414	307.44
354.797	327.32
355.179	338.85
355.562	344.04
355.944	340.2
356.326	327.55
356.709	352.18
357.091	358.51
357.473	357.15
357.855	350.82
358.238	363.71
358.62	366.87
359.002	359.41
359.384	378.62
359.766	341.78
360.148	348.34
360.53	341.33
360.912	358.73
361.294	345.85
361.676	348.11
362.057	353.08
362.439	335.46
362.821	345.4
363.203	335.91
363.584	332.97
363.966	314.89
364.348	353.99
364.729	322.12
365.111	329.36
365.493	345.4
365.874	335.91
366.256	349.69
366.637	334.55
367.019	346.76
367.4	333.42
367.781	314.44
368.163	341.78
368.544	331.39
368.925	332.75
369.306	340.43
369.688	334.55
370.069	337.94
370.45	320.99
370.831	335.68
371.212	324.84
371.593	342.46
371.974	322.35
372.355	329.13
372.736	333.42
373.117	337.94
373.498	351.05
373.879	342.46
374.26	337.72
374.641	360.99
375.021	338.4
375.402	336.14
375.783	352.41
376.163	365.74
376.544	366.42
376.925	357.15
377.305	334.55
377.686	377.26
378.066	360.54
378.447	342.24
378.827	336.14
379.208	330.49
379.588	351.5
379.968	370.71
380.349	350.37
380.729	360.32
381.109	350.15
381.489	362.12
381.87	358.96
382.25	365.51
382.63	365.74
383.01	362.8
383.39	363.25
383.77	376.59
384.15	368.22
384.53	352.63
384.91	372.74
385.29	378.39
385.67	389.02
386.049	403.48
386.429	400.54
386.809	376.36
387.189	369.58
387.568	396.47
387.948	394.66
388.328	405.96
388.707	380.43
389.087	388.34
389.466	384.27
389.846	396.25
390.225	406.19
390.605	392.63
390.984	414.78
391.363	419.52
391.743	415.23
392.122	413.42
392.501	416.59
392.881	417.26
393.26	410.94
393.639	420.43
394.018	412.74
394.397	416.59
394.776	432.4
395.155	434.66
395.534	444.15
395.913	452.29
396.292	438.96
396.671	428.11
397.05	442.57
397.429	425.62
397.808	455.45
398.186	435.57
398.565	430.37
398.944	445.74
399.323	436.92
399.701	457.04
400.08	448.67
400.458	463.14
400.837	485.51
401.215	458.39
401.594	439.41
401.972	460.65
402.351	458.62
402.729	452.97
403.107	454.78
403.486	456.13
403.864	477.6
404.242	478.5
404.62	464.72
404.999	481.89
405.377	486.87
405.755	488.22
406.133	497.71
406.511	491.39
406.889	511.27
407.267	508.11
407.645	523.25
408.023	493.87
408.401	512.18
408.779	506.53
409.156	525.96
409.534	520.31
409.912	531.61
410.29	512.85
410.667	533.42
411.045	535
411.422	536.81
411.8	547.88
412.178	522.57
412.555	552.85
412.933	553.53
413.31	567.77
413.687	573.64
414.065	561.67
414.442	578.84
414.819	540.88
415.197	576.58
415.574	571.16
415.951	559.63
416.328	564.15
416.705	577.03
417.082	594.66
417.46	597.82
417.837	609.12
418.214	616.13
418.591	615.9
418.967	610.48
419.344	602.57
419.721	620.87
420.098	618.61
420.475	634.21
420.852	647.77
421.228	625.17
421.605	652.96
421.982	638.95
422.358	642.12
422.735	640.08
423.111	654.54
423.488	664.26
423.864	670.59
424.241	666.3
424.617	688.89
424.994	666.97
425.37	639.18
425.746	678.05
426.123	705.39
426.499	712.4
426.875	685.5
427.251	702.68
427.627	691.38
428.003	724.83
428.379	741.55
428.756	737.48
429.132	738.16
429.507	728.22
429.883	764.37
430.259	747.65
430.635	746.75
431.011	760.3
431.387	785.16
431.763	786.29
432.138	793.3
432.514	789
432.89	798.27
433.265	809.34
433.641	823.81
434.016	817.03
434.392	826.52
434.767	846.4
435.143	850.25
435.518	856.8
435.894	856.57
436.269	869.45
436.644	876.23
437.02	884.37
437.395	895.89
437.77	886.4
438.145	913.52
438.52	918.72
438.895	914.65
439.271	918.27
439.646	937.7
440.021	941.09
440.395	914.2
440.77	949.23
441.145	932.05
441.52	970.92
441.895	957.59
442.27	966.85
442.645	964.37
443.019	972.95
443.394	1013.41
443.769	983.8
444.143	977.25
444.518	988.1
444.892	1000.07
445.267	1002.11
445.641	996.68
446.016	989.45
446.39	1017.47
446.764	1001.2
447.139	1026.51
447.513	1045.95
447.887	1047.98
448.262	1068.09
448.636	1054.31
449.01	1063.12
449.384	1055.21
449.758	1094.31
450.132	1083.01
450.506	1077.36
450.88	1083.46
451.254	1105.38
451.628	1117.58
452.002	1125.72
452.376	1143.12
452.75	1108.09
453.123	1167.3
453.497	1164.59
453.871	1160.07
454.244	1181.99
454.618	1209.33
454.992	1228.32
455.365	1199.39
455.739	1242.78
456.112	1256.56
456.486	1258.6
456.859	1271.93
457.232	1312.61
457.606	1286.84
457.979	1288.2
458.352	1315.09
458.725	1311.93
459.099	1335.43
459.472	1373.17
459.845	1357.13
460.218	1372.72
460.591	1368.2
460.964	1395.54
461.337	1426.28
461.71	1445.48
462.083	1471.92
462.456	1473.05
462.829	1496.33
463.201	1515.31
463.574	1517.35
463.947	1532.49
464.32	1551.24
464.692	1567.74
465.065	1568.42
465.438	1603.45
465.81	1626.72
466.183	1676.66
466.555	1677.34
466.928	1669.21
467.3	1683.67
467.672	1720.73
468.045	1734.06
468.417	1751.01
468.789	1753.5
469.161	1780.62
469.534	1788.98
469.906	1871.46
470.278	1873.27
470.65	1869.43
471.022	1930.44
471.394	1970.89
471.766	1990.33
472.138	1995.75
472.51	2036.2
472.882	2042.08
473.253	2075.07
473.625	2133.83
473.997	2134.28
474.369	2160.49
474.74	2157.78
475.112	2194.17
475.484	2264.45
475.855	2302.19
476.227	2301.96
476.598	2398
476.97	2374.73
477.341	2423.31
477.713	2469.86
478.084	2526.81
478.455	2565.23
478.827	2556.19
479.198	2650.88
479.569	2712.12
479.94	2727.26
480.311	2790.99
480.682	2834.37
481.053	2911.21
481.424	2887.71
481.795	2930.87
482.166	2986.46
482.537	3061.04
482.908	3072.79
483.279	3129.06
483.65	3188.04
484.021	3275.94
484.391	3288.6
484.762	3335.15
485.133	3378.09
485.503	3445.43
485.874	3533.34
486.244	3515.49
486.615	3589.38
486.985	3643.62
487.356	3723.39
487.726	3720.45
488.097	3802.48
488.467	3818.08
488.837	3876.16
489.207	3927
489.578	3988.47
489.948	4107.56
490.318	4146.88
490.688	4179.42
491.058	4212.64
491.428	4280.21
491.798	4333.77
492.168	4408.12
492.538	4435.01
492.908	4514.33
493.278	4581.45
493.648	4549.81
494.017	4624.61
494.387	4681.78
494.757	4769.24
495.126	4858.5
495.496	4810.14
495.866	4888.33
496.235	4912.96
496.605	4957.26
496.974	5026.86
497.344	5074.77
497.713	5108.89
498.082	5135.11
498.452	5260.98
498.821	5258.27
499.19	5271.82
499.559	5321.77
499.928	5359.05
500.298	5416
500.667	5453.51
501.036	5527.64
501.405	5609.44
501.774	5564.92
502.143	5684.24
502.512	5694.64
502.88	5740.96
503.249	5765.82
503.618	5815.77
503.987	5837.69
504.356	5970.11
504.724	5956.55
505.093	6021.64
505.462	6083.78
505.83	6097.57
506.199	6179.82
506.567	6265.02
506.936	6287.84
507.304	6352.47
507.672	6449.65
508.041	6453.49
508.409	6485.58
508.777	6550.44
509.145	6663.2
509.514	6678.12
509.882	6722.18
510.25	6759.24
510.618	6843.76
510.986	6878.11
511.354	6987.03
511.722	7043.76
512.09	7199.23
512.458	7158.55
512.826	7179.57
513.193	7213.69
513.561	7235.61
513.929	7334.37
514.297	7497.08
514.664	7553.57
515.032	7528.71
515.4	7645.32
515.767	7740.01
516.135	7731.87
516.502	7744.08
516.869	7905.2
517.237	7946.33
517.604	8012.32
517.972	8123.5
518.339	8168.92
518.706	8238.98
519.073	8254.12
519.44	8338.64
519.808	8433.78
520.175	8475.36
520.542	8646.2
520.909	8648.46
521.276	8719.64
521.643	8822.47
522.009	8914.67
522.376	8978.62
522.743	9040.31
523.11	9195.11
523.477	9271.49
523.843	9315.56
524.21	9427.2
524.577	9480.98
524.943	9563.69
525.31	9645.49
525.676	9764.36
526.043	9844.13
526.409	9894.98
526.776	9972.27
527.142	10158.25
527.508	10146.72
527.874	10300.62
528.241	10326.16
528.607	10352.37
528.973	10499.03
529.339	10591.91
529.705	10693.38
530.071	10776.54
530.437	10899.02
530.803	10956.87
531.169	11044.33
531.535	11115.96
531.901	11143.08
532.267	11196.64
532.632	11405
532.998	11402.96
533.364	11460.81
533.73	11503.75
534.095	11696.51
534.461	11712.56
534.826	11836.4
535.192	11919.56
535.557	12016.28
535.923	12060.35
536.288	12048.6
536.653	12237.74
537.019	12341.24
537.384	12418.08
537.749	12442.26
538.114	12474.57
538.479	12571.07
538.845	12616.04
539.21	12680.44
539.575	12802.25
539.94	12863.26
540.305	13011.06
540.67	12991.4
541.034	13095.12
541.399	13230.49
541.764	13287.43
542.129	13330.82
542.494	13419.18
542.858	13548.9
543.223	13578.05
543.587	13685.84
543.952	13758.83
544.316	13871.82
544.681	13850.81
545.045	13999.28
545.41	14112.27
545.774	14205.83
546.138	14329.44
546.503	14402.43
546.867	14413.73
547.231	14613.05
547.595	14599.04
547.959	14791.35
548.324	14858.92
548.688	14871.12
549.052	14952.7
549.416	15086.71
549.779	15093.26
550.143	15278.79
550.507	15483.08
550.871	15525.11
551.235	15624.77
551.599	15802.85
551.962	15940.02
552.326	16024.76
552.689	16179.79
553.053	16163.52
553.417	16256.17
553.78	16617.06
554.143	16702.94
554.507	16809.83
554.87	16937.73
555.234	17252.53
555.597	17194
555.96	17360.09
556.323	17508.57
556.686	17611.61
557.05	17796.02
557.413	17984.03
557.776	18143.35
558.139	18271.71
558.502	18360.97
558.865	18482.32
559.228	18802.77
559.59	18905.82
559.953	18929.54
560.316	19433.49
560.679	19488.63
561.041	19702.18
561.404	19842.51
561.767	20086.35
562.129	20180.36
562.492	20480.24
562.854	20601.59
563.217	20678.2
563.579	20990.96
563.941	21200.45
564.304	21405.64
564.666	21630.49
565.028	21773.99
565.39	22109.12
565.753	22310.92
566.115	22606.06
566.477	22759.5
566.839	22900.06
567.201	23173.5
567.563	23467.96
567.925	23610.78
568.287	23822.75
568.648	23976.42
569.01	24371.44
569.372	24604.42
569.734	24647.13
570.095	25050.51
570.457	25315.37
570.819	25441.01
571.18	25661.35
571.542	25902.02
571.903	26183.14
572.265	26329.35
572.626	26490.93
572.987	26962.78
573.349	27068.31
573.71	27241.42
574.071	27428.3
574.432	27675.53
574.794	28182.41
575.155	28357.77
575.516	28247.94
575.877	28506.92
576.238	28793.47
576.599	29067.58
576.96	29274.58
577.32	29404.52
577.681	29694.46
578.042	29904.4
578.403	30016.71
578.763	30299.42
579.124	30468.45
579.485	30649.01
579.845	30906.18
580.206	31061.66
580.566	31163.8
580.927	31347.75
581.287	31679.94
581.648	31734.86
582.008	31930.78
582.368	32040.39
582.728	32273.83
583.089	32354.95
583.449	32524.44
583.809	32639.92
584.169	32834.26
584.529	32908.61
584.889	33306.34
585.249	33249.17
585.609	33368.49
585.969	33504.75
586.329	33735.26
586.688	33831.07
587.048	33983.16
587.408	34071.75
587.768	34252.76
588.127	34297.5
588.487	34395.35
588.846	34719.41
589.206	34779.52
589.565	34861.1
589.925	35010.03
590.284	35214.99
590.643	35257.48
591.003	35513.74
591.362	35682.55
591.721	35759.38
592.08	35755.09
592.44	36021.07
592.799	36100.39
593.158	36095.19
593.517	36300.61
593.876	36430.55
594.235	36462.87
594.593	36745.35
594.952	36884.55
595.311	36803.2
595.67	37068.28
596.029	37447.25
596.387	37477.31
596.746	37618.54
597.104	37523.63
597.463	37681.82
597.822	37779.67
598.18	37838.65
598.538	38039.1
598.897	38390.5
599.255	38193.44
599.613	38831.62
599.972	38645.18
600.33	38907.78
600.688	38663.49
601.046	39038.17
601.404	39276.81
601.762	39247.88
602.12	39489.23
602.478	39479.06
602.836	39677.7
603.194	39631.37
603.552	39816
603.91	39871.37
604.268	40349.32
604.625	40111.13
604.983	40444.91
605.341	40299.6
605.698	40546.83
606.056	40731.91
606.413	40788.18
606.771	41068.4
607.128	41269.75
607.485	41197.66
607.843	41204.44
608.2	41630.64
608.557	41639
608.914	41861.6
609.272	42059.56
609.629	42136.17
609.986	42360.34
610.343	42302.72
610.7	42575.93
611.057	42698.19
611.414	42717.17
611.771	42723.5
612.127	43134.78
612.484	43200.54
612.841	43425.62
613.198	43378.17
613.554	43430.6
613.911	43749.23
614.267	43781.32
614.624	43905.16
614.98	43972.95
615.337	44246.39
615.693	44245.94
616.05	44464.47
616.406	44690.45
616.762	44704.23
617.118	44817.68
617.475	44934.74
617.831	45010.44
618.187	44990.33
618.543	45239.36
618.899	45418.57
619.255	45499.69
619.611	45532.01
619.967	45621.27
620.323	45821.72
620.678	45833.47
621.034	45818.56
621.39	45800.7
621.746	45878.89
622.101	46480.91
622.457	46103.07
622.812	46374.25
623.168	46446.56
623.523	46583.51
623.879	46782.15
624.234	46454.02
624.589	46699.66
624.945	46770.85
625.3	46858.53
625.655	46746.44
626.01	46887.68
626.365	47058.52
626.72	47001.12
627.075	47215.81
627.43	47079.09
627.785	47032.99
628.14	47258.07
628.495	47341.9
628.85	47393.2
629.205	47360.66
629.559	47663.03
629.914	47442.92
630.269	47519.53
630.623	47461.22
630.978	47540.77
631.332	47838.16
631.687	47758.84
632.041	47634.55
632.396	47728.34
632.75	47696.7
633.104	47950.7
633.459	47794.55
633.813	47798.62
634.167	47877.26
634.521	47912.96
634.875	47995.9
635.229	47989.35
635.583	47726.3
635.937	47894.43
636.291	47843.81
636.645	48072.73
636.999	47912.74
637.352	47993.87
637.706	47867.54
638.06	48067.99
638.413	48059.85
638.767	48004.71
639.121	48169.45
639.474	47903.02
639.828	47969.01
640.181	48068.67
640.534	48106.86
640.888	48146.18
641.241	47913.42
641.594	48123.58
641.947	48205.84
642.301	48148.66
642.654	48163.8
643.007	48225.05
643.36	48216.91
643.713	48162.9
644.066	48402.22
644.419	48268.21
644.771	48106.4
645.124	47697.6
645.477	47609.92
645.83	47346.65
646.182	47359.98
646.535	47394.56
646.888	47517.49
647.24	47319.76
647.593	47663.25
647.945	47634.33
648.298	47494.22
648.65	47489.7
649.002	47307.78
649.355	47463.94
649.707	47473.43
650.059	47492.64
650.411	48056.01
650.763	48124.48
651.115	48558.6
651.467	48446.96
651.819	48523.79
652.171	48453.51
652.523	48427.98
652.875	48460.07
653.227	48394.31
653.578	48718.14
653.93	48477.69
654.282	48503.23
654.633	48495.77
654.985	48621.87
655.337	48556.11
655.688	48495.09
656.039	48766.5
656.391	48317.25
656.742	48514.98
657.094	48712.72
657.445	48788.19
657.796	48734.41
658.147	48758.82
658.498	48795.65
658.849	48818.25
659.2	48815.31
659.551	48742.32
659.902	48961.07
660.253	48804.92
660.604	48866.84
660.955	48834.3
661.306	48917
661.656	48930.11
662.007	48930.11
662.358	48891.69
662.708	48825.71
663.059	48979.38
663.409	48716.11
663.76	49058.47
664.11	49002.65
664.461	48958.59
664.811	49039.94
665.161	49146.6
665.511	49003.1
665.862	49152.93
666.212	49266.15
666.562	49160.39
666.912	49086.04
667.262	49203.1
667.612	49175.08
667.962	49434.05
668.312	49154.06
668.662	49401.74
669.011	49360.38
669.361	49513.6
669.711	49433.15
670.06	49337.78
670.41	49373.04
670.76	49317.45
671.109	49600.6
671.459	49518.12
671.808	49489.87
672.157	49610.09
672.507	49397.9
672.856	49336.2
673.205	49469.98
673.554	49612.13
673.904	49427.05
674.253	49712.92
674.602	49618.46
674.951	49073.16
675.3	48941.18
675.649	49679.92
675.998	49536.88
676.346	49615.07
676.695	49775.74
677.044	49462.3
677.393	49593.82
677.741	49666.82
678.09	49487.84
678.438	49547.95
678.787	49815.74
679.135	49678.11
679.484	49491.23
679.832	49588.63
680.181	49541.17
680.529	49680.83
680.877	49488.29
681.225	49463.88
681.573	49576.42
681.922	49436.54
682.27	49466.59
682.618	49445.35
682.966	49305.02
683.314	49524.9
683.661	49310.21
684.009	49258.69
684.357	49050.79
684.705	49094.63
685.053	49229.76
685.4	49270.89
685.748	49113.84
686.095	49077.23
686.443	48893.73
686.79	48972.14
687.138	49010.34
687.485	49084.01
687.832	49077
688.18	49076.32
688.527	48836.55
688.874	48808.53
689.221	48782.32
689.568	48687.18
689.915	48634.07
690.262	48629.55
690.609	48641.76
690.956	48536.9
691.303	48480.86
691.65	48357.25
691.997	48229.11
692.344	48150.02
692.69	48124.26
693.037	48214.65
693.383	47939.18
693.73	48182.79
694.077	47861.89
694.423	47883.13
694.769	47922.23
695.116	47790.71
695.462	47787.99
695.808	47703.03
696.155	47813.08
696.501	47522.24
696.847	47401.34
697.193	47295.58
697.539	47420.09
697.885	47141.23
698.231	47115.7
698.577	47153.44
698.923	47103.72
699.269	46913.67
699.614	46653.56
699.96	46752.54
700.306	46867.12
700.651	46719.55
700.997	46651.98
701.342	46731.07
701.688	46492.44
702.033	46406.79
702.379	46430.52
702.724	46279.56
703.069	46363.63
703.415	45715.28
703.76	45862.4
704.105	46004.09
704.45	45952.34
704.795	45721.61
705.14	45716.18
705.485	45537.88
705.83	45478.45
706.175	45594.61
706.52	45514.61
706.865	45463.99
707.209	45385.8
707.554	45252.92
707.899	45336.53
708.243	45155.75
708.588	45173.6
708.932	44873.72
709.277	44866.72
709.621	44902.42
709.966	44581.3
710.31	44729.54
710.654	44573.84
710.998	44678.25
711.342	44714.63
711.687	44621.3
712.031	44506.05
712.375	44413.85
712.719	44350.8
713.063	44228.77
713.407	44503.56
713.75	44263.57
714.094	44307.63
714.438	44158.71
714.782	44137.92
715.125	43919.62
715.469	43997.36
715.812	43889.79
716.156	43757.59
716.499	43781.32
716.843	43788.33
717.186	43489.35
717.53	43860.87
717.873	43810.02
718.216	43573.42
718.559	43516.69
718.902	43303.14
719.246	43471.72
719.589	43348.79
719.932	43228.79
720.275	43306.08
720.617	43174.1
720.96	43190.83
721.303	43073.54
721.646	43220.66
721.989	43154.44
722.331	43152.64
722.674	43107.67
723.016	43046.42
723.359	43040.55
723.701	43145.18
724.044	42708.35
724.386	42511.52
724.729	42812.53
725.071	42765.75
725.413	42704.29
725.755	42699.32
726.097	42577.96
726.439	42563.95
726.782	42506.33
727.124	42671.52
727.465	42460.9
727.807	42540.9
728.149	42321.25
728.491	42282.6
728.833	42328.48
729.175	42175.04
729.516	42148.6
729.858	42168.71
730.199	42100.91
730.541	42110.4
730.882	41998.77
731.224	42051.65
731.565	41725.78
731.906	41904.53
732.248	42104.08
732.589	41852.78
732.93	41785.21
733.271	41751.77
733.612	41994.93
733.953	41924.42
734.294	41724.43
734.635	41635.39
734.976	41526.92
735.317	41612.11
735.658	41651.21
735.999	41441.27
736.339	41403.08
736.68	41495.5
737.021	41297.09
737.361	41243.31
737.702	41332.12
738.042	41265
738.383	41203.76
738.723	41414.38
739.063	41170.77
739.404	41373.02
739.744	41073.6
740.084	41148.62
740.424	41277.88
740.764	41161.5
741.104	41187.72
741.444	40824.11
741.784	40935.52
742.124	40995.18
742.464	40818.46
742.804	40860.49
743.143	40900.49
743.483	40781.4
743.823	40659.82
744.162	40683.77
744.502	40735.52
744.841	40696.88
745.181	40856.43
745.52	40688.97
745.86	40629.09
746.199	40469.77
746.538	40472.26
746.877	40517.9
747.216	40373.5
747.556	40401.52
747.895	40405.82
748.234	40180.74
748.573	40109.33
748.911	40092.38
749.25	40130.8
749.589	40003.79
749.928	40081.76
750.267	40006.96
750.605	39878.82
750.944	39799.5
751.283	39781.88
751.621	40010.35
751.96	39679.06
752.298	39694.2
752.636	39832.95
752.975	39559.51
753.313	39440.64
753.651	39405.16
753.989	39303.47
754.327	39251.72
754.666	39135.12
755.004	39162.01
755.342	39170.82
755.679	39120.43
756.017	38928.34
756.355	39105.51
756.693	38901.67
757.031	38986.19
757.368	38697.84
