Data from copper_heatsink_FLMS001491_074.txt Node
Date: Tue Feb 07 10:50:33 GMT 2017
User: dcchb
Spectrometer: FLMS00149
Trigger mode: 0
Integration Time (sec): 2.000000E-2
Scans to average: 10
Electric dark correction enabled: true
Nonlinearity correction enabled: false
Boxcar width: 0
XAxis mode: Wavelengths
Number of Pixels in Spectrum: 2048
>>>>>Begin Spectral Data<<<<<
341.393	-20.2
341.776	-20.2
342.16	-20.2
342.543	-62.23
342.927	-75.34
343.31	-64.04
343.693	-47.77
344.077	-60.87
344.46	-49.8
344.843	-71.95
345.226	-41.44
345.61	-36.92
345.993	-24.26
346.376	-17.49
346.759	19.58
347.142	33.36
347.525	30.87
347.908	45.34
348.291	83.75
348.674	73.13
349.057	128.5
349.44	121.27
349.823	155.39
350.206	189.51
350.588	210.98
350.971	244.65
351.354	250.76
351.737	267.25
352.119	293.47
352.502	296.63
352.884	293.24
353.267	339.34
353.65	323.3
354.032	329.85
354.414	325.33
354.797	326.01
355.179	327.36
355.562	338.89
355.944	367.59
356.326	354.48
356.709	370.53
357.091	368.72
357.473	372.11
357.855	378.44
358.238	370.3
358.62	361.71
359.002	384.99
359.384	371.43
359.766	371.43
360.148	376.85
360.53	397.42
360.912	361.94
361.294	396.74
361.676	375.95
362.057	377.53
362.439	382.5
362.821	350.87
363.203	372.56
363.584	366.46
363.966	368.95
364.348	350.87
364.729	359.91
365.111	371.2
365.493	374.14
365.874	339.57
366.256	353.8
366.637	369.62
367.019	355.84
367.4	363.75
367.781	367.82
368.163	375.5
368.544	365.78
368.925	365.56
369.306	362.17
369.688	355.84
370.069	375.5
370.45	354.71
370.831	364.65
371.212	349.28
371.593	331.88
371.974	357.87
372.355	340.02
372.736	375.27
373.117	355.16
373.498	370.3
373.879	374.14
374.26	370.3
374.641	381.37
375.021	349.06
375.402	354.93
375.783	349.51
376.163	386.12
376.544	404.88
376.925	373.69
377.305	371.2
377.686	381.83
378.066	390.19
378.447	395.16
378.827	403.52
379.208	385.89
379.588	391.09
379.968	395.39
380.349	410.98
380.729	413.01
381.109	401.94
381.489	392.9
381.87	401.49
382.25	388.15
382.63	404.88
383.01	422.05
383.39	403.52
383.77	407.81
384.15	405.33
384.53	447.59
384.91	417.98
385.29	420.24
385.67	446.68
386.049	436.29
386.429	436.51
386.809	427.7
387.189	428.15
387.568	412.56
387.948	432.22
388.328	447.14
388.707	424.31
389.087	455.95
389.466	448.72
389.846	454.37
390.225	481.26
390.605	455.04
390.984	457.3
391.363	474.03
391.743	478.32
392.122	455.95
392.501	458.89
392.881	484.42
393.26	472.22
393.639	499.56
394.018	462.95
394.397	488.49
394.776	489.17
395.155	495.95
395.534	492.33
395.913	478.32
396.292	511.77
396.671	509.51
397.05	514.03
397.429	527.36
397.808	505.66
398.186	527.81
398.565	501.82
398.944	515.38
399.323	511.99
399.701	534.36
400.08	507.92
400.458	534.82
400.837	562.61
401.215	552.22
401.594	542.95
401.972	532.56
402.351	546.34
402.729	566.45
403.107	554.7
403.486	546.12
403.864	554.93
404.242	581.37
404.62	565.55
404.999	554.25
405.377	599.45
405.755	590.63
406.133	597.41
406.511	593.35
406.889	585.21
407.267	606.45
407.645	596.74
408.023	636.51
408.401	637.19
408.779	642.61
409.156	618.2
409.534	620.69
409.912	631.99
410.29	663.85
410.667	656.4
411.045	666.34
411.422	665.89
411.8	667.47
412.178	664.76
412.555	701.59
412.933	704.3
413.31	677.86
413.687	693.91
414.065	714.47
414.442	704.08
414.819	718.99
415.197	730.52
415.574	740.46
415.951	737.97
416.328	767.8
416.705	770.29
417.082	768.26
417.46	754.25
417.837	796.28
418.214	765.54
418.591	785.21
418.967	787.47
419.344	773.91
419.721	784.53
420.098	814.81
420.475	789.05
420.852	807.8
421.228	822.94
421.605	839.89
421.982	842.15
422.358	844.19
422.735	864.75
423.111	877.63
423.488	881.7
423.864	879.44
424.241	877.41
424.617	909.72
424.994	891.87
425.37	918.99
425.746	907.69
426.123	952.21
426.499	938.87
426.875	945.88
427.251	951.3
427.627	970.29
428.003	971.19
428.379	982.04
428.756	1014.58
429.132	1015.93
429.507	1030.62
429.883	1026.33
430.259	1034.69
430.635	1050.51
431.011	1045.99
431.387	1076.5
431.763	1079.43
432.138	1072.43
432.514	1118.08
432.89	1103.84
433.265	1146.55
433.641	1155.37
434.016	1145.2
434.392	1170.96
434.767	1172.99
435.143	1198.98
435.518	1231.75
435.894	1227
436.269	1223.61
436.644	1254.35
437.02	1253.89
437.395	1283.27
437.77	1294.34
438.145	1285.98
438.52	1291.63
438.895	1299.09
439.271	1325.08
439.646	1363.5
440.021	1358.75
440.395	1388.35
440.77	1380.44
441.145	1347.9
441.52	1372.76
441.895	1419.99
442.27	1410.05
442.645	1409.82
443.019	1440.1
443.394	1439.2
443.769	1441.69
444.143	1400.1
444.518	1466.09
444.892	1459.54
445.267	1462.48
445.641	1474.9
446.016	1506.77
446.39	1484.4
446.764	1504.06
447.139	1516.26
447.513	1548.35
447.887	1549.03
448.262	1572.08
448.636	1593.77
449.01	1603.49
449.384	1612.75
449.758	1622.92
450.132	1622.02
450.506	1641.91
450.88	1662.92
451.254	1638.29
451.628	1652.75
452.002	1657.72
452.376	1702.47
452.75	1745.41
453.123	1720.1
453.497	1789.02
453.871	1785.18
454.244	1836.25
454.618	1833.54
454.992	1863.37
455.365	1838.28
455.739	1914.89
456.112	1936.59
456.486	1957.38
456.859	1941.56
457.232	1979.07
457.606	1986.98
457.979	2033.31
458.352	2059.75
458.725	2046.87
459.099	2106.07
459.472	2147.88
459.845	2132.51
460.218	2155.79
460.591	2176.81
460.964	2203.93
461.337	2231.49
461.71	2283.7
462.083	2315.11
462.456	2342.23
462.829	2329.8
463.201	2382.45
463.574	2408.89
463.947	2425.39
464.32	2455.67
464.692	2485.27
465.065	2522.56
465.438	2544.71
465.81	2572.5
466.183	2572.28
466.555	2669.68
466.928	2718.04
467.3	2698.83
467.672	2697.92
468.045	2788.99
468.417	2811.37
468.789	2847.98
469.161	2897.24
469.534	2907.86
469.906	2913.28
470.278	2960.97
470.65	3013.4
471.022	3062.21
471.394	3127.29
471.766	3150.57
472.138	3213.39
472.51	3282.77
472.882	3323.9
473.253	3332.48
473.625	3364.57
473.997	3416.55
474.369	3505.13
474.74	3513.04
475.112	3578.8
475.484	3667.39
475.855	3671.23
476.227	3736.09
476.598	3800.27
476.97	3839.14
477.341	3944.22
477.713	3947.38
478.084	3996.65
478.455	4136.08
478.827	4215.85
479.198	4282.29
479.569	4292.46
479.94	4416.52
480.311	4410.65
480.682	4510.31
481.053	4633.47
481.424	4706.68
481.795	4712.33
482.166	4861.93
482.537	4841.14
482.908	5037.07
483.279	5070.74
483.65	5178.76
484.021	5262.38
484.391	5278.19
484.762	5350.06
485.133	5442.48
485.503	5449.26
485.874	5613.33
486.244	5618.3
486.615	5751.63
486.985	5792.53
487.356	5904.62
487.726	5955.24
488.097	6083.6
488.467	6113.43
488.837	6267.1
489.207	6340.77
489.578	6397.71
489.948	6465.96
490.318	6538.5
490.688	6557.48
491.058	6722.45
491.428	6815.33
491.798	6868.21
492.168	7007.19
492.538	7030.01
492.908	7151.59
493.278	7253.06
493.648	7173.51
494.017	7300.06
494.387	7420.51
494.757	7458.02
495.126	7631.8
495.496	7674.29
495.866	7721.75
496.235	7798.35
496.605	7898.69
496.974	7915.41
497.344	8036.99
497.713	8062.75
498.082	8189.76
498.452	8226.59
498.821	8254.61
499.19	8316.08
499.559	8388.85
499.928	8488.73
500.298	8519.69
500.667	8622.74
501.036	8667.03
501.405	8800.81
501.774	8778.89
502.143	8826.35
502.512	8881.94
502.88	9005.78
503.249	9020.02
503.618	9099.34
503.987	9144.99
504.356	9234.93
504.724	9311.76
505.093	9371.87
505.462	9390.18
505.83	9507.24
506.199	9597.63
506.567	9692.32
506.936	9741.13
507.304	9793.56
507.672	9873.33
508.041	9927.56
508.409	10043.94
508.777	10044.85
509.145	10228.8
509.514	10256.59
509.882	10394.67
510.25	10389.7
510.618	10541.56
510.986	10564.38
511.354	10652.74
511.722	10776.36
512.09	10847.31
512.458	10984.03
512.826	11057.03
513.193	11073.3
513.561	11148.55
513.929	11276.91
514.297	11354.19
514.664	11506.96
515.032	11511.93
515.4	11624.47
515.767	11743.79
516.135	11836.44
516.502	11814.97
516.869	12080.95
517.237	12105.81
517.604	12015.42
517.972	12257.45
518.339	12393.49
518.706	12502.64
519.073	12445.24
519.44	12587.38
519.808	12792.35
520.175	12814.72
520.542	12943.08
520.909	13120.7
521.276	13226.46
521.643	13294.25
522.009	13383.97
522.376	13502.84
522.743	13642.72
523.11	13844.75
523.477	13935.59
523.843	14020.11
524.21	14159.77
524.577	14283.38
524.943	14395.24
525.31	14537.61
525.676	14678.4
526.043	14872.29
526.409	15009.24
526.776	15112.06
527.142	15213.53
527.508	15290.13
527.874	15449.23
528.241	15538.04
528.607	15600.18
528.973	15739.61
529.339	15864.58
529.705	16057.12
530.071	16155.87
530.437	16199.72
530.803	16406.94
531.169	16526.03
531.535	16606.94
531.901	16638.35
532.267	16822.3
532.632	16939.58
532.998	17041.95
533.364	17198.33
533.73	17238.56
534.095	17462.51
534.461	17607.14
534.826	17642.39
535.192	17731.65
535.557	17936.17
535.923	17915.15
536.288	18142.04
536.653	18317.4
537.019	18230.4
537.384	18450.05
537.749	18547.45
538.114	18536.6
538.479	18720.33
538.845	18894.56
539.21	18852.98
539.575	19020.21
539.94	19042.35
540.305	19306.98
540.67	19309.01
541.034	19432.4
541.399	19558.95
541.764	19676.23
542.129	19870.58
542.494	19976.34
542.858	20082.1
543.223	20145.37
543.587	20339.95
543.952	20377.23
544.316	20499.04
544.681	20668.75
545.045	20845.47
545.41	20976.09
545.774	20997.56
546.138	21268.51
546.503	21313.48
546.867	21316.64
547.231	21652
547.595	21718.67
547.959	21851.77
548.324	21962.28
548.688	22161.82
549.052	22329.05
549.416	22373.11
549.779	22529.94
550.143	22624.86
550.507	23001.8
550.871	23126.31
551.235	23126.76
551.599	23355.23
551.962	23690.37
552.326	23710.03
552.689	23910.7
553.053	24019.4
553.417	24225.27
553.78	24658.7
554.143	24529.67
554.507	24812.82
554.87	24891.69
555.234	25357.89
555.597	25243.09
555.96	25580.94
556.323	25869.52
556.686	26013.69
557.05	26255.72
557.413	26380.01
557.776	26608.93
558.139	26959.66
558.502	27137.96
558.865	27367.33
559.228	27547.21
559.59	27902.68
559.953	28046.86
560.316	28506.74
560.679	28557.58
561.041	29030.79
561.404	29231.46
561.767	29623.32
562.129	29720.49
562.492	30181.95
562.854	30333.58
563.217	30517.98
563.579	30755.49
563.941	31023.51
564.304	31612.87
564.666	31816.25
565.028	32007.44
565.39	32323.59
565.753	32677.25
566.115	32970.35
566.477	33293.28
566.839	33513.38
567.201	33886.71
567.563	34136.19
567.925	34648.04
568.287	34805.55
568.648	34978.66
569.01	35468.59
569.372	35725.08
569.734	35968.91
570.095	36378.85
570.457	36860.64
570.819	36972.95
571.18	37110.35
571.542	37617.23
571.903	37960.05
572.265	38183.32
572.626	38496.3
572.987	38684.32
573.349	39029.85
573.71	39362.72
574.071	39671.19
574.432	40024.63
574.794	40421.68
575.155	40607.66
575.516	40705.96
575.877	41097.59
576.238	41292.61
576.599	41881.53
576.96	41834.75
577.32	42186.38
577.681	42484.45
578.042	42780.94
578.403	42940.71
578.763	43112.45
579.124	43594.7
579.485	43891.42
579.845	43994.46
580.206	44173.89
580.566	44563.49
580.927	44668.57
581.287	44922.8
581.648	44836.02
582.008	45239.4
582.368	45470.58
582.728	45645.49
583.089	45729.56
583.449	45978.82
583.809	46163.67
584.169	46425.36
584.529	46396.21
584.889	46899.25
585.249	46797.33
585.609	46999.13
585.969	47268.73
586.329	47314.15
586.688	47500.14
587.048	47638.89
587.408	47619.45
587.768	47721.15
588.127	47924.53
588.487	48054.47
588.846	48459.21
589.206	48314.35
589.565	48537.17
589.925	48762.7
590.284	48850.38
590.643	48979.19
591.003	49077.95
591.362	49394.32
591.721	49553.41
592.08	49571.49
592.44	49698.5
592.799	49909.56
593.158	49983.46
593.517	50077.47
593.876	50153.17
594.235	50183
594.593	50314.52
594.952	50589.09
595.311	50596.1
595.67	50711.12
596.029	51050.1
596.387	51069.31
596.746	51285.57
597.104	51151.11
597.463	51397.66
597.822	51540.71
598.18	51492.12
598.538	51645.79
598.897	51988.6
599.255	51752.23
599.613	52276.51
599.972	52106.79
600.33	52152.44
600.688	52212.55
601.046	52422.49
601.404	52649.83
601.762	52608.93
602.12	52929.15
602.478	52992.42
602.836	53102.7
603.194	53050.05
603.552	53213.88
603.91	53220.44
604.268	53497.04
604.625	53458.17
604.983	53667.66
605.341	53541.11
605.698	53768.44
606.056	54100.64
606.413	53978.38
606.771	54142.9
607.128	54365.04
607.485	54219.51
607.843	54311.71
608.2	54595.54
608.557	54784.01
608.914	54679.16
609.272	54897
609.629	55000.73
609.986	55121.86
610.343	55141.74
610.7	55371.57
611.057	55449.3
611.414	55439.59
611.771	55563.2
612.127	55716.19
612.484	55750.31
612.841	55943.76
613.198	55872.34
613.554	56004.77
613.911	56161.83
614.267	56239.34
614.624	56217.19
614.98	56416.28
615.337	56575.15
615.693	56569.73
616.05	56662.61
616.406	56790.96
616.762	56776.95
617.118	56925.65
617.475	56953.45
617.831	57082.26
618.187	57178.07
618.543	57308.24
618.899	57395.47
619.255	57367.67
619.611	57490.16
619.967	57535.13
620.323	57606.08
620.678	57599.53
621.034	57647.21
621.39	57708.45
621.746	57776.93
622.101	58005.85
622.457	57872.07
622.812	57966.07
623.168	58127.88
623.523	58107.99
623.879	58277.48
624.234	58126.75
624.589	58330.13
624.945	58462.78
625.3	58489.68
625.655	58458.04
626.01	58571.03
626.365	58657.58
626.72	58625.49
627.075	58671.82
627.43	58766.73
627.785	58805.37
628.14	58885.15
628.495	58945.94
628.85	58979.83
629.205	58895.54
629.559	59002.66
629.914	58963.79
630.269	59081.53
630.623	59001.75
630.978	58997.01
631.332	59208.53
631.687	59287.62
632.041	59252.14
632.396	59333.5
632.75	59225.7
633.104	59342.76
633.459	59312.03
633.813	59284.68
634.167	59370.56
634.521	59390.9
634.875	59468.86
635.229	59417.11
635.583	59394.29
635.937	59456.66
636.291	59439.26
636.645	59564.22
636.999	59445.36
637.352	59610.55
637.706	59521.51
638.06	59718.57
638.413	59661.4
638.767	59655.3
639.121	59621.17
639.474	59622.3
639.828	59714.5
640.181	59780.04
640.534	59739.14
640.888	59679.25
641.241	59679.7
641.594	59810.32
641.947	59892.58
642.301	59861.39
642.654	59872.69
643.007	59853.03
643.36	59919.24
643.713	59852.58
644.066	60023.87
644.419	59895.52
644.771	59921.28
645.124	59757.21
645.477	59769.19
645.83	59680.15
646.182	59523.32
646.535	59424.12
646.888	59493.49
647.24	59314.51
647.593	59540.27
647.945	59464.11
648.298	59414.4
648.65	59417.34
649.002	59414.62
649.355	59534.62
649.707	59520.38
650.059	59819.59
650.411	60180.25
650.763	60163.76
651.115	60412.11
651.467	60409.63
651.819	60428.38
652.171	60423.19
652.523	60404.43
652.875	60433.35
653.227	60360.81
653.578	60537.53
653.93	60541.15
654.282	60491.43
654.633	60465.44
654.985	60622.28
655.337	60649.39
655.688	60665.21
656.039	60794.47
656.391	60560.36
656.742	60631.09
657.094	60716.28
657.445	60857.3
657.796	60775.49
658.147	60780.69
658.498	60863.85
658.849	60892.55
659.2	60829.5
659.551	60827.24
659.902	60978.2
660.253	60968.26
660.604	61082.38
660.955	61005.54
661.306	61109.72
661.656	61027.01
662.007	61107.69
662.358	61115.14
662.708	61164.86
663.059	61214.58
663.409	61150.62
663.76	61262.71
664.11	61302.94
664.461	61314.01
664.811	61323.73
665.161	61332.77
665.511	61340.68
665.862	61384.06
666.212	61456.83
666.562	61539.77
666.912	61544.29
667.262	61588.58
667.612	61525.53
667.962	61653.66
668.312	61676.03
668.662	61750.61
669.011	61757.16
669.361	61726.2
669.711	61770.27
670.06	61776.14
670.41	61746.31
670.76	61787.22
671.109	61880.77
671.459	61914.22
671.808	61959.42
672.157	61974.33
672.507	61812.3
672.856	61922.13
673.205	61999.41
673.554	62066.53
673.904	62043.93
674.253	62169.58
674.602	62133.42
674.951	61860.44
675.3	61702.7
675.649	62138.17
675.998	62111.28
676.346	62171.61
676.695	62257.04
677.044	62163.48
677.393	62269.92
677.741	62360.99
678.09	62275.34
678.438	62266.3
678.787	62306.07
679.135	62372.06
679.484	62252.97
679.832	62417.48
680.181	62258.17
680.529	62339.52
680.877	62351.27
681.225	62339.52
681.573	62466.07
681.922	62358.5
682.27	62303.14
682.618	62387.2
682.966	62381.78
683.314	62400.99
683.661	62403.47
684.009	62358.95
684.357	62361.89
684.705	62290.25
685.053	62368.9
685.4	62394.88
685.748	62314.21
686.095	62417.48
686.443	62343.59
686.79	62380.87
687.138	62449.8
687.485	62403.25
687.832	62373.64
688.18	62440.31
688.527	62362.57
688.874	62382.23
689.221	62407.99
689.568	62304.94
689.915	62283.02
690.262	62292.06
690.609	62310.14
690.956	62259.52
691.303	62213.65
691.65	62147.43
691.997	62154.67
692.344	62012.75
692.69	62060.43
693.037	62092.97
693.383	61982.24
693.73	62067.44
694.077	61951.73
694.423	61901.11
694.769	61952.64
695.116	61965.07
695.462	62001.22
695.808	61901.34
696.155	62055.46
696.501	61860.21
696.847	61910.15
697.193	61751.96
697.539	61926.42
697.885	61833.77
698.231	61793.54
698.577	61858.4
698.923	61876.25
699.269	61735.02
699.614	61641.01
699.96	61592.42
700.306	61624.96
700.651	61522.82
700.997	61500.22
701.342	61430.16
701.688	61485.3
702.033	61417.06
702.379	61474.23
702.724	61503.38
703.069	61506.55
703.415	61355.59
703.76	61446.21
704.105	61410.5
704.45	61398.53
704.795	61288.25
705.14	61238.53
705.485	61280.34
705.83	61108.14
706.175	61246.21
706.52	61235.14
706.865	61160.79
707.209	61121.25
707.554	61122.15
707.899	61228.14
708.243	61085.31
708.588	61163.73
708.932	61014.13
709.277	60998.31
709.621	61098.65
709.966	60946.11
710.31	61086.9
710.654	60856.39
710.998	60907.24
711.342	60940.69
711.687	60942.95
712.031	60894.36
712.375	60863.4
712.719	60910.86
713.063	60879.22
713.407	60997.63
713.75	60822.5
714.094	60887.58
714.438	60713.35
714.782	60862.95
715.125	60782.27
715.469	60900.23
715.812	60728.26
716.156	60670.18
716.499	60604.88
716.843	60741.82
717.186	60661.6
717.53	60777.98
717.873	60817.07
718.216	60736.62
718.559	60665.66
718.902	60447.14
719.246	60638.32
719.589	60576.85
719.932	60561.26
720.275	60585.67
720.617	60632.9
720.96	60639.45
721.303	60601.71
721.646	60583.63
721.989	60502.96
722.331	60609.4
722.674	60503.41
723.016	60591.32
723.359	60504.77
723.701	60620.02
724.044	60461.15
724.386	60372.34
724.729	60478.55
725.071	60455.05
725.413	60469.74
725.755	60438.33
726.097	60434.03
726.439	60295.73
726.782	60394.26
727.124	60528.95
727.465	60393.81
727.807	60391.1
728.149	60365.56
728.491	60338.89
728.833	60458.44
729.175	60413.92
729.516	60399.01
729.858	60382.73
730.199	60469.29
730.541	60446.69
730.882	60389.74
731.224	60452.34
731.565	60244.43
731.906	60310.87
732.248	60361.49
732.589	60342.28
732.93	60238.33
733.271	60316.3
733.612	60369.4
733.953	60419.34
734.294	60326.92
734.635	60253.47
734.976	60358.33
735.317	60262.06
735.658	60330.98
735.999	60297.54
736.339	60266.58
736.68	60331.21
737.021	60288.73
737.361	60209.86
737.702	60326.01
738.042	60248.27
738.383	60212.12
738.723	60255.51
739.063	60193.59
739.404	60328.72
739.744	60215.96
740.084	60227.48
740.424	60350.42
740.764	60288.73
741.104	60386.8
741.444	60229.74
741.784	60213.47
742.124	60267.71
742.464	60234.94
742.804	60215.28
743.143	60173.25
743.483	60216.64
743.823	60126.47
744.162	60080.14
744.502	60143.87
744.841	60125.79
745.181	60211.67
745.52	60151.1
745.86	60302.28
746.199	60254.38
746.538	60187.49
746.877	60184.77
747.216	60304.77
747.556	60236.75
747.895	60216.41
748.234	60104.32
748.573	60125.79
748.911	60238.11
749.25	60161.95
749.589	60034.04
749.928	60105.45
750.267	60148.16
750.605	60093.93
750.944	60043.99
751.283	60000.6
751.621	60039.69
751.96	59857.55
752.298	59891.67
752.636	59868.85
752.975	59836.31
753.313	59791.34
753.651	59891.67
753.989	59761.06
754.327	59731.45
754.666	59653.04
755.004	59838.12
