Data from foam_black_FLMS001491_00084.txt Node
Date: Wed Feb 08 10:44:50 GMT 2017
User: dcchb
Spectrometer: FLMS00149
Trigger mode: 0
Integration Time (sec): 2.000000E-2
Scans to average: 10
Electric dark correction enabled: true
Nonlinearity correction enabled: false
Boxcar width: 0
XAxis mode: Wavelengths
Number of Pixels in Spectrum: 2048
>>>>>Begin Spectral Data<<<<<
341.393	-5.3
341.776	-5.3
342.16	-5.3
342.543	-90.04
342.927	-55.69
343.31	-75.13
343.693	-79.64
344.077	-54.33
344.46	-59.76
344.843	-25.86
345.226	-47.78
345.61	-37.39
345.993	-7.78
346.376	-17.27
346.759	-0.55
347.142	36.28
347.525	45.1
347.908	43.74
348.291	73.35
348.674	101.37
349.057	105.66
349.44	121.48
349.823	120.12
350.206	165.55
350.588	173.91
350.971	213
351.354	204.64
351.737	244.64
352.119	245.77
352.502	261.59
352.884	253.45
353.267	275.6
353.65	285.32
354.032	297.97
354.414	307.69
354.797	302.49
355.179	310.63
355.562	310.18
355.944	309.95
356.326	310.4
356.709	322.6
357.091	337.29
357.473	342.94
357.855	346.78
358.238	327.35
358.62	304.3
359.002	355.6
359.384	331.42
359.766	330.06
360.148	325.54
360.53	346.33
360.912	321.7
361.294	311.53
361.676	320.8
362.057	319.67
362.439	311.08
362.821	324.86
363.203	345.65
363.584	318.08
363.966	327.35
364.348	316.5
364.729	317.41
365.111	316.05
365.493	316.5
365.874	297.29
366.256	302.94
366.637	319.44
367.019	315.15
367.4	329.61
367.781	326.22
368.163	297.29
368.544	330.97
368.925	309.05
369.306	311.08
369.688	300.01
370.069	304.3
370.45	319.21
370.831	303.17
371.212	324.86
371.593	312.44
371.974	304.3
372.355	303.4
372.736	303.4
373.117	318.76
373.498	306.79
373.879	317.18
374.26	313.79
374.641	322.6
375.021	336.39
375.402	337.29
375.783	313.11
376.163	317.63
376.544	346.33
376.925	322.6
377.305	314.47
377.686	354.02
378.066	341.81
378.447	347.69
378.827	337.07
379.208	350.63
379.588	372.55
379.968	339.78
380.349	340.46
380.729	350.4
381.109	344.75
381.489	341.59
381.87	337.75
382.25	345.43
382.63	357.41
383.01	342.49
383.39	354.02
383.77	366.45
384.15	346.56
384.53	375.26
384.91	378.2
385.29	366.45
385.67	373.68
386.049	383.62
386.429	373.45
386.809	378.87
387.189	397.4
387.568	369.83
387.948	379.1
388.328	375.03
388.707	376.16
389.087	352.43
389.466	397.18
389.846	386.56
390.225	409.38
390.605	378.87
390.984	398.53
391.363	414.13
391.743	387.69
392.122	400.79
392.501	420.68
392.881	415.71
393.26	401.25
393.639	391.3
394.018	402.83
394.397	414.81
394.776	424.52
395.155	436.73
395.534	439.44
395.913	436.95
396.292	433.56
396.671	445.77
397.05	444.18
397.429	441.92
397.808	432.43
398.186	449.61
398.565	438.76
398.944	448.48
399.323	433.11
399.701	436.73
400.08	454.8
400.458	453.67
400.837	456.16
401.215	451.41
401.594	462.26
401.972	453.67
402.351	458.42
402.729	458.19
403.107	478.76
403.486	466.33
403.864	478.76
404.242	477.85
404.62	501.58
404.999	492.54
405.377	484.86
405.755	492.77
406.133	517.18
406.511	501.58
406.889	497.52
407.267	505.88
407.645	517.63
408.023	509.49
408.401	524.18
408.779	508.59
409.156	515.59
409.534	538.42
409.912	538.64
410.29	546.55
410.667	537.97
411.045	558.98
411.422	542.94
411.8	559.66
412.178	562.82
412.555	567.12
412.933	557.17
413.31	570.51
413.687	613.9
414.065	612.99
414.442	610.73
414.819	602.37
415.197	574.12
415.574	601.92
415.951	594.91
416.328	596.72
416.705	608.02
417.082	630.39
417.46	631.97
417.837	621.13
418.214	624.29
418.591	603.05
418.967	638.98
419.344	634.91
419.721	638.08
420.098	657.51
420.475	670.39
420.852	654.57
421.228	663.16
421.605	662.48
421.982	689.83
422.358	686.66
422.735	681.92
423.111	703.84
423.488	680.11
423.864	711.97
424.241	692.09
424.617	713.1
424.994	722.82
425.37	712.88
425.746	729.37
426.123	756.04
426.499	752.2
426.875	751.97
427.251	739.99
427.627	745.87
428.003	754.01
428.379	793.1
428.756	777.06
429.132	799.65
429.507	787.45
429.883	798.75
430.259	830.16
430.635	841.46
431.011	814.34
431.387	835.13
431.763	832.2
432.138	838.52
432.514	835.13
432.89	884.85
433.265	861.35
433.641	874.45
434.016	897.5
434.392	898.63
434.767	875.81
435.143	894.34
435.518	932.98
435.894	934.57
436.269	974.11
436.644	970.5
437.02	968.46
437.395	957.62
437.77	982.25
438.145	997.84
438.52	1013.89
438.895	1010.27
439.271	993.1
439.646	1003.72
440.021	995.81
440.395	1047.33
440.77	1035.81
441.145	1045.98
441.52	1071.29
441.895	1061.12
442.27	1059.76
442.645	1085.3
443.019	1073.32
443.394	1087.33
443.769	1093.21
444.143	1076.93
444.518	1110.61
444.892	1085.97
445.267	1106.31
445.641	1116.93
446.016	1136.59
446.39	1104.5
446.764	1127.78
447.139	1114.45
447.513	1140.44
447.887	1163.03
448.262	1123.04
448.636	1134.33
449.01	1150.15
449.384	1179.98
449.758	1188.57
450.132	1206.65
450.506	1192.41
450.88	1239.19
451.254	1208
451.628	1238.74
452.002	1234.44
452.376	1251.85
452.75	1218.63
453.123	1257.27
453.497	1302.92
453.871	1292.07
454.244	1311.96
454.618	1302.92
454.992	1349.92
455.365	1321.9
455.739	1353.76
456.112	1386.98
456.486	1360.32
456.859	1417.94
457.232	1445.06
457.606	1420.43
457.979	1456.13
458.352	1494.1
458.725	1467.21
459.099	1494.55
459.472	1543.36
459.845	1512.4
460.218	1550.82
460.591	1528.9
460.964	1533.19
461.337	1599.18
461.71	1589.01
462.083	1643.93
462.456	1631.5
462.829	1655.9
463.201	1650.48
463.574	1664.04
463.947	1714.88
464.32	1753.08
464.692	1702.46
465.065	1724.6
465.438	1763.7
465.81	1824.94
466.183	1798.95
466.555	1821.1
466.928	1851.83
467.3	1838.5
467.672	1878.27
468.045	1897.7
468.417	1900.64
468.789	1937.48
469.161	1950.58
469.534	1975.89
469.906	1996.23
470.278	2036.46
470.65	2033.52
471.022	2085.72
471.394	2126.62
471.766	2095.21
472.138	2150.58
472.51	2180.63
472.882	2222.67
473.253	2218.37
473.625	2242.78
473.997	2301.31
474.369	2336.34
474.74	2352.83
475.112	2403.68
475.484	2427.18
475.855	2479.61
476.227	2496.33
476.598	2519.83
476.97	2535.88
477.341	2592.83
477.713	2636.89
478.084	2653.84
478.455	2744.24
478.827	2730.45
479.198	2846.38
479.569	2834.4
479.94	2860.62
480.311	2955.98
480.682	2989.43
481.053	3025.36
481.424	3097.22
481.795	3085.24
482.166	3124.34
482.537	3190.33
482.908	3215.86
483.279	3262.41
483.65	3300.15
484.021	3383.99
484.391	3416.76
484.762	3416.76
485.133	3446.36
485.503	3532.24
485.874	3579.47
486.244	3563.2
486.615	3662.18
486.985	3728.62
487.356	3788.73
487.726	3751.44
488.097	3886.8
488.467	3890.19
488.837	3978.1
489.207	3978.78
489.578	4005.9
489.948	4076.18
490.318	4156.63
490.688	4096.97
491.058	4175.61
491.428	4277.53
491.798	4250.18
492.168	4344.65
492.538	4367.02
492.908	4431.42
493.278	4511.42
493.648	4514.81
494.017	4527.24
494.387	4500.35
494.757	4578.09
495.126	4640.68
495.496	4646.11
495.866	4643.17
496.235	4713.9
496.605	4757.52
496.974	4782.83
497.344	4845.2
497.713	4881.13
498.082	4907.79
498.452	4958.64
498.821	4979.43
499.19	4955.25
499.559	5050.39
499.928	5101.24
500.298	5076.38
500.667	5101.24
501.036	5166.32
501.405	5193.89
501.774	5188.01
502.143	5233.21
502.512	5253.32
502.88	5346.65
503.249	5360.66
503.618	5383.49
503.987	5430.72
504.356	5418.52
504.724	5508.68
505.093	5475.01
505.462	5487.89
505.83	5589.13
506.199	5567.44
506.567	5672.97
506.936	5642.01
507.304	5695.12
507.672	5719.98
508.041	5773.53
508.409	5807.66
508.777	5885.17
509.145	5858.28
509.514	5916.13
509.882	5955.9
510.25	5996.13
510.618	6062.34
510.986	6012.85
511.354	6118.16
511.722	6079.29
512.09	6159.29
512.458	6205.84
512.826	6263.24
513.193	6281.32
513.561	6305.95
513.929	6325.61
514.297	6484.93
514.664	6418.04
515.032	6553.85
515.4	6625.94
515.767	6553.85
516.135	6618.94
516.502	6609.9
516.869	6688.31
517.237	6763.34
517.604	6749.1
517.972	6807.63
518.339	6930.34
518.706	6916.1
519.073	6947.06
519.44	6975.99
519.808	7085.59
520.175	7098.92
520.542	7168.98
520.909	7229.99
521.276	7246.72
521.643	7294.4
522.009	7344.79
522.376	7427.28
522.743	7378.69
523.11	7529.19
523.477	7613.26
523.843	7624.33
524.21	7707.27
524.577	7779.36
524.943	7855.29
525.31	7867.94
525.676	7930.54
526.043	7930.99
526.409	8041.05
526.776	8121.95
527.142	8153.59
527.508	8173.7
527.874	8242.4
528.241	8282.17
528.607	8359.91
528.973	8406.23
529.339	8444.88
529.705	8495.27
530.071	8567.81
530.437	8622.27
530.803	8704.98
531.169	8714.25
531.535	8719.45
531.901	8797.64
532.267	8842.61
532.632	8878.99
532.998	8946.11
533.364	8934.13
533.73	8977.97
534.095	9082.83
534.461	9031.08
534.826	9143.84
535.192	9213.9
535.557	9259.54
535.923	9326.89
536.288	9368.92
536.653	9360.11
537.019	9326.89
537.384	9453.66
537.749	9496.83
538.114	9493.66
538.479	9476.49
538.845	9613.21
539.21	9541.35
539.575	9644.85
539.94	9720.78
540.305	9676.93
540.67	9692.75
541.034	9741.34
541.399	9819.08
541.764	9818.4
542.129	9788.8
542.494	9939.75
542.858	9947.66
543.223	10000.09
543.587	10075.79
543.952	10036.7
544.316	10123.48
544.681	10099.75
545.045	10125.74
545.41	10212.74
545.774	10237.15
546.138	10235.11
546.503	10289.12
546.867	10277.37
547.231	10442.34
547.595	10422
547.959	10443.92
548.324	10474.2
548.688	10437.14
549.052	10605.05
549.416	10555.33
549.779	10615.22
550.143	10673.07
550.507	10723.23
550.871	10696.57
551.235	10779.96
551.599	10888.65
551.962	10873.74
552.326	10989.44
552.689	11017.01
553.053	11002.55
553.417	11004.58
553.78	11198.7
554.143	11157.57
554.507	11153.51
554.87	11265.14
555.234	11358.47
555.597	11311.24
555.96	11383.33
556.323	11455.19
556.686	11535.19
557.05	11642.76
557.413	11628.75
557.776	11621.29
558.139	11792.81
558.502	11815.41
558.865	11917.78
559.228	11919.81
559.59	12022.18
559.953	12011.79
560.316	12206.36
560.679	12194.38
561.041	12274.83
561.404	12334.72
561.767	12448.84
562.129	12391.44
562.492	12574.26
562.854	12570.87
563.217	12578.33
563.579	12690.64
563.941	12687.7
564.304	12814.03
564.666	12878.88
565.028	12869.62
565.39	12997.07
565.753	13046.56
566.115	13075.26
566.477	13205.88
566.839	13240.23
567.201	13302.6
567.563	13296.5
567.925	13344.18
568.287	13452.65
568.648	13532.65
569.01	13608.13
569.372	13601.35
569.734	13663.27
570.095	13802.48
570.457	13750.5
570.819	13886.09
571.18	13815.81
571.542	13909.37
571.903	13971.29
572.265	14060.77
572.626	14065.29
572.987	14093.77
573.349	14198.4
573.71	14200.66
574.071	14226.87
574.432	14265.29
574.794	14363.59
575.155	14405.85
575.516	14386.64
575.877	14417.6
576.238	14486.3
576.599	14539.41
576.96	14643.58
577.32	14557.71
577.681	14663.47
578.042	14700.08
578.403	14685.16
578.763	14738.95
579.124	14828.21
579.485	14769.91
579.845	14831.38
580.206	14801.32
580.566	14830.25
580.927	14860.53
581.287	14910.92
581.648	14914.09
582.008	15012.61
582.368	14927.87
582.728	14991.37
583.089	15002.44
583.449	14919.51
583.809	15045.16
584.169	14997.47
584.529	14953.18
584.889	15126.28
585.249	14955.44
585.609	14976
585.969	15057.13
586.329	15052.61
586.688	15204.93
587.048	15185.72
587.408	15084.48
587.768	15198.82
588.127	15156.79
588.487	15158.15
588.846	15202.89
589.206	15169.45
589.565	15227.3
589.925	15259.39
590.284	15183.91
590.643	15244.7
591.003	15212.83
591.362	15270.23
591.721	15279.95
592.08	15272.72
592.44	15232.72
592.799	15319.95
593.158	15293.51
593.517	15303.23
593.876	15380.29
594.235	15308.88
594.593	15261.65
594.952	15342.55
595.311	15285.15
595.67	15298.71
596.029	15400.63
596.387	15338.71
596.746	15414.64
597.104	15270.91
597.463	15310.68
597.822	15403.79
598.18	15381.64
598.538	15393.62
598.897	15563.33
599.255	15334.19
599.613	15621.64
599.972	15543.67
600.33	15493.28
600.688	15483.56
601.046	15540.28
601.404	15531.24
601.762	15624.12
602.12	15667.74
602.478	15628.87
602.836	15584.35
603.194	15538.7
603.552	15633.39
603.91	15538.25
604.268	15677.91
604.625	15599.26
604.983	15680.39
605.341	15635.2
605.698	15723.78
606.056	15818.69
606.413	15664.35
606.771	15801.97
607.128	15793.84
607.485	15736.21
607.843	15752.03
608.2	15822.31
608.557	15889.88
608.914	15874.96
609.272	15938.01
609.629	15958.35
609.986	15965.58
610.343	15945.7
610.7	16036.09
611.057	15978.92
611.414	15969.2
611.771	16061.4
612.127	16041.51
612.484	16025.47
612.841	16111.34
613.198	16083.32
613.554	15980.27
613.911	16125.58
614.267	16094.17
614.624	16114.28
614.98	16129.19
615.337	16227.72
615.693	16218.46
616.05	16149.53
616.406	16202.86
616.762	16156.31
617.118	16225.46
617.475	16156.99
617.831	16276.76
618.187	16339.81
618.543	16240.83
618.899	16341.39
619.255	16285.12
619.611	16309.98
619.967	16369.87
620.323	16426.81
620.678	16378.91
621.034	16249.19
621.39	16260.72
621.746	16259.59
622.101	16461.84
622.457	16342.75
622.812	16381.84
623.168	16356.76
623.523	16381.62
623.879	16412.12
624.234	16310.88
624.589	16407.83
624.945	16448.73
625.3	16468.39
625.655	16323.77
626.01	16405.8
626.365	16394.27
626.72	16307.72
627.075	16406.25
627.43	16310.88
627.785	16378.23
628.14	16391.11
628.495	16426.81
628.85	16423.42
629.205	16315.18
629.559	16394.05
629.914	16309.75
630.269	16229.3
630.623	16266.82
630.978	16269.98
631.332	16324.44
631.687	16349.75
632.041	16224.33
632.396	16324.44
632.75	16239.02
633.104	16312.01
633.459	16175.75
633.813	16188.4
634.167	16234.95
634.521	16132.58
634.875	16197.44
635.229	16108.63
635.583	16027.05
635.937	16189.98
636.291	16013.72
636.645	16063.66
636.999	16011.68
637.352	16092.81
637.706	15932.36
638.06	16065.47
638.413	16048.07
638.767	15905.47
639.121	15978.92
639.474	15926.94
639.828	15879.71
640.181	15930.78
640.534	15914.96
640.888	15843.1
641.241	15867.05
641.594	15863.89
641.947	15861.4
642.301	15811.24
642.654	15818.24
643.007	15837.9
643.36	15680.62
643.713	15677
644.066	15768.07
644.419	15690.79
644.771	15575.31
645.124	15336.9
645.477	15305.04
645.83	15185.04
646.182	15196.79
646.535	15221.42
646.888	15189.33
647.24	15113.63
647.593	15238.37
647.945	15231.37
648.298	15152.27
648.65	15150.24
649.002	15083.35
649.355	15094.65
649.707	14987.3
650.059	15027.08
650.411	15269.56
650.763	15237.92
651.115	15431.81
651.467	15323.57
651.819	15339.38
652.171	15264.81
652.523	15239.27
652.875	15266.84
653.227	15219.16
653.578	15207.41
653.93	15199.05
654.282	15119.96
654.633	15191.14
654.985	15151.59
655.337	15161.76
655.688	15260.06
656.039	15221.87
656.391	15079.73
656.742	15154.53
657.094	15194.76
657.445	15243.57
657.796	15146.85
658.147	15098.71
658.498	15105.27
658.849	15064.59
659.2	15065.95
659.551	15036.57
659.902	14947.98
660.253	15027.08
660.604	15081.31
660.955	14979.39
661.306	15022.11
661.656	14997.02
662.007	14968.32
662.358	15008.32
662.708	14981.2
663.059	14985.5
663.409	14888.32
663.76	14872.96
664.11	14909.57
664.461	14990.02
664.811	14947.76
665.161	14996.79
665.511	14943.24
665.862	14886.52
666.212	15011.03
666.562	14993.41
666.912	14930.81
667.262	14883.58
667.612	15000.64
667.962	14931.03
668.312	14836.57
668.662	14936.68
669.011	14851.49
669.361	14847.19
669.711	14874.76
670.06	14841.77
670.41	14821.66
670.76	14787.31
671.109	14886.52
671.459	14927.64
671.808	14882.67
672.157	14871.83
672.507	14791.6
672.856	14758.38
673.205	14803.81
673.554	14815.1
673.904	14783.02
674.253	14928.77
674.602	14878.15
674.951	14569.46
675.3	14479.07
675.649	14722.9
675.998	14663.92
676.346	14647.88
676.695	14696.01
677.044	14563.36
677.393	14624.15
677.741	14635.67
678.09	14518.62
678.438	14562.46
678.787	14510.25
679.135	14613.53
679.484	14475.45
679.832	14623.92
680.181	14464.15
680.529	14488.56
680.877	14399.75
681.225	14385.51
681.573	14526.3
681.922	14345.06
682.27	14444.04
682.618	14345.06
682.966	14360.2
683.314	14296.25
683.661	14296.02
684.009	14184.61
684.357	14162.01
684.705	14171.05
685.053	14168.34
685.4	14133.54
685.748	14126.08
686.095	14081.11
686.443	14021.91
686.79	14007.22
687.138	14041.34
687.485	14002.02
687.832	13973.09
688.18	14001.34
688.527	13863.94
688.874	13891.06
689.221	13856.94
689.568	13745.98
689.915	13722.25
690.262	13856.71
690.609	13789.14
690.956	13665.98
691.303	13628.24
691.65	13548.25
691.997	13617.62
692.344	13517.06
692.69	13487
693.037	13491.98
693.383	13377.85
693.73	13448.59
694.077	13360.45
694.423	13295.37
694.769	13289.04
695.116	13270.06
695.462	13152.32
695.808	13172.66
696.155	13159.1
696.501	13030.74
696.847	12945.78
697.193	12891.77
697.539	13043.4
697.885	12918.21
698.231	12826.91
698.577	12854.03
698.923	12901.48
699.269	12762.05
699.614	12716.4
699.96	12715.95
700.306	12576.52
700.651	12625.11
700.997	12522.51
701.342	12484.54
701.688	12471.89
702.033	12484.77
702.379	12513.47
702.724	12494.04
703.069	12453.58
703.415	12358.22
703.76	12307.6
704.105	12335.4
704.45	12291.56
704.795	12171.11
705.14	12190.77
705.485	12242.74
705.83	12120.03
706.175	12116.64
706.52	12116.19
706.865	12010.21
707.209	12032.35
707.554	12003.43
707.899	11976.31
708.243	11963.88
708.588	11837.78
708.932	11825.35
709.277	11749.65
709.621	11711.46
709.966	11694.51
710.31	11727.95
710.654	11638.47
710.998	11653.61
711.342	11609.31
711.687	11572.25
712.031	11588.97
712.375	11468.07
712.719	11462.65
713.063	11464.46
713.407	11410.67
713.75	11386.27
714.094	11409.32
714.438	11347.85
714.782	11384.23
715.125	11268.98
715.469	11338.81
715.812	11218.82
716.156	11168.65
716.499	11223.11
716.843	11223.56
717.186	11165.94
717.53	11268.53
717.873	11167.07
718.216	11130.23
718.559	11114.41
718.902	10981.53
719.246	11038.03
719.589	11055.88
719.932	10940.4
720.275	10995.09
720.617	10959.84
720.96	10948.77
721.303	11017.46
721.646	10826.28
721.989	10831.71
722.331	10881.65
722.674	10842.33
723.016	10910.8
723.359	10837.13
723.701	10832.16
724.044	10829.9
724.386	10687.3
724.729	10675.78
725.071	10731.14
725.413	10747.19
725.755	10734.99
726.097	10606.18
726.439	10598.27
726.782	10600.75
727.124	10578.83
727.465	10543.8
727.807	10518.49
728.149	10529.57
728.491	10570.7
728.833	10502
729.175	10504.26
729.516	10530.7
729.858	10457.25
730.199	10459.51
730.541	10360.31
730.882	10437.82
731.224	10421.55
731.565	10320.53
731.906	10299.97
732.248	10326.86
732.589	10361.44
732.93	10242.12
733.271	10247.32
733.612	10274.21
733.953	10228.56
734.294	10269.91
734.635	10223.59
734.976	10302.23
735.317	10165.96
735.658	10150.59
735.999	10145.4
736.339	10148.11
736.68	10123.93
737.021	10087.09
737.361	10089.13
737.702	10107.66
738.042	10052.52
738.383	10087.32
738.723	10026.76
739.063	10045.29
739.404	10009.58
739.744	10047.32
740.084	9993.99
740.424	9881.68
740.764	9899.3
741.104	9906.99
741.444	9871.28
741.784	9834.67
742.124	9852.75
742.464	9897.49
742.804	9861.34
743.143	9777.95
743.483	9879.87
743.823	9716.48
744.162	9823.37
744.502	9721.68
744.841	9744.05
745.181	9697.73
745.52	9638.74
745.86	9693.66
746.199	9685.97
746.538	9648.91
746.877	9623.6
747.216	9600.33
747.556	9642.81
747.895	9619.08
748.234	9647.33
748.573	9505.87
748.911	9547.67
749.25	9575.24
749.589	9530.05
749.928	9506.54
750.267	9525.98
750.605	9459.31
750.944	9444.62
751.283	9469.26
751.621	9426.32
751.96	9414.34
752.298	9365.53
752.636	9290.05
752.975	9285.31
753.313	9285.31
753.651	9318.07
753.989	9205.31
754.327	9241.24
754.666	9268.13
755.004	9188.59
755.342	9177.51
755.679	9145.42
756.017	9193.33
756.355	9169.83
756.693	9129.83
757.031	9109.49
757.368	9043.73
757.706	9151.75
758.044	8979.78
758.381	9016.61
758.719	9012.32
