Data from foam_black_FLMS001491_00054.txt Node
Date: Wed Feb 08 10:44:08 GMT 2017
User: dcchb
Spectrometer: FLMS00149
Trigger mode: 0
Integration Time (sec): 2.000000E-2
Scans to average: 10
Electric dark correction enabled: true
Nonlinearity correction enabled: false
Boxcar width: 0
XAxis mode: Wavelengths
Number of Pixels in Spectrum: 2048
>>>>>Begin Spectral Data<<<<<
341.393	-20.78
341.776	-20.78
342.16	-20.78
342.543	-80.44
342.927	-68.01
343.31	-68.46
343.693	-70.94
344.077	-78.18
344.46	-55.35
344.843	-73.2
345.226	-30.27
345.61	-26.2
345.993	-15.58
346.376	12.22
346.759	2.95
347.142	5.66
347.525	47.24
347.908	49.73
348.291	96.73
348.674	89.05
349.057	114.59
349.44	117.75
349.823	115.72
350.206	133.12
350.588	183.06
350.971	191.87
351.354	198.43
351.737	208.14
352.119	224.42
352.502	235.49
352.884	261.48
353.267	268.26
353.65	274.58
354.032	286.56
354.414	307.8
354.797	293.57
355.179	304.19
355.562	304.41
355.944	299.22
356.326	301.93
356.709	302.38
357.091	318.2
357.473	314.13
357.855	312.77
358.238	310.29
358.62	323.85
359.002	312.77
359.384	313.23
359.766	344.41
360.148	306.45
360.53	303.96
360.912	313
361.294	315.26
361.676	331.08
362.057	320.01
362.439	301.93
362.821	287.46
363.203	333.34
363.584	298.09
363.966	313.68
364.348	296.5
364.729	296.73
365.111	301.02
365.493	298.54
365.874	299.44
366.256	286.79
366.637	295.15
367.019	294.24
367.4	294.92
367.781	294.24
368.163	294.7
368.544	278.65
368.925	315.03
369.306	305.09
369.688	291.53
370.069	304.41
370.45	295.6
370.831	299.22
371.212	292.89
371.593	298.31
371.974	310.51
372.355	311.19
372.736	279.33
373.117	310.29
373.498	308.03
373.879	287.92
374.26	301.7
374.641	304.19
375.021	309.16
375.402	306.45
375.783	318.42
376.163	324.75
376.544	310.29
376.925	313.45
377.305	296.28
377.686	298.54
378.066	310.06
378.447	287.01
378.827	290.85
379.208	318.42
379.588	312.32
379.968	300.8
380.349	304.41
380.729	348.48
381.109	325.66
381.489	300.57
381.87	298.09
382.25	313.9
382.63	318.88
383.01	308.71
383.39	318.42
383.77	318.65
384.15	311.42
384.53	323.62
384.91	324.98
385.29	322.49
385.67	334.24
386.049	327.92
386.429	331.76
386.809	333.11
387.189	332.43
387.568	329.05
387.948	311.64
388.328	329.27
388.707	328.37
389.087	322.94
389.466	312.1
389.846	335.82
390.225	348.48
390.605	343.73
390.984	329.95
391.363	318.2
391.743	340.12
392.122	346.22
392.501	355.94
392.881	347.12
393.26	350.51
393.639	336.73
394.018	338.54
394.397	333.56
394.776	354.36
395.155	357.97
395.534	338.76
395.913	346.9
396.292	341.7
396.671	373.56
397.05	353.45
397.429	364.07
397.808	358.2
398.186	363.39
398.565	373.34
398.944	358.65
399.323	383.51
399.701	394.81
400.08	360.46
400.458	356.39
400.837	366.11
401.215	388.7
401.594	384.18
401.972	365.65
402.351	372.66
402.729	368.82
403.107	382.6
403.486	382.6
403.864	377.86
404.242	379.67
404.62	356.39
404.999	381.25
405.377	398.65
405.755	388.7
406.133	402.94
406.511	393
406.889	386.9
407.267	398.87
407.645	408.59
408.023	423.05
408.401	389.38
408.779	401.59
409.156	417.18
409.534	412.21
409.912	421.7
410.29	404.3
410.667	425.77
411.045	428.25
411.422	417.18
411.8	417.86
412.178	432.32
412.555	409.95
412.933	442.71
413.31	428.03
413.687	444.07
414.065	439.78
414.442	442.26
414.819	461.92
415.197	411.98
415.574	474.35
415.951	429.83
416.328	441.36
416.705	455.37
417.082	435.26
417.46	460.79
417.837	447.91
418.214	483.17
418.591	457.86
418.967	456.73
419.344	459.21
419.721	476.39
420.098	478.19
420.475	468.93
420.852	448.14
421.228	473.9
421.605	483.17
421.982	496.27
422.358	476.84
422.735	495.82
423.111	506.22
423.488	502.6
423.864	489.72
424.241	496.95
424.617	492.43
424.994	494.24
425.37	515.48
425.746	511.87
426.123	511.19
426.499	521.36
426.875	520.23
427.251	514.8
427.627	534.01
428.003	532.66
428.379	525.2
428.756	538.31
429.132	528.81
429.507	557.29
429.883	532.88
430.259	564.97
430.635	515.71
431.011	554.8
431.387	542.15
431.763	569.72
432.138	553.22
432.514	577.17
432.89	565.87
433.265	601.35
433.641	590.96
434.016	574.24
434.392	600.22
434.767	609.04
435.143	604.74
435.518	591.86
435.894	609.94
436.269	579.43
436.644	618.08
437.02	623.27
437.395	607.46
437.77	614.91
438.145	632.54
438.52	615.82
438.895	618.98
439.271	634.12
439.646	650.84
440.021	628.25
440.395	654.46
440.77	670.28
441.145	659.88
441.52	667.57
441.895	657.62
442.27	668.02
442.645	663.05
443.019	673.67
443.394	668.47
443.769	689.26
444.143	670.05
444.518	694.91
444.892	665.08
445.267	663.05
445.641	679.54
446.016	689.94
446.39	696.94
446.764	676.61
447.139	698.98
447.513	701.01
447.887	690.62
448.262	700.11
448.636	703.05
449.01	710.73
449.384	730.62
449.758	721.13
450.132	728.81
450.506	741.92
450.88	765.42
451.254	737.62
451.628	744.63
452.002	756.83
452.376	753.67
452.75	751.63
453.123	738.53
453.497	762.48
453.871	753.21
454.244	781.24
454.618	765.42
454.992	799.09
455.365	786.21
455.739	802.48
456.112	797.96
456.486	796.83
456.859	800.9
457.232	833.89
457.606	823.5
457.979	842.7
458.352	831.86
458.725	849.48
459.099	850.84
459.472	876.83
459.845	839.54
460.218	866.66
460.591	883.61
460.964	899.88
461.337	894.45
461.71	913.89
462.083	930.61
462.456	893.55
462.829	912.53
463.201	959.08
463.574	951.63
463.947	935.81
464.32	980.33
464.692	946.88
465.065	977.62
465.438	984.4
465.81	985.98
466.183	1003.38
466.555	1029.14
466.928	1022.36
467.3	1010.84
467.672	1042.25
468.045	1061.46
468.417	1035.24
468.789	1051.06
469.161	1054
469.534	1079.76
469.906	1115.69
470.278	1092.64
470.65	1100.78
471.022	1131.96
471.394	1125.18
471.766	1161.11
472.138	1138.06
472.51	1159.08
472.882	1181.45
473.253	1184.62
473.625	1221.9
473.997	1214.45
474.369	1237.72
474.74	1244.5
475.112	1237.95
475.484	1273.65
475.855	1277.04
476.227	1295.35
476.598	1302.35
476.97	1323.37
477.341	1356.36
477.713	1360.88
478.084	1365.18
478.455	1401.11
478.827	1413.31
479.198	1430.26
479.569	1437.49
479.94	1469.81
480.311	1489.24
480.682	1520.65
481.053	1542.35
481.424	1567.66
481.795	1558.17
482.166	1573.08
482.537	1596.81
482.908	1637.71
483.279	1650.82
483.65	1687.65
484.021	1697.37
484.391	1715
484.762	1730.59
485.133	1717.48
485.503	1752.96
485.874	1785.28
486.244	1821.89
486.615	1839.29
486.985	1843.36
487.356	1872.73
487.726	1863.47
488.097	1910.7
488.467	1923.58
488.837	1959.06
489.207	1971.49
489.578	2017.59
489.948	2004.26
490.318	2030.02
490.688	2031.15
491.058	2051.71
491.428	2092.39
491.798	2091.94
492.168	2131.71
492.538	2139.39
492.908	2183.69
493.278	2174.42
493.648	2211.71
494.017	2214.87
494.387	2226.17
494.757	2266.85
495.126	2267.53
495.496	2262.1
495.866	2278.82
496.235	2296.22
496.605	2315.43
496.974	2348.43
497.344	2359.73
497.713	2389.78
498.082	2348.2
498.452	2397.24
498.821	2402.89
499.19	2401.98
499.559	2468.42
499.928	2502.55
500.298	2483.79
500.667	2482.89
501.036	2487.86
501.405	2530.12
501.774	2545.26
502.143	2554.3
502.512	2533.73
502.88	2537.57
503.249	2575.77
503.618	2599.72
503.987	2667.06
504.356	2660.28
504.724	2605.82
505.093	2656.89
505.462	2651.24
505.83	2676.55
506.199	2706.38
506.567	2740.51
506.936	2691.69
507.304	2721.98
507.672	2751.58
508.041	2790
508.409	2787.06
508.777	2816.89
509.145	2871.35
509.514	2825.7
509.882	2846.27
510.25	2819.15
510.618	2862.54
510.986	2878.81
511.354	2943.21
511.722	2942.08
512.09	3000.61
512.458	2985.47
512.826	3010.56
513.193	3025.02
513.561	3024.34
513.929	3081.97
514.297	3094.17
514.664	3075.19
515.032	3122.19
515.4	3123.1
515.767	3130.78
516.135	3202.64
516.502	3155.41
516.869	3187.27
517.237	3205.13
517.604	3246.03
517.972	3238.57
518.339	3255.97
518.706	3270.89
519.073	3348.4
519.44	3362.64
519.808	3321.28
520.175	3338.68
520.542	3409.64
520.909	3411.9
521.276	3416.65
521.643	3449.19
522.009	3482.63
522.376	3489.87
522.743	3500.94
523.11	3544.55
523.477	3566.25
523.843	3604.67
524.21	3643.99
524.577	3618.9
524.943	3658
525.31	3702.97
525.676	3716.07
526.043	3707.49
526.409	3754.94
526.776	3807.15
527.142	3802.63
527.508	3790.87
527.874	3876.07
528.241	3899.12
528.607	3876.3
528.973	3907.26
529.339	3918.1
529.705	4006.24
530.071	3988.61
530.437	4037.2
530.803	4039.68
531.169	4113.13
531.535	4061.6
531.901	4125.56
532.267	4152.9
532.632	4176.18
532.998	4137.98
533.364	4175.27
533.73	4183.18
534.095	4157.64
534.461	4215.27
534.826	4253.91
535.192	4247.59
535.557	4292.78
535.923	4282.84
536.288	4276.51
536.653	4332.33
537.019	4291.2
537.384	4311.54
537.749	4322.16
538.114	4300.69
538.479	4329.84
538.845	4389.28
539.21	4347.02
539.575	4418.2
539.94	4412.78
540.305	4470.63
540.67	4437.41
541.034	4479.44
541.399	4477.18
541.764	4526.9
542.129	4537.75
542.494	4519.22
542.858	4572.55
543.223	4586.79
543.587	4605.09
543.952	4657.74
544.316	4651.42
544.681	4672.89
545.045	4692.32
545.41	4685.99
545.774	4723.51
546.138	4721.02
546.503	4762.83
546.867	4809.83
547.231	4802.6
547.595	4763.28
547.959	4814.58
548.324	4842.37
548.688	4853.67
549.052	4895.7
549.416	4877.63
549.779	4897.29
550.143	4908.13
550.507	4904.97
550.871	4942.03
551.235	4949.94
551.599	4995.81
551.962	4973.44
552.326	4982.26
552.689	5048.24
553.053	4960.34
553.417	5036.27
553.78	5049.6
554.143	5075.59
554.507	5084.85
554.87	5112.42
555.234	5141.57
555.597	5114.23
555.96	5159.2
556.323	5124.17
556.686	5123.27
557.05	5170.95
557.413	5211.85
557.776	5252.31
558.139	5281.68
558.502	5300.21
558.865	5331.63
559.228	5332.3
559.59	5382.25
559.953	5368.91
560.316	5411.85
560.679	5450.49
561.041	5477.16
561.404	5479.19
561.767	5512.41
562.129	5457.72
562.492	5591.73
562.854	5615.01
563.217	5583.37
563.579	5617.72
563.941	5703.37
564.304	5711.95
564.666	5715.34
565.028	5748.79
565.39	5742.01
565.753	5776.59
566.115	5835.57
566.477	5826.3
566.839	5881.89
567.201	5862.23
567.563	5926.64
567.925	5962.34
568.287	5964.38
568.648	5977.03
569.01	5993.98
569.372	5996.92
569.734	6015.45
570.095	6098.16
570.457	6087.31
570.819	6080.08
571.18	6104.94
571.542	6157.14
571.903	6167.08
572.265	6159.85
572.626	6184.94
572.987	6212.73
573.349	6199.17
573.71	6229
574.071	6286.63
574.432	6229.91
574.794	6285.72
575.155	6283.01
575.516	6261.77
575.877	6275.78
576.238	6344.03
576.599	6360.52
576.96	6378.83
577.32	6389.22
577.681	6385.16
578.042	6423.35
578.403	6416.79
578.763	6418.6
579.124	6454.76
579.485	6506.51
579.845	6494.31
580.206	6473.06
580.566	6471.71
580.927	6486.4
581.287	6510.35
581.648	6484.36
582.008	6511.03
582.368	6503.12
582.728	6527.3
583.089	6519.84
583.449	6516.9
583.809	6547.86
584.169	6584.93
584.529	6546.28
584.889	6565.94
585.249	6483.69
585.609	6527.3
585.969	6539.5
586.329	6571.37
586.688	6558.26
587.048	6570.24
587.408	6566.17
587.768	6545.38
588.127	6503.35
588.487	6500.41
588.846	6582.89
589.206	6513.29
589.565	6559.62
589.925	6523.23
590.284	6540.18
590.643	6599.84
591.003	6529.56
591.362	6577.02
591.721	6549.45
592.08	6531.59
592.44	6570.46
592.799	6544.25
593.158	6549.67
593.517	6539.73
593.876	6619.05
594.235	6521.2
594.593	6581.99
594.952	6557.81
595.311	6548.09
595.67	6572.5
596.029	6583.57
596.387	6652.04
596.746	6609.33
597.104	6590.35
597.463	6552.84
597.822	6641.87
598.18	6623.12
598.538	6592.61
598.897	6650.01
599.255	6601.87
599.613	6657.92
599.972	6699.05
600.33	6685.94
600.688	6611.37
601.046	6700.18
601.404	6682.1
601.762	6691.36
602.12	6672.16
602.478	6732.49
602.836	6764.13
603.194	6753.73
603.552	6680.29
603.91	6724.58
604.268	6781.08
604.625	6697.24
604.983	6711.48
605.341	6754.19
605.698	6776.11
606.056	6816.56
606.413	6800.97
606.771	6789.21
607.128	6798.25
607.485	6739.72
607.843	6775.88
608.2	6810.91
608.557	6824.02
608.914	6814.75
609.272	6819.72
609.629	6799.16
609.986	6876.44
610.343	6875.31
610.7	6834.86
611.057	6851.81
611.414	6777.69
611.771	6872.6
612.127	6838.25
612.484	6854.98
612.841	6844.81
613.198	6813.85
613.554	6817.01
613.911	6831.47
614.267	6848.2
614.624	6846.16
614.98	6892.04
615.337	6919.61
615.693	6918.7
616.05	6890.91
616.406	6901.08
616.762	6983.11
617.118	6882.55
617.475	6904.01
617.831	6931.81
618.187	6917.57
618.543	6949.66
618.899	6937.23
619.255	6888.65
619.611	7001.86
619.967	6986.27
620.323	7062.2
620.678	6981.07
621.034	6957.8
621.39	6944.24
621.746	7001.41
622.101	6968.19
622.457	6954.41
622.812	7001.19
623.168	7018.36
623.523	7057
623.879	7068.3
624.234	7077.57
624.589	7066.04
624.945	7042.54
625.3	7015.42
625.655	7052.03
626.01	7043.44
626.365	7076.66
626.72	7095.65
627.075	7035.99
627.43	7035.31
627.785	7043.9
628.14	7065.82
628.495	7089.32
628.85	7089.32
629.205	7037.34
629.559	7072.14
629.914	7074.4
630.269	7020.39
630.623	7032.15
630.978	7003.9
631.332	7001.64
631.687	6995.99
632.041	6972.71
632.396	6996.21
632.75	6946.05
633.104	6964.35
633.459	6899.49
633.813	6858.36
634.167	6876.67
634.521	6911.02
634.875	6883
635.229	6894.75
635.583	6838.25
635.937	6866.95
636.291	6876.22
636.645	6769.55
636.999	6786.5
637.352	6861.98
637.706	6825.37
638.06	6765.49
638.413	6770.01
638.767	6757.12
639.121	6764.58
639.474	6674.87
639.828	6689.33
640.181	6752.6
640.534	6694.08
640.888	6653.4
641.241	6640.97
641.594	6688.88
641.947	6637.81
642.301	6665.6
642.654	6606.85
643.007	6612.5
643.36	6649.56
643.713	6686.39
644.066	6649.56
644.419	6637.81
644.771	6578.6
645.124	6522.33
645.477	6441.88
645.83	6442.78
646.182	6442.33
646.535	6408.21
646.888	6442.56
647.24	6465.38
647.593	6480.97
647.945	6447.75
648.298	6475.78
648.65	6523.68
649.002	6392.84
649.355	6473.52
649.707	6426.51
650.059	6453.18
650.411	6542.21
650.763	6518.94
651.115	6575.66
651.467	6581.76
651.819	6587.19
652.171	6600.29
652.523	6515.55
652.875	6561.65
653.227	6462.67
653.578	6558.49
653.93	6526.17
654.282	6512.39
654.633	6558.03
654.985	6558.26
655.337	6467.41
655.688	6516
656.039	6494.08
656.391	6430.13
656.742	6472.61
657.094	6506.74
657.445	6488.66
657.796	6445.04
658.147	6474.19
658.498	6465.38
658.849	6410.92
659.2	6422.44
659.551	6385.61
659.902	6415.21
660.253	6418.83
660.604	6403.91
660.955	6357.36
661.306	6381.54
661.656	6367.76
662.007	6401.43
662.358	6355.33
662.708	6361.2
663.059	6333.41
663.409	6334.54
663.76	6315.1
664.11	6352.39
664.461	6339.96
664.811	6319.17
665.161	6326.63
665.511	6331.83
665.862	6354.88
666.212	6332.95
666.562	6326.18
666.912	6323.46
667.262	6252.96
667.612	6319.4
667.962	6292.05
668.312	6342.45
668.662	6325.05
669.011	6319.4
669.361	6305.16
669.711	6318.04
670.06	6317.36
670.41	6257.02
670.76	6290.47
671.109	6291.15
671.459	6298.38
671.808	6237.82
672.157	6306.51
672.507	6237.82
672.856	6321.88
673.205	6277.59
673.554	6302
673.904	6290.7
674.253	6313.07
674.602	6297.7
674.951	6216.57
675.3	6189
675.649	6288.66
675.998	6199.85
676.346	6210.47
676.695	6290.92
677.044	6237.59
677.393	6295.89
677.741	6247.53
678.09	6233.52
678.438	6299.74
678.787	6253.18
679.135	6238.49
679.484	6187.87
679.832	6188.1
680.181	6232.84
680.529	6199.85
680.877	6205.27
681.225	6189.46
681.573	6206.63
681.922	6139.06
682.27	6136.35
682.618	6104.49
682.966	6119.18
683.314	6170.93
683.661	6123.47
684.009	6056.35
684.357	6068.33
684.705	6023.36
685.053	6044.37
685.4	6033.53
685.748	6003.7
686.095	5987.2
686.443	6001.21
686.79	5936.81
687.138	5945.17
687.485	5921.89
687.832	5944.72
688.18	5931.61
688.527	5891.16
688.874	5865.4
689.221	5854.1
689.568	5864.27
689.915	5804.61
690.262	5783.14
690.609	5771.39
690.956	5788.34
691.303	5793.99
691.65	5715.34
691.997	5743.37
692.344	5673.54
692.69	5756.25
693.037	5662.01
693.383	5645.06
693.73	5705.17
694.077	5621.56
694.423	5662.46
694.769	5643.48
695.116	5647.32
695.462	5644.61
695.808	5621.34
696.155	5611.39
696.501	5587.21
696.847	5562.35
697.193	5549.25
697.539	5574.1
697.885	5549.92
698.231	5518.51
698.577	5532.3
698.923	5442.81
699.269	5500.66
699.614	5463.83
699.96	5421.34
700.306	5405.97
700.651	5457.72
700.997	5410.72
701.342	5384.51
701.688	5411.4
702.033	5377.5
702.379	5426.76
702.724	5325.3
703.069	5426.76
703.415	5370.49
703.76	5325.98
704.105	5356.03
704.45	5340.89
704.795	5330.95
705.14	5273.32
705.485	5280.33
705.83	5293.66
706.175	5262.25
706.52	5237.16
706.865	5257.73
707.209	5213.44
707.554	5175.92
707.899	5199.88
708.243	5189.93
708.588	5159.2
708.932	5128.47
709.277	5121.69
709.621	5097.73
709.966	5111.29
710.31	5045.31
710.654	5068.58
710.998	5062.03
711.342	5067.9
711.687	5062.03
712.031	4971.18
712.375	5005.31
712.719	5012.99
713.063	5015.7
713.407	5059.32
713.75	5011.86
714.094	4983.39
714.438	4959.88
714.782	4972.31
715.125	4965.76
715.469	4949.26
715.812	4901.81
716.156	4936.16
716.499	4960.11
716.843	4870.62
717.186	4851.64
717.53	4883.73
717.873	4939.77
718.216	4861.36
718.559	4820
718.902	4838.53
719.246	4829.72
719.589	4811.87
719.932	4782.26
720.275	4810.74
720.617	4790.85
720.96	4794.01
721.303	4780
721.646	4787.23
721.989	4771.19
722.331	4729.83
722.674	4741.81
723.016	4734.35
723.359	4749.49
723.701	4744.3
724.044	4721.92
724.386	4768.02
724.729	4716.5
725.071	4714.24
725.413	4649.61
725.755	4693.68
726.097	4664.07
726.439	4632.89
726.782	4655.48
727.124	4693
727.465	4619.1
727.807	4661.36
728.149	4609.16
728.491	4551.98
728.833	4609.38
729.175	4551.08
729.516	4575.71
729.858	4575.49
730.199	4606.45
730.541	4567.13
730.882	4602.38
731.224	4548.6
731.565	4488.48
731.906	4562.83
732.248	4541.36
732.589	4500.91
732.93	4501.82
733.271	4540.46
733.612	4502.72
733.953	4500.91
734.294	4525.54
734.635	4495.49
734.976	4513.34
735.317	4488.71
735.658	4513.34
735.999	4484.87
736.339	4476.96
736.68	4432.44
737.021	4466.34
737.361	4442.16
737.702	4469.5
738.042	4462.5
738.383	4424.76
738.723	4445.77
739.063	4424.53
739.404	4425.21
739.744	4453.46
740.084	4386.79
740.424	4383.85
740.764	4382.95
741.104	4406
741.444	4397.86
741.784	4316.06
742.124	4308.38
742.464	4260.69
742.804	4348.37
743.143	4346.57
743.483	4349.05
743.823	4296.17
744.162	4298.43
744.502	4277.64
744.841	4319.67
745.181	4316.51
745.52	4251.65
745.86	4243.07
746.199	4217.76
746.538	4242.39
746.877	4251.88
747.216	4219.79
747.556	4213.69
747.895	4224.08
748.234	4186.8
748.573	4176.63
748.911	4190.86
749.25	4184.99
749.589	4215.72
749.928	4196.97
750.267	4225.44
750.605	4177.53
750.944	4130.98
751.283	4136.4
751.621	4187.47
751.96	4161.03
752.298	4089.17
752.636	4131.2
752.975	4103.86
753.313	4098.44
753.651	4100.7
753.989	4069.06
754.327	4078.55
754.666	4110.19
755.004	4075.39
755.342	4063.18
755.679	4070.19
756.017	4054.37
756.355	4035.61
756.693	4050.3
757.031	4016.63
757.368	3985.45
757.706	4035.61
758.044	3992.68
758.381	4008.72
758.719	3991.55
759.056	3975.73
759.394	3964.2
759.731	3931.66
760.068	3931.66
760.405	3914.49
760.743	3936.63
761.08	3898.67
761.417	3883.98
761.754	3894.83
762.091	3864.09
762.428	3860.03
762.765	3849.63
763.102	3845.79
763.438	3838.56
763.775	3842.4
764.112	3799.01
764.449	3773.93
764.785	3756.98
765.122	3777.09
765.458	3756.53
765.795	3713.81
766.131	3696.64
766.467	3702.06
766.804	3720.14
767.14	3673.59
767.476	3703.87
767.812	3701.39
768.148	3686.47
768.485	3623.65
768.821	3653.25
769.157	3634.27
769.492	3645.12
769.828	3615.51
770.164	3606.02
770.5	3561.95
770.836	3582.74
771.171	3567.6
771.507	3536.64
771.842	3565.8
