Data from foam_black_FLMS001491_00052.txt Node
Date: Wed Feb 08 10:44:07 GMT 2017
User: dcchb
Spectrometer: FLMS00149
Trigger mode: 0
Integration Time (sec): 2.000000E-2
Scans to average: 10
Electric dark correction enabled: true
Nonlinearity correction enabled: false
Boxcar width: 0
XAxis mode: Wavelengths
Number of Pixels in Spectrum: 2048
>>>>>Begin Spectral Data<<<<<
341.393	-7.27
341.776	-7.27
342.16	-7.27
342.543	-52.92
342.927	-57.67
343.31	-59.02
343.693	-71.68
344.077	-66.48
344.46	-56.99
344.843	-73.94
345.226	-19.25
345.61	-15.86
345.993	-15.64
346.376	-23.77
346.759	9
347.142	20.52
347.525	64.14
347.908	52.39
348.291	58.49
348.674	85.15
349.057	112.95
349.44	127.86
349.823	125.83
350.206	158.6
350.588	176.68
350.971	191.59
351.354	192.95
351.737	232.49
352.119	247.86
352.502	250.12
352.884	273.62
353.267	262.1
353.65	270.91
354.032	260.29
354.414	287.41
354.797	287.41
355.179	310.91
355.562	303.23
355.944	305.71
356.326	312.27
356.709	313.62
357.091	320.18
357.473	319.5
357.855	309.33
358.238	329.44
358.62	315.88
359.002	322.66
359.384	323.79
359.766	338.48
360.148	327.41
360.53	339.61
360.912	332.38
361.294	315.88
361.676	307.07
362.057	304.58
362.439	296.67
362.821	310.91
363.203	289.44
363.584	323.56
363.966	320.85
364.348	294.41
364.729	319.95
365.111	303.68
365.493	314.53
365.874	300.51
366.256	297.58
366.637	286.73
367.019	280.63
367.4	304.81
367.781	298.03
368.163	297.35
368.544	303.45
368.925	290.57
369.306	297.12
369.688	305.26
370.069	291.93
370.45	312.04
370.831	277.69
371.212	304.81
371.593	286.73
371.974	295.32
372.355	296.9
372.736	290.12
373.117	317.24
373.498	309.55
373.879	294.87
374.26	313.62
374.641	313.85
375.021	299.84
375.402	307.75
375.783	298.25
376.163	309.1
376.544	305.03
376.925	324.92
377.305	312.49
377.686	314.3
378.066	294.19
378.447	313.17
378.827	309.55
379.208	312.72
379.588	322.89
379.968	304.13
380.349	328.08
380.729	324.69
381.109	335.54
381.489	324.24
381.87	324.02
382.25	311.14
382.63	311.81
383.01	337.35
383.39	329.89
383.77	313.17
384.15	326.95
384.53	351.36
384.91	324.02
385.29	305.03
385.67	328.31
386.049	328.76
386.429	328.54
386.809	351.81
387.189	353.17
387.568	328.54
387.948	331.93
388.328	337.58
388.707	326.73
389.087	346.62
389.466	373.51
389.846	338.71
390.225	349.55
390.605	363.79
390.984	339.61
391.363	337.8
391.743	349.55
392.122	360.17
392.501	350.23
392.881	343.23
393.26	351.13
393.639	363.11
394.018	368.31
394.397	367.18
394.776	341.19
395.155	368.76
395.534	365.15
395.913	339.38
396.292	365.15
396.671	352.26
397.05	375.54
397.429	381.19
397.808	354.52
398.186	365.37
398.565	410.57
398.944	392.94
399.323	381.42
399.701	359.72
400.08	367.18
400.458	382.55
400.837	369.44
401.215	393.62
401.594	376.44
401.972	387.97
402.351	378.03
402.729	378.93
403.107	389.33
403.486	391.36
403.864	390.23
404.242	381.87
404.62	361.08
404.999	373.96
405.377	386.84
405.755	400.63
406.133	394.98
406.511	397.91
406.889	403.56
407.267	408.53
407.645	406.5
408.023	419.16
408.401	403.11
408.779	423.68
409.156	406.05
409.534	406.95
409.912	415.09
410.29	414.86
410.667	443.11
411.045	417.35
411.422	439.27
411.8	441.3
412.178	434.75
412.555	425.48
412.933	453.28
413.31	448.31
413.687	428.87
414.065	434.97
414.442	445.82
414.819	431.36
415.197	459.83
415.574	460.06
415.951	466.84
416.328	439.95
416.705	465.03
417.082	477.69
417.46	470
417.837	462.54
418.214	474.07
418.591	475.65
418.967	488.08
419.344	455.54
419.721	464.58
420.098	471.36
420.475	484.24
420.852	486.05
421.228	485.59
421.605	483.56
421.982	489.66
422.358	485.14
422.735	486.05
423.111	485.59
423.488	496.22
423.864	484.69
424.241	495.09
424.617	486.27
424.994	505.71
425.37	521.07
425.746	510.9
426.123	527.18
426.499	506.61
426.875	512.26
427.251	515.42
427.627	517.01
428.003	531.24
428.379	541.86
428.756	540.28
429.132	549.77
429.507	547.97
429.883	534.41
430.259	557.68
430.635	562.2
431.011	576.44
431.387	576.67
431.763	547.51
432.138	574.86
432.514	556.78
432.89	573.95
433.265	596.78
433.641	596.78
434.016	588.19
434.392	591.81
434.767	612.82
435.143	584.8
435.518	599.72
435.894	609.21
436.269	595.65
436.644	628.42
437.02	632.48
437.395	603.33
437.77	613.95
438.145	638.58
438.52	640.17
438.895	666.38
439.271	653.5
439.646	656.21
440.021	646.04
440.395	650.56
440.77	647.17
441.145	656.44
441.52	653.27
441.895	661.41
442.27	660.96
442.645	656.66
443.019	702.54
443.394	688.53
443.769	703.44
444.143	668.41
444.518	688.75
444.892	681.75
445.267	679.49
445.641	711.35
446.016	715.42
446.39	690.33
446.764	716.1
447.139	696.89
447.513	712.71
447.887	723.78
448.262	710.45
448.636	714.74
449.01	713.16
449.384	738.02
449.758	732.59
450.132	742.31
450.506	748.41
450.88	703.44
451.254	742.99
451.628	740.73
452.002	739.15
452.376	742.76
452.75	770.33
453.123	777.34
453.497	757.23
453.871	784.57
454.244	770.78
454.618	788.19
454.992	787.51
455.365	794.06
455.739	815.08
456.112	798.58
456.486	812.14
456.859	834.51
457.232	837.68
457.606	816.21
457.979	825.02
458.352	846.26
458.725	845.13
459.099	872.48
459.472	888.3
459.845	893.04
460.218	861.86
460.591	871.57
460.964	885.58
461.337	905.92
461.71	898.47
462.083	910.89
462.456	887.84
462.829	922.19
463.201	919.03
463.574	961.06
463.947	960.16
464.32	965.58
464.692	973.94
465.065	984.34
465.438	992.7
465.81	986.6
466.183	980.72
466.555	976.66
466.928	1013.26
467.3	1015.07
467.672	1031.79
468.045	1063.88
468.417	1064.11
468.789	1071.57
469.161	1055.07
469.534	1081.74
469.906	1113.37
470.278	1114.5
470.65	1138.91
471.022	1116.09
471.394	1149.31
471.766	1153.83
472.138	1156.99
472.51	1170.55
472.882	1197.44
473.253	1170.77
473.625	1179.59
473.997	1245.12
474.369	1222.52
474.74	1234.05
475.112	1257.78
475.484	1263.2
475.855	1312.47
476.227	1287.61
476.598	1318.12
476.97	1362.63
477.341	1356.53
477.713	1402.41
478.084	1412.12
478.455	1422.07
478.827	1399.02
479.198	1460.71
479.569	1446.25
479.94	1487.83
480.311	1475.85
480.682	1528.96
481.053	1547.71
481.424	1594.27
481.795	1577.32
482.166	1630.88
482.537	1613.7
482.908	1655.28
483.279	1667.71
483.65	1699.8
484.021	1689.18
484.391	1702.96
484.762	1737.99
485.133	1761.27
485.503	1770.98
485.874	1813.02
486.244	1827.48
486.615	1852.11
486.985	1869.06
487.356	1869.96
487.726	1868.61
488.097	1939.12
488.467	1939.57
488.837	1993.58
489.207	1986.57
489.578	2021.15
489.948	2049.62
490.318	2051.88
490.688	2037.42
491.058	2084.65
491.428	2108.15
491.798	2111.31
492.168	2163.97
492.538	2146.34
492.908	2157.42
493.278	2169.62
493.648	2215.72
494.017	2210.97
494.387	2263.63
494.757	2261.37
495.126	2306.79
495.496	2294.59
495.866	2335.49
496.235	2338.88
496.605	2339.33
496.974	2349.95
497.344	2408.48
497.713	2362.61
498.082	2413.45
498.452	2436.28
498.821	2420.68
499.19	2441.25
499.559	2494.13
499.928	2495.03
500.298	2514.47
500.667	2529.38
501.036	2541.81
501.405	2536.16
501.774	2563.28
502.143	2547.91
502.512	2576.61
502.88	2604.18
503.249	2558.08
503.618	2644.18
503.987	2652.54
504.356	2654.35
504.724	2659.32
505.093	2690.06
505.462	2683.73
505.83	2730.51
506.199	2751.3
506.567	2753.11
506.936	2764.4
507.304	2828.58
507.672	2826.1
508.041	2810.51
508.409	2830.17
508.777	2839.66
509.145	2873.78
509.514	2873.1
509.882	2907.9
510.25	2875.59
510.618	2910.39
510.986	2889.6
511.354	2966.43
511.722	2979.54
512.09	2998.75
512.458	3030.84
512.826	3010.27
513.193	3021.35
513.561	3068.35
513.929	3111.51
514.297	3111.51
514.664	3120.1
515.032	3156.03
515.4	3146.99
515.767	3196.03
516.135	3223.83
516.502	3172.08
516.869	3256.82
517.237	3254.56
517.604	3231.06
517.972	3338.63
518.339	3304.73
518.706	3316.25
519.073	3316.25
519.44	3365.74
519.808	3372.98
520.175	3399.42
520.542	3431.51
520.909	3457.04
521.276	3474.22
521.643	3479.64
522.009	3499.07
522.376	3545.85
522.743	3600.09
523.11	3543.59
523.477	3632.63
523.843	3609.81
524.21	3665.85
524.577	3679.18
524.943	3691.39
525.31	3728.67
525.676	3735.68
526.043	3794.21
526.409	3811.83
526.776	3887.09
527.142	3852.29
527.508	3849.8
527.874	3897.48
528.241	3899.52
528.607	3917.82
528.973	3966.41
529.339	3994.2
529.705	4023.58
530.071	4062.68
530.437	4068.78
530.803	4138.38
531.169	4123.01
531.535	4101.09
531.901	4108.55
532.267	4165.95
532.632	4173.86
532.998	4255.89
533.364	4196.91
533.73	4233.97
534.095	4224.25
534.461	4262.44
534.826	4281.43
535.192	4309.22
535.557	4317.58
535.923	4324.82
536.288	4306.96
536.653	4345.38
537.019	4355.32
537.384	4332.27
537.749	4412.05
538.114	4380.86
538.479	4396.68
538.845	4412.95
539.21	4421.76
539.575	4486.85
539.94	4475.32
540.305	4526.39
540.67	4486.17
541.034	4568.88
541.399	4575.43
541.764	4582.44
542.129	4590.12
542.494	4602.32
542.858	4607.29
543.223	4693.17
543.587	4672.83
543.952	4638.03
544.316	4695.43
544.681	4688.87
545.045	4756.22
545.41	4732.94
545.774	4767.52
546.138	4828.98
546.503	4812.26
546.867	4788.08
547.231	4849.77
547.595	4836.21
547.959	4821.53
548.324	4850.68
548.688	4831.24
549.052	4914.63
549.416	4896.33
549.779	4961.64
550.143	4958.47
550.507	4937.45
550.871	4964.8
551.235	4973.39
551.599	4991.46
551.962	5016.32
552.326	5023.55
552.689	5038.24
553.053	5059.03
553.417	5006.38
553.78	5103.1
554.143	5098.58
554.507	5100.61
554.87	5147.17
555.234	5229.65
555.597	5137
555.96	5214.28
556.323	5231.91
556.686	5173.61
557.05	5287.5
557.413	5286.6
557.776	5271.46
558.139	5328.63
558.502	5373.83
558.865	5327.28
559.228	5432.13
559.59	5413.83
559.953	5424.9
560.316	5479.59
560.679	5492.92
561.041	5587.83
561.404	5561.39
561.767	5568.4
562.129	5594.61
562.492	5678.23
562.854	5648.4
563.217	5656.76
563.579	5662.41
563.941	5730.2
564.304	5776.08
564.666	5756.64
565.028	5828.96
565.39	5857.43
565.753	5867.15
566.115	5911.21
566.477	5928.84
566.839	5941.27
567.201	5994.38
567.563	6001.38
567.925	6001.16
568.287	6053.13
568.648	6058.1
569.01	6080.02
569.372	6100.59
569.734	6110.53
570.095	6116.86
570.457	6138.78
570.819	6137.2
571.18	6168.61
571.542	6209.51
571.903	6223.52
572.265	6207.7
572.626	6248.15
572.987	6182.62
573.349	6257.42
573.71	6295.61
574.071	6313.46
574.432	6270.98
574.794	6345.55
575.155	6297.65
575.516	6323.18
575.877	6316.85
576.238	6380.35
576.599	6413.12
576.96	6450.64
577.32	6408.38
577.681	6434.59
578.042	6466.91
578.403	6470.97
578.763	6469.84
579.124	6433.46
579.485	6520.24
579.845	6512.33
580.206	6527.92
580.566	6526.11
580.927	6557.75
581.287	6574.7
581.648	6578.77
582.008	6625.09
582.368	6594.59
582.728	6550.52
583.089	6541.71
583.449	6602.95
583.809	6570.41
584.169	6599.11
584.529	6605.89
584.889	6653.79
585.249	6629.39
585.609	6575.38
585.969	6625.32
586.329	6585.77
586.688	6629.39
587.048	6607.69
587.408	6620.8
587.768	6591.87
588.127	6582.38
588.487	6605.89
588.846	6692.44
589.206	6570.86
589.565	6624.64
589.925	6660.12
590.284	6663.74
590.643	6621.93
591.003	6685.21
591.362	6633.23
591.721	6622.61
592.08	6639.33
592.44	6646.34
592.799	6666.67
593.158	6677.75
593.517	6605.66
593.876	6656.05
594.235	6662.16
594.593	6618.77
594.952	6651.53
595.311	6653.12
595.67	6655.6
596.029	6710.29
596.387	6635.72
596.746	6678.43
597.104	6627.35
597.463	6617.41
597.822	6666.67
598.18	6627.35
598.538	6661.93
598.897	6697.86
599.255	6679.33
599.613	6804.98
599.972	6765.2
600.33	6770.85
600.688	6688.82
601.046	6742.38
601.404	6736.96
601.762	6764.75
602.12	6825.31
602.478	6799.33
602.836	6799.33
603.194	6740.12
603.552	6800
603.91	6740.57
604.268	6851.98
604.625	6771.08
604.983	6856.05
605.341	6808.59
605.698	6842.72
606.056	6854.47
606.413	6791.87
606.771	6908.7
607.128	6885.2
607.485	6837.97
607.843	6851.3
608.2	6925.65
608.557	6907.8
608.914	6860.12
609.272	6907.35
609.629	6932.2
609.986	6922.94
610.343	6907.35
610.7	6942.83
611.057	6889.49
611.414	6876.39
611.771	6956.61
612.127	6972.2
612.484	6915.03
612.841	6920.23
613.198	6875.26
613.554	6873.68
613.911	6898.08
614.267	6945.31
614.624	6950.28
614.98	6927.69
615.337	7038.42
615.693	6926.78
616.05	6994.8
616.406	7024.63
616.762	6965.42
617.118	6987.12
617.475	6945.76
617.831	7010.85
618.187	6983.73
618.543	7030.96
618.899	7020.34
619.255	6977.63
619.611	7060.34
619.967	7017.17
620.323	7133.56
620.678	7072.54
621.034	6981.69
621.39	7082.94
621.746	7016.72
622.101	7126.1
622.457	7046.78
622.812	7147.57
623.168	7137.4
623.523	7143.72
623.879	7099.66
624.234	7107.34
624.589	7165.19
624.945	7139.66
625.3	7143.5
625.655	7178.75
626.01	7134.91
626.365	7162.48
626.72	7137.85
627.075	7104.18
627.43	7103.5
627.785	7150.05
628.14	7113.89
628.495	7149.6
628.85	7147.57
629.205	7133.78
629.559	7185.08
629.914	7189.6
630.269	7106.21
630.623	7044.52
630.978	7092.2
631.332	7119.09
631.687	7112.09
632.041	7033.67
632.396	7085.65
632.75	6978.53
633.104	7074.12
633.459	6976.95
633.813	6970.85
634.167	6960.23
634.521	6999.32
634.875	7012.2
635.229	6988.47
635.583	6892.88
635.937	6886.78
636.291	6901.92
636.645	6893.56
636.999	6837.29
637.352	6887.69
637.706	6835.48
638.06	6872.09
638.413	6858.99
638.767	6800
639.121	6821.25
639.474	6776.5
639.828	6794.13
640.181	6817.86
640.534	6771.98
640.888	6703.28
641.241	6717.3
641.594	6742.83
641.947	6792.1
642.301	6730.4
642.654	6732.21
643.007	6771.08
643.36	6696.05
643.713	6728.14
644.066	6728.59
644.419	6714.58
644.771	6709.61
645.124	6527.47
645.477	6528.37
645.83	6513.23
646.182	6543.29
646.535	6542.38
646.888	6537.86
647.24	6482.27
647.593	6538.54
647.945	6518.88
648.298	6517.3
648.65	6551.2
649.002	6468.71
649.355	6508.04
649.707	6523.4
650.059	6478.43
650.411	6617.41
650.763	6580.8
651.115	6647.01
651.467	6638.43
651.819	6646.11
652.171	6618.54
652.523	6607.69
652.875	6644.3
653.227	6620.35
653.578	6594.81
653.93	6641.59
654.282	6592.33
654.633	6558.2
654.985	6642.04
655.337	6585.32
655.688	6567.92
656.039	6574.47
656.391	6521.82
656.742	6533.12
657.094	6564.98
657.445	6529.73
657.796	6470.97
658.147	6511.88
658.498	6486.57
658.849	6548.03
659.2	6484.08
659.551	6488.15
659.902	6443.63
660.253	6510.97
660.604	6507.36
660.955	6420.13
661.306	6501.71
661.656	6410.18
662.007	6405.66
662.358	6426.91
662.708	6413.35
663.059	6391.43
663.409	6372.45
663.76	6410.86
664.11	6411.31
664.461	6395.27
664.811	6426.91
665.161	6385.55
665.511	6375.61
665.862	6496.28
666.212	6394.14
666.562	6422.61
666.912	6352.11
667.262	6345.78
667.612	6386.68
667.962	6362.5
668.312	6331.77
668.662	6407.92
669.011	6367.02
669.361	6358.66
669.711	6345.1
670.06	6361.15
670.41	6374.48
670.76	6357.53
671.109	6391.43
671.459	6354.82
671.808	6404.76
672.157	6380.13
672.507	6344.42
672.856	6344.2
673.205	6319.57
673.554	6353.01
673.904	6361.37
674.253	6415.61
674.602	6369.51
674.951	6251.09
675.3	6300.58
675.649	6350.53
675.998	6302.16
676.346	6357.3
676.695	6342.84
677.044	6276.63
677.393	6317.53
677.741	6363.63
678.09	6285.44
678.438	6303.75
678.787	6318.44
679.135	6305.1
679.484	6281.6
679.832	6331.99
680.181	6247.93
680.529	6254.26
680.877	6260.58
681.225	6219.91
681.573	6233.47
681.922	6199.34
682.27	6221.04
682.618	6186.91
682.966	6192.56
683.314	6193.24
683.661	6201.83
684.009	6134.26
684.357	6045
684.705	6117.08
685.053	6081.15
685.4	6143.98
685.748	6088.16
686.095	6021.27
686.443	6022.4
686.79	5996.86
687.138	6021.49
687.485	6042.74
687.832	5977.43
688.18	5958.45
688.527	5972.68
688.874	5946.02
689.221	5929.29
689.568	5894.72
689.915	5864.44
690.262	5903.53
690.609	5894.04
690.956	5862.18
691.303	5867.83
691.65	5810.88
691.997	5824.44
692.344	5812.01
692.69	5768.17
693.037	5741.28
693.383	5683.42
693.73	5799.35
694.077	5765.68
694.423	5732.24
694.769	5694.95
695.116	5692.46
695.462	5701.95
695.808	5678.68
696.155	5640.04
696.501	5668.74
696.847	5635.74
697.193	5617.66
697.539	5614.05
697.885	5572.24
698.231	5577.89
698.577	5591.68
698.923	5607.04
699.269	5487.27
699.614	5540.38
699.96	5487.04
700.306	5535.41
700.651	5530.21
700.997	5502.86
701.342	5480.94
701.688	5488.63
702.033	5491.79
702.379	5451.57
702.724	5434.39
703.069	5466.03
703.415	5410.44
703.76	5393.26
704.105	5376.31
704.45	5383.32
704.795	5355.07
705.14	5328.63
705.485	5366.37
705.83	5302.42
706.175	5293.15
706.52	5283.89
706.865	5283.21
707.209	5238.01
707.554	5242.98
707.899	5261.06
708.243	5293.6
708.588	5240.05
708.932	5181.52
709.277	5206.15
709.621	5153.04
709.966	5119.82
710.31	5165.02
710.654	5105.81
710.998	5125.7
711.342	5113.04
711.687	5112.37
712.031	5071.01
712.375	5037.79
712.719	5082.54
713.063	5101.07
713.407	5039.6
713.75	5038.7
714.094	5051.35
714.438	5061.75
714.782	4977.45
715.125	4979.94
715.469	4997.79
715.812	5000.5
716.156	4959.15
716.499	4908.3
716.843	4935.65
717.186	4893.16
717.53	4915.31
717.873	4969.77
718.216	4965.48
718.559	4911.01
718.902	4870.79
719.246	4858.36
719.589	4876.21
719.932	4826.72
720.275	4803.45
720.617	4846.16
720.96	4835.54
721.303	4842.77
721.646	4825.59
721.989	4763.22
722.331	4802.77
722.674	4797.12
723.016	4855.2
723.359	4727.06
723.701	4770.45
724.044	4754.18
724.386	4758.48
724.729	4777.23
725.071	4728.19
725.413	4728.19
725.755	4695.88
726.097	4755.31
726.439	4726.16
726.782	4714.86
727.124	4724.35
727.465	4682.55
727.807	4681.19
728.149	4666.73
728.491	4652.26
728.833	4672.38
729.175	4641.87
729.516	4636.67
729.858	4628.76
730.199	4605.94
730.541	4617.01
730.882	4617.46
731.224	4604.58
731.565	4597.58
731.906	4589.89
732.248	4586.05
732.589	4641.87
732.93	4586.05
733.271	4577.92
733.612	4554.87
733.953	4605.71
734.294	4581.53
734.635	4552.83
734.976	4556.9
735.317	4555.54
735.658	4530.23
735.999	4501.99
736.339	4525.71
736.68	4477.13
737.021	4494.53
737.361	4500.86
737.702	4486.39
738.042	4492.27
738.383	4478.94
738.723	4546.73
739.063	4482.1
739.404	4514.64
739.744	4458.15
740.084	4468.99
740.424	4415.43
740.764	4436.45
741.104	4454.76
741.444	4461.99
741.784	4410.69
742.124	4428.54
742.464	4409.33
742.804	4398.26
743.143	4393.97
743.483	4344.02
743.823	4358.26
744.162	4301.99
744.502	4369.79
744.841	4307.64
745.181	4365.72
745.52	4339.73
745.86	4370.24
746.199	4310.58
746.538	4309.67
746.877	4241.2
747.216	4301.31
747.556	4285.95
747.895	4232.84
748.234	4235.78
748.573	4254.54
748.911	4236.68
749.25	4224.48
749.589	4200.07
749.928	4252.73
750.267	4203.91
750.605	4216.12
750.944	4159.62
751.283	4172.73
751.621	4207.53
751.96	4227.19
752.298	4191.94
752.636	4136.8
752.975	4169.57
753.313	4134.76
753.651	4126.4
753.989	4166.85
754.327	4094.54
754.666	4134.31
755.004	4111.26
755.342	4094.09
755.679	4139.06
756.017	4039.4
756.355	4085.05
756.693	4050.92
757.031	4045.27
757.368	4047.08
757.706	4043.02
758.044	4042.56
758.381	4043.69
758.719	4022.9
759.056	4044.6
759.394	4009.12
759.731	4038.95
760.068	3983.36
760.405	3986.07
760.743	3922.79
761.08	3968.67
761.417	3990.81
761.754	3939.29
762.091	3895.22
762.428	3951.49
762.765	3911.72
763.102	3907.43
763.438	3863.81
763.775	3834.43
764.112	3871.49
764.449	3812.74
764.785	3859.74
765.122	3839.63
765.458	3822.23
765.795	3808.9
766.131	3771.38
766.467	3753.76
766.804	3716.24
767.14	3756.92
767.476	3705.4
767.812	3741.33
768.148	3713.76
768.485	3663.36
768.821	3624.95
769.157	3682.35
769.492	3684.61
769.828	3655.45
770.164	3645.96
770.5	3645.06
770.836	3650.03
