Data from foam2_polystyrene_foam_FLMS001491_00067.txt Node
Date: Wed Feb 08 10:58:20 GMT 2017
User: dcchb
Spectrometer: FLMS00149
Trigger mode: 0
Integration Time (sec): 2.000000E-2
Scans to average: 10
Electric dark correction enabled: true
Nonlinearity correction enabled: false
Boxcar width: 0
XAxis mode: Wavelengths
Number of Pixels in Spectrum: 2048
>>>>>Begin Spectral Data<<<<<
341.393	7.02
341.776	7.02
342.16	7.02
342.543	-54.45
342.927	-63.94
343.31	-66.65
343.693	-51.06
344.077	-66.65
344.46	-58.74
344.843	-42.02
345.226	-30.95
345.61	-57.39
345.993	-11.96
346.376	-9.25
346.759	12.22
347.142	33.23
347.525	66.68
347.908	47.92
348.291	64.19
348.674	87.7
349.057	82.72
349.44	122.95
349.823	136.96
350.206	171.54
350.588	205.66
350.971	209.95
351.354	212.44
351.737	251.53
352.119	271.65
352.502	260.57
352.884	277.07
353.267	280.01
353.65	297.63
354.032	300.35
354.414	317.75
354.797	344.64
355.179	306.22
355.562	321.59
355.944	319.33
356.326	366.33
356.709	354.81
357.091	339.44
357.473	338.76
357.855	358.2
358.238	341.02
358.62	338.99
359.002	349.16
359.384	352.55
359.766	352.55
360.148	360.23
360.53	357.52
360.912	381.47
361.294	362.04
361.676	346.22
362.057	335.6
362.439	338.99
362.821	355.71
363.203	335.6
363.584	314.36
363.966	333.11
364.348	352.77
364.729	346.9
365.111	339.44
365.493	328.59
365.874	331.53
366.256	348.03
366.637	344.41
367.019	348.48
367.4	356.39
367.781	351.19
368.163	339.21
368.544	330.85
368.925	336.95
369.306	348.71
369.688	336.95
370.069	336.5
370.45	340.8
370.831	340.12
371.212	345.54
371.593	333.79
371.974	366.11
372.355	342.38
372.736	346.45
373.117	349.16
373.498	350.51
373.879	323.17
374.26	364.52
374.641	345.99
375.021	333.34
375.402	345.77
375.783	350.29
376.163	373.56
376.544	367.01
376.925	368.82
377.305	362.49
377.686	382.6
378.066	366.11
378.447	384.41
378.827	363.39
379.208	382.6
379.588	384.41
379.968	374.24
380.349	391.87
380.729	395.26
381.109	383.96
381.489	401.81
381.87	402.49
382.25	396.84
382.63	398.87
383.01	393
383.39	408.59
383.77	386.9
384.15	419.44
384.53	417.4
384.91	412.88
385.29	391.19
385.67	416.73
386.049	426.67
386.429	412.88
386.809	422.15
387.189	431.19
387.568	433.9
387.948	430.51
388.328	424.18
388.707	435.71
389.087	436.84
389.466	449.27
389.846	431.42
390.225	448.14
390.605	456.95
390.984	450.62
391.363	456.27
391.743	459.89
392.122	444.75
392.501	461.92
392.881	467.8
393.26	464.18
393.639	470.51
394.018	456.5
394.397	486.33
394.776	487.01
395.155	503.28
395.534	469.83
395.913	464.18
396.292	484.52
396.671	500.34
397.05	513.22
397.429	493.79
397.808	525.2
398.186	480.91
398.565	514.12
398.944	503.28
399.323	531.07
399.701	510.06
400.08	493.11
400.458	525.42
400.837	554.58
401.215	533.33
401.594	527.23
401.972	536.72
402.351	573.78
402.729	537.63
403.107	538.76
403.486	542.37
403.864	564.52
404.242	560
404.62	538.31
404.999	570.85
405.377	585.76
405.755	588.47
406.133	592.77
406.511	575.37
406.889	608.59
407.267	599.32
407.645	617.63
408.023	607.23
408.401	625.08
408.779	624.63
409.156	651.3
409.534	625.31
409.912	629.83
410.29	640.9
410.667	655.82
411.045	652.88
411.422	661.69
411.8	679.32
412.178	696.94
412.555	694.46
412.933	688.13
413.31	676.38
413.687	688.58
414.065	702.59
414.442	702.82
414.819	699.43
415.197	747.11
415.574	717.28
415.951	738.98
416.328	742.82
416.705	750.95
417.082	738.53
417.46	758.41
417.837	738.98
418.214	767
418.591	779.88
418.967	779.2
419.344	774.91
419.721	790.73
420.098	783.95
420.475	787.34
420.852	811.74
421.228	810.84
421.605	801.35
421.982	793.44
422.358	833.66
422.735	848.35
423.111	833.21
423.488	847.9
423.864	854
424.241	887.67
424.617	862.82
424.994	868.24
425.37	882.48
425.746	903.95
426.123	894
426.499	918.18
426.875	908.92
427.251	919.54
427.627	941.46
428.003	945.3
428.379	956.83
428.756	974.9
429.132	961.34
429.507	1001.57
429.883	991.4
430.259	1002.02
430.635	990.72
431.011	1040.21
431.387	1030.27
431.763	1067.1
432.138	1097.39
432.514	1098.29
432.89	1090.83
433.265	1099.65
433.641	1135.35
434.016	1139.65
434.392	1139.19
434.767	1139.65
435.143	1160.44
435.518	1179.64
435.894	1179.19
436.269	1193.2
436.644	1211.28
437.02	1232.75
437.395	1239.76
437.77	1257.16
438.145	1279.98
438.52	1286.53
438.895	1282.01
439.271	1320.43
439.646	1316.59
440.021	1295.12
440.395	1323.82
440.77	1341.45
441.145	1332.86
441.52	1373.76
441.895	1365.18
442.27	1418.96
442.645	1377.15
443.019	1394.78
443.394	1416.25
443.769	1437.26
444.143	1417.83
444.518	1446.3
444.892	1433.87
445.267	1448.11
445.641	1483.14
446.016	1501.44
446.39	1476.59
446.764	1505.51
447.139	1522.46
447.513	1539.41
447.887	1536.7
448.262	1507.55
448.636	1537.6
449.01	1575.79
449.384	1590.03
449.758	1587.77
450.132	1622.12
450.506	1616.69
450.88	1630.71
451.254	1616.69
451.628	1668.44
452.002	1677.48
452.376	1671.61
452.75	1694.88
453.123	1707.54
453.497	1760.65
453.871	1748.67
454.244	1778.05
454.618	1766.52
454.992	1808.78
455.365	1798.38
455.739	1820.31
456.112	1865.5
456.486	1900.3
456.859	1872.28
457.232	1910.02
457.606	1881.55
457.979	1909.79
458.352	1935.78
458.725	1989.34
459.099	1973.52
459.472	2013.75
459.845	2019.4
460.218	2071.82
460.591	2055.1
460.964	2087.64
461.337	2120.64
461.71	2158.38
462.083	2155.66
462.456	2173.29
462.829	2154.76
463.201	2192.72
463.574	2223.01
463.947	2221.2
464.32	2298.71
464.692	2283.34
465.065	2309.78
465.438	2345.26
465.81	2368.31
466.183	2406.96
466.555	2414.19
466.928	2430.23
467.3	2417.8
467.672	2504.81
468.045	2580.29
468.417	2565.37
468.789	2558.14
469.161	2549.33
469.534	2646.5
469.906	2667.97
470.278	2685.14
470.65	2695.54
471.022	2757.23
471.394	2824.12
471.766	2835.87
472.138	2848.07
472.51	2888.98
472.882	2961.74
473.253	2971.01
473.625	3038.8
473.997	3066.83
474.369	3115.19
474.74	3118.12
475.112	3149.54
475.484	3220.04
475.855	3297.55
476.227	3294.16
476.598	3417.78
476.97	3403.54
477.341	3524.89
477.713	3509.98
478.084	3518.34
478.455	3617.09
478.827	3650.09
479.198	3786.13
479.569	3745.9
479.94	3870.19
480.311	3941.38
480.682	3994.03
481.053	4018.89
481.424	4143.41
481.795	4128.27
482.166	4230.86
482.537	4259.56
482.908	4331.65
483.279	4423.17
483.65	4513.57
484.021	4594.02
484.391	4574.13
484.762	4651.19
485.133	4732.55
485.503	4709.95
485.874	4820.45
486.244	4870.62
486.615	4970.96
486.985	5028.81
487.356	5091.86
487.726	5136.83
488.097	5232.19
488.467	5221.12
488.837	5337.05
489.207	5411.17
489.578	5518.29
489.948	5570.26
490.318	5603.26
490.688	5658.4
491.058	5741.11
491.428	5823.59
491.798	5825.62
492.168	6020.65
492.538	5985.62
492.908	6058.61
493.278	6126.86
493.648	6151.26
494.017	6227.2
494.387	6297.25
494.757	6286.4
495.126	6456.57
495.496	6456.79
495.866	6497.24
496.235	6492.72
496.605	6613.4
496.974	6637.81
497.344	6723.23
497.713	6770.01
498.082	6785.15
498.452	6821.3
498.821	6890
499.19	6919.38
499.559	6961.19
499.928	7043.22
500.298	7140.62
500.667	7172.25
501.036	7156.89
501.405	7238.92
501.774	7260.39
502.143	7220.39
502.512	7328.41
502.88	7394.4
503.249	7449.31
503.618	7534.05
503.987	7577.67
504.356	7595.97
504.724	7620.6
505.093	7652.47
505.462	7774.95
505.83	7860.15
506.199	7913.7
506.567	8005
506.936	7927.49
507.304	8070.99
507.672	8087.03
508.041	8126.58
508.409	8223.98
508.777	8309.17
509.145	8341.94
509.514	8292.68
509.882	8382.39
510.25	8409.28
510.618	8499
510.986	8558.89
511.354	8629.39
511.722	8699.22
512.09	8757.3
512.458	8786.68
512.826	8836.84
513.193	8882.94
513.561	8980.79
513.929	9021.02
514.297	9095.14
514.664	9134.92
515.032	9148.47
515.4	9268.25
515.767	9333.1
516.135	9442.03
516.502	9339.43
516.869	9512.53
517.237	9559.54
517.604	9560.67
517.972	9602.25
518.339	9748.68
518.706	9794.11
519.073	9894.9
519.44	9909.58
519.808	10008.11
520.175	10017.6
520.542	10182.57
520.909	10207.66
521.276	10216.92
521.643	10372.62
522.009	10434.09
522.376	10462.56
522.743	10560.41
523.11	10688.77
523.477	10765.15
523.843	10849.9
524.21	10919.05
524.577	10966.05
524.943	11042.21
525.31	11174.64
525.676	11205.14
526.043	11241.3
526.409	11386.38
526.776	11474.97
527.142	11540.5
527.508	11633.38
527.874	11666.6
528.241	11753.83
528.607	11843.54
528.973	11926.03
529.339	11971.45
529.705	12048.51
530.071	12180.26
530.437	12206.7
530.803	12263.65
531.169	12341.38
531.535	12319.69
531.901	12385.23
532.267	12444.43
532.632	12526.69
532.998	12590.87
533.364	12648.72
533.73	12763.75
534.095	12879.68
534.461	12873.8
534.826	12890.3
535.192	12987.47
535.557	13048.26
535.923	13121.7
536.288	13143.85
536.653	13119.44
537.019	13228.82
537.384	13231.3
537.749	13299.1
538.114	13388.14
538.479	13433.33
538.845	13466.1
539.21	13438.76
539.575	13502.26
539.94	13646.43
540.305	13725.98
540.67	13752.65
541.034	13795.13
541.399	13848.46
541.764	13867.22
542.129	13962.81
542.494	13952.42
542.858	13998.06
543.223	14084.16
543.587	14143.6
543.952	14158.06
544.316	14149.92
544.681	14211.17
545.045	14284.16
545.41	14380.65
545.774	14404.16
546.138	14417.71
546.503	14496.58
546.867	14448
547.231	14575.22
547.595	14602.12
547.959	14690.48
548.324	14758.95
548.688	14787.65
549.052	14816.12
549.416	14837.36
549.779	14881.43
550.143	14868.55
550.507	15146.96
550.871	15068.54
551.235	15054.99
551.599	15237.35
551.962	15233.29
552.326	15268.77
552.689	15404.81
553.053	15330.46
553.417	15391.25
553.78	15642.77
554.143	15491.13
554.507	15638.02
554.87	15661.3
555.234	15866.72
555.597	15823.33
555.96	15871.69
556.323	15995.98
556.686	15961.63
557.05	16098.35
557.413	16211.11
557.776	16169.53
558.139	16374.95
558.502	16382.18
558.865	16343.31
559.228	16501.28
559.59	16564.78
559.953	16610.65
560.316	16762.29
560.679	16823.07
561.041	16915.5
561.404	16994.6
561.767	17063.07
562.129	17057.64
562.492	17198.43
562.854	17192.56
563.217	17258.09
563.579	17347.58
563.941	17348.71
564.304	17531.08
564.666	17626.9
565.028	17692.66
565.39	17784.63
565.753	17890.39
566.115	17928.81
566.477	17987.34
566.839	18042.48
567.201	18178.97
567.563	18182.36
567.925	18214.22
568.287	18353.43
568.648	18377.38
569.01	18543.71
569.372	18630.26
569.734	18660.09
570.095	18646.3
570.457	18823.25
570.819	18842.91
571.18	18863.25
571.542	18927.65
571.903	18949.12
572.265	19064.15
572.626	19165.84
572.987	19199.74
573.349	19265.72
573.71	19319.05
574.071	19342.33
574.432	19404.25
574.794	19589.1
575.155	19499.16
575.516	19480.18
575.877	19590.69
576.238	19693.73
576.599	19703.45
576.96	19784.58
577.32	19791.58
577.681	19784.8
578.042	19872.26
578.403	19866.38
578.763	19859.83
579.124	19959.94
579.485	20030.9
579.845	20046.72
580.206	20016.66
580.566	20006.95
580.927	20106.6
581.287	20238.8
581.648	20095.98
582.008	20146.38
582.368	20128.3
582.728	20163.55
583.089	20125.36
583.449	20120.84
583.809	20244.91
584.169	20238.58
584.529	20294.85
584.889	20373.94
585.249	20255.3
585.609	20273.15
585.969	20302.08
586.329	20239.48
586.688	20325.58
587.048	20281.74
587.408	20199.93
587.768	20304.56
588.127	20145.47
588.487	20220.27
588.846	20302.31
589.206	20343.43
589.565	20241.97
589.925	20393.83
590.284	20372.81
590.643	20328.07
591.003	20445.13
591.362	20409.87
591.721	20337.78
592.08	20389.99
592.44	20385.24
592.799	20374.17
593.158	20316.54
593.517	20376.65
593.876	20466.14
594.235	20368.52
594.593	20389.31
594.952	20501.85
595.311	20391.79
595.67	20415.3
596.029	20599.25
596.387	20551.56
596.746	20627.49
597.104	20501.85
597.463	20496.88
597.822	20688.28
598.18	20500.04
598.538	20579.81
598.897	20677.89
599.255	20514.05
599.613	20760.6
599.972	20641.96
600.33	20725.8
600.688	20652.13
601.046	20780.94
601.404	20688.06
601.762	20738
602.12	20787.49
602.478	20751.33
602.836	20720.6
603.194	20578
603.552	20685.57
603.91	20698.68
604.268	20758.79
604.625	20725.34
604.983	20818
605.341	20639.25
605.698	20846.47
606.056	20866.13
606.413	20852.35
606.771	20889.18
607.128	20915.85
607.485	20886.47
607.843	20852.35
608.2	20886.7
608.557	21023.87
608.914	20940.03
609.272	21083.3
609.629	21215.5
609.986	21144.77
610.343	21027.94
610.7	21233.81
611.057	21144.77
611.414	21193.58
611.771	21139.8
612.127	21370.53
612.484	21288.72
612.841	21334.37
613.198	21257.31
613.554	21205.11
613.911	21421.37
614.267	21359.45
614.624	21289.4
614.98	21405.33
615.337	21452.56
615.693	21456.17
616.05	21448.94
616.406	21420.69
616.762	21484.87
617.118	21413.91
617.475	21456.85
617.831	21563.51
618.187	21546.57
618.543	21602.61
618.899	21668.82
619.255	21615.72
619.611	21490.3
619.967	21634.25
620.323	21649.61
620.678	21571.42
621.034	21540.69
621.39	21498.43
621.746	21553.8
622.101	21782.27
622.457	21581.82
622.812	21631.08
623.168	21746.56
623.523	21627.69
623.879	21665.43
624.234	21560.58
624.589	21693
624.945	21630.63
625.3	21762.38
625.655	21673.34
626.01	21658.2
626.365	21601.71
626.72	21544.98
627.075	21554.48
627.43	21550.63
627.785	21530.3
628.14	21548.6
628.495	21513.57
628.85	21575.72
629.205	21442.61
629.559	21513.35
629.914	21458.88
630.269	21418.21
630.623	21400.36
630.978	21414.37
631.332	21447.13
631.687	21488.94
632.041	21418.21
632.396	21427.7
632.75	21348.38
633.104	21407.81
633.459	21172.34
633.813	21215.05
634.167	21328.72
634.521	21317.19
634.875	21218.89
635.229	21206.01
635.583	21138.89
635.937	21055.96
636.291	21046.92
636.645	20968.5
636.999	21006.47
637.352	21050.31
637.706	20888.5
638.06	20875.17
638.413	20959.69
638.767	20822.07
639.121	20872.46
639.474	20772.58
639.828	20757.43
640.181	20702.07
640.534	20712.46
640.888	20724.21
641.241	20612.58
641.594	20666.36
641.947	20643.77
642.301	20591.56
642.654	20561.73
643.007	20527.84
643.36	20620.94
643.713	20552.24
644.066	20547.04
644.419	20408.29
644.771	20254.4
645.124	20126.94
645.477	19960.85
645.83	19918.13
646.182	19854.41
646.535	19827.97
646.888	19858.25
647.24	19844.69
647.593	19902.99
647.945	19815.31
648.298	19677.01
648.65	19574.19
649.002	19562.21
649.355	19698.25
649.707	19658.03
650.059	19758.59
650.411	19893.73
650.763	19821.87
651.115	20147.96
651.467	20085.59
651.819	19961.52
652.171	19992.26
652.523	19839.72
652.875	19851.24
653.227	19726.28
653.578	19959.04
653.93	19787.29
654.282	19695.54
654.633	19752.72
654.985	19785.71
655.337	19709.1
655.688	19606.5
656.039	19877.23
656.391	19610.8
656.742	19677.91
657.094	19653.06
657.445	19703
657.796	19702.09
658.147	19634.75
658.498	19600.4
658.849	19678.14
659.2	19461.2
659.551	19448.32
659.902	19480.18
660.253	19522.44
660.604	19513.4
660.955	19417.36
661.306	19461.88
661.656	19471.59
662.007	19423.46
662.358	19312.95
662.708	19413.29
663.059	19460.52
663.409	19321.09
663.76	19430.01
664.11	19377.58
664.461	19386.4
664.811	19353.86
665.161	19337.13
665.511	19297.13
665.862	19305.72
666.212	19314.99
666.562	19328.09
666.912	19327.19
667.262	19352.73
667.612	19287.87
667.962	19231.6
668.312	19231.37
668.662	19286.06
669.011	19310.47
669.361	19187.31
669.711	19219.4
670.06	19139.85
670.41	19170.81
670.76	19119.29
671.109	19208.32
671.459	19155.44
671.808	19082
672.157	19090.13
672.507	19012.85
672.856	19030.47
673.205	18997.03
673.554	19097.37
673.904	19128.32
674.253	19129.91
674.602	19072.96
674.951	18696.02
675.3	18669.13
675.649	19060.3
675.998	19052.17
676.346	18881.55
676.695	18983.92
677.044	18833.42
677.393	18883.59
677.741	18938.73
678.09	18801.78
678.438	18841.1
678.787	18874.55
679.135	18788.9
679.484	18703.25
679.832	18795.45
680.181	18670.26
680.529	18708.9
680.877	18597.72
681.225	18673.2
681.573	18737.15
681.922	18590.94
682.27	18484.73
682.618	18508.91
682.966	18537.83
683.314	18625.74
683.661	18441.34
684.009	18350.04
684.357	18312.53
684.705	18308.46
685.053	18319.53
685.4	18200.89
685.748	18170.61
686.095	18090.61
686.443	18078.86
686.79	18111.63
687.138	18105.53
687.485	18099.65
687.832	17988.69
688.18	18013.1
688.527	17880.67
688.874	17932.2
689.221	17770.85
689.568	17762.48
689.915	17792.31
690.262	17697.85
690.609	17623.05
690.956	17641.36
691.303	17614.47
691.65	17520.46
691.997	17565.88
692.344	17420.35
692.69	17416.05
693.037	17471.87
693.383	17194.36
693.73	17346.9
694.077	17235.95
694.423	17233.46
694.769	17108.04
695.116	17115.27
695.462	17065.55
695.808	17037.31
696.155	16991.21
696.501	16870.31
696.847	16950.3
697.193	16755.28
697.539	16856.07
697.885	16616.98
698.231	16640.48
698.577	16640.71
698.923	16717.31
699.269	16569.75
699.614	16542.63
699.96	16445.23
700.306	16442.75
700.651	16352.8
700.997	16355.52
701.342	16280.94
701.688	16327.95
702.033	16192.58
702.379	16129.31
702.724	16104.22
703.069	16189.87
703.415	15974.74
703.76	15982.87
704.105	16068.52
704.45	15911.01
704.795	15892.25
705.14	15805.7
705.485	15798.92
705.83	15736.32
706.175	15719.83
706.52	15711.01
706.865	15639.38
707.209	15656.78
707.554	15523
707.899	15668.98
708.243	15550.11
708.588	15472.6
708.932	15314.64
709.277	15283
709.621	15398.03
709.966	15203.68
710.31	15345.83
710.654	15160.07
710.998	15208.43
711.342	15192.83
711.687	15126.4
712.031	15052.95
712.375	14868.78
712.719	15091.14
713.063	14935.44
713.407	14995.55
713.75	14875.78
714.094	14941.54
714.438	14830.81
714.782	14912.62
715.125	14787.2
715.469	14826.74
715.812	14726.18
716.156	14674.43
716.499	14707.65
716.843	14606.41
717.186	14639.4
717.53	14675.33
717.873	14650.7
718.216	14621.55
718.559	14469.24
718.902	14404.16
719.246	14465.17
719.589	14365.51
719.932	14387.21
720.275	14400.31
720.617	14368.22
720.96	14313.31
721.303	14331.39
721.646	14321.45
721.989	14168.68
722.331	14264.05
722.674	14200.77
723.016	14141.34
723.359	14151.96
723.701	14174.56
724.044	14045.29
724.386	13998.06
724.729	14062.02
725.071	14048.46
725.413	14013.43
725.755	13984.73
726.097	13970.04
726.439	13944.05
726.782	13951.06
727.124	13969.36
727.465	13821.57
727.807	13863.6
728.149	13756.71
728.491	13772.76
728.833	13868.58
729.175	13702.25
729.516	13736.83
729.858	13704.29
730.199	13730.05
730.541	13618.19
730.882	13672.65
731.224	13655.93
731.565	13582.93
731.906	13573.44
732.248	13567.34
732.589	13566.89
732.93	13451.19
733.271	13518.08
733.612	13505.65
733.953	13455.48
734.294	13453.22
734.635	13307.69
734.976	13447.12
735.317	13351.98
735.658	13346.1
735.999	13319.21
736.339	13285.31
736.68	13300.91
737.021	13196.5
737.361	13244.41
737.702	13231.76
738.042	13271.08
738.383	13233.79
738.723	13078.77
739.063	13116.28
739.404	13111.53
739.744	13126.22
740.084	13039.67
740.424	13023.85
740.764	13030.86
741.104	13064.53
741.444	12962.84
741.784	12942.5
742.124	12997.41
742.464	13007.13
742.804	12963.52
743.143	12859.56
743.483	12898.43
743.823	12837.19
744.162	12768.72
744.502	12808.26
744.841	12779.79
745.181	12832.9
745.52	12763.75
745.86	12768.49
746.199	12706.57
746.538	12643.3
746.877	12709.28
747.216	12707.7
747.556	12523.98
747.895	12647.59
748.234	12555.39
748.573	12612.34
748.911	12567.14
749.25	12536.18
749.589	12487.82
749.928	12431.55
750.267	12488.27
750.605	12440.59
750.944	12402.4
751.283	12343.19
751.621	12386.81
751.96	12336.41
752.298	12292.35
752.636	12290.99
752.975	12224.33
753.313	12124.22
753.651	12276.3
753.989	12171.9
754.327	12057.78
754.666	12068.85
755.004	12114.72
755.342	12120.83
755.679	12091.67
756.017	11932.36
756.355	12032.47
756.693	11912.92
