Data from foam_black_FLMS001491_00029.txt Node
Date: Wed Feb 08 10:43:40 GMT 2017
User: dcchb
Spectrometer: FLMS00149
Trigger mode: 0
Integration Time (sec): 2.000000E-2
Scans to average: 10
Electric dark correction enabled: true
Nonlinearity correction enabled: false
Boxcar width: 0
XAxis mode: Wavelengths
Number of Pixels in Spectrum: 2048
>>>>>Begin Spectral Data<<<<<
341.393	-22.92
341.776	-22.92
342.16	-22.92
342.543	-75.58
342.927	-54.11
343.31	-55.01
343.693	-80.77
344.077	-60.89
344.46	-73.54
344.843	-70.15
345.226	-36.03
345.61	-22.92
345.993	-20.89
346.376	7.81
346.759	1.71
347.142	36.74
347.525	39.45
347.908	65.89
348.291	76.28
348.674	94.14
349.057	98.2
349.44	124.87
349.823	137.98
350.206	135.94
350.588	191.76
350.971	198.99
351.354	220.46
351.737	198.99
352.119	238.31
352.502	251.19
352.884	253
353.267	270.85
353.65	290.97
354.032	262.95
354.414	291.87
354.797	280.57
355.179	318.76
355.562	316.5
355.944	317.63
356.326	322.15
356.709	322.83
357.091	328.03
357.473	311.53
357.855	322.38
358.238	315.83
358.62	338.65
359.002	351.08
359.384	350.17
359.766	320.8
360.148	351.53
360.53	334.36
360.912	315.37
361.294	335.94
361.676	304.07
362.057	328.03
362.439	331.19
362.821	318.31
363.203	323.06
363.584	334.58
363.966	347.69
364.348	304.53
364.729	322.83
365.111	303.62
365.493	311.31
365.874	299.33
366.256	333.45
366.637	307.69
367.019	310.85
367.4	307.92
367.781	331.64
368.163	312.89
368.544	321.25
368.925	315.37
369.306	317.18
369.688	318.31
370.069	309.5
370.45	325.32
370.831	292.55
371.212	332.77
371.593	314.02
371.974	322.83
372.355	296.39
372.736	342.04
373.117	336.62
373.498	325.99
373.879	312.66
374.26	334.81
374.641	323.96
375.021	299.55
375.402	316.95
375.783	346.78
376.163	339.78
376.544	334.13
376.925	318.76
377.305	342.49
377.686	332.32
378.066	326.45
378.447	329.84
378.827	343.85
379.208	295.94
379.588	322.38
379.968	317.63
380.349	333.9
380.729	349.5
381.109	355.15
381.489	339.1
381.87	324.64
382.25	335.71
382.63	340.68
383.01	363.51
383.39	365.09
383.77	361.25
384.15	360.34
384.53	377.29
384.91	375.48
385.29	365.99
385.67	369.16
386.049	373.68
386.429	370.06
386.809	370.06
387.189	386.56
387.568	379.33
387.948	378.42
388.328	390.4
388.707	363.28
389.087	377.29
389.466	386.78
389.846	384.75
390.225	379.55
390.605	391.76
390.984	401.02
391.363	402.15
391.743	395.82
392.122	397.4
392.501	373.22
392.881	406.67
393.26	404.18
393.639	406.9
394.018	402.6
394.397	400.79
394.776	413.9
395.155	426.56
395.534	405.99
395.913	427.23
396.292	424.07
396.671	433.11
397.05	440.79
397.429	450.74
397.808	420.68
398.186	432.66
398.565	446.44
398.944	436.5
399.323	438.31
399.701	444.64
400.08	440.12
400.458	441.47
400.837	468.59
401.215	436.95
401.594	461.36
401.972	475.14
402.351	458.19
402.729	470.17
403.107	474.24
403.486	449.61
403.864	462.94
404.242	475.59
404.62	471.08
404.999	455.03
405.377	485.31
405.755	485.76
406.133	506.78
406.511	503.84
406.889	509.04
407.267	482.6
407.645	498.19
408.023	472.21
408.401	489.83
408.779	516.5
409.156	514.24
409.534	516.05
409.912	517.4
410.29	529.38
410.667	545.88
411.045	509.49
411.422	521.02
411.8	515.59
412.178	537.74
412.555	540.9
412.933	543.84
413.31	570.06
413.687	568.7
414.065	565.54
414.442	580.45
414.819	554.46
415.197	593.56
415.574	582.26
415.951	573.67
416.328	570.06
416.705	624.07
417.082	567.8
417.46	600.11
417.837	612.31
418.214	619.55
418.591	620.22
418.967	610.05
419.344	621.13
419.721	625.2
420.098	635.36
420.475	627.46
420.852	630.39
421.228	632.43
421.605	627.46
421.982	664.52
422.358	656.61
422.735	672.43
423.111	655.93
423.488	660.22
423.864	674.23
424.241	680.79
424.617	692.31
424.994	684.85
425.37	704.06
425.746	687.11
426.123	707.68
426.499	688.92
426.875	691.63
427.251	707.68
427.627	702.03
428.003	729.83
428.379	721.24
428.756	737.51
429.132	753.55
429.507	737.28
429.883	728.92
430.259	778.41
430.635	754.46
431.011	762.59
431.387	783.61
431.763	816.15
432.138	809.82
432.514	807.56
432.89	830.61
433.265	822.7
433.641	836.72
434.016	847.56
434.392	862.03
434.767	871.06
435.143	864.96
435.518	847.79
435.894	884.85
436.269	869.26
436.644	905.64
437.02	894.11
437.395	897.28
437.77	914.45
438.145	938.63
438.52	946.77
438.895	919.65
439.271	946.09
439.646	971.85
440.021	975.92
440.395	969.59
440.77	945.86
441.145	959.42
441.52	974.11
441.895	965.53
442.27	986.32
442.645	995.13
443.019	1007.78
443.394	1020.21
443.769	1003.04
444.143	1032.87
444.518	1016.6
444.892	1028.12
445.267	1029.25
445.641	1040.78
446.016	1026.99
446.39	1036.48
446.764	1041.91
447.139	1010.27
447.513	1062.25
447.887	1081.68
448.262	1088.01
448.636	1076.03
449.01	1104.28
449.384	1096.6
449.758	1099.53
450.132	1104.28
450.506	1119.19
450.88	1103.83
451.254	1114.22
451.628	1117.61
452.002	1149.02
452.376	1145.86
452.75	1172.3
453.123	1163.49
453.497	1184.5
453.871	1181.56
454.244	1232.19
454.618	1220.21
454.992	1228.57
455.365	1236.03
455.739	1226.99
456.112	1272.64
456.486	1288.91
456.859	1310.83
457.232	1294.78
457.606	1303.37
457.979	1325.97
458.352	1353.09
458.725	1336.82
459.099	1384.05
459.472	1373.88
459.845	1400.32
460.218	1381.56
460.591	1398.73
460.964	1399.19
461.337	1441.22
461.71	1460.43
462.083	1456.36
462.456	1477.83
462.829	1498.17
463.201	1511.73
463.574	1512.86
463.947	1538.39
464.32	1568.45
464.692	1565.96
465.065	1625.85
465.438	1596.7
465.81	1627.43
466.183	1638.95
466.555	1639.18
466.928	1694.32
467.3	1655.68
467.672	1703.36
468.045	1738.39
468.417	1730.7
468.789	1763.92
469.161	1783.13
469.534	1789.23
469.906	1841.89
470.278	1834.66
470.65	1871.49
471.022	1903.35
471.394	1918.27
471.766	1940.42
472.138	1940.19
472.51	1975.67
472.882	2000.53
473.253	2004.59
473.625	2043.01
473.997	2094.31
474.369	2108.77
474.74	2120.52
475.112	2147.64
475.484	2171.6
475.855	2231.71
476.227	2227.87
476.598	2296.34
476.97	2332.04
477.341	2357.81
477.713	2379.27
478.084	2397.35
478.455	2484.36
478.827	2481.64
479.198	2523.68
479.569	2547.18
479.94	2611.58
480.311	2662.2
480.682	2713.5
481.053	2714.86
481.424	2801.41
481.795	2792.6
482.166	2848.87
482.537	2875.08
482.908	2956.89
483.279	2921.86
483.65	3038.92
484.021	3076.43
484.391	3063.55
484.762	3085.02
485.133	3120.72
485.503	3200.95
485.874	3266.93
486.244	3270.1
486.615	3354.84
486.985	3351.45
487.356	3412.92
487.726	3428.96
488.097	3506.02
488.467	3527.27
488.837	3571.33
489.207	3574.27
489.578	3653.14
489.948	3683.42
490.318	3752.34
490.688	3745.34
491.058	3818.78
491.428	3883.87
491.798	3863.53
492.168	3937.65
492.538	3994.15
492.908	3979.01
493.278	4048.16
493.648	4089.29
494.017	4118.89
494.387	4168.61
494.757	4201.6
495.126	4241.6
495.496	4280.01
495.866	4293.12
496.235	4317.08
496.605	4350.07
496.974	4344.19
497.344	4429.62
497.713	4482.72
498.082	4477.52
498.452	4508.26
498.821	4550.29
499.19	4552.78
499.559	4604.07
499.928	4634.13
500.298	4637.97
500.667	4690.4
501.036	4718.2
501.405	4739.89
501.774	4755.71
502.143	4816.72
502.512	4814.92
502.88	4838.42
503.249	4854.69
503.618	4884.97
503.987	4884.52
504.356	4941.24
504.724	5006.78
505.093	5032.99
505.462	5018.98
505.83	5056.72
506.199	5112.08
506.567	5209.26
506.936	5128.58
507.304	5212.19
507.672	5238.18
508.041	5353.21
508.409	5378.52
508.777	5393.21
509.145	5422.58
509.514	5413.77
509.882	5487.44
510.25	5472.3
510.618	5526.54
510.986	5580.77
511.354	5555.01
511.722	5650.83
512.09	5689.7
512.458	5655.12
512.826	5696.7
513.193	5762.69
513.561	5769.69
513.929	5759.07
514.297	5824.38
514.664	5897.15
515.032	5929.24
515.4	5984.15
515.767	6006.97
516.135	6083.36
516.502	6068.89
516.869	6146.18
517.237	6232.28
517.604	6211.26
517.972	6253.52
518.339	6352.73
518.706	6380.07
519.073	6435.21
519.44	6476.12
519.808	6518.15
520.175	6557.02
520.542	6586.17
520.909	6665.71
521.276	6715.43
521.643	6765.6
522.009	6746.39
522.376	6802.66
522.743	6828.65
523.11	6858.25
523.477	6969.44
523.843	6918.59
524.21	7020.28
524.577	7113.16
524.943	7165.36
525.31	7120.39
525.676	7207.4
526.043	7280.39
526.409	7213.04
526.776	7426.37
527.142	7504.79
527.508	7550.44
527.874	7574.17
528.241	7653.71
528.607	7673.6
528.973	7725.57
529.339	7763.54
529.705	7872.24
530.071	7931.22
530.437	7965.79
530.803	8022.06
531.169	8105.22
531.535	8054.83
531.901	8121.27
532.267	8173.47
532.632	8228.84
532.998	8206.24
533.364	8299.57
533.73	8293.69
534.095	8282.85
534.461	8411.88
534.826	8360.59
535.192	8358.78
535.557	8454.14
535.923	8430.87
536.288	8464.99
536.653	8516.06
537.019	8542.05
537.384	8580.01
537.749	8565.33
538.114	8679.45
538.479	8653.01
538.845	8757.41
539.21	8787.47
539.575	8825.88
539.94	8913.79
540.305	9014.35
540.67	9020.68
541.034	8976.39
541.399	9073.56
541.764	9132.09
542.129	9143.84
542.494	9154.69
542.858	9167.57
543.223	9233.1
543.587	9274.46
543.952	9247.34
544.316	9313.1
544.681	9289.15
545.045	9318.53
545.41	9358.53
545.774	9385.87
546.138	9425.19
546.503	9400.11
546.867	9398.98
547.231	9503.83
547.595	9511.29
547.959	9554.45
548.324	9588.8
548.688	9586.54
549.052	9713.77
549.416	9718.52
549.779	9717.39
550.143	9744.96
550.507	9862.47
550.871	9922.58
551.235	9855.69
551.599	10071.05
551.962	10014.78
552.326	10101.33
552.689	10199.63
553.053	10120.54
553.417	10217.71
553.78	10315.11
554.143	10298.39
554.507	10371.15
554.87	10324.15
555.234	10451.15
555.597	10366.63
555.96	10423.13
556.323	10517.14
556.686	10496.57
557.05	10530.02
557.413	10609.34
557.776	10592.84
558.139	10680.3
558.502	10729.34
558.865	10734.53
559.228	10839.84
559.59	10897.92
559.953	10868.77
560.316	10994.19
560.679	11033.96
561.041	11110.12
561.404	11251.36
561.767	11285.71
562.129	11262.2
562.492	11373.39
562.854	11407.96
563.217	11365.03
563.579	11477.57
563.941	11532.25
564.304	11636.21
564.666	11738.58
565.028	11767.95
565.39	11862.64
565.753	11807.95
566.115	11938.34
566.477	12009.75
566.839	11989.42
567.201	12101.73
567.563	12134.72
567.925	12125.23
568.287	12200.48
568.648	12194.38
569.01	12291.1
569.372	12376.98
569.734	12320.93
570.095	12384.43
570.457	12477.31
570.819	12586.91
571.18	12462.17
571.542	12589.63
571.903	12580.36
572.265	12614.26
572.626	12696.74
572.987	12766.35
573.349	12810.41
573.71	12835.5
574.071	12856.96
574.432	12911.88
574.794	13084.08
575.155	13030.74
575.516	13022.61
575.877	13102.61
576.238	13012.67
576.599	13157.07
576.96	13111.42
577.32	13164.53
577.681	13210.85
578.042	13235.49
578.403	13225.77
578.763	13248.59
579.124	13213.11
579.485	13299.66
579.845	13306.44
580.206	13429.38
580.566	13369.04
580.927	13497.17
581.287	13444.97
581.648	13467.12
582.008	13507.57
582.368	13578.53
582.728	13596.38
583.089	13577.17
583.449	13545.76
583.809	13536.27
584.169	13644.29
584.529	13523.39
584.889	13657.17
585.249	13634.8
585.609	13510.51
585.969	13611.97
586.329	13553.67
586.688	13579.88
587.048	13516.61
587.408	13584.4
587.768	13601.8
588.127	13591.18
588.487	13524.74
588.846	13611.75
589.206	13547.79
589.565	13475.25
589.925	13587.79
590.284	13527.91
590.643	13558.41
591.003	13646.55
591.362	13651.75
591.721	13557.06
592.08	13689.26
592.44	13732.65
592.799	13714.12
593.158	13729.26
593.517	13674.8
593.876	13774.91
594.235	13822.59
594.593	13835.7
594.952	13877.95
595.311	13740.56
595.67	13784.62
596.029	13946.65
596.387	13938.07
596.746	14018.52
597.104	13932.64
597.463	13924.28
597.822	14017.16
598.18	14008.57
598.538	13967.9
598.897	14023.04
599.255	13941.23
599.613	14155.91
599.972	14034.11
600.33	13946.2
600.688	13989.36
601.046	14034.11
601.404	14096.71
601.762	13924.28
602.12	14005.63
602.478	13967.9
602.836	13939.87
603.194	13819.88
603.552	13882.47
603.91	13933.55
604.268	13973.77
604.625	13888.58
604.983	14000.44
605.341	13952.75
605.698	14003.6
606.056	14112.07
606.413	14024.17
606.771	14125.18
607.128	14067.78
607.485	14016.26
607.843	14164.73
608.2	14270.26
608.557	14237.04
608.914	14261.67
609.272	14480.42
609.629	14413.99
609.986	14476.81
610.343	14485.85
610.7	14544.83
611.057	14464.61
611.414	14523.81
611.771	14548.22
612.127	14577.82
612.484	14597.71
612.841	14643.13
613.198	14487.43
613.554	14490.14
613.911	14540.54
614.267	14470.03
614.624	14508.45
614.98	14528.33
615.337	14580.53
615.693	14621.66
616.05	14550.03
616.406	14571.95
616.762	14514.55
617.118	14534.21
617.475	14481.1
617.831	14550.93
618.187	14606.07
618.543	14651.04
618.899	14626.41
619.255	14642.68
619.611	14581.44
619.967	14688.55
620.323	14794.31
620.678	14686.07
621.034	14684.26
621.39	14734.88
621.746	14726.75
622.101	14943.91
622.457	14800.19
622.812	14804.94
623.168	14966.51
623.523	14952.05
623.879	14968.55
624.234	14897.59
624.589	15031.82
624.945	14877.25
625.3	15037.7
625.655	15083.12
626.01	15067.08
626.365	14943.24
626.72	15029.56
627.075	14964.93
627.43	15061.2
627.785	14959.28
628.14	14945.72
628.495	14936.68
628.85	14953.41
629.205	14862.11
629.559	15013.29
629.914	14813.3
630.269	14780.3
630.623	14786.86
630.978	14685.62
631.332	14817.59
631.687	14716.35
632.041	14627.09
632.396	14639.74
632.75	14580.76
633.104	14630.02
633.459	14515.45
633.813	14605.62
634.167	14447.88
634.521	14485.62
634.875	14564.04
635.229	14483.14
635.583	14503.7
635.937	14463.93
636.291	14364.95
636.645	14354.33
636.999	14404.49
637.352	14555.68
637.706	14356.13
638.06	14420.76
638.413	14428.45
638.767	14327.43
639.121	14430.93
639.474	14371.05
639.828	14338.73
640.181	14442.23
640.534	14365.63
640.888	14312.07
641.241	14359.75
641.594	14410.82
641.947	14364.27
642.301	14325.4
642.654	14334.89
643.007	14281.56
643.36	14294.67
643.713	14303.93
644.066	14360.43
644.419	14228.91
644.771	14096.03
645.124	13914.11
645.477	13889.25
645.83	13755.92
646.182	13744.85
646.535	13888.58
646.888	13815.36
647.24	13859.42
647.593	13849.93
647.945	13863.49
648.298	13738.75
648.65	13778.97
649.002	13718.64
649.355	13741.91
649.707	13679.32
650.059	13712.53
650.411	13810.61
650.763	13821.46
651.115	13955.69
651.467	13932.42
651.819	13912.98
652.171	13927.44
652.523	13887.9
652.875	13779.65
653.227	13728.58
653.578	13936.94
653.93	13879.99
654.282	13770.61
654.633	13760.67
654.985	13713.66
655.337	13779.65
655.688	13791.85
656.039	13759.99
656.391	13675.02
656.742	13721.35
657.094	13721.57
657.445	13743.95
657.796	13747.56
658.147	13689.03
658.498	13701.91
658.849	13749.6
659.2	13727.68
659.551	13709.6
659.902	13742.59
660.253	13727.68
660.604	13681.8
660.955	13664.17
661.306	13670.73
661.656	13678.19
662.007	13685.87
662.358	13671.86
662.708	13813.78
663.059	13688.13
663.409	13653.78
663.76	13766.54
664.11	13753.44
664.461	13754.12
664.811	13705.76
665.161	13662.14
665.511	13667.79
665.862	13669.6
666.212	13696.72
666.562	13749.37
666.912	13736.26
667.262	13638.86
667.612	13610.62
667.962	13667.79
668.312	13588.47
668.662	13588.47
669.011	13618.98
669.361	13553.44
669.711	13580.56
670.06	13633.21
670.41	13541.24
670.76	13430.51
671.109	13532.2
671.459	13541.01
671.808	13434.35
672.157	13440
672.507	13425.31
672.856	13420.11
673.205	13434.12
673.554	13401.13
673.904	13425.76
674.253	13533.78
674.602	13310.51
674.951	13132.21
675.3	13080.69
675.649	13300.57
675.998	13298.31
676.346	13341.92
676.695	13308.48
677.044	13238.65
677.393	13296.05
677.741	13309.61
678.09	13336.5
678.438	13158.88
678.787	13242.26
679.135	13285.65
679.484	13180.8
679.832	13313
680.181	13238.42
680.529	13216.95
680.877	13256.95
681.225	13154.13
681.573	13213.34
681.922	13159.1
682.27	13160.46
682.618	13120.69
682.966	13135.15
683.314	13204.53
683.661	13172.21
684.009	13102.38
684.357	13019.9
684.705	13046.79
685.053	13094.92
685.4	13122.04
685.748	12913.23
686.095	13004.08
686.443	12888.6
686.79	12873.46
687.138	12848.15
687.485	12845.44
687.832	12796.17
688.18	12833.01
688.527	12764.76
688.874	12792.11
689.221	12659.46
689.568	12618.55
689.915	12618.78
690.262	12560.02
690.609	12551.89
690.956	12500.59
691.303	12555.05
691.65	12443.19
691.997	12388.95
692.344	12357.32
692.69	12364.55
693.037	12315.96
693.383	12289.52
693.73	12333.14
694.077	12218.56
694.423	12158.68
694.769	12220.6
695.116	12110.09
695.462	12165.91
695.808	12047.27
696.155	12078.45
696.501	11968.4
696.847	11978.8
697.193	11927.5
697.539	12006.14
697.885	11925.46
698.231	11917.55
698.577	11954.62
698.923	11930.43
699.269	11833.04
699.614	11759.14
699.96	11751.68
700.306	11738.35
700.651	11800.95
700.997	11669.2
701.342	11697.9
701.688	11574.96
702.033	11604.79
702.379	11591.46
702.724	11567.51
703.069	11506.04
703.415	11415.42
703.76	11484.8
704.105	11421.97
704.45	11418.58
704.795	11285.03
705.14	11295.65
705.485	11279.6
705.83	11241.64
706.175	11274.18
706.52	11216.78
706.865	11182.43
707.209	11166.84
707.554	11115.77
707.899	11125.71
708.243	11069.21
708.588	10983.79
708.932	11004.58
709.277	10963.68
709.621	11018.14
709.966	10916.9
710.31	10916
710.654	10839.62
710.998	10830.12
711.342	10874.19
711.687	10840.29
712.031	10787.41
712.375	10707.87
712.719	10746.06
713.063	10755.1
713.407	10786.51
713.75	10722.56
714.094	10656.34
714.438	10682.11
714.782	10714.42
715.125	10607.31
715.469	10657.47
715.812	10595.33
716.156	10631.49
716.499	10567.76
716.843	10546.29
717.186	10547.42
717.53	10518.95
717.873	10530.47
718.216	10533.41
718.559	10518.49
718.902	10413.41
719.246	10332.51
719.589	10411.15
719.932	10382.9
720.275	10371.38
720.617	10372.74
720.96	10348.56
721.303	10313.75
721.646	10375.45
721.989	10311.49
722.331	10311.95
722.674	10285.05
723.016	10210.03
723.359	10256.58
723.701	10234.43
724.044	10113.31
724.386	10126.41
724.729	10137.49
725.071	10137.49
725.413	10095.91
725.755	10092.74
726.097	10050.71
726.439	9979.75
726.782	9989.92
727.124	10008.9
727.465	9993.08
727.807	10031.28
728.149	9973.88
728.491	9888.91
728.833	9940.66
729.175	9884.84
729.516	9891.17
729.858	9863.14
730.199	9841
730.541	9786.08
730.882	9822.69
731.224	9858.17
731.565	9810.72
731.906	9845.97
732.248	9828.12
732.589	9767.1
732.93	9704.73
733.271	9704.5
733.612	9755.12
733.953	9718.97
734.294	9765.75
734.635	9690.27
734.976	9704.28
735.317	9679.87
735.658	9658.63
735.999	9641.46
736.339	9635.58
736.68	9678.29
737.021	9646.65
737.361	9605.3
737.702	9676.93
738.042	9621.12
738.383	9579.99
738.723	9646.65
739.063	9560.55
739.404	9558.75
739.744	9594
740.084	9516.26
740.424	9523.04
740.764	9449.37
741.104	9512.65
741.444	9415.02
741.784	9374.8
742.124	9434.46
742.464	9470.61
742.804	9396.72
743.143	9404.85
743.483	9438.75
743.823	9338.86
744.162	9305.65
744.502	9349.03
744.841	9286.44
745.181	9300.45
745.52	9290.28
745.86	9267
746.199	9354.23
746.538	9220.9
746.877	9218.64
747.216	9212.99
747.556	9174.35
747.895	9239.43
748.234	9191.98
748.573	9124.63
748.911	9140.45
749.25	9113.33
749.589	9114.24
749.928	9091.64
750.267	9107.68
750.605	9102.71
750.944	9031.75
751.283	9033.34
751.621	9047.57
751.96	9035.82
752.298	8946.56
752.636	9061.13
752.975	8914.02
753.313	8910.85
753.651	8941.59
753.989	8870.4
754.327	8834.02
754.666	8784.08
755.004	8844.87
755.342	8810.06
755.679	8760.57
756.017	8665.44
756.355	8722.84
756.693	8664.08
757.031	8751.76
757.368	8617.98
757.706	8583.86
758.044	8606.91
758.381	8556.74
758.719	8579.79
759.056	8582.27
759.394	8502.28
759.731	8512.22
