Data from foam1_polythene_foam_FLMS001491_00036.txt Node
Date: Wed Feb 08 10:54:45 GMT 2017
User: dcchb
Spectrometer: FLMS00149
Trigger mode: 0
Integration Time (sec): 2.000000E-2
Scans to average: 10
Electric dark correction enabled: true
Nonlinearity correction enabled: false
Boxcar width: 0
XAxis mode: Wavelengths
Number of Pixels in Spectrum: 2048
>>>>>Begin Spectral Data<<<<<
341.393	9.99
341.776	9.99
342.16	9.99
342.543	-70.24
342.927	-72.05
343.31	-75.21
343.693	-53.29
344.077	-61.88
344.46	-69.11
344.843	-52.61
345.226	-26.4
345.61	-33.86
345.993	-32.5
346.376	-15.32
346.759	16.77
347.142	38.91
347.525	40.72
347.908	58.57
348.291	80.49
348.674	71.45
349.057	113.26
349.44	145.35
349.823	149.87
350.206	164.78
350.588	189.64
350.971	187.16
351.354	199.59
351.737	228.51
352.119	239.58
352.502	249.08
352.884	268.06
353.267	279.81
353.65	276.19
354.032	294.5
354.414	292.01
354.797	300.6
355.179	318.45
355.562	305.8
355.944	318
356.326	296.53
356.709	309.41
357.091	302.63
357.473	315.74
357.855	320.49
358.238	324.55
358.62	316.19
359.002	322.07
359.384	331.33
359.766	314.38
360.148	335.63
360.53	306.7
360.912	343.08
361.294	322.29
361.676	316.19
362.057	308.51
362.439	336.76
362.821	304.44
363.203	324.78
363.584	306.7
363.966	302.86
364.348	286.14
364.729	305.12
365.111	302.63
365.493	306.25
365.874	310.99
366.256	315.97
366.637	304.22
367.019	295.4
367.4	302.41
367.781	301.73
368.163	319.81
368.544	295.4
368.925	287.04
369.306	290.2
369.688	287.49
370.069	327.04
370.45	307.83
370.831	275.97
371.212	303.54
371.593	306.25
371.974	295.63
372.355	290.2
372.736	292.01
373.117	282.52
373.498	303.31
373.879	275.29
374.26	301.28
374.641	278
375.021	318.23
375.402	296.53
375.783	307.15
376.163	312.35
376.544	321.62
376.925	306.47
377.305	299.24
377.686	322.75
378.066	329.07
378.447	309.19
378.827	323.88
379.208	309.64
379.588	303.54
379.968	329.07
380.349	329.53
380.729	321.84
381.109	287.04
381.489	337.43
381.87	315.29
382.25	329.3
382.63	320.03
383.01	340.6
383.39	310.77
383.77	353.48
384.15	348.06
384.53	334.27
384.91	328.17
385.29	321.84
385.67	307.6
386.049	334.95
386.429	346.93
386.809	330.2
387.189	337.66
387.568	352.8
387.948	329.07
388.328	328.62
388.707	324.78
389.087	340.82
389.466	336.08
389.846	367.94
390.225	335.85
390.605	339.02
390.984	351.22
391.363	341.95
391.743	322.97
392.122	343.31
392.501	349.86
392.881	333.82
393.26	353.71
393.639	344.21
394.018	363.65
394.397	359.58
394.776	358.9
395.155	359.13
395.534	368.17
395.913	345.12
396.292	359.35
396.671	373.59
397.05	355.06
397.429	359.58
397.808	357.55
398.186	363.42
398.565	364.1
398.944	348.96
399.323	365
399.701	373.82
400.08	388.28
400.458	350.77
400.837	364.33
401.215	361.84
401.594	373.14
401.972	390.54
402.351	376.3
402.729	383.08
403.107	381.05
403.486	391.67
403.864	388.51
404.242	382.86
404.62	384.21
404.999	405.68
405.377	377.66
405.755	381.05
406.133	365.23
406.511	398.22
406.889	369.07
407.267	400.26
407.645	378.79
408.023	395.51
408.401	391.22
408.779	401.84
409.156	410.2
409.534	411.78
409.912	397.32
410.29	423.31
410.667	406.13
411.045	404.78
411.422	420.14
411.8	412.46
412.178	426.92
412.555	414.72
412.933	414.04
413.31	429.64
413.687	418.56
414.065	444.1
414.442	427.6
414.819	437.09
415.197	433.48
415.574	417.66
415.951	448.17
416.328	454.72
416.705	448.62
417.082	456.3
417.46	434.38
417.837	453.82
418.214	448.17
418.591	453.59
418.967	444.78
419.344	454.72
419.721	460.37
420.098	464.44
420.475	457.66
420.852	468.05
421.228	473.7
421.605	448.62
421.982	459.69
422.358	476.87
422.735	477.77
423.111	457.66
423.488	484.55
423.864	491.1
424.241	489.52
424.617	474.83
424.994	494.04
425.37	483.42
425.746	487.04
426.123	487.26
426.499	513.7
426.875	488.17
427.251	501.05
427.627	498.56
428.003	521.38
428.379	511.22
428.756	506.7
429.132	539.92
429.507	498.11
429.883	546.69
430.259	528.84
430.635	539.92
431.011	520.25
431.387	550.99
431.763	533.14
432.138	547.82
432.514	556.86
432.89	553.25
433.265	572.68
433.641	574.49
434.016	572
434.392	586.47
434.767	576.98
435.143	580.82
435.518	589.41
435.894	583.53
436.269	612.46
436.644	604.32
437.02	614.04
437.395	561.61
437.77	613.13
438.145	624.66
438.52	625.56
438.895	625.56
439.271	622.85
439.646	656.97
440.021	646.58
440.395	627.6
440.77	627.14
441.145	645
441.52	658.78
441.895	655.17
442.27	679.8
442.645	696.07
443.019	668.5
443.394	696.52
443.769	656.75
444.143	677.09
444.518	680.02
444.892	693.13
445.267	687.93
445.641	718.22
446.016	710.08
446.39	728.61
446.764	707.37
447.139	715.96
447.513	734.71
447.887	721.38
448.262	740.81
448.636	735.84
449.01	717.54
449.384	735.84
449.758	750.98
450.132	770.42
450.506	740.14
450.88	797.31
451.254	765.22
451.628	785.78
452.002	816.52
452.376	764.99
452.75	799.12
453.123	782.85
453.497	804.32
453.871	821.72
454.244	809.51
454.618	812
454.992	829.63
455.365	833.69
455.739	810.87
456.112	855.39
456.486	847.7
456.859	806.35
457.232	845.67
457.606	868.04
457.979	852.9
458.352	862.17
458.725	861.94
459.099	861.94
459.472	862.84
459.845	877.99
460.218	886.35
460.591	851.55
460.964	903.07
461.337	917.98
461.71	899.68
462.083	910.98
462.456	895.16
462.829	917.76
463.201	949.62
463.574	917.98
463.947	919.79
464.32	948.04
464.692	934.48
465.065	955.27
465.438	951.88
465.81	962.05
466.183	975.16
466.555	969.06
466.928	971.77
467.3	995.5
467.672	1002.95
468.045	994.37
468.417	1011.77
468.789	992.78
469.161	1022.84
469.534	1024.42
469.906	1035.95
470.278	1026
470.65	1063.52
471.022	1090.41
471.394	1105.1
471.766	1107.81
472.138	1068.94
472.51	1121.82
472.882	1136.74
473.253	1136.74
473.625	1165.66
473.997	1147.81
474.369	1135.61
474.74	1176.73
475.112	1210.86
475.484	1196.62
475.855	1224.19
476.227	1220.58
476.598	1249.05
476.97	1258.31
477.341	1254.02
477.713	1295.15
478.084	1305.32
478.455	1297.41
478.827	1300.35
479.198	1331.53
479.569	1310.97
479.94	1348.93
480.311	1402.94
480.682	1400.91
481.053	1433.9
481.424	1420.8
481.795	1454.69
482.166	1455.82
482.537	1492.88
482.908	1497.4
483.279	1536.73
483.65	1548.25
484.021	1558.19
484.391	1553.9
484.762	1566.78
485.133	1593.22
485.503	1615.14
485.874	1638.64
486.244	1646.33
486.615	1686.1
486.985	1707.57
487.356	1734.01
487.726	1741.69
488.097	1731.97
488.467	1749.37
488.837	1813.55
489.207	1819.88
489.578	1825.98
489.948	1826.21
490.318	1896.49
490.688	1879.31
491.058	1888.35
491.428	1923.38
491.798	1944.4
492.168	1964.74
492.538	1945.98
492.908	2016.94
493.278	2006.77
493.648	2020.78
494.017	2027.33
494.387	2062.81
494.757	2054.45
495.126	2079.99
495.496	2083.38
495.866	2105.07
496.235	2118.18
496.605	2143.04
496.974	2172.41
497.344	2155.47
497.713	2169.02
498.082	2186.43
498.452	2213.32
498.821	2247.89
499.19	2259.42
499.559	2222.81
499.928	2234.33
500.298	2285.41
500.667	2304.39
501.036	2285.63
501.405	2319.76
501.774	2376.03
502.143	2322.02
502.512	2380.32
502.88	2386.42
503.249	2388.68
503.618	2390.04
503.987	2419.64
504.356	2423.03
504.724	2439.53
505.093	2496.93
505.462	2499.86
505.83	2471.84
506.199	2502.8
506.567	2552.97
506.936	2530.15
507.304	2559.98
507.672	2585.06
508.041	2571.05
508.409	2596.58
508.777	2649.46
509.145	2639.07
509.514	2622.12
509.882	2630.03
510.25	2663.02
510.618	2674.1
510.986	2675
511.354	2705.51
511.722	2754.32
512.09	2745.28
512.458	2756.81
512.826	2790.03
513.193	2800.65
513.561	2809.23
513.929	2799.97
514.297	2858.95
514.664	2858.72
515.032	2878.38
515.4	2896.69
515.767	2912.73
516.135	2871.38
516.502	2882.9
516.869	2966.74
517.237	2978.95
517.604	2959.51
517.972	2991.83
518.339	2977.82
518.706	3044.26
519.073	3081.54
519.44	3088.55
519.808	3136.68
520.175	3093.29
520.542	3143.01
520.909	3179.85
521.276	3138.49
521.643	3221.43
522.009	3237.25
522.376	3220.97
522.743	3215.78
523.11	3287.64
523.477	3308.88
523.843	3355.89
524.21	3336.45
524.577	3376.68
524.943	3413.74
525.31	3424.36
525.676	3448.99
526.043	3463
526.409	3481.98
526.776	3514.98
527.142	3518.59
527.508	3549.1
527.874	3532.15
528.241	3560.85
528.607	3558.82
528.973	3584.58
529.339	3609.21
529.705	3675.43
530.071	3696.44
530.437	3723.79
530.803	3703
531.169	3713.39
531.535	3743.22
531.901	3791.81
532.267	3811.24
532.632	3794.07
532.998	3800.39
533.364	3800.17
533.73	3848.3
534.095	3852.37
534.461	3862.54
534.826	3896.21
535.192	3926.49
535.557	3947.51
535.923	3914.74
536.288	3921.75
536.653	3947.51
537.019	3978.02
537.384	4010.11
537.749	4037.68
538.114	4023.89
538.479	3956.1
538.845	4074.29
539.21	4035.19
539.575	4065.7
539.94	4060.05
540.305	4078.13
540.67	4112.02
541.034	4118.58
541.399	4127.39
541.764	4124
542.129	4100.5
542.494	4204.45
542.858	4152.93
543.223	4201.29
543.587	4236.99
543.952	4159.26
544.316	4264.34
544.681	4213.94
545.045	4245.58
545.41	4258.91
545.774	4260.27
546.138	4293.26
546.503	4306.37
546.867	4339.59
547.231	4357.22
547.595	4380.04
547.959	4390.89
548.324	4373.03
548.688	4365.13
549.052	4365.13
549.416	4427.27
549.779	4405.35
550.143	4457.1
550.507	4483.09
550.871	4481.51
551.235	4514.95
551.599	4556.53
551.962	4559.7
552.326	4560.37
552.689	4542.07
553.053	4550.21
553.417	4547.49
553.78	4661.61
554.143	4613.25
554.507	4605.8
554.87	4623.65
555.234	4664.33
555.597	4689.41
555.96	4689.64
556.323	4716.08
556.686	4700.26
557.05	4782.52
557.413	4782.97
557.776	4748.17
558.139	4758.34
558.502	4808.5
558.865	4870.42
559.228	4888.28
559.59	4860.93
559.953	4891.44
560.316	4944.09
560.679	4939.8
561.041	4950.19
561.404	4981.61
561.767	5019.57
562.129	5026.8
562.492	5041.49
562.854	5042.4
563.217	5086.24
563.579	5094.82
563.941	5165.78
564.304	5155.61
564.666	5209.62
565.028	5197.65
565.39	5206.91
565.753	5248.49
566.115	5262.73
566.477	5261.37
566.839	5256.85
567.201	5292.56
567.563	5317.19
567.925	5331.43
568.287	5391.09
568.648	5382.5
569.01	5422.95
569.372	5461.37
569.734	5471.99
570.095	5508.6
570.457	5511.76
570.819	5503.63
571.18	5493.23
571.542	5529.61
571.903	5566.22
572.265	5577.3
572.626	5613.23
572.987	5598.09
573.349	5556.96
573.71	5657.07
574.071	5602.38
574.432	5628.82
574.794	5697.97
575.155	5680.12
575.516	5688.48
575.877	5667.92
576.238	5713.11
576.599	5729.61
576.96	5725.99
577.32	5745.88
577.681	5760.57
578.042	5764.86
578.403	5758.08
578.763	5826.56
579.124	5805.77
579.485	5835.82
579.845	5831.3
580.206	5831.53
580.566	5808.48
580.927	5833.56
581.287	5855.03
581.648	5841.02
582.008	5841.24
582.368	5798.53
582.728	5848.02
583.089	5831.53
583.449	5902.49
583.809	5912.2
584.169	5865.88
584.529	5796.73
584.889	5871.07
585.249	5804.64
585.609	5855.26
585.969	5852.77
586.329	5873.56
586.688	5886.67
587.048	5862.49
587.408	5920.11
587.768	5879.21
588.127	5892.09
588.487	5864.29
588.846	5916.05
589.206	5844.18
589.565	5823.84
589.925	5798.99
590.284	5919.21
590.643	5889.61
591.003	5852.09
591.362	5904.75
591.721	5876.72
592.08	5893.9
592.44	5911.98
592.799	5905.2
593.158	5861.58
593.517	5926.21
593.876	5926.21
594.235	5839.44
594.593	5909.94
594.952	5935.71
595.311	5890.28
595.67	5817.29
596.029	5900.9
596.387	5939.32
596.746	5984.52
597.104	5899.77
597.463	5878.31
597.822	5902.03
598.18	5945.42
598.538	5928.02
598.897	5960.11
599.255	5916.95
599.613	5967.34
599.972	5902.71
600.33	5929.6
600.688	5914.69
601.046	5909.49
601.404	5953.78
601.762	5924.41
602.12	5982.03
602.478	5989.72
602.836	5940.9
603.194	5935.25
603.552	5976.61
603.91	5949.04
604.268	5964.18
604.625	5875.82
604.983	5926.21
605.341	5923.28
605.698	5937.97
606.056	5967.12
606.413	5956.72
606.771	6014.35
607.128	6028.58
607.485	5967.12
607.843	5940
608.2	6013.67
608.557	6059.09
608.914	5983.39
609.272	6064.97
609.629	5975.48
609.986	6001.24
610.343	5965.54
610.7	6017.06
611.057	6036.95
611.414	6035.36
611.771	6051.63
612.127	6070.17
612.484	6043.95
612.841	6040.11
613.198	5994.01
613.554	6006.66
613.911	6074.91
614.267	6090.5
614.624	6033.1
614.98	6010.05
615.337	6055.25
615.693	6076.27
616.05	6031.3
616.406	6144.06
616.762	6090.05
617.118	6116.94
617.475	6051.18
617.831	6077.62
618.187	6092.76
618.543	6070.17
618.899	6108.58
619.255	6100.67
619.611	6072.2
619.967	6112.42
620.323	6161.91
620.678	6086.21
621.034	6083.5
621.39	6060
621.746	6036.72
622.101	6178.41
622.457	6141.35
622.812	6129.6
623.168	6135.25
623.523	6087.11
623.879	6113.1
624.234	6040.56
624.589	6102.48
624.945	6126.89
625.3	6109.71
625.655	6068.58
626.01	6026.1
626.365	6054.35
626.72	6056.38
627.075	6020.68
627.43	6068.58
627.785	6027
628.14	6038.3
628.495	6032.65
628.85	6041.69
629.205	6019.32
629.559	6014.8
629.914	6062.03
630.269	6052.54
630.623	5949.72
630.978	6018.87
631.332	6000.56
631.687	6021.13
632.041	5914.01
632.396	5947.23
632.75	5951.07
633.104	5911.98
633.459	5942.71
633.813	5935.03
634.167	5917.17
634.521	5964.41
634.875	5941.81
635.229	5944.74
635.583	5883.5
635.937	5915.59
636.291	5867.01
636.645	5838.08
636.999	5860
637.352	5898.19
637.706	5838.76
638.06	5840.79
638.413	5861.81
638.767	5806.9
639.121	5807.12
639.474	5761.47
639.828	5794.92
640.181	5793.56
640.534	5789.49
640.888	5746.33
641.241	5720.8
641.594	5754.02
641.947	5740
642.301	5742.94
642.654	5713.56
643.007	5716.28
643.36	5730.29
643.713	5694.58
644.066	5704.98
644.419	5716.05
644.771	5623.62
645.124	5547.69
645.477	5515.83
645.83	5515.38
646.182	5526.68
646.535	5489.62
646.888	5532.55
647.24	5478.99
647.593	5533.91
647.945	5504.76
648.298	5504.76
648.65	5487.36
649.002	5481.71
649.355	5496.85
649.707	5438.77
650.059	5455.49
650.411	5477.41
650.763	5484.19
651.115	5528.71
651.467	5560.8
651.819	5550.86
652.171	5516.73
652.523	5499.33
652.875	5529.16
653.227	5460.01
653.578	5528.03
653.93	5507.69
654.282	5463.18
654.633	5461.82
654.985	5440.8
655.337	5444.64
655.688	5427.24
656.039	5468.6
656.391	5384.08
656.742	5450.97
657.094	5455.27
657.445	5507.24
657.796	5438.32
658.147	5431.54
658.498	5392.44
658.849	5394.02
659.2	5402.84
659.551	5375.72
659.902	5362.16
660.253	5406.23
660.604	5384.08
660.955	5322.84
661.306	5420.01
661.656	5396.96
662.007	5378.21
662.358	5349.05
662.708	5353.8
663.059	5363.29
663.409	5338.66
663.76	5370.75
664.11	5272.9
664.461	5315.61
664.811	5362.16
665.161	5370.3
665.511	5309.06
665.862	5303.41
666.212	5336.17
666.562	5324.42
666.912	5291.65
667.262	5246.23
667.612	5273.58
667.962	5302.5
668.312	5272.22
668.662	5295.5
669.011	5278.1
669.361	5231.54
669.711	5276.29
670.06	5231.32
670.41	5222.96
670.76	5275.16
671.109	5182.05
671.459	5247.81
671.808	5239.9
672.157	5206.46
672.507	5197.87
672.856	5170.98
673.205	5181.38
673.554	5198.78
673.904	5207.59
674.253	5204.65
674.602	5189.28
674.951	5146.35
675.3	5081.49
675.649	5171.66
675.998	5173.24
676.346	5157.87
676.695	5168.95
677.044	5152.22
677.393	5165.1
677.741	5122.62
678.09	5158.55
678.438	5120.36
678.787	5133.69
679.135	5127.82
679.484	5136.4
679.832	5142.73
680.181	5112.68
680.529	5120.81
680.877	5087.37
681.225	5109.29
681.573	5109.74
681.922	5081.49
682.27	5064.54
682.618	5060.7
682.966	5035.39
683.314	5049.18
683.661	5042.62
684.009	5001.27
684.357	4978.67
684.705	4951.78
685.053	5029.29
685.4	4996.97
685.748	4939.35
686.095	4957.88
686.443	4954.04
686.79	4984.54
687.138	4945
687.485	4902.74
687.832	4905.22
688.18	4915.62
688.527	4903.87
688.874	4884.43
689.221	4916.52
689.568	4864.32
689.915	4902.29
690.262	4855.51
690.609	4833.14
690.956	4799.69
691.303	4808.73
691.65	4787.71
691.997	4792.01
692.344	4726.92
692.69	4762.63
693.037	4745.23
693.383	4738.45
693.73	4709.3
694.077	4683.99
694.423	4722.4
694.769	4666.13
695.116	4678.79
695.462	4672.46
695.808	4662.74
696.155	4696.87
696.501	4626.14
696.847	4613.93
697.193	4601.96
697.539	4590.2
697.885	4567.38
698.231	4549.3
698.577	4558.79
698.923	4570.77
699.269	4548.62
699.614	4507.72
699.96	4538.91
700.306	4544.56
700.651	4497.1
700.997	4522.86
701.342	4453.48
701.688	4503.43
702.033	4441.51
702.379	4474.05
702.724	4418.46
703.069	4410.32
703.415	4383.2
703.76	4345.01
704.105	4373.71
704.45	4370.77
704.795	4363.09
705.14	4315.41
705.485	4348.63
705.83	4328.06
706.175	4322.64
706.52	4313.15
706.865	4304.56
707.209	4244.68
707.554	4280.16
707.899	4284
708.243	4249.87
708.588	4242.19
708.932	4241.29
709.277	4258.24
709.621	4195.41
709.966	4181.63
710.31	4210.33
710.654	4180.05
710.998	4175.98
711.342	4163.55
711.687	4131.23
712.031	4157.22
712.375	4137.11
712.719	4108.63
713.063	4101.86
713.407	4133.72
713.75	4109.54
714.094	4114.28
714.438	4083.78
714.782	4080.84
715.125	4072.93
715.469	4093.95
715.812	4078.58
716.156	4086.49
716.499	4038.35
716.843	4054.63
717.186	4027.96
717.53	4058.01
717.873	4017.79
718.216	4012.37
718.559	4002.2
718.902	3966.94
719.246	3974.85
719.589	3966.49
719.932	3939.83
720.275	3949.09
720.617	3912.71
720.96	3935.31
721.303	3913.84
721.646	3950.67
721.989	3923.1
722.331	3931.24
722.674	3920.39
723.016	3885.14
723.359	3936.89
723.701	3886.27
724.044	3909.77
724.386	3859.15
724.729	3883.78
725.071	3826.38
725.413	3822.77
725.755	3872.03
726.097	3800.62
726.439	3826.38
726.782	3813.95
727.124	3813.5
727.465	3817.12
727.807	3780.51
728.149	3825.25
728.491	3781.86
728.833	3763.79
729.175	3790.9
729.516	3762.43
729.858	3750.45
730.199	3809.43
730.541	3768.3
730.882	3751.36
731.224	3751.36
731.565	3740.06
731.906	3747.06
732.248	3740.51
732.589	3711.13
732.93	3763.11
733.271	3712.71
733.612	3715.88
733.953	3730.79
734.294	3695.31
734.635	3679.04
734.976	3693.5
735.317	3654.86
735.658	3674.75
735.999	3705.48
736.339	3683.79
736.68	3678.36
737.021	3678.36
737.361	3681.75
737.702	3646.73
738.042	3600.17
738.383	3650.34
738.723	3638.36
739.063	3602.21
739.404	3608.99
739.744	3604.24
740.084	3616.9
740.424	3631.59
740.764	3621.19
741.104	3616.22
741.444	3572.38
741.784	3585.48
742.124	3571.47
742.464	3566.05
742.804	3586.84
743.143	3557.46
743.483	3551.59
743.823	3518.82
744.162	3493.51
744.502	3570.8
744.841	3538.93
745.181	3565.82
745.52	3519.27
745.86	3553.85
746.199	3487.86
746.538	3505.03
746.877	3526.73
747.216	3482.44
747.556	3473.85
747.895	3480.85
748.234	3486.5
748.573	3486.5
748.911	3456
749.25	3458.26
749.589	3461.87
749.928	3444.7
750.267	3456.9
750.605	3450.12
750.944	3456
751.283	3411.03
751.621	3423.23
751.96	3416.45
752.298	3434.98
752.636	3426.62
752.975	3354.76
753.313	3376
753.651	3396.11
753.989	3367.64
754.327	3376.9
754.666	3361.54
755.004	3371.03
755.342	3340.97
755.679	3321.76
756.017	3295.1
756.355	3352.5
756.693	3331.93
757.031	3326.96
757.368	3287.41
757.706	3290.13
758.044	3301.88
758.381	3288.77
758.719	3307.98
759.056	3313.4
759.394	3293.97
759.731	3270.69
760.068	3270.46
760.405	3246.06
760.743	3199.96
761.08	3238.38
761.417	3177.36
761.754	3204.7
762.091	3185.5
762.428	3153.41
762.765	3190.47
763.102	3174.42
763.438	3124.25
763.775	3153.41
764.112	3166.06
764.449	3154.76
764.785	3137.81
765.122	3088.32
765.458	3085.61
765.795	3080.41
766.131	3081.54
766.467	3068.89
766.804	3057.14
767.14	3043.58
767.476	3043.8
767.812	3028.89
768.148	3041.77
768.485	3015.33
768.821	3012.62
769.157	3002
769.492	2989.57
769.828	3052.39
770.164	2981.66
770.5	2967.2
770.836	2908.44
771.171	2943.47
771.507	2958.16
771.842	2934.2
772.178	2917.93
