Data from foam1_polythene_foam_FLMS001491_00015.txt Node
Date: Wed Feb 08 10:54:27 GMT 2017
User: dcchb
Spectrometer: FLMS00149
Trigger mode: 0
Integration Time (sec): 2.000000E-2
Scans to average: 10
Electric dark correction enabled: true
Nonlinearity correction enabled: false
Boxcar width: 0
XAxis mode: Wavelengths
Number of Pixels in Spectrum: 2048
>>>>>Begin Spectral Data<<<<<
341.393	-13.22
341.776	-13.22
342.16	-13.22
342.543	-53.22
342.927	-54.12
343.31	-79.43
343.693	-76.72
344.077	-61.35
344.46	-58.42
344.843	-54.35
345.226	-30.17
345.61	-30.39
345.993	-10.28
346.376	-1.47
346.759	5.76
347.142	18.64
347.525	63.16
347.908	72.65
348.291	62.26
348.674	74.01
349.057	106.1
349.44	125.53
349.823	149.26
350.206	145.42
350.588	168.24
350.971	203.72
351.354	206.66
351.737	229.26
352.119	244.63
352.502	249.6
352.884	248.47
353.267	257.96
353.65	287.11
354.032	276.26
354.414	315.36
354.797	287.79
355.179	296.6
355.562	289.82
355.944	291.63
356.326	311.97
356.709	304.06
357.091	311.97
357.473	331.4
357.855	350.39
358.238	319.88
358.62	338.18
359.002	322.14
359.384	319.88
359.766	314
360.148	325.53
360.53	324.85
360.912	294.79
361.294	304.96
361.676	304.96
362.057	320.56
362.439	312.2
362.821	308.81
363.203	296.83
363.584	297.96
363.966	321.69
364.348	315.36
364.729	285.3
365.111	310.84
365.493	294.79
365.874	306.09
366.256	285.53
366.637	305.42
367.019	315.13
367.4	309.48
367.781	307
368.163	286.89
368.544	298.64
368.925	290.27
369.306	323.49
369.688	297.28
370.069	321.46
370.45	288.92
370.831	301.12
371.212	302.7
371.593	310.84
371.974	295.02
372.355	279.2
372.736	279.88
373.117	313.33
373.498	303.83
373.879	309.48
374.26	283.95
374.641	281.69
375.021	292.76
375.402	305.64
375.783	304.74
376.163	307.22
376.544	296.83
376.925	307.9
377.305	307.45
377.686	307.9
378.066	307.45
378.447	316.49
378.827	321.69
379.208	328.92
379.588	313.1
379.968	309.03
380.349	307.22
380.729	325.08
381.109	317.62
381.489	338.86
381.87	318.52
382.25	309.48
382.63	321.91
383.01	328.24
383.39	329.14
383.77	331.86
384.15	317.84
384.53	323.72
384.91	324.4
385.29	307.45
385.67	339.31
386.049	328.01
386.429	333.21
386.809	333.21
387.189	340.22
387.568	353.32
387.948	333.44
388.328	335.92
388.707	353.55
389.087	326.21
389.466	354.45
389.846	343.61
390.225	329.37
390.605	342.25
390.984	379.99
391.363	366.88
391.743	372.76
392.122	343.15
392.501	355.36
392.881	360.78
393.26	341.12
393.639	358.97
394.018	336.6
394.397	348.13
394.776	364.85
395.155	369.14
395.534	359.43
395.913	338.86
396.292	350.61
396.671	367.33
397.05	354.68
397.429	370.72
397.808	375.7
398.186	373.89
398.565	385.19
398.944	378.41
399.323	381.35
399.701	385.64
400.08	390.39
400.458	377.28
400.837	384.06
401.215	381.8
401.594	385.41
401.972	414.57
402.351	391.74
402.729	372.76
403.107	380.22
403.486	372.53
403.864	381.12
404.242	384.96
404.62	410.5
404.999	382.25
405.377	396.49
405.755	424.73
406.133	380.44
406.511	415.7
406.889	410.5
407.267	389.71
407.645	416.6
408.023	410.95
408.401	392.65
408.779	399.65
409.156	412.53
409.534	438.07
409.912	434
410.29	424.73
410.667	433.1
411.045	422.7
411.422	434.9
411.8	389.48
412.178	450.04
412.555	434.23
412.933	431.29
413.31	443.27
413.687	444.62
414.065	424.73
414.442	448.46
414.819	448.69
415.197	443.27
415.574	459.99
415.951	463.83
416.328	450.72
416.705	469.93
417.082	457.73
417.46	459.08
417.837	456.37
418.214	472.42
418.591	470.16
418.967	464.73
419.344	452.08
419.721	455.92
420.098	457.73
420.475	458.18
420.852	494.79
421.228	482.59
421.605	487.78
421.982	471.06
422.358	487.11
422.735	492.08
423.111	493.21
423.488	483.26
423.864	498.86
424.241	511.51
424.617	499.31
424.994	503.15
425.37	500.66
425.746	513.32
426.123	519.87
426.499	504.73
426.875	507.9
427.251	529.14
427.627	537.05
428.003	531.85
428.379	529.14
428.756	523.26
429.132	534.34
429.507	532.08
429.883	543.6
430.259	552.19
430.635	561
431.011	561.68
431.387	556.03
431.763	584.73
432.138	559.19
432.514	540.44
432.89	594.67
433.265	576.6
433.641	584.5
434.016	592.19
434.392	592.19
434.767	605.75
435.143	610.72
435.518	578.85
435.894	616.82
436.269	609.81
436.644	602.13
437.02	638.51
437.395	639.42
437.77	624.5
438.145	650.94
438.52	646.2
438.895	656.37
439.271	649.59
439.646	663.82
440.021	666.08
440.395	671.51
440.77	672.41
441.145	668.12
441.52	692.3
441.895	690.04
442.27	674.67
442.645	685.52
443.019	705.63
443.394	706.99
443.769	699.53
444.143	727.55
444.518	721.9
444.892	702.69
445.267	736.82
445.641	706.76
446.016	709.02
446.39	728
446.764	740.88
447.139	732.52
447.513	755.35
447.887	739.53
448.262	769.13
448.636	782.24
449.01	802.35
449.384	746.99
449.758	758.96
450.132	787.44
450.506	807.1
450.88	804.16
451.254	796.25
451.628	805.29
452.002	790.6
452.376	807.1
452.75	810.04
453.123	809.58
453.497	810.26
453.871	836.48
454.244	829.47
454.618	844.61
454.992	846.87
455.365	839.41
455.739	849.13
456.112	883.71
456.486	881.9
456.859	881.22
457.232	863.82
457.606	880.54
457.979	882.58
458.352	864.72
458.725	903.59
459.099	901.33
459.472	893.87
459.845	896.81
460.218	911.28
460.591	908.56
460.964	901.11
461.337	917.6
461.71	920.31
462.083	957.6
462.456	935.23
462.829	955.12
463.201	960.09
463.574	954.21
463.947	955.57
464.32	953.99
464.692	963.25
465.065	978.62
465.438	955.57
465.81	999.86
466.183	975.45
466.555	1006.19
466.928	1015.68
467.3	1022.68
467.672	1043.02
468.045	1063.59
468.417	1046.41
468.789	1035.79
469.161	1050.71
469.534	1069.01
469.906	1106.98
470.278	1071.72
470.65	1100.65
471.022	1116.02
471.394	1149.69
471.766	1102.46
472.138	1138.16
472.51	1151.04
472.882	1168.9
473.253	1150.82
473.625	1163.25
473.997	1169.8
474.369	1150.37
474.74	1196.47
475.112	1216.8
475.484	1230.14
475.855	1255.9
476.227	1219.97
476.598	1291.6
476.97	1250.25
477.341	1285.28
477.713	1308.55
478.084	1330.02
478.455	1355.33
478.827	1386.29
479.198	1380.87
479.569	1389.23
479.94	1407.53
480.311	1389.45
480.682	1454.54
481.053	1457.25
481.424	1467.19
481.795	1472.62
482.166	1522.33
482.537	1522.78
482.908	1532.05
483.279	1586.51
483.65	1577.25
484.021	1606.17
484.391	1607.3
484.762	1642.56
485.133	1631.48
485.503	1626.06
485.874	1698.83
486.244	1701.09
486.615	1726.17
486.985	1747.41
487.356	1743.57
487.726	1819.73
488.097	1828.31
488.467	1836
488.837	1852.04
489.207	1848.65
489.578	1872.15
489.948	1901.53
490.318	1915.99
490.688	1925.49
491.058	1940.17
491.428	1984.69
491.798	1993.51
492.168	2022.21
492.538	2021.3
492.908	2031.92
493.278	2062.43
493.648	2099.72
494.017	2114.63
494.387	2114.86
494.757	2115.54
495.126	2119.61
495.496	2148.76
495.866	2146.05
496.235	2209.77
496.605	2188.76
496.974	2223.56
497.344	2263.56
497.713	2272.6
498.082	2241.18
498.452	2281.63
498.821	2254.07
499.19	2295.42
499.559	2335.42
499.928	2344.68
500.298	2348.75
500.667	2344.91
501.036	2332.71
501.405	2367.51
501.774	2378.58
502.143	2362.99
502.512	2405.02
502.88	2438.92
503.249	2501.29
503.618	2448.86
503.987	2502.87
504.356	2449.09
504.724	2500.61
505.093	2512.36
505.462	2539.71
505.83	2559.37
506.199	2549.2
506.567	2551.46
506.936	2562.76
507.304	2615.19
507.672	2623.77
508.041	2634.39
508.409	2646.37
508.777	2710.55
509.145	2690.44
509.514	2679.59
509.882	2684.56
510.25	2668.07
510.618	2766.14
510.986	2756.42
511.354	2755.75
511.722	2784.22
512.09	2807.5
512.458	2841.39
512.826	2849.53
513.193	2866.48
513.561	2879.81
513.929	2860.6
514.297	2919.58
514.664	2964.55
515.032	2949.87
515.4	2971.33
515.767	3003.42
516.135	2980.6
516.502	2980.37
516.869	2988.06
517.237	3023.31
517.604	3021.73
517.972	3103.99
518.339	3102.18
518.706	3104.44
519.073	3126.81
519.44	3150.31
519.808	3171.1
520.175	3157.54
520.542	3198.45
520.909	3222.4
521.276	3235.06
521.643	3301.27
522.009	3353.92
522.376	3329.07
522.743	3331.78
523.11	3343.98
523.477	3400.48
523.843	3420.14
524.21	3439.12
524.577	3477.99
524.943	3482.96
525.31	3477.31
525.676	3577.65
526.043	3531.09
526.409	3557.31
526.776	3561.6
527.142	3596.18
527.508	3622.39
527.874	3696.06
528.241	3689.51
528.607	3709.62
528.973	3692.9
529.339	3694.71
529.705	3765.21
530.071	3742.84
530.437	3756.4
530.803	3812.22
531.169	3845.44
531.535	3857.64
531.901	3876.85
532.267	3856.96
532.632	3875.04
532.998	3903.74
533.364	3927.47
533.73	3918.43
534.095	3945.09
534.461	4023.51
534.826	4048.59
535.192	4067.8
535.557	4079.55
535.923	4067.58
536.288	4087.01
536.653	4117.97
537.019	4072.32
537.384	4153.45
537.749	4103.06
538.114	4163.39
538.479	4153
538.845	4184.86
539.21	4145.99
539.575	4225.99
539.94	4183.05
540.305	4217.63
540.67	4237.52
541.034	4239.78
541.399	4215.6
541.764	4262.15
542.129	4303.5
542.494	4363.61
542.858	4362.94
543.223	4363.61
543.587	4361.13
543.952	4373.78
544.316	4364.97
544.681	4362.94
545.045	4381.24
545.41	4443.39
545.774	4442.93
546.138	4475.7
546.503	4474.57
546.867	4503.95
547.231	4530.39
547.595	4510.05
547.959	4592.99
548.324	4554.34
548.688	4563.83
549.052	4587.34
549.416	4606.77
549.779	4613.1
550.143	4609.71
550.507	4673.66
550.871	4685.19
551.235	4696.03
551.599	4687.67
551.962	4719.08
552.326	4714.11
552.689	4712.31
553.053	4773.55
553.417	4781.68
553.78	4874.11
554.143	4831.62
554.507	4842.02
554.87	4856.03
555.234	4917.95
555.597	4896.48
555.96	4938.29
556.323	4942.81
556.686	4988.46
557.05	4981.9
557.413	5058.06
557.776	5011.96
558.139	5083.6
558.502	5117.27
558.865	5063.71
559.228	5119.98
559.59	5125.85
559.953	5138.96
560.316	5197.26
560.679	5205.63
561.041	5209.24
561.404	5315.91
561.767	5358.16
562.129	5278.39
562.492	5348.45
562.854	5384.83
563.217	5361.33
563.579	5415.34
563.941	5408.33
564.304	5431.38
564.666	5466.41
565.028	5519.74
565.39	5502.79
565.753	5563.81
566.115	5553.87
566.477	5597.71
566.839	5606.07
567.201	5662.56
567.563	5650.13
567.925	5627.31
568.287	5764.03
568.648	5736.69
569.01	5749.34
569.372	5799.51
569.734	5823.91
570.095	5823.24
570.457	5815.1
570.819	5872.05
571.18	5836.12
571.542	5882.9
571.903	5901.88
572.265	5969.67
572.626	5973.29
572.987	5940.07
573.349	6021.65
573.71	6035.89
574.071	6053.06
574.432	6065.49
574.794	6081.08
575.155	6136.67
575.516	6084.02
575.877	6080.86
576.238	6077.47
576.599	6141.19
576.96	6186.62
577.32	6145.71
577.681	6166.73
578.042	6176.9
578.403	6216.22
578.763	6173.28
579.124	6161.98
579.485	6227.29
579.845	6234.53
580.206	6278.14
580.566	6276.56
580.927	6272.72
581.287	6272.49
581.648	6249.21
582.008	6279.27
582.368	6273.39
582.728	6266.16
583.089	6267.52
583.449	6240.4
583.809	6272.26
584.169	6314.07
584.529	6316.11
584.889	6371.02
585.249	6306.84
585.609	6298.03
585.969	6319.27
586.329	6307.29
586.688	6396.55
587.048	6323.11
587.408	6290.8
587.768	6307.52
588.127	6338.48
588.487	6309.1
588.846	6342.32
589.206	6317.91
589.565	6346.39
589.925	6416.44
590.284	6342.55
590.643	6348.65
591.003	6378.25
591.362	6348.42
591.721	6339.61
592.08	6375.54
592.44	6369.89
592.799	6384.8
593.158	6376.89
593.517	6374.18
593.876	6390.23
594.235	6347.52
594.593	6357.91
594.952	6358.14
595.311	6321.08
595.67	6347.97
596.029	6399.49
596.387	6430.45
596.746	6410.34
597.104	6446.72
597.463	6355.88
597.822	6398.14
598.18	6386.16
598.538	6400.4
598.897	6397.01
599.255	6359.72
599.613	6482.2
599.972	6401.3
600.33	6439.49
600.688	6416.22
601.046	6427.51
601.404	6456.67
601.762	6413.5
602.12	6403.11
602.478	6469.55
602.836	6449.66
603.194	6415.54
603.552	6449.21
603.91	6428.19
604.268	6485.37
604.625	6465.93
604.983	6405.59
605.341	6442.88
605.698	6485.82
606.056	6551.81
606.413	6493.73
606.771	6446.72
607.128	6527.62
607.485	6504.8
607.843	6467.51
608.2	6535.31
608.557	6526.5
608.914	6563.56
609.272	6564.46
609.629	6564.46
609.986	6579.83
610.343	6523.56
610.7	6596.1
611.057	6570.56
611.414	6512.48
611.771	6552.48
612.127	6590.45
612.484	6588.41
612.841	6610.11
613.198	6614.18
613.554	6597
613.911	6645.59
614.267	6666.38
614.624	6619.83
614.98	6604.01
615.337	6634.74
615.693	6621.41
616.05	6649.43
616.406	6683.78
616.762	6668.64
617.118	6631.13
617.475	6657.57
617.831	6664.34
618.187	6691.24
618.543	6677
618.899	6695.3
619.255	6671.35
619.611	6679.03
619.967	6738.01
620.323	6658.92
620.678	6679.94
621.034	6677.68
621.39	6666.15
621.746	6642.88
622.101	6731.91
622.457	6685.36
622.812	6695.53
623.168	6743.44
623.523	6703.44
623.879	6735.08
624.234	6637
624.589	6756.32
624.945	6699.37
625.3	6665.25
625.655	6676.77
626.01	6674.74
626.365	6672.93
626.72	6684.46
627.075	6655.31
627.43	6656.89
627.785	6675.87
628.14	6707.06
628.495	6671.58
628.85	6617.57
629.205	6624.12
629.559	6616.89
629.914	6572.14
630.269	6618.92
630.623	6573.27
630.978	6588.64
631.332	6609.66
631.687	6617.57
632.041	6619.83
632.396	6636.77
632.75	6587.96
633.104	6547.06
633.459	6529.66
633.813	6531.69
634.167	6508.87
634.521	6535.08
634.875	6551.81
635.229	6463.9
635.583	6474.52
635.937	6465.71
636.291	6467.51
636.645	6512.03
636.999	6409.66
637.352	6450.11
637.706	6504.57
638.06	6401.53
638.413	6497.34
638.767	6405.14
639.121	6454.41
639.474	6367.86
639.828	6408.08
640.181	6416.22
640.534	6409.21
640.888	6401.3
641.241	6381.87
641.594	6368.08
641.947	6361.3
642.301	6371.47
642.654	6322.88
643.007	6348.19
643.36	6348.42
643.713	6414.18
644.066	6399.94
644.419	6284.24
644.771	6203.34
645.124	6124.47
645.477	6069.78
645.83	6058.71
646.182	6061.2
646.535	6049.22
646.888	6101.2
647.24	6133.06
647.593	6190.46
647.945	6171.48
648.298	6088.77
648.65	6121.99
649.002	6107.07
649.355	6115.66
649.707	6041.76
650.059	6090.8
650.411	6135.54
650.763	6126.51
651.115	6159.5
651.467	6141.42
651.819	6155.66
652.171	6163.57
652.523	6077.02
652.875	6152.04
653.227	6076.56
653.578	6138.71
653.93	6129.67
654.282	6093.74
654.633	6059.16
654.985	6061.42
655.337	6139.39
655.688	6067.98
656.039	6065.94
656.391	6033.17
656.742	6039.05
657.094	6062.1
657.445	6013.29
657.796	6093.06
658.147	6037.02
658.498	6051.25
658.849	6025.27
659.2	6019.84
659.551	5989.33
659.902	6056
660.253	6053.97
660.604	6019.39
660.955	6003.34
661.306	6000.63
661.656	5996.57
662.007	6037.92
662.358	6001.76
662.708	5990.92
663.059	5986.85
663.409	5918.38
663.76	5983.23
664.11	6018.03
664.461	6022.55
664.811	5962.22
665.161	5992.27
665.511	5977.58
665.862	5977.13
666.212	5946.17
666.562	5906.85
666.912	5964.25
667.262	5928.54
667.612	5919.51
667.962	5925.61
668.312	5916.12
668.662	5936.91
669.011	5919.51
669.361	5899.84
669.711	5921.09
670.06	5928.77
670.41	5876.34
670.76	5903.23
671.109	5924.25
671.459	5924.93
671.808	5900.07
672.157	5905.27
672.507	5855.1
672.856	5880.64
673.205	5790.47
673.554	5870.69
673.904	5853.52
674.253	5865.5
674.602	5844.71
674.951	5736.91
675.3	5728.32
675.649	5809.45
675.998	5831.6
676.346	5831.6
676.695	5844.25
677.044	5786.63
677.393	5822.33
677.741	5855.55
678.09	5796.57
678.438	5771.49
678.787	5830.92
679.135	5776.01
679.484	5767.64
679.832	5767.64
680.181	5736.69
680.529	5764.48
680.877	5725.61
681.225	5677.48
681.573	5816.91
681.922	5727.42
682.27	5714.09
682.618	5728.78
682.966	5718.61
683.314	5691.71
683.661	5727.65
684.009	5628.21
684.357	5648.78
684.705	5616.91
685.053	5616.91
685.4	5644.26
685.748	5561.1
686.095	5571.27
686.443	5537.37
686.79	5592.51
687.138	5568.55
687.485	5570.14
687.832	5512.28
688.18	5611.72
688.527	5580.98
688.874	5570.59
689.221	5481.1
689.568	5533.98
689.915	5522.23
690.262	5497.82
690.609	5510.25
690.956	5428.9
691.303	5438.39
691.65	5459.86
691.997	5422.8
692.344	5392.51
692.69	5405.62
693.037	5345.06
693.383	5350.25
693.73	5349.12
694.077	5340.31
694.423	5336.24
694.769	5304.38
695.116	5333.98
695.462	5310.48
695.808	5269.35
696.155	5283.59
696.501	5227.09
696.847	5194.55
697.193	5223.03
697.539	5218.96
697.885	5181.9
698.231	5158.17
698.577	5200.65
698.923	5144.61
699.269	5130.15
699.614	5197.04
699.96	5118.85
700.306	5143.93
700.651	5082.01
700.997	5123.82
701.342	5084.73
701.688	5115.23
702.033	5003.82
702.379	5037.72
702.724	5021
703.069	5043.14
703.415	4983.26
703.76	4944.39
704.105	4966.99
704.45	4964.73
704.795	4944.62
705.14	4941.9
705.485	4929.25
705.83	4892.41
706.175	4889.7
706.52	4928.57
706.865	4972.64
707.209	4885.86
707.554	4863.26
707.899	4878.4
708.243	4883.37
708.588	4810.83
708.932	4806.77
709.277	4784.39
709.621	4792.53
709.966	4750.27
710.31	4764.96
710.654	4764.73
710.998	4763.6
711.342	4759.08
711.687	4726.09
712.031	4749.37
712.375	4736.49
712.719	4742.36
713.063	4723.83
713.407	4756.37
713.75	4724.73
714.094	4677.28
714.438	4693.55
714.782	4677.28
715.125	4602.25
715.469	4651.52
715.812	4608.13
716.156	4558.19
716.499	4575.59
716.843	4593.44
717.186	4549.37
717.53	4589.37
717.873	4595.7
718.216	4594.57
718.559	4571.52
718.902	4574.91
719.246	4562.03
719.589	4541.24
719.932	4536.94
720.275	4562.25
720.617	4538.98
720.96	4541.91
721.303	4496.27
721.646	4513.44
721.989	4465.08
722.331	4494.46
722.674	4446.55
723.016	4472.76
723.359	4423.5
723.701	4505.53
724.044	4442.93
724.386	4415.14
724.729	4447.23
725.071	4451.3
725.413	4467.34
725.755	4450.17
726.097	4422.82
726.439	4419.88
726.782	4404.52
727.124	4439.77
727.465	4372.88
727.807	4363.61
728.149	4370.62
728.491	4366.1
728.833	4375.59
729.175	4327.91
729.516	4310.96
729.858	4344.86
730.199	4307.34
730.541	4329.94
730.882	4306.89
731.224	4280.9
731.565	4355.25
731.906	4294.46
732.248	4310.96
732.589	4317.51
732.93	4310.28
733.271	4281.36
733.612	4334.46
733.953	4307.8
734.294	4270.28
734.635	4251.07
734.976	4250.4
735.317	4261.92
735.658	4259.44
735.999	4213.79
736.339	4188.7
736.68	4188.25
737.021	4203.39
737.361	4186.22
737.702	4197.74
738.042	4217.4
738.383	4133.79
738.723	4190.96
739.063	4196.61
739.404	4193.22
739.744	4169.72
740.084	4199.1
740.424	4146.9
740.764	4123.17
741.104	4182.38
741.444	4155.71
741.784	4144.41
742.124	4168.82
742.464	4106.22
742.804	4063.96
743.143	4102.38
743.483	4099.44
743.823	4056.05
744.162	4092.89
744.502	4145.99
744.841	4110.51
745.181	4127.91
745.52	4028.48
745.86	4070.51
746.199	4085.88
746.538	4043.4
746.877	4107.35
747.216	4059.67
747.556	4044.53
747.895	4074.36
748.234	4039.78
748.573	3981.93
748.911	4033.23
749.25	4021.7
749.589	3971.08
749.928	3950.07
750.267	3967.47
750.605	3989.61
750.944	3954.81
751.283	3957.3
751.621	3952.55
751.96	3950.74
752.298	3938.77
752.636	3978.99
752.975	3956.17
753.313	3953.68
753.651	3939.9
753.989	3937.64
754.327	3893.12
754.666	3901.03
755.004	3873.23
755.342	3904.64
755.679	3849.96
756.017	3823.06
756.355	3856.28
756.693	3855.83
757.031	3821.03
757.368	3790.75
757.706	3821.93
758.044	3791.2
758.381	3836.62
758.719	3801.37
759.056	3814.7
759.394	3827.81
759.731	3763.63
760.068	3760.24
760.405	3755.95
760.743	3736.96
761.08	3732.22
761.417	3735.16
761.754	3705.78
762.091	3713.01
762.428	3682.05
762.765	3634.59
763.102	3679.11
763.438	3691.77
763.775	3653.8
764.112	3634.37
764.449	3614.71
764.785	3643.86
765.122	3594.59
765.458	3571.54
765.795	3608.38
766.131	3579.91
766.467	3577.87
766.804	3562.28
767.14	3588.49
767.476	3549.62
767.812	3553.92
768.148	3561.6
768.485	3534.48
768.821	3545.33
769.157	3491.55
769.492	3503.98
769.828	3466.46
770.164	3442.51
770.5	3426.92
770.836	3423.98
771.171	3450.64
771.507	3368.61
