Data from foam_black_FLMS001491_00047.txt Node
Date: Wed Feb 08 10:43:57 GMT 2017
User: dcchb
Spectrometer: FLMS00149
Trigger mode: 0
Integration Time (sec): 2.000000E-2
Scans to average: 10
Electric dark correction enabled: true
Nonlinearity correction enabled: false
Boxcar width: 0
XAxis mode: Wavelengths
Number of Pixels in Spectrum: 2048
>>>>>Begin Spectral Data<<<<<
341.393	-24.6
341.776	-24.6
342.16	-24.6
342.543	-70.48
342.927	-61.44
343.31	-62.57
343.693	-91.04
344.077	-77.94
344.46	-39.74
344.843	-52.63
345.226	-51.95
345.61	-34.1
345.993	-10.37
346.376	-7.66
346.759	30.99
347.142	31.89
347.525	38.9
347.908	62.4
348.291	76.18
348.674	94.94
349.057	92.68
349.44	125.45
349.823	143.53
350.206	149.85
350.588	177.88
350.971	209.51
351.354	219.23
351.737	214.71
352.119	237.08
352.502	244.32
352.884	261.94
353.267	287.48
353.65	284.54
354.032	282.28
354.414	280.02
354.797	303.75
355.179	295.16
355.562	303.07
355.944	306.46
356.326	318.44
356.709	327.25
357.091	309.17
357.473	348.95
357.855	310.53
358.238	331.54
358.62	347.36
359.002	325.44
359.384	320.92
359.766	340.58
360.148	336.52
360.53	318.66
360.912	319.34
361.294	316.63
361.676	340.13
362.057	329.96
362.439	330.87
362.821	331.54
363.203	331.54
363.584	324.77
363.966	309.17
364.348	318.66
364.729	326.57
365.111	304.43
365.493	308.27
365.874	316.18
366.256	324.09
366.637	309.85
367.019	306.69
367.4	314.14
367.781	307.14
368.163	308.72
368.544	295.39
368.925	319.57
369.306	313.69
369.688	306.01
370.069	309.4
370.45	317.53
370.831	324.77
371.212	290.19
371.593	318.89
371.974	314.82
372.355	315.73
372.736	322.96
373.117	306.46
373.498	318.89
373.879	332.22
374.26	312.79
374.641	311.66
375.021	332
375.402	331.77
375.783	313.24
376.163	334.93
376.544	337.87
376.925	323.41
377.305	341.49
377.686	330.42
378.066	326.12
378.447	335.61
378.827	341.04
379.208	326.12
379.588	321.6
379.968	342.62
380.349	345.33
380.729	346.91
381.109	353.92
381.489	353.24
381.87	347.14
382.25	351.43
382.63	349.4
383.01	363.41
383.39	339.68
383.77	358.44
384.15	357.31
384.53	330.64
384.91	370.41
385.29	375.39
385.67	350.98
386.049	367.7
386.429	377.87
386.809	361.6
387.189	360.02
387.568	368.83
387.948	384.65
388.328	380.36
388.707	390.3
389.087	357.98
389.466	362.05
389.846	365.44
390.225	384.88
390.605	378.1
390.984	391.66
391.363	373.8
391.743	370.19
392.122	371.09
392.501	387.14
392.881	386.46
393.26	399.79
393.639	416.74
394.018	400.92
394.397	411.32
394.776	407.93
395.155	416.97
395.534	406.8
395.913	409.06
396.292	411.77
396.671	416.29
397.05	413.35
397.429	404.09
397.808	408.83
398.186	400.92
398.565	434.14
398.944	439.56
399.323	428.94
399.701	441.82
400.08	424.65
400.458	437.3
400.837	424.65
401.215	428.49
401.594	454.48
401.972	453.12
402.351	444.76
402.729	427.81
403.107	443.63
403.486	459.45
403.864	456.06
404.242	450.86
404.62	448.15
404.999	473.24
405.377	443.63
405.755	467.81
406.133	473.46
406.511	463.52
406.889	488.38
407.267	475.5
407.645	489.05
408.023	480.92
408.401	496.74
408.779	502.39
409.156	527.02
409.534	512.78
409.912	508.94
410.29	516.17
410.667	518.88
411.045	499.9
411.422	533.35
411.8	523.18
412.178	537.19
412.555	536.51
412.933	531.09
413.31	542.39
413.687	551.43
414.065	541.26
414.442	551.2
414.819	575.83
415.197	557.53
415.574	575.61
415.951	576.06
416.328	562.5
416.705	558.66
417.082	572.44
417.46	576.28
417.837	600.01
418.214	594.14
418.591	591.65
418.967	581.03
419.344	626
419.721	619.67
420.098	613.12
420.475	615.83
420.852	605.21
421.228	628.94
421.605	639.33
421.982	634.14
422.358	642.95
422.735	635.27
423.111	634.14
423.488	661.25
423.864	651.76
424.241	655.15
424.617	645.89
424.994	661.93
425.37	667.13
425.746	676.85
426.123	685.43
426.499	676.62
426.875	685.66
427.251	691.54
427.627	711.65
428.003	719.11
428.379	708.71
428.756	706.22
429.132	722.27
429.507	753.45
429.883	728.6
430.259	755.71
430.635	752.55
431.011	734.02
431.387	786.9
431.763	767.69
432.138	810.63
432.514	802.04
432.89	795.49
433.265	795.26
433.641	801.59
434.016	804.75
434.392	804.07
434.767	847.92
435.143	822.38
435.518	826.45
435.894	838.2
436.269	867.35
436.644	882.26
437.02	875.49
437.395	895.82
437.77	896.28
438.145	898.31
438.52	880.91
438.895	921.59
439.271	887.24
439.646	914.35
440.021	947.57
440.395	924.07
440.77	909.61
441.145	914.13
441.52	936.5
441.895	978.53
442.27	943.51
442.645	945.31
443.019	967.91
443.394	995.71
443.769	976.05
444.143	973.79
444.518	1000.91
444.892	986.89
445.267	986.44
445.641	1004.3
446.016	989.38
446.39	1019.44
446.764	994.35
447.139	1019.66
447.513	1038.87
447.887	1027.35
448.262	1026.67
448.636	1030.28
449.01	1041.13
449.384	1049.04
449.758	1047.46
450.132	1078.19
450.506	1075.71
450.88	1097.63
451.254	1075.03
451.628	1070.96
452.002	1132.2
452.376	1107.8
452.75	1130.62
453.123	1132.2
453.497	1131.3
453.871	1168.59
454.244	1167.23
454.618	1189.15
454.992	1197.74
455.365	1207.68
455.739	1202.71
456.112	1259.66
456.486	1263.95
456.859	1233.44
457.232	1239.09
457.606	1263.5
457.979	1284.51
458.352	1342.82
458.725	1309.37
459.099	1316.6
459.472	1327
459.845	1329.03
460.218	1374.68
460.591	1361.57
460.964	1378.52
461.337	1405.64
461.71	1422.36
462.083	1407
462.456	1447.45
462.829	1442.7
463.201	1452.42
463.574	1457.39
463.947	1499.65
464.32	1521.8
464.692	1504.85
465.065	1518.18
465.438	1556.37
465.81	1563.38
466.183	1578.74
466.555	1589.82
466.928	1626.43
467.3	1599.53
467.672	1620.78
468.045	1663.94
468.417	1655.8
468.789	1680.21
469.161	1705.52
469.534	1726.31
469.906	1735.8
470.278	1786.2
470.65	1835.23
471.022	1813.77
471.394	1841.11
471.766	1864.84
472.138	1866.65
472.51	1938.28
472.882	1937.15
473.253	1983.25
473.625	1970.37
473.997	2034.55
474.369	2042.46
474.74	2039.75
475.112	2119.97
475.484	2103.48
475.855	2194.55
476.227	2165.85
476.598	2201.33
476.97	2232.06
477.341	2287.43
477.713	2315.9
478.084	2320.87
478.455	2378.5
478.827	2358.38
479.198	2441.77
479.569	2476.12
479.94	2494.2
480.311	2542.79
480.682	2568.55
481.053	2625.5
481.424	2680.18
481.795	2662.11
482.166	2755.44
482.537	2769.67
482.908	2816.9
483.279	2848.77
483.65	2896.68
484.021	2943
484.391	2966.05
484.762	2973.74
485.133	3068.42
485.503	3095.99
485.874	3121.98
486.244	3134.18
486.615	3228.19
486.985	3241.98
487.356	3265.71
487.726	3315.65
488.097	3408.07
488.467	3389.09
488.837	3434.29
489.207	3423.44
489.578	3525.36
489.948	3552.93
490.318	3608.29
490.688	3629.31
491.058	3639.48
491.428	3679.71
491.798	3737.78
492.168	3768.97
492.538	3788.63
492.908	3860.94
493.278	3908.85
493.648	3933.71
494.017	3930.77
494.387	4011
494.757	4056.64
495.126	4062.97
495.496	4069.98
495.866	4072.92
496.235	4182.29
496.605	4204.21
496.974	4243.31
497.344	4289.63
497.713	4267.26
498.082	4314.27
498.452	4374.6
498.821	4355.17
499.19	4435.84
499.559	4444.66
499.928	4456.86
500.298	4493.24
500.667	4547.25
501.036	4547.48
501.405	4566.46
501.774	4600.59
502.143	4656.85
502.512	4693.24
502.88	4691.43
503.249	4721.94
503.618	4744.99
503.987	4784.08
504.356	4751.09
504.724	4800.35
505.093	4850.07
505.462	4889.62
505.83	4900.92
506.199	4916.51
506.567	4996.96
506.936	4978.2
507.304	4999.67
507.672	5048.48
508.041	5030.4
508.409	5135.26
508.777	5112.21
509.145	5204.19
509.514	5212.09
509.882	5268.14
510.25	5255.94
510.618	5310.4
510.986	5341.36
511.354	5362.6
511.722	5417.51
512.09	5440.34
512.458	5489.38
512.826	5548.13
513.193	5592.2
513.561	5589.71
513.929	5702.25
514.297	5728.69
514.664	5730.27
515.032	5764.85
515.4	5833.55
515.767	5878.74
516.135	5891.17
516.502	5871.06
516.869	6004.84
517.237	6008.23
517.604	6013.88
517.972	6090.72
518.339	6177.27
518.706	6155.12
519.073	6196.93
519.44	6235.8
519.808	6285.96
520.175	6303.14
520.542	6361.67
520.909	6385.4
521.276	6398.05
521.643	6512.4
522.009	6551.72
522.376	6598.27
522.743	6600.08
523.11	6667.2
523.477	6707.65
523.843	6818.61
524.21	6861.54
524.577	6928.21
524.943	6962.56
525.31	7020.86
525.676	6989.22
526.043	7073.29
526.409	7081.88
526.776	7241.65
527.142	7303.79
527.508	7326.16
527.874	7334.75
528.241	7379.72
528.607	7396.67
528.973	7457.91
529.339	7472.37
529.705	7525.03
530.071	7613.39
530.437	7641.41
530.803	7756.21
531.169	7751.01
531.535	7774.74
531.901	7772.71
532.267	7837.11
532.632	7885.92
532.998	7975.64
533.364	7951.23
533.73	7956.88
534.095	8082.08
534.461	8001.63
534.826	8165.46
535.192	8108.29
535.557	8202.98
535.923	8202.3
536.288	8237.55
536.653	8268.74
537.019	8274.84
537.384	8290.88
537.749	8429.64
538.114	8391.22
538.479	8496.98
538.845	8505.34
539.21	8480.94
539.575	8589.18
539.94	8574.49
540.305	8673.92
540.67	8694.49
541.034	8717.09
541.399	8708.73
541.764	8776.75
542.129	8848.84
542.494	8846.12
542.858	8920.7
543.223	8894.26
543.587	9011.54
543.952	8996.63
544.316	9026.23
544.681	9070.75
545.045	9113.23
545.41	9162.27
545.774	9160.92
546.138	9186.45
546.503	9271.2
546.867	9226.68
547.231	9298.09
547.595	9358.88
547.959	9423.06
548.324	9444.75
548.688	9344.87
549.052	9484.75
549.416	9440.23
549.779	9409.5
550.143	9520
550.507	9551.42
550.871	9664.63
551.235	9615.37
551.599	9688.36
551.962	9693.33
552.326	9765.2
552.689	9853.78
553.053	9724.97
553.417	9852.42
553.78	10012.19
554.143	9940.11
554.507	10078.86
554.87	10067.79
555.234	10150.27
555.597	10122.25
555.96	10117.5
556.323	10271.17
556.686	10308.91
557.05	10343.94
557.413	10340.55
557.776	10384.39
558.139	10492.86
558.502	10472.07
558.865	10547.77
559.228	10638.39
559.59	10627.55
559.953	10647.21
560.316	10762.46
560.679	10753.19
561.041	10731.5
561.404	10853.53
561.767	10945.96
562.129	10912.74
562.492	11048.78
562.854	11016.69
563.217	11127.87
563.579	11172.16
563.941	11250.81
564.304	11340.52
564.666	11351.59
565.028	11412.61
565.39	11499.16
565.753	11503.45
566.115	11551.14
566.477	11669.33
566.839	11707.07
567.201	11830.68
567.563	11852.37
567.925	11943.22
568.287	11905.03
568.648	11988.41
569.01	12106.6
569.372	12159.48
569.734	12124.23
570.095	12203.1
570.457	12339.14
570.819	12259.82
571.18	12345.47
571.542	12462.53
571.903	12472.47
572.265	12413.04
572.626	12536.2
572.987	12589.53
573.349	12522.64
573.71	12666.81
574.071	12759.69
574.432	12662.52
574.794	12788.17
575.155	12856.87
575.516	12766.25
575.877	12886.7
576.238	12836.53
576.599	12891.44
576.96	12871.33
577.32	13022.06
577.681	12945.45
578.042	12975.73
578.403	13000.14
578.763	13032.45
579.124	13028.84
579.485	13095.28
579.845	13126.69
580.206	13105.9
580.566	13136.86
580.927	13123.3
581.287	13153.81
581.648	13182.96
582.008	13187.7
582.368	13165.56
582.728	13189.51
583.089	13182.51
583.449	13141.15
583.809	13202.84
584.169	13285.55
584.529	13253.01
584.889	13337.53
585.249	13166.91
585.609	13220.7
585.969	13287.36
586.329	13247.82
586.688	13271.32
587.048	13278.1
587.408	13306.12
587.768	13304.76
588.127	13302.5
588.487	13334.82
588.846	13386.12
589.206	13382.73
589.565	13379.11
589.925	13440.8
590.284	13439.22
590.643	13473.8
591.003	13580.91
591.362	13530.07
591.721	13546.56
592.08	13546.34
592.44	13565.55
592.799	13559.9
593.158	13513.57
593.517	13527.13
593.876	13633.57
594.235	13528.71
594.593	13536.85
594.952	13540.69
595.311	13577.07
595.67	13611.42
596.029	13693.68
596.387	13697.52
596.746	13727.58
597.104	13652.32
597.463	13622.72
597.822	13675.6
598.18	13726.22
598.538	13725.09
598.897	13763.73
599.255	13702.27
599.613	13844.18
599.972	13802.38
600.33	13758.54
600.688	13708.82
601.046	13801.93
601.404	13831.08
601.762	13829.27
602.12	13889.61
602.478	13831.75
602.836	13829.5
603.194	13695.49
603.552	13795.82
603.91	13803.73
604.268	13826.78
604.625	13791.3
604.983	13916.72
605.341	13766.67
605.698	13800.8
606.056	13933.45
606.413	13792.89
606.771	13892.54
607.128	13994.24
607.485	13910.85
607.843	13892.77
608.2	14002.6
608.557	14071.75
608.914	13959.89
609.272	14054.57
609.629	14078.98
609.986	14204.85
610.343	14095.25
610.7	14167.11
611.057	14103.39
611.414	14150.84
611.771	14148.81
612.127	14308.58
612.484	14201.24
612.841	14225.19
613.198	14243.72
613.554	14253.21
613.911	14352.19
614.267	14298.86
614.624	14244.63
614.98	14361.01
615.337	14489.14
615.693	14472.19
616.05	14365.07
616.406	14469.7
616.762	14464.51
617.118	14440.33
617.475	14415.47
617.831	14522.13
618.187	14595.35
618.543	14551.51
618.899	14666.99
619.255	14539.31
619.611	14551.74
619.967	14659.08
620.323	14699.98
620.678	14695.24
621.034	14553.09
621.39	14650.04
621.746	14521.68
622.101	14715.12
622.457	14602.58
622.812	14688.68
623.168	14747.21
623.523	14711.28
623.879	14724.16
624.234	14561
624.589	14708.79
624.945	14740.66
625.3	14732.75
625.655	14717.16
626.01	14657.27
626.365	14751.28
626.72	14748.79
627.075	14670.83
627.43	14718.96
627.785	14640.32
628.14	14713.54
628.495	14707.66
628.85	14763.26
629.205	14661.11
629.559	14683.48
629.914	14616.37
630.269	14560.1
630.623	14587.44
630.978	14527.56
631.332	14643.03
631.687	14565.29
632.041	14548.35
632.396	14549.02
632.75	14557.61
633.104	14598.97
633.459	14435.58
633.813	14473.09
634.167	14376.6
634.521	14390.61
634.875	14354
635.229	14426.09
635.583	14366.2
635.937	14433.77
636.291	14375.7
636.645	14368.01
636.999	14412.3
637.352	14330.27
637.706	14376.15
638.06	14291.86
638.413	14307.67
638.767	14186.1
639.121	14243.5
639.474	14227
639.828	14159.2
640.181	14241.46
640.534	14240.11
640.888	14181.8
641.241	14255.02
641.594	14175.02
641.947	14228.81
642.301	14197.4
642.654	14191.52
643.007	14251.63
643.36	14214.34
643.713	14198.75
644.066	14189.71
644.419	14118.98
644.771	13978.19
645.124	13808.7
645.477	13822.49
645.83	13770.29
646.182	13650.29
646.535	13663.62
646.888	13759.67
647.24	13693.45
647.593	13751.76
647.945	13653.68
648.298	13628.6
648.65	13580.24
649.002	13607.35
649.355	13651.19
649.707	13528.71
650.059	13612.1
650.411	13808.25
650.763	13795.6
651.115	13967.8
651.467	13915.14
651.819	13835.14
652.171	13855.03
652.523	13761.02
652.875	13769.16
653.227	13782.26
653.578	13826.56
653.93	13835.37
654.282	13674.92
654.633	13728.25
654.985	13757.63
655.337	13770.06
655.688	13698.88
656.039	13702.04
656.391	13635.15
656.742	13726
657.094	13702.72
657.445	13685.54
657.796	13551.08
658.147	13692.1
658.498	13628.37
658.849	13635.38
659.2	13638.31
659.551	13547.02
659.902	13565.1
660.253	13637.18
660.604	13588.82
660.955	13629.05
661.306	13619.11
661.656	13644.19
662.007	13603.06
662.358	13589.05
662.708	13544.53
663.059	13520.8
663.409	13545.89
663.76	13672.44
664.11	13612.1
664.461	13576.17
664.811	13609.84
665.161	13604.42
665.511	13531.88
665.862	13635.15
666.212	13637.86
666.562	13633.34
666.912	13646.22
667.262	13643.51
667.612	13581.82
667.962	13593.57
668.312	13477.41
668.662	13673.12
669.011	13640.8
669.361	13510.41
669.711	13532.55
670.06	13482.84
670.41	13420.01
670.76	13558.99
671.109	13553.8
671.459	13495.72
671.808	13587.02
672.157	13461.37
672.507	13426.34
672.856	13400.35
673.205	13379.11
673.554	13419.79
673.904	13433.35
674.253	13414.59
674.602	13445.32
674.951	13231.54
675.3	13088.05
675.649	13310.19
675.998	13396.51
676.346	13302.73
676.695	13365.78
677.044	13277.87
677.393	13224.99
677.741	13250.08
678.09	13287.81
678.438	13313.8
678.787	13224.54
679.135	13187.25
679.484	13188.83
679.832	13232.45
680.181	13195.84
680.529	13168.04
680.877	13202.39
681.225	13156.52
681.573	13158.55
681.922	13058.89
682.27	13110.42
682.618	13123.07
682.966	13020.93
683.314	13097.09
683.661	13047.37
684.009	12977.31
684.357	13043.3
684.705	12925.11
685.053	12923.08
685.4	12943.42
685.748	12835.85
686.095	12839.69
686.443	12932.8
686.79	12792.23
687.138	12843.31
687.485	12850.09
687.832	12783.87
688.18	12781.16
688.527	12768.28
688.874	12735.06
689.221	12702.07
689.568	12587.49
689.915	12574.16
690.262	12588.85
690.609	12550.66
690.956	12536.42
691.303	12463.66
691.65	12364.22
691.997	12414.62
692.344	12364.67
692.69	12323.32
693.037	12336.88
693.383	12237.67
693.73	12201.52
694.077	12213.72
694.423	12223.21
694.769	12121.29
695.116	12164.68
695.462	12131.01
695.808	12021.63
696.155	12026.38
696.501	11947.28
696.847	11886.72
697.193	11837.01
697.539	11916.1
697.885	11835.42
698.231	11834.52
698.577	11901.86
698.923	11812.6
699.269	11738.25
699.614	11635.65
699.96	11646.73
700.306	11720.62
700.651	11608.76
700.997	11570.35
701.342	11586.39
701.688	11623
702.033	11582.1
702.379	11623.9
702.724	11520.86
703.069	11623.23
703.415	11363.57
703.76	11399.95
704.105	11542.1
704.45	11477.01
704.795	11369.67
705.14	11334.87
705.485	11451.25
705.83	11336.91
706.175	11383.46
706.52	11321.54
706.865	11271.6
707.209	11330.8
707.554	11280.18
707.899	11368.77
708.243	11244.7
708.588	11215.55
708.932	11152.28
709.277	11219.39
709.621	11198.38
709.966	11096.23
710.31	11120.64
710.654	10987.76
710.998	11029.34
711.342	11178.27
711.687	11022.34
712.031	11001.32
712.375	10959.74
712.719	10978.95
713.063	10947.09
713.407	10956.35
713.75	10853.75
714.094	10840.87
714.438	10814.89
714.782	10848.33
715.125	10791.83
715.469	10772.17
715.812	10734.89
716.156	10624.83
716.499	10682.69
716.843	10664.15
717.186	10539.41
717.53	10528.56
717.873	10572.63
718.216	10527.21
718.559	10486.08
718.902	10400.88
719.246	10401.79
719.589	10494.67
719.932	10410.83
720.275	10354.56
720.617	10359.98
720.96	10300.55
721.303	10248.8
721.646	10230.72
721.989	10176.03
722.331	10192.75
722.674	10155.92
723.016	10124.28
723.359	10170.16
723.701	10084.51
724.044	10106.43
724.386	10047
724.729	10072.53
725.071	10076.6
725.413	10028.92
725.755	9981.69
726.097	9959.99
726.439	9947.79
726.782	9895.59
727.124	9971.29
727.465	9932.87
727.807	9891.07
728.149	9879.54
728.491	9850.16
728.833	9885.87
729.175	9835.7
729.516	9849.94
729.858	9847.9
730.199	9870.73
730.541	9811.07
730.882	9791.86
731.224	9820.34
731.565	9786.66
731.906	9735.59
732.248	9886.1
732.589	9745.31
732.93	9771.52
733.271	9715.03
733.612	9837.96
733.953	9801.13
734.294	9750.96
734.635	9765.2
734.976	9767.46
735.317	9708.25
735.658	9724.52
735.999	9776.95
736.339	9699.89
736.68	9761.58
737.021	9715.25
737.361	9708.25
737.702	9735.59
738.042	9776.95
738.383	9656.72
738.723	9703.5
739.063	9669.83
739.404	9659.21
739.744	9704.41
740.084	9626.22
740.424	9620.79
740.764	9615.37
741.104	9545.54
741.444	9581.02
741.784	9465.77
742.124	9541.47
742.464	9524.98
742.804	9559.32
743.143	9486.33
743.483	9564.52
743.823	9473
744.162	9386.45
744.502	9458.08
744.841	9408.37
745.181	9370.4
745.52	9403.4
745.86	9395.94
746.199	9343.51
746.538	9330.4
746.877	9377.63
747.216	9329.5
747.556	9254.25
747.895	9390.52
748.234	9241.82
748.573	9225.77
748.911	9205.21
749.25	9234.59
749.589	9173.12
749.928	9223.29
750.267	9216.51
750.605	9120.24
750.944	9086.57
751.283	9021.26
751.621	9139.67
751.96	9062.61
752.298	9046.57
752.636	9054.03
752.975	9034.37
753.313	8950.53
753.651	8953.69
753.989	8939.68
754.327	8917.99
754.666	8869.85
755.004	8877.31
755.342	8919.34
755.679	8819.23
756.017	8857.65
756.355	8805.22
756.693	8771.32
757.031	8773.36
757.368	8699.91
757.706	8764.54
758.044	8688.16
758.381	8660.82
758.719	8710.31
759.056	8718.44
759.394	8656.07
759.731	8584.66
760.068	8550.99
760.405	8602.06
760.743	8528.39
761.08	8508.28
