Data from foam1_polythene_foam_FLMS001491_00087.txt Node
Date: Wed Feb 08 10:55:31 GMT 2017
User: dcchb
Spectrometer: FLMS00149
Trigger mode: 0
Integration Time (sec): 2.000000E-2
Scans to average: 10
Electric dark correction enabled: true
Nonlinearity correction enabled: false
Boxcar width: 0
XAxis mode: Wavelengths
Number of Pixels in Spectrum: 2048
>>>>>Begin Spectral Data<<<<<
341.393	-17.58
341.776	-17.58
342.16	-17.58
342.543	-67.07
342.927	-84.93
343.31	-68.66
343.693	-71.59
344.077	-67.07
344.46	-39.05
344.843	-47.64
345.226	-54.42
345.61	-37.02
345.993	-8.54
346.376	-1.77
346.759	5.69
347.142	39.14
347.525	31.68
347.908	33.94
348.291	86.14
348.674	86.82
349.057	112.36
349.44	131.79
349.823	143.77
350.206	158.91
350.588	175.4
350.971	193.94
351.354	213.82
351.737	206.59
352.119	224.9
352.502	273.03
352.884	255.4
353.267	248.85
353.65	266.93
354.032	281.62
354.414	310.54
354.797	287.49
355.179	307.38
355.562	325.46
355.944	309.41
356.326	340.37
356.709	321.16
357.091	320.71
357.473	336.3
357.855	315.29
358.238	317.1
358.62	314.38
359.002	311.45
359.384	318.9
359.766	322.29
360.148	353.25
360.53	330.88
360.912	338.34
361.294	329.75
361.676	329.75
362.057	307.83
362.439	291.79
362.821	316.87
363.203	295.18
363.584	304.89
363.966	306.7
364.348	336.76
364.729	313.48
365.111	326.81
365.493	336.98
365.874	306.7
366.256	306.25
366.637	290.88
367.019	317.77
367.4	286.14
367.781	300.83
368.163	303.76
368.544	285.23
368.925	312.8
369.306	316.87
369.688	286.36
370.069	301.5
370.45	310.54
370.831	315.74
371.212	295.63
371.593	298.57
371.974	311.22
372.355	307.38
372.736	287.72
373.117	297.66
373.498	316.42
373.879	296.53
374.26	312.58
374.641	306.47
375.021	279.58
375.402	300.6
375.783	300.6
376.163	312.12
376.544	312.12
376.925	316.64
377.305	302.86
377.686	308.96
378.066	317.32
378.447	318
378.827	307.15
379.208	330.66
379.588	332.91
379.968	329.07
380.349	330.2
380.729	317.1
381.109	327.49
381.489	317.1
381.87	314.38
382.25	314.61
382.63	323.88
383.01	322.07
383.39	319.58
383.77	334.95
384.15	343.31
384.53	341.95
384.91	315.97
385.29	343.54
385.67	342.18
386.049	341.5
386.429	349.86
386.809	340.82
387.189	345.12
387.568	339.92
387.948	352.35
388.328	350.32
388.707	355.97
389.087	348.73
389.466	362.07
389.846	372.24
390.225	349.19
390.605	350.77
390.984	373.59
391.363	341.05
391.743	351.45
392.122	344.44
392.501	390.77
392.881	386.02
393.26	371.78
393.639	385.57
394.018	375.63
394.397	362.97
394.776	380.82
395.155	368.17
395.534	360.03
395.913	368.17
396.292	396.42
396.671	394.16
397.05	399.13
397.429	400.71
397.808	405.68
398.186	402.52
398.565	379.47
398.944	393.48
399.323	386.7
399.701	406.13
400.08	389.18
400.458	391.9
400.837	401.61
401.215	394.61
401.594	409.52
401.972	401.39
402.351	408.39
402.729	403.2
403.107	416.75
403.486	438
403.864	421.27
404.242	432.35
404.62	425.79
404.999	414.49
405.377	405.46
405.755	441.61
406.133	429.41
406.511	449.75
406.889	428.28
407.267	441.39
407.645	448.62
408.023	448.17
408.401	452.91
408.779	438.9
409.156	455.85
409.534	446.36
409.912	448.17
410.29	459.24
410.667	470.54
411.045	459.47
411.422	454.49
411.8	452.46
412.178	492.46
412.555	462.4
412.933	490.65
413.31	499.24
413.687	470.54
414.065	506.92
414.442	496.98
414.819	497.43
415.197	490.42
415.574	506.7
415.951	501.27
416.328	478.45
416.705	510.76
417.082	543.3
417.46	517.77
417.837	532.01
418.214	518.45
418.591	547.82
418.967	513.48
419.344	516.41
419.721	542.4
420.098	529.97
420.475	527.71
420.852	535.17
421.228	566.81
421.605	547.6
421.982	550.31
422.358	525
422.735	584.66
423.111	562.74
423.488	546.47
423.864	569.07
424.241	553.25
424.617	582.17
424.994	584.21
425.37	591.89
425.746	576.52
426.123	591.89
426.499	586.02
426.875	602.06
427.251	617.2
427.627	590.76
428.003	629.86
428.379	629.63
428.756	636.18
429.132	642.06
429.507	644.55
429.883	630.76
430.259	640.03
430.635	666.69
431.011	656.52
431.387	664.43
431.763	673.92
432.138	698.78
432.514	686.8
432.89	678.67
433.265	686.13
433.641	687.03
434.016	718.22
434.392	736.97
434.767	723.41
435.143	713.24
435.518	744.66
435.894	738.55
436.269	737.2
436.644	745.33
437.02	766.12
437.395	770.87
437.77	748.27
438.145	782.17
438.52	776.52
438.895	805.67
439.271	799.34
439.646	824.2
440.021	827.82
440.395	805.9
440.77	812.68
441.145	805.44
441.52	826.01
441.895	842.05
442.27	852
442.645	848.83
443.019	864.65
443.394	876.18
443.769	859.45
444.143	875.5
444.518	899.23
444.892	866.91
445.267	880.25
445.641	889.96
446.016	908.49
446.39	933.8
446.764	899
447.139	922.28
447.513	941.26
447.887	952.79
448.262	938.55
448.636	950.53
449.01	985.33
449.384	983.07
449.758	970.86
450.132	964.76
450.506	995.04
450.88	989.85
451.254	996.85
451.628	1001.6
452.002	1011.09
452.376	1017.19
452.75	1024.87
453.123	1046.79
453.497	1029.62
453.871	1043.18
454.244	1071.88
454.618	1088.38
454.992	1093.12
455.365	1086.12
455.739	1081.14
456.112	1096.28
456.486	1129.28
456.859	1124.53
457.232	1139.22
457.606	1156.17
457.979	1143.74
458.352	1155.27
458.725	1174.7
459.099	1170.86
459.472	1186.68
459.845	1177.41
460.218	1184.87
460.591	1191.2
460.964	1200.91
461.337	1243.63
461.71	1217.19
462.083	1251.08
462.456	1251.08
462.829	1243.63
463.201	1273.68
463.574	1280.01
463.947	1295.6
464.32	1338.09
464.692	1311.19
465.065	1334.47
465.438	1349.39
465.81	1359.55
466.183	1345.54
466.555	1390.29
466.928	1387.8
467.3	1373.34
467.672	1409.27
468.045	1441.59
468.417	1444.3
468.789	1454.69
469.161	1457.86
469.534	1484.07
469.906	1508.7
470.278	1503.05
470.65	1501.92
471.022	1545.31
471.394	1553.67
471.766	1576.27
472.138	1628.7
472.51	1637.06
472.882	1653.56
473.253	1681.13
473.625	1640.45
473.997	1717.74
474.369	1689.94
474.74	1738.3
475.112	1752.31
475.484	1797.51
475.855	1797.28
476.227	1810.39
476.598	1882.25
476.97	1877.51
477.341	1897.62
477.713	1944.62
478.084	1941.23
478.455	1963.15
478.827	1965.64
479.198	2040.89
479.569	2072.53
479.94	2118.4
480.311	2105.3
480.682	2170.83
481.053	2182.81
481.424	2226.65
481.795	2252.64
482.166	2271.85
482.537	2275.69
482.908	2348.91
483.279	2334.9
483.65	2373.09
484.021	2447.89
484.391	2474.55
484.762	2489.02
485.133	2500.32
485.503	2556.59
485.874	2600.43
486.244	2630.71
486.615	2668.22
486.985	2689.24
487.356	2718.16
487.726	2759.52
488.097	2799.74
488.467	2793.64
488.837	2844.71
489.207	2890.81
489.578	2936.01
489.948	2972.85
490.318	2999.51
490.688	2959.51
491.058	3068.66
491.428	3078.83
491.798	3121.32
492.168	3184.37
492.538	3177.13
492.908	3213.97
493.278	3258.04
493.648	3274.08
494.017	3326.96
494.387	3355.43
494.757	3406.28
495.126	3374.42
495.496	3446.73
495.866	3433.85
496.235	3474.75
496.605	3481.76
496.974	3463
497.344	3545.26
497.713	3564.47
498.082	3590.46
498.452	3618.93
498.821	3672.49
499.19	3671.58
499.559	3709.78
499.928	3762.88
500.298	3775.99
500.667	3807.85
501.036	3804.46
501.405	3823.9
501.774	3812.82
502.143	3880.84
502.512	3869.77
502.88	3952.93
503.249	3962.2
503.618	4020.5
503.987	4030.44
504.356	4078.81
504.724	4047.39
505.093	4050.56
505.462	4084.23
505.83	4118.58
506.199	4116.77
506.567	4169.65
506.936	4195.41
507.304	4233.6
507.672	4252.36
508.041	4311.12
508.409	4309.31
508.777	4356.31
509.145	4463.88
509.514	4460.72
509.882	4468.4
510.25	4454.39
510.618	4472.69
510.986	4490.55
511.354	4529.41
511.722	4577.1
512.09	4610.54
512.458	4587.72
512.826	4662.97
513.193	4719.47
513.561	4749.97
513.929	4821.61
514.297	4867.71
514.664	4878.78
515.032	4823.19
515.4	4872.23
515.767	4931.21
516.135	4964.21
516.502	4909.29
516.869	5034.71
517.237	5045.56
517.604	5060.47
517.972	5141.38
518.339	5182.96
518.706	5176.86
519.073	5226.35
519.44	5308.15
519.808	5363.74
520.175	5292.56
520.542	5373.69
520.909	5385.44
521.276	5325.33
521.643	5437.41
522.009	5515.6
522.376	5551.76
522.743	5565.32
523.11	5660.91
523.477	5755.15
523.843	5800.79
524.21	5885.31
524.577	5863.17
524.943	5858.65
525.31	5877.63
525.676	6008.47
526.043	5925.99
526.409	5941.81
526.776	6056.38
527.142	6043.5
527.508	6073.33
527.874	6124.63
528.241	6206.43
528.607	6243.27
528.973	6347.22
529.339	6329.37
529.705	6453.43
530.071	6459.31
530.437	6474.67
530.803	6501.34
531.169	6479.87
531.535	6467.89
531.901	6543.37
532.267	6544.5
532.632	6586.76
532.998	6621.11
533.364	6749.47
533.73	6747.44
534.095	6788.34
534.461	6843.93
534.826	6911.73
535.192	6932.06
535.557	6947.88
535.923	6935.68
536.288	6925.51
536.653	6979.07
537.019	6958.05
537.384	6985.85
537.749	7030.59
538.114	7035.56
538.479	7058.84
538.845	7134.09
539.21	7197.59
539.575	7173.41
539.94	7279.62
540.305	7324.37
540.67	7305.84
541.034	7316.69
541.399	7323.24
541.764	7310.58
542.129	7416.12
542.494	7374.54
542.858	7465.61
543.223	7432.39
543.587	7505.61
543.952	7479.85
544.316	7471.94
544.681	7523.69
545.045	7576.34
545.41	7643.23
545.774	7690.01
546.138	7713.29
546.503	7701.53
546.867	7745.15
547.231	7727.75
547.595	7777.92
547.959	7757.8
548.324	7756.22
548.688	7817.46
549.052	7878.03
549.416	7854.3
549.779	7932.94
550.143	8012.71
550.507	8105.59
550.871	8046.61
551.235	8068.3
551.599	8188.08
551.962	8164.35
552.326	8166.16
552.689	8188.53
553.053	8205.48
553.417	8192.6
553.78	8311.01
554.143	8250.9
554.507	8295.19
554.87	8360.27
555.234	8463.77
555.597	8434.85
555.96	8444.79
556.323	8482.76
556.686	8526.37
557.05	8623.77
557.413	8657.67
557.776	8718.46
558.139	8725.46
558.502	8642.75
558.865	8772.69
559.228	8752.13
559.59	8754.16
559.953	8878
560.316	8866.25
560.679	8930.66
561.041	8998.9
561.404	8993.7
561.767	9090.65
562.129	9145.11
562.492	9196.41
562.854	9176.52
563.217	9247.93
563.579	9222.17
563.941	9311.21
564.304	9312.57
564.666	9322.74
565.028	9376.74
565.39	9371.32
565.753	9481.15
566.115	9512.79
566.477	9554.82
566.839	9621.71
567.201	9731.99
567.563	9726.34
567.925	9761.37
568.287	9766.11
568.648	9850.18
569.01	9848.37
569.372	9969.27
569.734	9889.73
570.095	9943.28
570.457	9971.76
570.819	9912.32
571.18	10029.61
571.542	10007.24
571.903	10049.27
572.265	10074.13
572.626	10134.01
572.987	10146.89
573.349	10229.15
573.71	10208.59
574.071	10236.84
574.432	10316.38
574.794	10469.15
575.155	10417.62
575.516	10364.52
575.877	10401.35
576.238	10446.77
576.599	10414.46
576.96	10477.51
577.32	10449.94
577.681	10462.14
578.042	10495.81
578.403	10490.61
578.763	10545.98
579.124	10548.69
579.485	10554.79
579.845	10635.47
580.206	10656.49
580.566	10665.07
580.927	10663.49
581.287	10769.25
581.648	10663.04
582.008	10684.73
582.368	10692.42
582.728	10669.59
583.089	10642.25
583.449	10642.02
583.809	10602.48
584.169	10610.38
584.529	10623.04
584.889	10717.95
585.249	10762.02
585.609	10742.36
585.969	10792.98
586.329	10798.63
586.688	10786.65
587.048	10747.56
587.408	10752.53
587.768	10764.73
588.127	10815.58
588.487	10748.91
588.846	10842.02
589.206	10646.09
589.565	10719.76
589.925	10755.69
590.284	10702.36
590.643	10749.14
591.003	10719.53
591.362	10741
591.721	10744.62
592.08	10848.12
592.44	10904.84
592.799	10835.92
593.158	10872.07
593.517	10838.4
593.876	10892.19
594.235	10922.02
594.593	10878.63
594.952	10866.65
595.311	10795.01
595.67	10786.65
596.029	10846.31
596.387	10874.56
596.746	10885.41
597.104	10828.91
597.463	10824.16
597.822	10895.8
598.18	10846.76
598.538	10927.89
598.897	10919.3
599.255	10897.83
599.613	11033.2
599.972	10878.85
600.33	10980.54
600.688	10913.88
601.046	10981.22
601.404	10966.31
601.762	11023.93
602.12	10977.83
602.478	10972.64
602.836	10960.66
603.194	10833.43
603.552	10870.27
603.91	10892.64
604.268	10953.65
604.625	10949.81
604.983	11003.14
605.341	10961.56
605.698	11108.22
606.056	11091.73
606.413	11121.56
606.771	11157.49
607.128	11125.4
607.485	11102.35
607.843	11070.49
608.2	11181.44
608.557	11157.94
608.914	11130.6
609.272	11174.89
609.629	11143.7
609.986	11172.63
610.343	11133.08
610.7	11211.72
611.057	11126.08
611.414	11157.26
611.771	11196.58
612.127	11206.75
612.484	11241.55
612.841	11332.17
613.198	11354.77
613.554	11327.65
613.911	11330.14
614.267	11366.75
614.624	11318.84
614.98	11326.3
615.337	11399.97
615.693	11339.86
616.05	11303.47
616.406	11331.5
616.762	11251.95
617.118	11266.64
617.475	11305.51
617.831	11333.76
618.187	11309.58
618.543	11356.58
618.899	11464.37
619.255	11455.56
619.611	11429.8
619.967	11460.08
620.323	11474.54
620.678	11441.78
621.034	11401.32
621.39	11413.53
621.746	11423.02
622.101	11601.09
622.457	11357.94
622.812	11435.67
623.168	11462.34
623.523	11380.08
623.879	11444.71
624.234	11395
624.589	11392.29
624.945	11381.89
625.3	11446.97
625.655	11378.95
626.01	11380.31
626.365	11413.3
626.72	11460.31
627.075	11499.18
627.43	11458.95
627.785	11492.62
628.14	11511.83
628.495	11469.12
628.85	11486.07
629.205	11433.19
629.559	11448.33
629.914	11364.94
630.269	11415.11
630.623	11341.89
630.978	11289.01
631.332	11313.87
631.687	11351.83
632.041	11292.17
632.396	11362.68
632.75	11194.1
633.104	11240.2
633.459	11237.71
633.813	11267.09
634.167	11329.01
634.521	11244.27
634.875	11292.17
635.229	11271.84
635.583	11263.02
635.937	11190.48
636.291	11202.46
636.645	11125.17
636.999	11145.74
637.352	11156.13
637.706	11044.05
638.06	11081.56
638.413	11075.46
638.767	10995.69
639.121	11052.63
639.474	10909.81
639.828	10863.71
640.181	11001.11
640.534	10919.3
640.888	10898.51
641.241	10908.68
641.594	10936.25
641.947	10979.19
642.301	10844.05
642.654	10969.25
643.007	10932.18
643.36	10918.17
643.713	10901.68
644.066	11012.18
644.419	10916.59
644.771	10793.66
645.124	10778.52
645.477	10670.5
645.83	10530.61
646.182	10476.6
646.535	10388.24
646.888	10381.92
647.24	10312.09
647.593	10463.72
647.945	10437.51
648.298	10366.55
648.65	10389.15
649.002	10272.77
649.355	10344.18
649.707	10353.22
650.059	10431.63
650.411	10561.35
650.763	10562.25
651.115	10663.04
651.467	10698.97
651.819	10634.11
652.171	10679.08
652.523	10497.17
652.875	10536.04
653.227	10535.36
653.578	10558.63
653.93	10528.81
654.282	10450.39
654.633	10387.79
654.985	10351.63
655.337	10415.36
655.688	10326.78
656.039	10388.47
656.391	10372.43
656.742	10350.5
657.094	10328.36
657.445	10363.61
657.796	10393.44
658.147	10442.25
658.498	10326.1
658.849	10406.77
659.2	10429.6
659.551	10412.65
659.902	10494.23
660.253	10443.61
660.604	10440.22
660.955	10354.8
661.306	10424.4
661.656	10321.35
662.007	10398.64
662.358	10339.88
662.708	10322.26
663.059	10309.38
663.409	10160.91
663.76	10170.62
664.11	10191.19
664.461	10211.75
664.811	10190.73
665.161	10157.97
665.511	10194.8
665.862	10206.1
666.212	10238.64
666.562	10258.76
666.912	10220.11
667.262	10216.27
667.612	10265.08
667.962	10302.37
668.312	10306.89
668.662	10303.05
669.011	10312.54
669.361	10294.69
669.711	10193.9
670.06	10181.7
670.41	10198.42
670.76	10121.81
671.109	10195.71
671.459	10171.53
671.808	10129.95
672.157	10057.63
672.507	10007.01
672.856	10088.36
673.205	10037.29
673.554	10008.14
673.904	10029.16
674.253	10068.03
674.602	10010.85
674.951	9919.78
675.3	9860.35
675.649	10052.43
675.998	10076.61
676.346	10051.53
676.695	10185.54
677.044	10053.79
677.393	10052.21
677.741	10119.55
678.09	10078.2
678.438	10057.18
678.787	10048.82
679.135	10068.93
679.484	9971.98
679.832	10024.64
680.181	9844.98
680.529	9866.22
680.877	9906
681.225	9828.48
681.573	9898.31
681.922	9813.34
682.27	9803.4
682.618	9753.68
682.966	9759.79
683.314	9768.6
683.661	9699
684.009	9676.85
684.357	9676.17
684.705	9754.81
685.053	9797.75
685.4	9697.64
685.748	9703.06
686.095	9715.72
686.443	9699.22
686.79	9670.3
687.138	9655.38
687.485	9729.5
687.832	9624.2
688.18	9664.2
688.527	9571.32
688.874	9497.19
689.221	9439.57
689.568	9424.2
689.915	9435.27
690.262	9320.7
690.609	9345.33
690.956	9347.37
691.303	9220.82
691.65	9221.04
691.997	9235.05
692.344	9264.43
692.69	9211.55
693.037	9212
693.383	9117.09
693.73	9227.82
694.077	9159.58
694.423	9157.77
694.769	9227.82
695.116	9219.91
695.462	9227.14
695.808	9133.36
696.155	9157.54
696.501	9152.12
696.847	9111.44
697.193	9000.03
697.539	8996.64
697.885	8900.83
698.231	8868.06
698.577	8837.78
698.923	8875.52
699.269	8699.7
699.614	8669.64
699.96	8691.79
700.306	8674.84
700.651	8671.23
700.997	8641.85
701.342	8571.34
701.688	8585.81
702.033	8565.92
702.379	8616.09
702.724	8481.63
703.069	8603.21
703.415	8538.35
703.76	8565.01
704.105	8577.67
704.45	8592.36
704.795	8510.55
705.14	8530.67
705.485	8526.6
705.83	8360.73
706.175	8427.84
706.52	8450.67
706.865	8412.93
707.209	8401.86
707.554	8318.92
707.899	8350.78
708.243	8256.55
708.588	8322.08
708.932	8135.2
709.277	8157.79
709.621	8114.86
709.966	8067.4
710.31	8081.19
710.654	7993.96
710.998	7956.67
711.342	7981.3
711.687	8017.01
712.031	7936.1
712.375	7983.56
712.719	8033.5
713.063	8059.49
713.407	8098.81
713.75	8015.2
714.094	7985.6
714.438	8018.81
714.782	8026.95
715.125	7935.65
715.469	8029.21
715.812	7981.3
716.156	7855.43
716.499	7965.71
716.843	7924.35
717.186	7797.8
717.53	7887.52
717.873	7832.15
718.216	7774.3
718.559	7768.65
718.902	7657.47
719.246	7605.94
719.589	7642.33
719.932	7577.92
720.275	7609.79
720.617	7588.32
720.96	7592.39
721.303	7544.25
721.646	7610.24
721.989	7634.42
722.331	7611.37
722.674	7584.93
723.016	7634.87
723.359	7618.15
723.701	7578.6
724.044	7593.06
724.386	7554.87
724.729	7585.38
725.071	7615.89
725.413	7593.29
725.755	7590.58
726.097	7586.96
726.439	7568.2
726.782	7532.95
727.124	7473.29
727.465	7446.4
727.807	7400.53
728.149	7422.67
728.491	7386.29
728.833	7311.71
729.175	7267.2
729.516	7263.35
729.858	7261.77
730.199	7252.06
730.541	7251.15
730.882	7219.51
731.224	7231.72
731.565	7231.94
731.906	7229.91
732.248	7223.58
732.589	7250.02
732.93	7204.6
733.271	7144.26
733.612	7281.43
733.953	7223.81
734.294	7230.59
734.635	7218.84
734.976	7254.09
735.317	7194.2
735.658	7225.39
735.999	7199.63
736.339	7170.48
736.68	7172.96
737.021	7118.73
737.361	7163.7
737.702	7104.49
738.042	7092.06
738.383	7072.85
738.723	7028.78
739.063	7052.96
739.404	6991.27
739.744	6950.59
740.084	6896.36
740.424	6933.87
740.764	6944.94
741.104	6931.39
741.444	6914.21
741.784	6828.11
742.124	6894.78
742.464	6905.85
742.804	6914.21
743.143	6894.32
743.483	6928.22
743.823	6928.22
744.162	6850.71
744.502	6872.86
744.841	6892.29
745.181	6940.42
745.52	6900.43
745.86	6940.65
746.199	6878.05
746.538	6924.15
746.877	6869.92
747.216	6871.5
747.556	6808
747.895	6768.9
748.234	6832.86
748.573	6800.77
748.911	6790.82
749.25	6697.72
749.589	6674.44
749.928	6693.2
750.267	6656.14
750.605	6635.12
750.944	6583.37
751.283	6566.88
751.621	6556.25
751.96	6519.19
752.298	6526.88
752.636	6511.51
752.975	6507.22
753.313	6497.72
753.651	6506.76
753.989	6513.77
754.327	6555.8
754.666	6534.56
755.004	6565.97
755.342	6532.75
755.679	6506.54
756.017	6521.23
756.355	6515.13
756.693	6590.38
757.031	6502.02
757.368	6497.27
757.706	6386.54
758.044	6424.96
758.381	6450.72
758.719	6426.99
759.056	6408.91
759.394	6365.3
759.731	6272.42
760.068	6289.82
760.405	6232.19
760.743	6210.5
761.08	6163.95
761.417	6172.99
761.754	6113.33
762.091	6063.16
762.428	6136.83
762.765	6045.31
763.102	6092.31
763.438	6025.87
763.775	6027.23
764.112	6032.43
764.449	6036.49
764.785	6016.16
