Data from foam_black_FLMS001491_00023.txt Node
Date: Wed Feb 08 10:43:38 GMT 2017
User: dcchb
Spectrometer: FLMS00149
Trigger mode: 0
Integration Time (sec): 2.000000E-2
Scans to average: 10
Electric dark correction enabled: true
Nonlinearity correction enabled: false
Boxcar width: 0
XAxis mode: Wavelengths
Number of Pixels in Spectrum: 2048
>>>>>Begin Spectral Data<<<<<
341.393	-8.38
341.776	-8.38
342.16	-8.38
342.543	-69.62
342.927	-83.18
343.31	-64.87
343.693	-72.1
344.077	-67.81
344.46	-47.02
344.843	-46.57
345.226	-22.16
345.61	-34.82
345.993	-18.09
346.376	-7.47
346.759	3.83
347.142	31.4
347.525	41.34
347.908	35.92
348.291	71.62
348.674	86.76
349.057	110.04
349.44	131.51
349.823	122.92
350.206	157.72
350.588	187.55
350.971	199.98
351.354	226.65
351.737	247.21
352.119	243.37
352.502	260.32
352.884	258.28
353.267	285.4
353.65	296.48
354.032	292.86
354.414	311.84
354.797	290.37
355.179	322.92
355.562	299.41
355.944	285.63
356.326	330.82
356.709	329.02
357.091	324.72
357.473	334.44
357.855	306.19
358.238	319.07
358.62	329.24
359.002	341.22
359.384	345.51
359.766	335.12
360.148	319.53
360.53	322.24
360.912	340.99
361.294	298.96
361.676	321.33
362.057	325.4
362.439	327.43
362.821	345.06
363.203	320.66
363.584	333.76
363.966	338.28
364.348	327.89
364.729	321.56
365.111	298.96
365.493	331.05
365.874	315.91
366.256	322.46
366.637	315.23
367.019	305.74
367.4	311.62
367.781	325.63
368.163	296.02
368.544	303.25
368.925	318.4
369.306	329.02
369.688	309.81
370.069	310.94
370.45	312.07
370.831	315.91
371.212	299.86
371.593	301.22
371.974	327.21
372.355	326.3
372.736	316.36
373.117	334.44
373.498	323.14
373.879	300.54
374.26	328.79
374.641	304.16
375.021	310.03
375.402	342.35
375.783	343.03
376.163	353.87
376.544	339.64
376.925	336.47
377.305	319.53
377.686	330.82
378.066	331.05
378.447	346.87
378.827	339.19
379.208	348.23
379.588	321.56
379.968	341.67
380.349	342.58
380.729	362.69
381.109	348.68
381.489	365.17
381.87	354.78
382.25	343.48
382.63	354.1
383.01	349.81
383.39	341.67
383.77	363.37
384.15	347.55
384.53	374.21
384.91	350.26
385.29	379.41
385.67	374.21
386.049	364.04
386.429	373.76
386.809	372.63
387.189	377.15
387.568	386.87
387.948	370.6
388.328	379.86
388.707	391.16
389.087	380.09
389.466	383.48
389.846	378.28
390.225	395.23
390.605	389.81
390.984	392.97
391.363	398.62
391.743	376.93
392.122	385.29
392.501	411.27
392.881	411.73
393.26	413.99
393.639	416.02
394.018	419.41
394.397	423.25
394.776	416.02
395.155	406.08
395.534	424.38
395.913	443.36
396.292	412.4
396.671	436.13
397.05	440.43
397.429	424.38
397.808	434.32
398.186	421.9
398.565	431.39
398.944	437.04
399.323	432.29
399.701	454.89
400.08	466.64
400.458	434.32
400.837	456.02
401.215	455.12
401.594	456.25
401.972	450.37
402.351	450.14
402.729	470.71
403.107	446.53
403.486	454.44
403.864	462.12
404.242	466.19
404.62	481.78
404.999	465.96
405.377	472.52
405.755	462.12
406.133	485.4
406.511	480.88
406.889	486.98
407.267	499.41
407.645	522.01
408.023	494.44
408.401	511.38
408.779	502.35
409.156	517.71
409.534	515.9
409.912	510.48
410.29	549.8
410.667	519.75
411.045	523.36
411.422	528.56
411.8	521.33
412.178	560.88
412.555	548.9
412.933	562
413.31	556.58
413.687	561.78
414.065	588.67
414.442	586.64
414.819	593.19
415.197	561.78
415.574	564.94
415.951	581.21
416.328	590.93
416.705	595.9
417.082	599.97
417.46	621.21
417.837	591.61
418.214	596.58
418.591	630.93
418.967	628.44
419.344	628.44
419.721	615.56
420.098	643.36
420.475	624.6
420.852	629.57
421.228	646.3
421.605	626.18
421.982	642
422.358	660.31
422.735	655.56
423.111	671.83
423.488	660.08
423.864	678.39
424.241	680.87
424.617	660.99
424.994	709.35
425.37	676.35
425.746	700.08
426.123	707.54
426.499	706.63
426.875	708.89
427.251	721.55
427.627	727.88
428.003	755.22
428.379	729.91
428.756	749.57
429.132	757.48
429.507	791.6
429.883	781.21
430.259	758.16
430.635	784.15
431.011	784.15
431.387	793.19
431.763	815.11
432.138	821.89
432.514	814.43
432.89	815.78
433.265	816.01
433.641	834.77
434.016	850.36
434.392	862.34
434.767	813.98
435.143	868.44
435.518	859.62
435.894	858.27
436.269	871.15
436.644	890.58
437.02	904.37
437.395	895.78
437.77	909.57
438.145	896.69
438.52	955.67
438.895	905.5
439.271	922.22
439.646	958.83
440.021	979.62
440.395	952.05
440.77	940.98
441.145	933.07
441.52	973.07
441.895	978.49
442.27	990.02
442.645	998.6
443.019	997.02
443.394	975.78
443.769	1011.94
444.143	999.73
444.518	1020.98
444.892	981.88
445.267	1027.76
445.641	1037.92
446.016	1035.89
446.39	1042.22
446.764	1047.42
447.139	1062.56
447.513	1057.36
447.887	1052.16
448.262	1058.49
448.636	1075.21
449.01	1089.9
449.384	1095.1
449.758	1093.52
450.132	1114.53
450.506	1112.72
450.88	1127.41
451.254	1132.61
451.628	1144.59
452.002	1159.05
452.376	1154.31
452.75	1172.38
453.123	1167.64
453.497	1147.07
453.871	1201.54
454.244	1208.32
454.618	1214.42
454.992	1241.99
455.365	1227.07
455.739	1251.7
456.112	1311.36
456.486	1279.05
456.859	1316.34
457.232	1301.42
457.606	1308.43
457.979	1310.01
458.352	1335.32
458.725	1364.92
459.099	1340.97
459.472	1351.81
459.845	1385.94
460.218	1393.4
460.591	1388.42
460.964	1430.68
461.337	1462.09
461.71	1467.52
462.083	1470.91
462.456	1490.57
462.829	1505.48
463.201	1528.76
463.574	1515.65
463.947	1534.18
464.32	1572.6
464.692	1552.94
465.065	1607.18
465.438	1635.65
465.81	1641.07
466.183	1663.22
466.555	1661.41
466.928	1672.26
467.3	1688.3
467.672	1691.47
468.045	1733.95
468.417	1735.99
468.789	1733.73
469.161	1773.95
469.534	1801.52
469.906	1793.84
470.278	1850.78
470.65	1862.08
471.022	1895.08
471.394	1923.1
471.766	1928.75
472.138	1944.57
472.51	1996.32
472.882	2023.21
473.253	2050.33
473.625	2075.19
473.997	2091.23
474.369	2089.87
474.74	2121.06
475.112	2129.65
475.484	2204
475.855	2243.77
476.227	2227.5
476.598	2330.55
476.97	2306.59
477.341	2331.9
477.713	2435.18
478.084	2380.04
478.455	2470.43
478.827	2508.39
479.198	2547.72
479.569	2539.58
479.94	2590.88
480.311	2646.02
480.682	2705.9
481.053	2757.88
481.424	2772.34
481.795	2801.49
482.166	2862.96
482.537	2876.52
482.908	2900.02
483.279	2989.74
483.65	2984.99
484.021	3053.24
484.391	3089.85
484.762	3113.12
485.133	3130.75
485.503	3154.71
485.874	3277.87
486.244	3282.84
486.615	3327.58
486.985	3358.99
487.356	3390.63
487.726	3430.4
488.097	3489.84
488.467	3533.68
488.837	3600.8
489.207	3573.45
489.578	3653
489.948	3679.66
490.318	3764.18
490.688	3737.97
491.058	3824.07
491.428	3883.95
491.798	3909.49
492.168	3960.56
492.538	3963.95
492.908	4006.89
493.278	4090.95
493.648	4067.9
494.017	4147
494.387	4138.86
494.757	4216.15
495.126	4228.8
495.496	4253.21
495.866	4259.08
496.235	4312.41
496.605	4360.78
496.974	4402.58
497.344	4361.45
497.713	4454.56
498.082	4494.1
498.452	4515.57
498.821	4553.54
499.19	4603.03
499.559	4616.81
499.928	4604.84
500.298	4655.68
500.667	4689.58
501.036	4655.46
501.405	4761.67
501.774	4745.62
502.143	4763.25
502.512	4862.23
502.88	4845.96
503.249	4873.08
503.618	4920.99
503.987	4937.71
504.356	4939.97
504.724	5026.75
505.093	5043.7
505.462	5013.41
505.83	5109.23
506.199	5146.29
506.567	5154.2
506.936	5219.28
507.304	5247.31
507.672	5297.02
508.041	5319.85
508.409	5383.57
508.777	5354.42
509.145	5438.49
509.514	5426.96
509.882	5528.88
510.25	5515.1
510.618	5553.96
510.986	5571.82
511.354	5554.19
511.722	5628.31
512.09	5722.32
512.458	5647.3
512.826	5720.51
513.193	5761.42
513.561	5797.12
513.929	5785.82
514.297	5920.73
514.664	5915.99
515.032	5880.28
515.4	5986.95
515.767	6049.54
516.135	6023.56
516.502	6020.84
516.869	6175.19
517.237	6204.34
517.604	6203.66
517.972	6310.33
518.339	6376.54
518.706	6335.19
519.073	6455.86
519.44	6438.46
519.808	6575.41
520.175	6535.41
520.542	6619.92
520.909	6633.94
521.276	6677.1
521.643	6705.12
522.009	6824.89
522.376	6843.42
522.743	6852.24
523.11	6901.95
523.477	6915.28
523.843	6998.9
524.21	7075.05
524.577	7022.17
524.943	7074.15
525.31	7130.65
525.676	7228.04
526.043	7271.21
526.409	7376.97
526.776	7396.85
527.142	7463.29
527.508	7503.07
527.874	7584.65
528.241	7614.25
528.607	7678.65
528.973	7772.66
529.339	7757.75
529.705	7910.06
530.071	7937.18
530.437	7954.13
530.803	8038.42
531.169	8074.12
531.535	8115.93
531.901	8170.39
532.267	8205.87
532.632	8258.98
532.998	8242.71
533.364	8280.45
533.73	8263.95
534.095	8368.58
534.461	8377.62
534.826	8336.72
535.192	8408.35
535.557	8406.54
535.923	8477.73
536.288	8489.25
536.653	8587.56
537.019	8491.97
537.384	8635.47
537.749	8631.62
538.114	8678.18
538.479	8694.22
538.845	8754.11
539.21	8815.12
539.575	8891.96
539.94	8916.36
540.305	9022.8
540.67	8932.41
541.034	9088.56
541.399	9060.09
541.764	9079.07
542.129	9202.23
542.494	9148.67
542.858	9220.53
543.223	9209.69
543.587	9282.45
543.952	9280.19
544.316	9312.74
544.681	9324.71
545.045	9282.23
545.41	9381.21
545.774	9453.07
546.138	9392.28
546.503	9460.08
546.867	9424.37
547.231	9542.33
547.595	9535.33
547.959	9542.79
548.324	9546.63
548.688	9645.61
549.052	9636.34
549.416	9704.82
549.779	9691.26
550.143	9786.62
550.507	9824.36
550.871	9878.6
551.235	9948.42
551.599	10058.03
551.962	10046.73
552.326	10147.52
552.689	10210.56
553.053	10174.41
553.417	10220.51
553.78	10370.79
554.143	10316.78
554.507	10382.31
554.87	10514.74
555.234	10495.98
555.597	10391.35
555.96	10452.59
556.323	10494.4
556.686	10452.59
557.05	10562.42
557.413	10609.88
557.776	10621.18
558.139	10630.44
558.502	10752.47
558.865	10802.19
559.228	10838.12
559.59	10871.11
559.953	10901.39
560.316	11017.78
560.679	10982.52
561.041	11207.15
561.404	11227.49
561.767	11240.59
562.129	11262.06
562.492	11388.61
562.854	11458.44
563.217	11441.27
563.579	11545.9
563.941	11647.36
564.304	11728.27
564.666	11725.1
565.028	11777.76
565.39	11838.54
565.753	11842.39
566.115	11948.37
566.477	12016.62
566.839	11985.89
567.201	12214.13
567.563	12149.5
567.925	12172.55
568.287	12199.67
568.648	12245.77
569.01	12355.59
569.372	12358.08
569.734	12391.98
570.095	12386.78
570.457	12520.56
570.819	12500
571.18	12520.56
571.542	12656.38
571.903	12649.6
572.265	12673.1
572.626	12679.2
572.987	12747.9
573.349	12797.84
573.71	12908.35
574.071	12944.96
574.432	12947.44
574.794	13041.68
575.155	13097.04
575.516	12954.22
575.877	13155.35
576.238	13182.92
576.599	13198.28
576.96	13126.87
577.32	13156.48
577.681	13328.22
578.042	13243.48
578.403	13296.13
578.763	13318.51
579.124	13306.3
579.485	13436.69
579.845	13425.17
580.206	13424.04
580.566	13410.93
580.927	13560.99
581.287	13482.12
581.648	13509.69
582.008	13569.35
582.368	13560.76
582.728	13622.23
583.089	13558.73
583.449	13543.58
583.809	13684.37
584.169	13645.73
584.529	13550.36
584.889	13671.04
585.249	13620.64
585.609	13602.11
585.969	13614.54
586.329	13560.76
586.688	13543.36
587.048	13601.44
587.408	13662
587.768	13669.68
588.127	13595.79
588.487	13526.86
588.846	13692.96
589.206	13589.01
589.565	13564.15
589.925	13634.66
590.284	13465.39
590.643	13594.2
591.003	13579.97
591.362	13715.33
591.721	13641.44
592.08	13730.92
592.44	13737.03
592.799	13702
593.158	13736.35
593.517	13781.09
593.876	13839.62
594.235	13835.33
594.593	13797.59
594.952	13943.12
595.311	13823.8
595.67	13825.39
596.029	13895.89
596.387	13895.67
596.746	13968.21
597.104	13922.78
597.463	13983.12
597.822	14046.17
598.18	13962.78
598.538	13948.32
598.897	14058.37
599.255	13939.51
599.613	14164.81
599.972	14047.53
600.33	14087.75
600.688	14011.37
601.046	14030.8
601.404	14077.58
601.762	13956
602.12	14034.87
602.478	13982.67
602.836	14032.16
603.194	13918.04
603.552	13942.44
603.91	13965.04
604.268	13944.93
604.625	13810.7
604.983	13939.73
605.341	14023.35
605.698	14087.53
606.056	14116.45
606.413	14067.41
606.771	14114.87
607.128	14147.64
607.485	14124.81
607.843	14184.47
608.2	14246.84
608.557	14264.24
608.914	14218.37
609.272	14404.35
609.629	14398.03
609.986	14522.99
610.343	14477.35
610.7	14584.69
611.057	14501.98
611.414	14505.37
611.771	14470.34
612.127	14614.52
612.484	14570.22
612.841	14540.17
613.198	14531.81
613.554	14582.88
613.911	14572.71
614.267	14572.48
614.624	14584.69
614.98	14601.64
615.337	14626.95
615.693	14568.64
616.05	14614.97
616.406	14631.24
616.762	14600.73
617.118	14510.11
617.475	14537.46
617.831	14563.22
618.187	14530.9
618.543	14612.93
618.899	14642.54
619.255	14684.35
619.611	14638.7
619.967	14677.57
620.323	14810.67
620.678	14735.19
621.034	14710.56
621.39	14727.73
621.746	14685.25
622.101	14944.23
622.457	14858.8
622.812	14854.28
623.168	14907.39
623.523	14834.62
623.879	15060.15
624.234	15026.71
624.589	14998.01
624.945	15067.61
625.3	15024.9
625.655	15021.51
626.01	15015.64
626.365	15030.55
626.72	14954.85
627.075	15050.21
627.43	15045.01
627.785	14959.37
628.14	15028.97
628.495	15033.04
628.85	15008.4
629.205	14985.58
629.559	14989.65
629.914	14895.87
630.269	14875.07
630.623	14756.21
630.978	14792.59
631.332	14746.94
631.687	14737
632.041	14715.98
632.396	14693.16
632.75	14677.79
633.104	14697.45
633.459	14565.93
633.813	14622.43
634.167	14536.78
634.521	14566.16
634.875	14611.35
635.229	14596.66
635.583	14500.4
635.937	14406.84
636.291	14490.68
636.645	14505.59
636.999	14472.83
637.352	14433.05
637.706	14384.69
638.06	14489.77
638.413	14427.4
638.767	14391.7
639.121	14429.66
639.474	14367.29
639.828	14391.7
640.181	14464.69
640.534	14384.24
640.888	14317.8
641.241	14304.02
641.594	14347.86
641.947	14446.39
642.301	14409.78
642.654	14453.17
643.007	14371.81
643.36	14360.96
643.713	14365.94
644.066	14327.52
644.419	14212.72
644.771	14111.71
645.124	13940.64
645.477	13915.78
645.83	13860.64
646.182	13843.01
646.535	13811.37
646.888	13964.82
647.24	13897.93
647.593	13969.79
647.945	13976.79
648.298	13849.34
648.65	13805.5
649.002	13764.37
649.355	13791.04
649.707	13685.28
650.059	13694.54
650.411	13854.99
650.763	13868.1
651.115	14029
651.467	14028.54
651.819	13969.79
652.171	13921.88
652.523	13892.73
652.875	13859.96
653.227	13833.75
653.578	13864.71
653.93	13810.7
654.282	13874.42
654.633	13731.83
654.985	13798.27
655.337	13753.52
655.688	13846.63
656.039	13836.68
656.391	13698.38
656.742	13677.82
657.094	13643.47
657.445	13830.13
657.796	13736.35
658.147	13755.78
658.498	13751.71
658.849	13782.22
659.2	13780.41
659.551	13674.65
659.902	13731.15
660.253	13733.64
660.604	13727.99
660.955	13650.7
661.306	13737.03
661.656	13811.15
662.007	13721.66
662.358	13721.21
662.708	13753.07
663.059	13723.69
663.409	13633.53
663.76	13766.4
664.11	13803.92
664.461	13785.61
664.811	13753.97
665.161	13732.28
665.511	13680.3
665.862	13667.65
666.212	13749
666.562	13762.11
666.912	13664.94
667.262	13720.98
667.612	13680.08
667.962	13671.72
668.312	13664.26
668.662	13693.19
669.011	13654.99
669.361	13583.36
669.711	13598.72
670.06	13600.53
670.41	13544.26
670.76	13581.78
671.109	13582
671.459	13593.07
671.808	13546.52
672.157	13593.53
672.507	13352.63
672.856	13499.07
673.205	13540.87
673.554	13512.85
673.904	13426.53
674.253	13566.18
674.602	13393.98
674.951	13174.78
675.3	13005.97
675.649	13346.53
675.998	13257.26
676.346	13377.71
676.695	13356.02
677.044	13276.92
677.393	13443.25
677.741	13320.54
678.09	13305.62
678.438	13330.93
678.787	13366.41
679.135	13347.88
679.484	13296.81
679.832	13332.29
680.181	13282.8
680.529	13307.66
680.877	13264.04
681.225	13245.51
681.573	13296.59
681.922	13262.01
682.27	13224.5
682.618	13234.44
682.966	13161
683.314	13252.52
683.661	13137.49
684.009	13113.09
684.357	13104.73
684.705	13066.99
685.053	13039.19
685.4	13129.36
685.748	13042.58
686.095	12958.52
686.443	12932.3
686.79	12839.2
687.138	12962.58
687.485	12970.72
687.832	12890.04
688.18	12838.52
688.527	12794.23
688.874	12771.4
689.221	12698.18
689.568	12646.21
689.915	12589.71
690.262	12601.46
690.609	12535.48
690.956	12619.32
691.303	12521.01
691.65	12437.17
691.997	12410.51
692.344	12388.36
692.69	12408.93
693.037	12336.61
693.383	12253.22
693.73	12363.73
694.077	12271.75
694.423	12311.07
694.769	12228.82
695.116	12203.05
695.462	12170.74
695.808	12192.89
696.155	12139.55
696.501	11965.09
696.847	12074.92
697.193	11933.01
697.539	11993.34
697.885	11877.19
698.231	11875.83
698.577	11920.35
698.923	11837.87
699.269	11866.57
699.614	11807.13
699.96	11822.27
700.306	11864.31
700.651	11688.04
700.997	11654.37
701.342	11648.95
701.688	11617.99
702.033	11687.36
702.379	11637.42
702.724	11622.28
703.069	11603.52
703.415	11462.06
703.76	11432.68
704.105	11426.13
704.45	11433.81
704.795	11332.57
705.14	11290.31
705.485	11303.87
705.83	11269.52
706.175	11234.72
706.52	11205.57
706.865	11222.97
707.209	11161.95
707.554	11108.62
707.899	11139.58
708.243	11033.59
708.588	11081.05
708.932	10968.51
709.277	11011.22
709.621	11012.58
709.966	10982.52
710.31	10933.71
710.654	10860.49
710.998	10872.92
711.342	10915.18
711.687	10891.22
712.031	10744.79
712.375	10765.58
712.719	10719.48
713.063	10757.44
713.407	10776.43
713.75	10782.08
714.094	10709.99
714.438	10619.37
714.782	10695.3
715.125	10667.95
715.469	10687.39
715.812	10648.29
716.156	10522.2
716.499	10571.23
716.843	10531.91
717.186	10507.96
717.53	10543.44
717.873	10597.9
718.216	10625.47
718.559	10497.56
718.902	10463.44
719.246	10491.01
719.589	10387.28
719.932	10362.65
720.275	10350.45
720.617	10332.82
720.96	10422.31
721.303	10319.04
721.646	10387.96
721.989	10387.28
722.331	10335.53
722.674	10297.57
723.016	10286.5
723.359	10244.69
723.701	10227.74
724.044	10175.99
724.386	10118.82
724.729	10138.7
725.071	10168.08
725.413	10135.76
725.755	10128.99
726.097	10075.88
726.439	10060.06
726.782	10020.29
727.124	10053.05
727.465	10016.45
727.807	9969.44
728.149	10013.51
728.491	9977.12
728.833	9959.27
729.175	10004.24
729.516	9938.03
729.858	9869.33
730.199	9895.32
730.541	9828.43
730.882	9846.51
731.224	9793.4
731.565	9830.01
731.906	9827.75
732.248	9810.8
732.589	9746.4
732.93	9765.83
733.271	9747.75
733.612	9728.54
733.953	9731.03
734.294	9702.1
734.635	9676.79
734.976	9726.06
735.317	9692.16
735.658	9627.08
735.999	9645.83
736.339	9691.26
736.68	9669.11
737.021	9638.38
737.361	9595.67
737.702	9710.47
738.042	9589.56
738.383	9632.5
738.723	9693.52
739.063	9588.66
739.404	9612.16
739.744	9547.98
740.084	9525.61
740.424	9511.6
740.764	9553.86
741.104	9552.96
741.444	9412.62
741.784	9405.39
742.124	9433.64
742.464	9410.36
742.804	9464.6
743.143	9431.15
743.483	9430.02
743.823	9295.56
744.162	9334.43
744.502	9328.33
744.841	9342.34
745.181	9288.1
745.52	9310.93
745.86	9342.79
746.199	9318.84
746.538	9213.3
746.877	9319.06
747.216	9262.12
747.556	9240.65
747.895	9194.55
748.234	9168.56
748.573	9182.8
748.911	9225.51
749.25	9202.23
749.589	9128.33
749.928	9187.99
750.267	9158.16
750.605	9093.31
750.944	9075.68
751.283	9011.73
751.621	9055.12
751.96	9023.93
752.298	9056.24
752.636	9015.12
752.975	8925.63
753.313	8975.12
753.651	8923.59
753.989	8829.58
754.327	8856.93
754.666	8813.99
755.004	8830.71
755.342	8761.11
755.679	8831.39
756.017	8703.03
756.355	8785.97
756.693	8696.03
757.031	8710.49
757.368	8667.78
757.706	8681.11
758.044	8556.82
758.381	8613.77
758.719	8656.48
759.056	8563.6
759.394	8592.98
759.731	8516.6
760.068	8512.08
760.405	8503.04
