Data from foam2_polystyrene_foam_FLMS001491_00034.txt Node
Date: Wed Feb 08 10:57:52 GMT 2017
User: dcchb
Spectrometer: FLMS00149
Trigger mode: 0
Integration Time (sec): 2.000000E-2
Scans to average: 10
Electric dark correction enabled: true
Nonlinearity correction enabled: false
Boxcar width: 0
XAxis mode: Wavelengths
Number of Pixels in Spectrum: 2048
>>>>>Begin Spectral Data<<<<<
341.393	-20.34
341.776	-20.34
342.16	-20.34
342.543	-61.69
342.927	-51.52
343.31	-73.67
343.693	-59.21
344.077	-69.6
344.46	-65.53
344.843	-53.56
345.226	-40.22
345.61	-32.09
345.993	-1.13
346.376	-8.36
346.759	15.82
347.142	29.83
347.525	25.08
347.908	41.58
348.291	91.52
348.674	91.97
349.057	107.57
349.44	129.04
349.823	138.98
350.206	155.25
350.588	214.91
350.971	211.75
351.354	226.43
351.737	235.25
352.119	218.07
352.502	249.94
352.884	278.86
353.267	301.24
353.65	297.85
354.032	296.49
354.414	319.99
354.797	298.98
355.179	331.74
355.562	332.42
355.944	313.21
356.326	338.07
356.709	335.13
357.091	351.63
357.473	346.66
357.855	332.65
358.238	332.19
358.62	343.27
359.002	351.63
359.384	344.85
359.766	373.55
360.148	352.08
360.53	348.01
360.912	367
361.294	365.41
361.676	365.64
362.057	347.56
362.439	342.59
362.821	340.56
363.203	348.24
363.584	355.24
363.966	327.45
364.348	363.61
364.729	346.66
365.111	309.6
365.493	312.76
365.874	317.28
366.256	345.53
366.637	336.26
367.019	317.96
367.4	318.64
367.781	335.81
368.163	313.21
368.544	349.82
368.925	341.69
369.306	350.5
369.688	316.6
370.069	330.84
370.45	351.63
370.831	335.13
371.212	349.14
371.593	345.08
371.974	348.47
372.355	347.11
372.736	343.95
373.117	343.04
373.498	345.53
373.879	365.87
374.26	348.47
374.641	361.8
375.021	319.09
375.402	358.63
375.783	356.83
376.163	367.9
376.544	342.82
376.925	390.95
377.305	342.59
377.686	369.03
378.066	363.15
378.447	364.74
378.827	370.39
379.208	376.04
379.588	373.55
379.968	349.6
380.349	371.74
380.729	366.77
381.109	383.49
381.489	376.94
381.87	388.46
382.25	384.4
382.63	402.25
383.01	414.9
383.39	381.23
383.77	411.97
384.15	404.96
384.53	405.41
384.91	399.99
385.29	406.99
385.67	418.52
386.049	422.59
386.429	402.48
386.809	418.07
387.189	414.45
387.568	420.1
387.948	405.64
388.328	434.79
388.707	439.08
389.087	430.27
389.466	447.45
389.846	427.33
390.225	455.58
390.605	443.83
390.984	435.24
391.363	468.91
391.743	468.24
392.122	466.2
392.501	482.7
392.881	493.32
393.26	486.09
393.639	457.62
394.018	484.96
394.397	455.58
394.776	486.77
395.155	469.59
395.534	497.61
395.913	492.64
396.292	512.3
396.671	495.81
397.05	501.68
397.429	537.61
397.808	522.92
398.186	518.86
398.565	530.16
398.944	522.47
399.323	529.48
399.701	544.39
400.08	559.53
400.458	543.94
400.837	526.31
401.215	548.91
401.594	530.61
401.972	553.43
402.351	561.57
402.729	554.34
403.107	578.29
403.486	566.76
403.864	572.64
404.242	579.87
404.62	570.61
404.999	606.09
405.377	603.83
405.755	603.37
406.133	621.45
406.511	619.64
406.889	610.38
407.267	645.41
407.645	646.08
408.023	621.68
408.401	628.68
408.779	652.19
409.156	663.49
409.534	659.19
409.912	671.39
410.29	695.57
410.667	671.17
411.045	693.99
411.422	705.52
411.8	695.8
412.178	729.7
412.555	713.88
412.933	727.44
413.31	729.47
413.687	753.88
414.065	748.68
414.442	761.11
414.819	792.3
415.197	778.96
415.574	793.2
415.951	811.5
416.328	805.4
416.705	814.44
417.082	804.27
417.46	815.57
417.837	828.23
418.214	824.61
418.591	832.07
418.967	817.83
419.344	849.7
419.721	860.99
420.098	859.86
420.475	878.62
420.852	885.63
421.228	888.56
421.605	897.83
421.982	900.09
422.358	910.26
422.735	936.92
423.111	919.3
423.488	942.35
423.864	939.64
424.241	935.79
424.617	960.65
424.994	966.75
425.37	986.19
425.746	1000.88
426.123	1018.05
426.499	1013.76
426.875	1032.97
427.251	1036.36
427.627	1059.18
428.003	1062.57
428.379	1075.23
428.756	1099.18
429.132	1104.83
429.507	1109.35
429.883	1102.12
430.259	1144.83
430.635	1160.2
431.011	1168.1
431.387	1180.76
431.763	1180.08
432.138	1202.23
432.514	1232.74
432.89	1231.38
433.265	1246.52
433.641	1264.37
434.016	1299.85
434.392	1291.94
434.767	1320.19
435.143	1307.08
435.518	1331.72
435.894	1313.64
436.269	1340.76
436.644	1394.77
437.02	1388.66
437.395	1389.57
437.77	1418.04
438.145	1450.58
438.52	1456.91
438.895	1465.05
439.271	1456.68
439.646	1522.45
440.021	1507.76
440.395	1527.42
440.77	1527.64
441.145	1540.07
441.52	1561.54
441.895	1554.31
442.27	1564.03
442.645	1599.73
443.019	1603.8
443.394	1604.03
443.769	1613.97
444.143	1627.75
444.518	1633.63
444.892	1655.32
445.267	1666.85
445.641	1686.74
446.016	1722.21
446.39	1715.21
446.764	1741.88
447.139	1754.53
447.513	1763.34
447.887	1770.8
448.262	1787.75
448.636	1803.57
449.01	1818.03
449.384	1830.23
449.758	1855.54
450.132	1873.4
450.506	1872.95
450.88	1857.35
451.254	1909.33
451.628	1931.02
452.002	1957.24
452.376	1987.29
452.75	1967.18
453.123	1981.64
453.497	2051.25
453.871	2066.16
454.244	2084.92
454.618	2115.2
454.992	2108.87
455.365	2127.63
455.739	2176.89
456.112	2147.74
456.486	2205.37
456.859	2212.37
457.232	2260.51
457.606	2250.79
457.979	2281.07
458.352	2308.41
458.725	2356.77
459.099	2339.83
459.472	2393.84
459.845	2401.52
460.218	2444.68
460.591	2486.94
460.964	2493.49
461.337	2546.83
461.71	2549.76
462.083	2570.78
462.456	2630.67
462.829	2635.18
463.201	2660.5
463.574	2657.33
463.947	2738.69
464.32	2776.42
464.692	2771.9
465.065	2792.92
465.438	2851.22
465.81	2922.18
466.183	2888.96
466.555	2974.39
466.928	2970.09
467.3	2976.19
467.672	3046.7
468.045	3071.11
468.417	3103.65
468.789	3109.97
469.161	3163.08
469.534	3197.2
469.906	3294.38
470.278	3308.84
470.65	3340.25
471.022	3360.36
471.394	3433.36
471.766	3471.55
472.138	3558.32
472.51	3567.14
472.882	3666.57
473.253	3694.37
473.625	3728.49
473.997	3817.53
474.369	3851.88
474.74	3872.21
475.112	3983.62
475.484	3998.54
475.855	4131.42
476.227	4131.64
476.598	4196.95
476.97	4261.13
477.341	4368.02
477.713	4409.38
478.084	4421.13
478.455	4570.5
478.827	4565.08
479.198	4712.64
479.569	4714.23
479.94	4890.94
480.311	4942.69
480.682	5019.53
481.053	5143.14
481.424	5184.95
481.795	5245.06
482.166	5292.52
482.537	5381.78
482.908	5512.62
483.279	5570.25
483.65	5680.98
484.021	5786.74
484.391	5816.57
484.762	5861.99
485.133	5941.54
485.503	6036
485.874	6140.86
486.244	6236.67
486.615	6302.66
486.985	6391.92
487.356	6468.53
487.726	6553.05
488.097	6694.06
488.467	6712.59
488.837	6831.23
489.207	6927.73
489.578	7016.31
489.948	7090.44
490.318	7191
490.688	7242.52
491.058	7433.02
491.428	7473.02
491.798	7479.13
492.168	7673.7
492.538	7689.74
492.908	7821.49
493.278	7912.79
493.648	7943.97
494.017	8060.35
494.387	8153.46
494.757	8202.72
495.126	8261.25
495.496	8315.71
495.866	8411.98
496.235	8456.05
496.605	8515.93
496.974	8596.16
497.344	8669.15
497.713	8767.68
498.082	8851.52
498.452	8844.29
498.821	9001.12
499.19	8947.56
499.559	9134.68
499.928	9163.37
500.298	9246.54
500.667	9353.65
501.036	9355.01
501.405	9399.53
501.774	9465.74
502.143	9587.32
502.512	9588.67
502.88	9641.55
503.249	9730.14
503.618	9779.63
503.987	9800.87
504.356	9877.25
504.724	10029.11
505.093	10066.85
505.462	10101.2
505.83	10185.04
506.199	10212.61
506.567	10342.55
506.936	10389.56
507.304	10535.54
507.672	10593.39
508.041	10649.21
508.409	10757.91
508.777	10758.81
509.145	10918.58
509.514	10866.83
509.882	10912.71
510.25	11084.91
510.618	11108.18
510.986	11199.71
511.354	11274.28
511.722	11400.6
512.09	11454.39
512.458	11538.91
512.826	11644.89
513.193	11650.54
513.561	11714.27
513.929	11808.5
514.297	11839.91
514.664	12058.89
515.032	12115.61
515.4	12287.81
515.767	12299.79
516.135	12375.95
516.502	12330.07
516.869	12580.01
517.237	12655.03
517.604	12622.04
517.972	12705.88
518.339	12904.07
518.706	12852.54
519.073	12956.95
519.44	13097.51
519.808	13297.73
520.175	13269.48
520.542	13496.37
520.909	13579.08
521.276	13575.24
521.643	13749.69
522.009	13801.22
522.376	14001.44
522.743	14003.93
523.11	14167.99
523.477	14354.88
523.843	14400.07
524.21	14512.61
524.577	14657.02
524.943	14696.56
525.31	14808.42
525.676	14882.32
526.043	15055.65
526.409	15144.46
526.776	15343.33
527.142	15348.52
527.508	15478.46
527.874	15534.51
528.241	15631.45
528.607	15634.62
528.973	15929.75
529.339	15914.38
529.705	16124.1
530.071	16120.48
530.437	16242.74
530.803	16394.82
531.169	16466.23
531.535	16449.74
531.901	16490.64
532.267	16667.36
532.632	16750.07
532.998	16748.94
533.364	16929.5
533.73	16980.12
534.095	17102.15
534.461	17084.97
534.826	17197.74
535.192	17369.49
535.557	17430.95
535.923	17456.26
536.288	17604.06
536.653	17668.01
537.019	17592.08
537.384	17693.55
537.749	17734.67
538.114	17874.33
538.479	17909.36
538.845	18067.32
539.21	17993.2
539.575	18056.47
539.94	18196.13
540.305	18344.83
540.67	18341.44
541.034	18442.23
541.399	18459.18
541.764	18594.77
542.129	18590.02
542.494	18578.49
542.858	18717.93
543.223	18825.04
543.587	18952.5
543.952	18871.37
544.316	19055.77
544.681	19010.8
545.045	19107.07
545.41	19288.08
545.774	19307.29
546.138	19320.85
546.503	19296.44
546.867	19369.89
547.231	19619.82
547.595	19600.61
547.959	19688.97
548.324	19734.62
548.688	19860.49
549.052	19865.01
549.416	19924
549.779	20043.09
550.143	20152.24
550.507	20121.05
550.871	20297.09
551.235	20170.32
551.599	20445.79
551.962	20506.81
552.326	20464.77
552.689	20618.67
553.053	20515.84
553.417	20715.39
553.78	20985.66
554.143	20827.93
554.507	20947.92
554.87	20937.08
555.234	21230.85
555.597	21168.71
555.96	21270.85
556.323	21343.17
556.686	21370.29
557.05	21569.83
557.413	21618.87
557.776	21700.22
558.139	21778.64
558.502	21826.77
558.865	21925.75
559.228	22074.45
559.59	22137.5
559.953	22296.81
560.316	22542.46
560.679	22431.73
561.041	22584.26
561.404	22665.39
561.767	22809.8
562.129	22862
562.492	23097.02
562.854	23149.9
563.217	23135.44
563.579	23237.58
563.941	23411.14
564.304	23335.66
564.666	23542.43
565.028	23601.41
565.39	23693.84
565.753	23821.75
566.115	23917.11
566.477	23997.56
566.839	24076.66
567.201	24321.39
567.563	24308.29
567.925	24485.68
568.287	24515.74
568.648	24602.29
569.01	24691.78
569.372	24803.87
569.734	24972.22
570.095	25052.67
570.457	25080.47
570.819	25206.34
571.18	25138.77
571.542	25265.78
571.903	25223.74
572.265	25480.46
572.626	25521.81
572.987	25630.06
573.349	25524.53
573.71	25711.41
574.071	25731.98
574.432	25856.95
574.794	25973.55
575.155	25985.53
575.516	25957.96
575.877	26106.88
576.238	26204.96
576.599	26301
576.96	26320.66
577.32	26365.63
577.681	26423.94
578.042	26522.92
578.403	26554.33
578.763	26491.96
579.124	26549.58
579.485	26677.72
579.845	26680.2
580.206	26614.89
580.566	26702.8
580.927	26663.71
581.287	26864.6
581.648	26705.96
582.008	26828
582.368	26812.18
582.728	26836.36
583.089	26880.65
583.449	26902.12
583.809	26968.78
584.169	27012.4
584.529	26876.58
584.889	27004.04
585.249	26815.34
585.609	26901.89
585.969	27116.8
586.329	27058.05
586.688	26978.5
587.048	27061.89
587.408	26877.03
587.768	26990.7
588.127	26902.57
588.487	26882.23
588.846	27106.41
589.206	26966.75
589.565	27039.29
589.925	27153.41
590.284	27062.34
590.643	27060.76
591.003	27115.9
591.362	27161.77
591.721	27183.47
592.08	27110.93
592.44	27138.04
592.799	27094.43
593.158	27035.22
593.517	27107.54
593.876	27088.33
594.235	27085.39
594.593	27188.66
594.952	27138.04
595.311	27130.36
595.67	27167.65
596.029	27316.57
596.387	27305.27
596.746	27339.39
597.104	27278.83
597.463	27348.21
597.822	27392.27
598.18	27226.18
598.538	27225.27
598.897	27419.84
599.255	27167.65
599.613	27589.11
599.972	27418.04
600.33	27522.21
600.688	27415.78
601.046	27514.98
601.404	27681.76
601.762	27522.67
602.12	27661.65
602.478	27772.6
602.836	27740.74
603.194	27652.38
603.552	27715.66
603.91	27605.15
604.268	27748.87
604.625	27601.53
604.983	27841.75
605.341	27625.04
605.698	27905.25
606.056	27913.16
606.413	27949.55
606.771	27909.32
607.128	27952.03
607.485	27761.08
607.843	27916.1
608.2	28073.61
608.557	28128.75
608.914	27930.34
609.272	28140.28
609.629	28079.04
609.986	28267.51
610.343	28102.31
610.7	28357.9
611.057	28302.76
611.414	28298.01
611.771	28321.06
612.127	28446.94
612.484	28379.59
612.841	28554.96
613.198	28481.51
613.554	28439.93
613.911	28599.93
614.267	28516.31
614.624	28574.62
614.98	28637.44
615.337	28732.35
615.693	28598.57
616.05	28524.9
616.406	28776.87
616.762	28657.55
617.118	28627.72
617.475	28582.75
617.831	28655.52
618.187	28682.18
618.543	28735.52
618.899	28872.46
619.255	28826.36
619.611	28884.44
619.967	28881.95
620.323	28970.76
620.678	28873.14
621.034	28782.75
621.39	28830.65
621.746	28774.61
622.101	29046.92
622.457	28914.04
622.812	28957.43
623.168	29061.83
623.523	29018.45
623.879	29024.77
624.234	28909.3
624.589	28987.03
624.945	28912.46
625.3	29043.08
625.655	28901.16
626.01	29008.73
626.365	28885.57
626.72	28926.25
627.075	28844.44
627.43	28816.64
627.785	28897.32
628.14	28849.64
628.495	28939.35
628.85	28899.35
629.205	28740.49
629.559	28956.07
629.914	28758.34
630.269	28785.01
630.623	28714.95
630.978	28519.93
631.332	28643.31
631.687	28726.93
632.041	28610.1
632.396	28546.37
632.75	28514.28
633.104	28693.93
633.459	28398.35
633.813	28334.62
634.167	28466.82
634.521	28321.74
634.875	28334.4
635.229	28297.79
635.583	28302.53
635.937	28248.97
636.291	28383.66
636.645	28233.16
636.999	28179.37
637.352	28194.06
637.706	28054.86
638.06	28223.66
638.413	28122.42
638.767	27942.99
639.121	28042.88
639.474	27813.73
639.828	27893.73
640.181	27888.76
640.534	27954.29
640.888	27721.98
641.241	27520.86
641.594	27609.44
641.947	27766.28
642.301	27603.57
642.654	27653.28
643.007	27644.02
643.36	27637.01
643.713	27587.52
644.066	27606.96
644.419	27464.36
644.771	27365.61
645.124	26994.32
645.477	26956.81
645.83	26746.87
646.182	26708.68
646.535	26653.08
646.888	26513.65
647.24	26401.57
647.593	26527.21
647.945	26505.07
648.298	26335.13
648.65	26297.61
649.002	26195.92
649.355	26296.26
649.707	26340.55
650.059	26387.1
650.411	26766.3
650.763	26730.37
651.115	27012.62
651.467	26862.34
651.819	26887.88
652.171	26863.02
652.523	26792.06
652.875	26824.38
653.227	26745.06
653.578	26834.1
653.93	26811.05
654.282	26645.63
654.633	26585.97
654.985	26793.19
655.337	26721.33
655.688	26653.31
656.039	26672.75
656.391	26458.97
656.742	26566.99
657.094	26515.46
657.445	26610.83
657.796	26464.39
658.147	26377.16
658.498	26421.23
658.849	26504.61
659.2	26425.29
659.551	26434.79
659.902	26527.21
660.253	26413.99
660.604	26371.96
660.955	26341
661.306	26414.22
661.656	26307.33
662.007	26355.01
662.358	26271.85
662.708	26216.03
663.059	26266.65
663.409	26134.91
663.76	26313.21
664.11	26283.38
664.461	26297.16
664.811	26300.78
665.161	26222.59
665.511	26218.52
665.862	26176.49
666.212	26197.05
666.562	26105.53
666.912	26199.31
667.262	26169.26
667.612	26016.04
667.962	26053.1
668.312	25978.98
668.662	26186.88
669.011	26082.7
669.361	25996.15
669.711	26006.1
670.06	25978.98
670.41	25929.26
670.76	25925.87
671.109	25989.83
671.459	25916.61
671.808	25949.6
672.157	25981.69
672.507	25722.49
672.856	25782.15
673.205	25868.7
673.554	25936.95
673.904	25735.59
674.253	25921.58
674.602	25741.02
674.951	25397.98
675.3	25289.28
675.649	25615.82
675.998	25631.42
676.346	25670.74
676.695	25682.26
677.044	25501.7
677.393	25646.33
677.741	25623.06
678.09	25475.49
678.438	25449.95
678.787	25477.75
679.135	25434.36
679.484	25287.7
679.832	25447.47
680.181	25274.59
680.529	25373.12
680.877	25195.27
681.225	25229.39
681.573	25419.44
681.922	25152.78
682.27	25101.03
682.618	25071.43
682.966	25007.25
683.314	24982.39
683.661	24800.03
684.009	24782.63
684.357	24741.95
684.705	24761.83
685.053	24731.55
685.4	24651.1
685.748	24570.65
686.095	24533.37
686.443	24451.56
686.79	24416.08
687.138	24371.34
687.485	24476.64
687.832	24320.49
688.18	24342.86
688.527	24179.7
688.874	24175.18
689.221	24108.52
689.568	24010.22
689.915	24003.44
690.262	23968.64
690.609	24019.26
690.956	23809.77
691.303	23793.95
691.65	23647.74
691.997	23603.45
692.344	23509.21
692.69	23524.35
693.037	23482.32
693.383	23386.5
693.73	23377.69
694.077	23194.64
694.423	23287.98
694.769	23257.92
695.116	23223.12
695.462	23083.01
695.808	22960.75
696.155	23043.46
696.501	22879.62
696.847	22849.34
697.193	22677.82
697.539	22778.16
697.885	22564.6
698.231	22465.85
698.577	22551.05
698.923	22400.09
699.269	22233.99
699.614	22209.36
699.96	22074.9
700.306	22177.5
700.651	22179.3
700.997	21999.2
701.342	22167.33
701.688	21989.7
702.033	21929.37
702.379	21918.97
702.724	21881.01
703.069	21823.83
703.415	21667.45
703.76	21714.91
704.105	21704.29
704.45	21661.58
704.795	21602.14
705.14	21507.91
705.485	21469.72
705.83	21382.49
706.175	21456.38
706.52	21328.25
706.865	21191.76
707.209	21235.15
707.554	21123.29
707.899	21115.38
708.243	20990.41
708.588	21000.8
708.932	20781.15
709.277	20790.19
709.621	20756.74
709.966	20592.23
710.31	20686.24
710.654	20476.07
710.998	20506.81
711.342	20586.8
711.687	20526.69
712.031	20422.97
712.375	20374.83
712.719	20419.58
713.063	20379.8
713.407	20314.95
713.75	20319.47
714.094	20265.23
714.438	20245.34
714.782	20180.03
715.125	20170.54
715.469	20147.27
715.812	20032.69
716.156	19911.34
716.499	19973.49
716.843	19999.93
717.186	19821.85
717.53	19915.86
717.873	19848.52
718.216	19770.33
718.559	19723.32
718.902	19500.96
719.246	19637
719.589	19564.91
719.932	19408.76
720.275	19448.98
720.617	19345.71
720.96	19355.2
721.303	19365.59
721.646	19388.64
721.989	19262.77
722.331	19235.88
722.674	19252.6
723.016	19271.81
723.359	19200.4
723.701	19175.32
724.044	19088.54
724.386	19035.21
724.729	19109.55
725.071	19057.8
725.413	19039.95
725.755	18986.62
726.097	18868.2
726.439	18752.5
726.782	18822.56
727.124	18932.61
727.465	18729.45
727.807	18659.4
728.149	18706.4
728.491	18674.54
728.833	18656.46
729.175	18526.97
729.516	18529.91
729.858	18571.72
730.199	18567.65
730.541	18474.09
730.882	18489.68
731.224	18505.28
731.565	18335.56
731.906	18337.37
732.248	18364.49
732.589	18285.62
732.93	18178.28
733.271	18134.66
733.612	18170.14
733.953	18217.83
734.294	18037.04
734.635	18016.02
734.976	18065.06
735.317	17954.78
735.658	17983.93
735.999	17886.31
736.339	17885.86
736.68	17905.52
737.021	17848.57
737.361	17943.26
737.702	17956.14
738.042	17813.09
738.383	17782.81
738.723	17864.39
739.063	17677.05
739.404	17886.99
739.744	17714.11
740.084	17719.08
740.424	17711.62
740.764	17657.16
741.104	17628.69
741.444	17675.69
741.784	17511.86
742.124	17552.53
742.464	17463.04
742.804	17447.68
743.143	17484.74
743.483	17426.21
743.823	17349.83
744.162	17370.62
744.502	17487.22
744.841	17338.3
745.181	17348.24
745.52	17237.29
745.86	17199.1
746.199	17200.9
746.538	17193.67
746.877	17178.53
747.216	17051.98
747.556	17123.62
747.895	17120.45
748.234	16969.05
748.573	17006.11
748.911	16874.81
749.25	16918.65
749.589	16849.05
749.928	16878.88
750.267	16819.44
750.605	16800.01
750.944	16823.74
751.283	16738.77
751.621	16759.11
751.96	16603.86
752.298	16713.46
752.636	16686.79
752.975	16578.1
753.313	16512.11
753.651	16532.45
753.989	16450.41
754.327	16386.24
754.666	16369.06
