Data from foam_black_FLMS001491_00083.txt Node
Date: Wed Feb 08 10:44:50 GMT 2017
User: dcchb
Spectrometer: FLMS00149
Trigger mode: 0
Integration Time (sec): 2.000000E-2
Scans to average: 10
Electric dark correction enabled: true
Nonlinearity correction enabled: false
Boxcar width: 0
XAxis mode: Wavelengths
Number of Pixels in Spectrum: 2048
>>>>>Begin Spectral Data<<<<<
341.393	-4.15
341.776	-4.15
342.16	-4.15
342.543	-64.04
342.927	-77.82
343.31	-56.58
343.693	-62.46
344.077	-43.93
344.46	-59.74
344.843	-73.3
345.226	-33.3
345.61	-32.85
345.993	-19.75
346.376	-19.97
346.759	9.63
347.142	7.6
347.525	49.63
347.908	70.2
348.291	72.23
348.674	75.39
349.057	117.2
349.44	119.01
349.823	133.92
350.206	167.82
350.588	177.09
350.971	190.19
351.354	194.71
351.737	233.13
352.119	241.26
352.502	272.68
352.884	274.03
353.267	265.44
353.65	282.39
354.032	294.6
354.414	308.16
354.797	291.43
355.179	314.26
355.562	311.77
355.944	330.08
356.326	321.49
356.709	318.78
357.091	322.39
357.473	333.69
357.855	323.97
358.238	347.93
358.62	326.91
359.002	352
359.384	336.63
359.766	324.43
360.148	344.54
360.53	316.52
360.912	344.76
361.294	329.85
361.676	349.28
362.057	318.55
362.439	315.84
362.821	333.01
363.203	329.17
363.584	315.84
363.966	316.07
364.348	323.07
364.729	335.5
365.111	322.17
365.493	299.79
365.874	325.56
366.256	310.42
366.637	328.95
367.019	312
367.4	328.27
367.781	331.88
368.163	317.65
368.544	306.35
368.925	318.55
369.306	346.35
369.688	317.65
370.069	316.29
370.45	316.97
370.831	308.38
371.212	311.55
371.593	329.4
371.974	315.61
372.355	301.83
372.736	322.17
373.117	319.45
373.498	310.42
373.879	298.66
374.26	325.1
374.641	307.93
375.021	311.77
375.402	320.13
375.783	330.3
376.163	331.66
376.544	326.69
376.925	325.33
377.305	336.18
377.686	349.74
378.066	330.53
378.447	333.24
378.827	351.77
379.208	345.22
379.588	359.23
379.968	349.74
380.349	352.67
380.729	361.49
381.109	368.95
381.489	351.54
381.87	351.77
382.25	353.13
382.63	346.12
383.01	346.57
383.39	341.83
383.77	369.4
384.15	366.91
384.53	359.45
384.91	370.53
385.29	387.93
385.67	368.49
386.049	384.31
386.429	384.99
386.809	380.92
387.189	384.09
387.568	371.88
387.948	381.83
388.328	367.36
388.707	393.13
389.087	402.39
389.466	389.51
389.846	387.7
390.225	404.42
390.605	406.46
390.984	397.87
391.363	407.14
391.743	407.36
392.122	424.76
392.501	406.01
392.881	414.59
393.26	413.01
393.639	422.95
394.018	419.57
394.397	409.85
394.776	411.2
395.155	429.28
395.534	431.54
395.913	425.44
396.292	427.7
396.671	439.9
397.05	470.64
397.429	441.94
397.808	431.32
398.186	429.06
398.565	449.17
398.944	438.77
399.323	445.1
399.701	433.12
400.08	443.97
400.458	473.12
400.837	474.93
401.215	452.11
401.594	446.23
401.972	477.64
402.351	458.89
402.729	488.72
403.107	477.87
403.486	493.01
403.864	487.81
404.242	483.97
404.62	498.43
404.999	499.34
405.377	485.1
405.755	492.56
406.133	490.98
406.511	516.74
406.889	512.67
407.267	516.96
407.645	506.57
408.023	527.81
408.401	528.71
408.779	545.66
409.156	563.52
409.534	540.24
409.912	550.86
410.29	533.91
410.667	544.31
411.045	552.44
411.422	568.49
411.8	577.98
412.178	550.18
412.555	565.78
412.933	587.24
413.31	600.13
413.687	604.65
414.065	566
414.442	603.29
414.819	603.52
415.197	589.73
415.574	594.7
415.951	591.99
416.328	613.23
416.705	612.55
417.082	606.45
417.46	635.6
417.837	638.09
418.214	615.49
418.591	642.61
418.967	653.68
419.344	640.8
419.721	659.78
420.098	645.77
420.475	658.65
420.852	678.99
421.228	671.99
421.605	678.77
421.982	681.71
422.358	724.64
422.735	655.94
423.111	707.69
423.488	706.79
423.864	707.47
424.241	709.05
424.617	699.78
424.994	714.92
425.37	749.05
425.746	737.52
426.123	751.08
426.499	694.36
426.875	726.68
427.251	759.67
427.627	765.32
428.003	762.16
428.379	784.53
428.756	786.79
429.132	804.87
429.507	794.24
429.883	794.47
430.259	817.29
430.635	817.97
431.011	804.41
431.387	828.82
431.763	860.91
432.138	815.49
432.514	859.33
432.89	874.02
433.265	873.11
433.641	900.23
434.016	910.63
434.392	928.03
434.767	907.24
435.143	920.79
435.518	922.6
435.894	906.33
436.269	946.78
436.644	957.4
437.02	969.38
437.395	962.15
437.77	982.94
438.145	986.33
438.52	1004.63
438.895	1013.22
439.271	1006.67
439.646	1010.96
440.021	1028.36
440.395	1055.25
440.77	1038.53
441.145	1031.07
441.52	1056.61
441.895	1062.94
442.27	1058.19
442.645	1066.1
443.019	1073.33
443.394	1073.33
443.769	1068.14
444.143	1104.29
444.518	1086.89
444.892	1101.58
445.267	1123.95
445.641	1133.22
446.016	1115.37
446.39	1135.7
446.764	1133.22
447.139	1140.9
447.513	1168.47
447.887	1137.29
448.262	1150.17
448.636	1142.48
449.01	1150.39
449.384	1161.69
449.758	1184.74
450.132	1231.3
450.506	1223.16
450.88	1201.92
451.254	1205.08
451.628	1251.41
452.002	1217.06
452.376	1251.86
452.75	1268.36
453.123	1262.03
453.497	1272.2
453.871	1302.03
454.244	1337.73
454.618	1343.83
454.992	1330.28
455.365	1354.91
455.739	1369.82
456.112	1374.57
456.486	1392.42
456.859	1397.84
457.232	1434.68
457.606	1423.15
457.979	1457.05
458.352	1463.61
458.725	1469.03
459.099	1493.89
459.472	1523.72
459.845	1549.25
460.218	1551.51
460.591	1551.06
460.964	1574.56
461.337	1595.81
461.71	1610.95
462.083	1626.54
462.456	1626.09
462.829	1617.95
463.201	1630.61
463.574	1654.34
463.947	1717.84
464.32	1708.57
464.692	1726.65
465.065	1728.01
465.438	1756.48
465.81	1761
466.183	1782.69
466.555	1844.61
466.928	1841.22
467.3	1863.37
467.672	1876.25
468.045	1894.1
468.417	1952.41
468.789	1964.61
469.161	1962.58
469.534	1977.94
469.906	1998.96
470.278	2022.23
470.65	2042.57
471.022	2085.28
471.394	2127.99
471.766	2133.64
472.138	2146.98
472.51	2210.93
472.882	2202.57
473.253	2241.21
473.625	2287.99
473.997	2290.7
474.369	2322.34
474.74	2363.02
475.112	2378.61
475.484	2399.4
475.855	2438.95
476.227	2455.22
476.598	2558.27
476.97	2579.28
477.341	2582.9
477.713	2629.45
478.084	2628.77
478.455	2738.6
478.827	2770.24
479.198	2824.47
479.569	2796
479.94	2900.18
480.311	2946.28
480.682	2997.35
481.053	3022.66
481.424	3085.48
481.795	3127.06
482.166	3155.31
482.537	3157.8
482.908	3235.76
483.279	3241.41
483.65	3298.81
484.021	3372.71
484.391	3371.58
484.762	3394.18
485.133	3471.01
485.503	3502.65
485.874	3587.62
486.244	3597.11
486.615	3669.42
486.985	3671.68
487.356	3744.68
487.726	3757.33
488.097	3885.01
488.467	3870.55
488.837	3944.22
489.207	4021.73
489.578	4005.46
489.948	4062.86
490.318	4137.66
490.688	4092.69
491.058	4130.43
491.428	4230.31
491.798	4222.86
492.168	4351.21
492.538	4384.66
492.908	4361.16
493.278	4437.31
493.648	4518.89
494.017	4498.55
494.387	4601.6
494.757	4591.21
495.126	4656.74
495.496	4680.47
495.866	4661.04
496.235	4704.2
496.605	4758.66
496.974	4793.01
497.344	4874.82
497.713	4854.48
498.082	4966.11
498.452	4976.06
498.821	4985.77
499.19	5013.57
499.559	5064.87
499.928	5107.35
500.298	5094.02
500.667	5168.59
501.036	5185.54
501.405	5206.56
501.774	5181.47
502.143	5261.47
502.512	5295.14
502.88	5328.81
503.249	5321.13
503.618	5396.84
503.987	5407.23
504.356	5411.98
504.724	5487.45
505.093	5477.96
505.462	5538.75
505.83	5558.41
506.199	5574.68
506.567	5691.74
506.936	5620.56
507.304	5707.56
507.672	5682.93
508.041	5761.35
508.409	5766.77
508.777	5874.11
509.145	5891.96
509.514	5894.68
509.882	5937.84
510.25	6019.87
510.618	6055.58
510.986	6022.58
511.354	6109.81
511.722	6126.99
512.09	6245.17
512.458	6146.42
512.826	6233.88
513.193	6279.07
513.561	6304.38
513.929	6387.77
514.297	6434.32
514.664	6540.31
515.032	6500.08
515.4	6572.17
515.767	6634.77
516.135	6595
516.502	6638.16
516.869	6768.32
517.237	6804.48
517.604	6736.24
517.972	6800.87
518.339	6883.12
518.706	6924.25
519.073	6945.27
519.44	6964.93
519.808	7103.68
520.175	7106.62
520.542	7132.16
520.909	7213.74
521.276	7250.12
521.643	7271.59
522.009	7358.37
522.376	7397.69
522.743	7425.93
523.11	7569.89
523.477	7599.49
523.843	7652.37
524.21	7683.1
524.577	7768.07
524.943	7849.65
525.31	7932.81
525.676	7993.6
526.043	7941.63
526.409	8057.78
526.776	8128.74
527.142	8194.95
527.508	8203.77
527.874	8300.04
528.241	8351.11
528.607	8338
528.973	8383.42
529.339	8473.36
529.705	8539.8
530.071	8594.72
530.437	8672.68
530.803	8690.31
531.169	8728.5
531.535	8796.97
531.901	8810.76
532.267	8833.58
532.632	8882.17
532.998	8960.13
533.364	8954.71
533.73	9046.23
534.095	9091.65
534.461	9184.31
534.826	9234.7
535.192	9163.06
535.557	9311.53
535.923	9278.54
536.288	9369.16
536.653	9340.91
537.019	9394.02
537.384	9390.4
537.749	9478.54
538.114	9522.83
538.479	9486.9
538.845	9587.69
539.21	9555.14
539.575	9626.1
539.94	9652.99
540.305	9723.05
540.67	9722.6
541.034	9783.16
541.399	9787
541.764	9879.2
542.129	9912.65
542.494	9864.29
542.858	9860.67
543.223	9966.88
543.587	10030.84
543.952	10046.88
544.316	10051.4
544.681	10106.99
545.045	10154.22
545.41	10176.6
545.774	10210.27
546.138	10220.44
546.503	10330.04
546.867	10297.95
547.231	10422.69
547.595	10442.8
547.959	10421.79
548.324	10511.73
548.688	10523.03
549.052	10590.6
549.416	10658.17
549.779	10550.6
550.143	10625.17
550.507	10694.55
550.871	10709.92
551.235	10732.97
551.599	10876.92
551.962	10896.58
552.326	10939.06
552.689	11016.57
553.053	10979.97
553.417	10946.29
553.78	11126.85
554.143	11176.12
554.507	11204.14
554.87	11262.22
555.234	11390.35
555.597	11354.19
555.96	11432.61
556.323	11527.52
556.686	11550.8
557.05	11514.64
557.413	11685.71
557.776	11619.72
558.139	11849.55
558.502	11782.66
558.865	11919.6
559.228	11988.3
559.59	12074.63
559.953	12091.12
560.316	12171.57
560.679	12251.12
561.041	12273.04
561.404	12350.55
561.767	12419.7
562.129	12376.76
562.492	12522.98
562.854	12507.61
563.217	12665.12
563.579	12687.72
563.941	12755.51
564.304	12761.61
564.666	12875.28
565.028	12802.29
565.39	12965.22
565.753	13030.08
566.115	13099.01
566.477	13186.91
566.839	13195.5
567.201	13367.93
567.563	13447.47
567.925	13370.86
568.287	13461.26
568.648	13497.87
569.01	13559.33
569.372	13692.44
569.734	13543.74
570.095	13701.25
570.457	13858.99
570.819	13825.99
571.18	13787.35
571.542	13977.85
571.903	13913.22
572.265	14042.03
572.626	14143.5
572.987	14096.72
573.349	14201.12
573.71	14244.06
574.071	14318.63
574.432	14240.44
574.794	14404.28
575.155	14392.53
575.516	14291.97
575.877	14466.65
576.238	14532.41
576.599	14579.87
576.96	14626.65
577.32	14637.27
577.681	14653.09
578.042	14710.26
578.403	14666.2
578.763	14733.09
579.124	14832.52
579.485	14829.13
579.845	14894.21
580.206	14852.41
580.566	14799.53
580.927	14838.62
581.287	14988.22
581.648	14989.35
582.008	14995
582.368	14972.4
582.728	15024.6
583.089	14952.29
583.449	14916.81
583.809	14946.19
584.169	15010.14
584.529	15002.23
584.889	15101.21
585.249	15024.38
585.609	14960.2
585.969	15042.46
586.329	15066.41
586.688	15234.54
587.048	15098.73
587.408	15080.2
587.768	15052.17
588.127	15061.44
588.487	15115.45
588.846	15120.2
589.206	15103.7
589.565	15099.41
589.925	15253.53
590.284	15169.01
590.643	15194.32
591.003	15293.07
591.362	15258.5
591.721	15230.25
592.08	15271.15
592.44	15264.37
592.799	15249.91
593.158	15215.79
593.517	15329.46
593.876	15323.58
594.235	15262.56
594.593	15300.98
594.952	15349.12
595.311	15193.19
595.67	15282.68
596.029	15320.19
596.387	15307.76
596.746	15402.9
597.104	15268.21
597.463	15422.79
597.822	15452.84
598.18	15381.21
598.538	15355.67
598.897	15415.1
599.255	15324.03
599.613	15567.87
599.972	15560.64
600.33	15521.54
600.688	15489.23
601.046	15477.93
601.404	15605.61
601.762	15620.97
602.12	15668.66
602.478	15595.66
602.836	15564.25
603.194	15545.72
603.552	15543.01
603.91	15507.98
604.268	15623.01
604.625	15608.77
604.983	15715.43
605.341	15632.95
605.698	15756.79
606.056	15790.01
606.413	15720.18
606.771	15727.41
607.128	15818.26
607.485	15620.3
607.843	15776.9
608.2	15826.62
608.557	15856.9
608.914	15798.14
609.272	15950.46
609.629	15915.88
609.986	15932.38
610.343	15940.51
610.7	15982.77
611.057	15969.44
611.414	15947.97
611.771	15988.2
612.127	16122.2
612.484	16006.73
612.841	16089.21
613.198	16066.61
613.554	15970.12
613.911	16052.15
614.267	16127.17
614.624	16112.26
614.98	16174.86
615.337	16223.44
615.693	16152.26
616.05	16054.63
616.406	16369.2
616.762	16311.58
617.118	16219.83
617.475	16212.37
617.831	16310.67
618.187	16362.2
618.543	16364
618.899	16352.25
619.255	16368.3
619.611	16297.11
619.967	16348.64
620.323	16336.89
620.678	16321.29
621.034	16335.98
621.39	16241.97
621.746	16341.86
622.101	16442.19
622.457	16325.36
622.812	16338.47
623.168	16315.19
623.523	16400.84
623.879	16289.88
624.234	16281.97
624.589	16406.26
624.945	16372.82
625.3	16444.91
625.655	16558.35
626.01	16489.65
626.365	16462.31
626.72	16337.79
627.075	16429.77
627.43	16379.82
627.785	16307.96
628.14	16356.1
628.495	16441.06
628.85	16397
629.205	16317
629.559	16379.15
629.914	16305.25
630.269	16318.13
630.623	16346.6
630.978	16295.76
631.332	16396.55
631.687	16323.55
632.041	16311.35
632.396	16236.55
632.75	16258.92
633.104	16258.02
633.459	16208.75
633.813	16172.6
634.167	16208.3
634.521	16203.11
634.875	16220.51
635.229	16160.85
635.583	16031.36
635.937	15999.27
636.291	16050.57
636.645	16090.11
636.999	15967.86
637.352	16100.96
637.706	16023.67
638.06	16003.56
638.413	16100.06
638.767	16007.86
639.121	15976.9
639.474	15896.67
639.828	15892.83
640.181	16006.05
640.534	15975.31
640.888	15906.16
641.241	15784.36
641.594	15861.42
641.947	15893.96
642.301	15775.77
642.654	15822.55
643.007	15790.91
643.36	15686.96
643.713	15738.26
644.066	15733.06
644.419	15614.65
644.771	15504.59
645.124	15283.58
645.477	15208.78
645.83	15220.53
646.182	15205.17
646.535	15239.97
646.888	15255.79
647.24	15152.74
647.593	15232.96
647.945	15265.05
648.298	15243.13
648.65	15127.65
649.002	15097.82
649.355	15107.09
649.707	15025.28
650.059	15075.45
650.411	15220.53
650.763	15205.62
651.115	15495.55
651.467	15354.99
651.819	15278.84
652.171	15268.89
652.523	15319.06
652.875	15154.32
653.227	15179.86
653.578	15232.06
653.93	15312.51
654.282	15206.97
654.633	15149.57
654.985	15211.94
655.337	15206.3
655.688	15160.19
656.039	15175.79
656.391	15104.38
656.742	15131.49
657.094	15158.61
657.445	15160.19
657.796	15127.65
658.147	15089.01
658.498	15085.85
658.849	15183.7
659.2	15143.92
659.551	14999.07
659.902	15116.35
660.253	15125.85
660.604	15015.57
660.955	14939.86
661.306	15007.88
661.656	15004.04
662.007	14959.3
662.358	15024.15
662.708	14994.32
663.059	14986.64
663.409	14885.4
663.76	14985.06
664.11	15038.62
664.461	14980.31
664.811	14923.14
665.161	14916.13
665.511	14916.13
665.862	14984.61
666.212	14988.45
666.562	15001.33
666.912	14985.74
667.262	14875.23
667.612	14876.59
667.962	14899.18
668.312	14840.65
668.662	14926.53
669.011	14844.95
669.361	14966.3
669.711	14949.35
670.06	14830.94
670.41	14795.01
670.76	14807.21
671.109	14919.52
671.459	14955
671.808	14811.5
672.157	14830.49
672.507	14781.67
672.856	14763.14
673.205	14810.6
673.554	14867.09
673.904	14741.45
674.253	14821.22
674.602	14759.3
674.951	14588.01
675.3	14509.14
675.649	14677.04
675.998	14645.86
676.346	14668.46
676.695	14675.46
677.044	14620.32
677.393	14655.35
677.741	14696.25
678.09	14619.42
678.438	14575.35
678.787	14667.33
679.135	14652.86
679.484	14484.96
679.832	14569.7
680.181	14500.32
680.529	14555.69
680.877	14456.26
681.225	14412.42
681.573	14488.8
681.922	14357.05
682.27	14371.97
682.618	14281.57
682.966	14343.49
683.314	14425.98
683.661	14313.44
684.009	14276.6
684.357	14123.84
684.705	14152.31
685.053	14225.76
685.4	14148.47
685.748	14109.15
686.095	14122.26
686.443	14057.62
686.79	14007.46
687.138	14024.18
687.485	14035.48
687.832	13954.35
688.18	14024.41
688.527	13945.99
688.874	13915.48
689.221	13864.64
689.568	13835.03
689.915	13778.08
690.262	13807.91
690.609	13798.65
690.956	13749.16
691.303	13660.57
691.65	13627.81
691.997	13565.21
692.344	13517.3
692.69	13399.79
693.037	13517.75
693.383	13396.63
693.73	13382.84
694.077	13292.45
694.423	13357.08
694.769	13294.25
695.116	13268.94
695.462	13220.36
695.808	13179.23
696.155	13140.59
696.501	13057.43
696.847	13062.17
697.193	12946.02
697.539	13072.79
697.885	12896.75
698.231	12865.11
698.577	12883.42
698.923	12844.55
699.269	12747.83
699.614	12720.26
699.96	12711.22
700.306	12656.76
700.651	12670.54
700.997	12613.59
701.342	12556.42
701.688	12535.63
702.033	12576.76
702.379	12535.86
702.724	12577.44
703.069	12469.64
703.415	12252.7
703.76	12322.53
704.105	12259.93
704.45	12287.28
704.795	12179.48
705.14	12210.44
705.485	12213.61
705.83	12167.05
706.175	12133.61
706.52	12084.12
706.865	12071.46
707.209	12033.72
707.554	11897.68
707.899	11976.55
708.243	11945.14
708.588	11904.46
708.932	11798.7
709.277	11757.35
709.621	11788.98
709.966	11680.96
710.31	11675.54
710.654	11621.08
710.998	11717.12
711.342	11607.07
711.687	11578.14
712.031	11538.59
712.375	11502.89
712.719	11453.17
713.063	11499.05
713.407	11466.73
713.75	11476.9
714.094	11470.8
714.438	11380.41
714.782	11356.23
715.125	11274.65
715.469	11336.34
715.812	11255.44
716.156	11154.2
716.499	11150.36
716.843	11216.8
717.186	11087.99
717.53	11201.43
717.873	11207.98
718.216	11161.2
718.559	11110.81
718.902	11059.96
719.246	11028.1
719.589	11034.88
719.932	10941.55
720.275	10891.38
720.617	10928.89
720.96	10995.56
721.303	10921.66
721.646	10917.59
721.989	10849.57
722.331	10895.67
722.674	10778.61
723.016	10835.79
723.359	10817.94
723.701	10861.55
724.044	10732.74
724.386	10649.58
724.729	10781.1
725.071	10794.89
725.413	10754.43
725.755	10718.5
726.097	10647.32
726.439	10619.3
726.782	10639.18
727.124	10663.82
727.465	10561.22
727.807	10551.05
728.149	10549.69
728.491	10525.29
728.833	10562.58
729.175	10494.33
729.516	10429.7
729.858	10465.18
730.199	10481.45
730.541	10508.57
730.882	10431.96
731.224	10430.83
731.565	10286.88
731.906	10287.55
732.248	10332.98
732.589	10259.53
732.93	10196.03
733.271	10219.76
733.612	10235.58
733.953	10230.83
734.294	10213.43
734.635	10198.07
734.976	10234.67
735.317	10180.66
735.658	10236.03
735.999	10152.87
736.339	10127.56
736.68	10179.53
737.021	10085.98
737.361	10015.02
737.702	10095.02
738.042	10024.06
738.383	10045.75
738.723	10078.52
739.063	9989.26
739.404	10040.78
739.744	9991.97
740.084	9958.98
740.424	9908.36
740.764	9919.2
741.104	9942.93
741.444	9885.08
741.784	9897.28
742.124	9844.4
742.464	9905.64
742.804	9881.69
743.143	9819.54
743.483	9801.92
743.823	9786.78
744.162	9791.52
744.502	9709.72
744.841	9717.85
745.181	9736.38
745.52	9707
745.86	9724.63
746.199	9683.73
746.538	9620.68
746.877	9703.39
747.216	9630.4
747.556	9611.64
747.895	9627.46
748.234	9548.82
748.573	9593.79
748.911	9538.2
749.25	9600.57
749.589	9536.16
749.928	9534.58
750.267	9529.61
750.605	9429.5
750.944	9419.78
751.283	9438.54
751.621	9474.24
751.96	9376.17
752.298	9371.87
752.636	9388.82
752.975	9293.46
753.313	9264.08
753.651	9290.97
753.989	9264.98
754.327	9249.16
754.666	9222.95
755.004	9191.31
755.342	9195.38
755.679	9145.44
756.017	9110.18
756.355	9132.33
756.693	9102.5
757.031	9116.51
757.368	9050.75
757.706	9113.12
758.044	9000.58
758.381	9019.11
758.719	8966.01
759.056	9020.47
