Data from foam1_polythene_foam_FLMS001491_00010.txt Node
Date: Wed Feb 08 10:54:18 GMT 2017
User: dcchb
Spectrometer: FLMS00149
Trigger mode: 0
Integration Time (sec): 2.000000E-2
Scans to average: 10
Electric dark correction enabled: true
Nonlinearity correction enabled: false
Boxcar width: 0
XAxis mode: Wavelengths
Number of Pixels in Spectrum: 2048
>>>>>Begin Spectral Data<<<<<
341.393	0.75
341.776	0.75
342.16	0.75
342.543	-71.57
342.927	-71.79
343.31	-63.88
343.693	-70.66
344.077	-61.17
344.46	-64.11
344.843	-67.72
345.226	-36.54
345.61	-25.92
345.993	-11
346.376	-6.26
346.759	4.36
347.142	22.44
347.525	52.27
347.908	59.73
348.291	71.93
348.674	100.41
349.057	96.11
349.44	117.81
349.823	134.98
350.206	156.9
350.588	185.6
350.971	217.69
351.354	204.81
351.737	222.44
352.119	238.93
352.502	242.78
352.884	244.13
353.267	272.15
353.65	292.04
354.032	270.8
354.414	286.16
354.797	315.77
355.179	302.66
355.562	304.92
355.944	325.94
356.326	316.9
356.709	311.02
357.091	310.12
357.473	321.87
357.855	325.94
358.238	320.51
358.62	325.49
359.002	323.9
359.384	308.09
359.766	323.9
360.148	311.93
360.53	318.93
360.912	327.52
361.294	313.51
361.676	339.95
362.057	331.59
362.439	314.41
362.821	295.43
363.203	308.76
363.584	312.83
363.966	317.8
364.348	318.25
364.729	306.05
365.111	311.47
365.493	309.44
365.874	303.57
366.256	299.95
366.637	294.53
367.019	304.47
367.4	296.11
367.781	293.85
368.163	283
368.544	294.3
368.925	313.06
369.306	312.6
369.688	286.62
370.069	293.85
370.45	281.87
370.831	289.1
371.212	296.56
371.593	297.01
371.974	292.49
372.355	299.27
372.736	271.93
373.117	308.99
373.498	310.8
373.879	288.42
374.26	306.5
374.641	282.1
375.021	290.91
375.402	297.69
375.783	300.63
376.163	302.44
376.544	319.61
376.925	310.8
377.305	322.32
377.686	287.52
378.066	313.51
378.447	306.96
378.827	299.5
379.208	305.15
379.588	319.84
379.968	303.34
380.349	313.73
380.729	324.81
381.109	324.58
381.489	311.02
381.87	299.72
382.25	319.16
382.63	315.99
383.01	333.62
383.39	326.84
383.77	332.72
384.15	332.94
384.53	340.4
384.91	315.09
385.29	314.19
385.67	316.22
386.049	298.59
386.429	318.03
386.809	346.5
387.189	310.12
387.568	329.1
387.948	335.88
388.328	334.07
388.707	328.42
389.087	337.46
389.466	333.85
389.846	328.42
390.225	336.78
390.605	322.1
390.984	314.86
391.363	323
391.743	338.82
392.122	343.79
392.501	330.91
392.881	330.68
393.26	356.45
393.639	303.34
394.018	320.06
394.397	354.41
394.776	351.7
395.155	363.22
395.534	342.66
395.913	351.7
396.292	348.99
396.671	356.45
397.05	367.97
397.429	372.94
397.808	349.89
398.186	352.83
398.565	358.93
398.944	375.43
399.323	348.76
399.701	349.44
400.08	352.83
400.458	376.33
400.837	369.33
401.215	360.51
401.594	360.51
401.972	355.09
402.351	374.75
402.729	373.39
403.107	362.32
403.486	377.01
403.864	367.29
404.242	366.39
404.62	387.86
404.999	378.82
405.377	377.24
405.755	398.48
406.133	376.56
406.511	365.26
406.889	395.31
407.267	399.61
407.645	376.78
408.023	391.7
408.401	374.07
408.779	381.3
409.156	368.65
409.534	386.73
409.912	388.53
410.29	386.05
410.667	420.85
411.045	421.3
411.422	406.61
411.8	424.24
412.178	415.43
412.555	435.09
412.933	417.91
413.31	422.66
413.687	425.6
414.065	447.06
414.442	421.08
414.819	418.59
415.197	407.97
415.574	425.14
415.951	436.22
416.328	440.96
416.705	443.45
417.082	432.38
417.46	431.47
417.837	442.32
418.214	464.47
418.591	451.58
418.967	467.4
419.344	466.5
419.721	456.56
420.098	447.97
420.475	453.62
420.852	454.52
421.228	454.52
421.605	454.97
421.982	473.5
422.358	472.83
422.735	472.83
423.111	453.39
423.488	477.35
423.864	487.52
424.241	472.15
424.617	478.48
424.994	510.79
425.37	475.54
425.746	500.62
426.123	471.92
426.499	494.75
426.875	494.07
427.251	518.02
427.627	503.56
428.003	513.28
428.379	491.58
428.756	535.2
429.132	525.71
429.507	547.85
429.883	551.69
430.259	532.71
430.635	542.43
431.011	549.66
431.387	552.82
431.763	551.24
432.138	548.3
432.514	560.06
432.89	569.55
433.265	592.15
433.641	570.9
434.016	555.76
434.392	589.66
434.767	591.24
435.143	595.31
435.518	581.98
435.894	612.03
436.269	607.96
436.644	614.74
437.02	610.45
437.395	627.4
437.77	626.04
438.145	605.25
438.52	617.46
438.895	624.46
439.271	649.55
439.646	632.82
440.021	655.87
440.395	644.35
440.77	653.39
441.145	659.49
441.52	675.08
441.895	682.31
442.27	675.31
442.645	681.63
443.019	685.93
443.394	692.93
443.769	695.42
444.143	682.76
444.518	703.55
444.892	708.75
445.267	725.02
445.641	746.49
446.016	714.85
446.39	712.37
446.764	737
447.139	737.23
447.513	754.63
447.887	750.11
448.262	762.54
448.636	758.47
449.01	759.37
449.384	760.5
449.758	773.16
450.132	769.99
450.506	788.52
450.88	809.99
451.254	794.4
451.628	786.26
452.002	824.46
452.376	802.54
452.75	804.12
453.123	824.46
453.497	805.02
453.871	813.83
454.244	837.11
454.618	827.85
454.992	849.09
455.365	845.25
455.739	851.57
456.112	860.39
456.486	868.52
456.859	863.32
457.232	847.05
457.606	888.18
457.979	872.36
458.352	880.5
458.725	884.34
459.099	888.63
459.472	896.09
459.845	911.46
460.218	907.39
460.591	920.5
460.964	910.33
461.337	914.17
461.71	932.48
462.083	948.75
462.456	980.61
462.829	942.87
463.201	961.63
463.574	955.75
463.947	966.82
464.32	979.25
464.692	998.01
465.065	1005.02
465.438	995.75
465.81	1015.19
466.183	1027.16
466.555	1027.61
466.928	1026.94
467.3	1022.64
467.672	1050.89
468.045	1034.39
468.417	1049.53
468.789	1052.47
469.161	1090.21
469.534	1097.22
469.906	1130.44
470.278	1109.42
470.65	1114.39
471.022	1121.62
471.394	1155.75
471.766	1129.31
472.138	1155.97
472.51	1179.47
472.882	1190.1
473.253	1195.52
473.625	1228.51
473.997	1216.54
474.369	1229.64
474.74	1247.04
475.112	1278.91
475.484	1278.91
475.855	1284.56
476.227	1281.39
476.598	1318.45
476.97	1329.75
477.341	1360.49
477.713	1363.65
478.084	1371.33
478.455	1403.42
478.827	1403.65
479.198	1476.64
479.569	1429.64
479.94	1486.81
480.311	1475.51
480.682	1512.8
481.053	1541.72
481.424	1531.33
481.795	1583.76
482.166	1583.76
482.537	1589.18
482.908	1634.15
483.279	1642.74
483.65	1669.41
484.021	1698.33
484.391	1703.08
484.762	1737.88
485.133	1742.62
485.503	1783.3
485.874	1776.97
486.244	1801.83
486.615	1809.06
486.985	1831.89
487.356	1885.9
487.726	1872.34
488.097	1899.46
488.467	1942.17
488.837	1961.37
489.207	1975.61
489.578	1974.26
489.948	2006.12
490.318	2055.84
490.688	2059
491.058	2090.41
491.428	2115.27
491.798	2137.87
492.168	2136.74
492.538	2184.42
492.908	2208.37
493.278	2214.48
493.648	2240.01
494.017	2237.75
494.387	2241.59
494.757	2299.45
495.126	2320.91
495.496	2301.25
495.866	2333.34
496.235	2335.38
496.605	2370.63
496.974	2390.29
497.344	2400.91
497.713	2456.73
498.082	2412.44
498.452	2475.49
498.821	2461.02
499.19	2473.68
499.559	2517.97
499.928	2486.78
500.298	2531.08
500.667	2541.25
501.036	2559.33
501.405	2569.72
501.774	2542.15
502.143	2592.32
502.512	2633.45
502.88	2636.39
503.249	2665.09
503.618	2654.69
503.987	2698.08
504.356	2758.64
504.724	2728.13
505.093	2728.81
505.462	2753.67
505.83	2761.13
506.199	2766.33
506.567	2856.27
506.936	2828.02
507.304	2869.6
507.672	2889.26
508.041	2890.16
508.409	2908.69
508.777	2915.25
509.145	2938.3
509.514	2937.39
509.882	2937.62
510.25	3010.39
510.618	3038.41
510.986	3027.79
511.354	3048.8
511.722	3105.75
512.09	3095.13
512.458	3059.2
512.826	3139.42
513.193	3093.55
513.561	3179.42
513.929	3193.43
514.297	3213.32
514.664	3214.22
515.032	3300.55
515.4	3274.11
515.767	3276.59
516.135	3331.51
516.502	3293.09
516.869	3348.23
517.237	3362.69
517.604	3387.55
517.972	3420.55
518.339	3450.38
518.706	3477.49
519.073	3478.85
519.44	3500.77
519.808	3559.53
520.175	3516.59
520.542	3597.04
520.909	3636.59
521.276	3622.12
521.643	3630.48
522.009	3684.04
522.376	3695.11
522.743	3727.2
523.11	3760.2
523.477	3806.07
523.843	3786.41
524.21	3825.05
524.577	3858.73
524.943	3902.34
525.31	3929.23
525.676	3969.91
526.043	4005.16
526.409	4068.44
526.776	4018.27
527.142	4073.86
527.508	4068.21
527.874	4064.6
528.241	4117.48
528.607	4152.05
528.973	4147.31
529.339	4185.72
529.705	4252.39
530.071	4275.44
530.437	4257.59
530.803	4289.9
531.169	4330.8
531.535	4301.43
531.901	4332.84
532.267	4371.48
532.632	4416.68
532.998	4407.19
533.364	4412.61
533.73	4473.4
534.095	4483.57
534.461	4535.77
534.826	4534.41
535.192	4555.66
535.557	4549.1
535.923	4566.28
536.288	4597.01
536.653	4640.85
537.019	4569.22
537.384	4676.78
537.749	4636.11
538.114	4695.09
538.479	4670.91
538.845	4700.29
539.21	4764.24
539.575	4754.07
539.94	4788.87
540.305	4774.41
540.67	4833.62
541.034	4800.85
541.399	4810.57
541.764	4857.8
542.129	4884.69
542.494	4899.83
542.858	4921.3
543.223	4903.44
543.587	4933.73
543.952	4942.31
544.316	4982.09
544.681	4996.32
545.045	5005.14
545.41	5058.02
545.774	5061.18
546.138	5032.71
546.503	5033.84
546.867	5102.99
547.231	5089.43
547.595	5097.11
547.959	5144.57
548.324	5137.11
548.688	5131.01
549.052	5187.73
549.416	5178.92
549.779	5254.17
550.143	5265.02
550.507	5267.28
550.871	5319.25
551.235	5334.62
551.599	5349.76
551.962	5309.76
552.326	5327.61
552.689	5381.62
553.053	5429.31
553.417	5368.74
553.78	5449.87
554.143	5435.18
554.507	5472.92
554.87	5537.55
555.234	5555.18
555.597	5489.87
555.96	5517.89
556.323	5598.12
556.686	5574.39
557.05	5653.26
557.413	5657.32
557.776	5724.67
558.139	5722.18
558.502	5759.02
558.865	5771.44
559.228	5791.78
559.59	5773.03
559.953	5813.48
560.316	5847.6
560.679	5858.9
561.041	5920.82
561.404	5935.96
561.767	5938.67
562.129	5954.04
562.492	5988.16
562.854	6070.19
563.217	6038.33
563.579	6008.95
563.941	6056.86
564.304	6109.06
564.666	6145.67
565.028	6149.51
565.39	6199.91
565.753	6262.5
566.115	6262.5
566.477	6246.91
566.839	6317.64
567.201	6316.97
567.563	6385.67
567.925	6411.43
568.287	6444.65
568.648	6422.73
569.01	6460.92
569.372	6489.39
569.734	6507.92
570.095	6549.5
570.457	6539.11
570.819	6599.45
571.18	6517.41
571.542	6662.27
571.903	6624.98
572.265	6639.9
572.626	6667.47
572.987	6614.36
573.349	6697.07
573.71	6719.89
574.071	6715.6
574.432	6792.43
574.794	6780.23
575.155	6814.81
575.516	6768.03
575.877	6850.06
576.238	6845.09
576.599	6889.61
576.96	6827.46
577.32	6870.17
577.681	6847.8
578.042	6872.43
578.403	6832.66
578.763	6909.27
579.124	6916.27
579.485	6936.84
579.845	6977.97
580.206	6947.01
580.566	6958.98
580.927	6958.08
581.287	7009.6
581.648	6998.08
582.008	7057.74
582.368	6996.72
582.728	7028.13
583.089	7037.17
583.449	7009.83
583.809	6998.76
584.169	7022.48
584.529	7021.58
584.889	7092.09
585.249	7040.79
585.609	7017.74
585.969	7072.88
586.329	7068.13
586.688	7052.31
587.048	7068.59
587.408	7054.8
587.768	7047.79
588.127	7064.52
588.487	6997.17
588.846	7073.1
589.206	7071.07
589.565	7038.08
589.925	7081.47
590.284	7040.34
590.643	7103.61
591.003	7090.96
591.362	7095.7
591.721	7039.21
592.08	7098.64
592.44	7066.78
592.799	7071.98
593.158	7114.46
593.517	7060.68
593.876	7132.09
594.235	7071.98
594.593	7088.25
594.952	7067.91
595.311	7091.41
595.67	7049.6
596.029	7098.87
596.387	7113.56
596.746	7119.21
597.104	7141.13
597.463	7108.58
597.822	7110.39
598.18	7076.72
598.538	7082.6
598.897	7153.55
599.255	7092.77
599.613	7225.64
599.972	7140
600.33	7148.13
600.688	7156.94
601.046	7168.02
601.404	7177.73
601.762	7199.2
602.12	7189.71
602.478	7202.82
602.836	7187
603.194	7111.07
603.552	7186.32
603.91	7175.02
604.268	7208.24
604.625	7183.38
604.983	7183.61
605.341	7155.81
605.698	7237.85
606.056	7229.26
606.413	7211.18
606.771	7244.63
607.128	7287.56
607.485	7241.01
607.843	7273.33
608.2	7236.04
608.557	7302.7
608.914	7269.71
609.272	7250.95
609.629	7311.97
609.986	7343.38
610.343	7255.02
610.7	7309.93
611.057	7342.02
611.414	7344.06
611.771	7322.82
612.127	7343.38
612.484	7391.06
612.841	7376.83
613.198	7299.99
613.554	7383.38
613.911	7412.98
614.267	7323.72
614.624	7373.21
614.98	7325.75
615.337	7422.02
615.693	7361.68
616.05	7360.1
616.406	7458.41
616.762	7372.31
617.118	7333.89
617.475	7391.97
617.831	7387.22
618.187	7412.53
618.543	7403.72
618.899	7467.22
619.255	7527.78
619.611	7432.19
619.967	7445.52
620.323	7470.83
620.678	7383.38
621.034	7460.89
621.39	7402.14
621.746	7396.26
622.101	7458.41
622.457	7445.75
622.812	7412.08
623.168	7479.2
623.523	7460.67
623.879	7517.39
624.234	7418.18
624.589	7546.09
624.945	7451.85
625.3	7471.74
625.655	7467.22
626.01	7449.14
626.365	7461.34
626.72	7374.11
627.075	7392.64
627.43	7374.57
627.785	7445.52
628.14	7373.66
628.495	7452.3
628.85	7439.2
629.205	7431.97
629.559	7419.08
629.914	7399.2
630.269	7383.38
630.623	7390.38
630.978	7391.74
631.332	7354.23
631.687	7315.81
632.041	7305.42
632.396	7349.71
632.75	7270.16
633.104	7354.45
633.459	7201.69
633.813	7247.11
634.167	7317.62
634.521	7314.91
634.875	7309.93
635.229	7252.54
635.583	7237.62
635.937	7229.94
636.291	7215.02
636.645	7265.19
636.999	7146.32
637.352	7216.6
637.706	7183.16
638.06	7203.95
638.413	7118.08
638.767	7139.77
639.121	7211.63
639.474	7115.59
639.828	7108.81
640.181	7142.71
640.534	7158.53
640.888	7102.71
641.241	7121.69
641.594	7149.49
641.947	7100.9
642.301	7091.86
642.654	7078.53
643.007	7041.47
643.36	6984.97
643.713	6950.17
644.066	7031.98
644.419	6989.04
644.771	6965.54
645.124	6924.18
645.477	6864.07
645.83	6817.97
646.182	6833.56
646.535	6757.18
646.888	6788.82
647.24	6773.23
647.593	6825.2
647.945	6807.12
648.298	6752.21
648.65	6704.08
649.002	6695.49
649.355	6707.01
649.707	6723.74
650.059	6663.17
650.411	6742.72
650.763	6849.61
651.115	6813.45
651.467	6839.89
651.819	6878.31
652.171	6886.9
652.523	6815.03
652.875	6847.35
653.227	6801.25
653.578	6867.23
653.93	6788.59
654.282	6767.35
654.633	6719.89
654.985	6705.88
655.337	6738.42
655.688	6756.96
656.039	6746.56
656.391	6688.48
656.742	6720.12
657.094	6752.21
657.445	6749.72
657.796	6710.85
658.147	6735.49
658.498	6677.41
658.849	6719.89
659.2	6692.1
659.551	6677.86
659.902	6695.49
660.253	6658.65
660.604	6678.31
660.955	6677.86
661.306	6638.54
661.656	6626.56
662.007	6629.27
662.358	6590.86
662.708	6661.36
663.059	6628.37
663.409	6603.96
663.76	6639.22
664.11	6610.97
664.461	6619.56
664.811	6598.32
665.161	6601.48
665.511	6562.16
665.862	6631.08
666.212	6642.38
666.562	6658.2
666.912	6621.14
667.262	6619.33
667.612	6501.37
667.962	6569.16
668.312	6535.27
668.662	6592.21
669.011	6545.44
669.361	6558.54
669.711	6569.84
670.06	6560.8
670.41	6470.63
670.76	6535.27
671.109	6566.45
671.459	6516.74
671.808	6580.24
672.157	6573.91
672.507	6523.29
672.856	6524.87
673.205	6578.65
673.554	6512.89
673.904	6499.33
674.253	6535.04
674.602	6455.72
674.951	6413.24
675.3	6368.94
675.649	6466.57
675.998	6436.29
676.346	6430.86
676.695	6440.58
677.044	6426.12
677.393	6424.31
677.741	6444.87
678.09	6416.17
678.438	6413.01
678.787	6432.9
679.135	6490.52
679.484	6383.18
679.832	6418.88
680.181	6403.97
680.529	6461.37
680.877	6362.84
681.225	6344.54
681.573	6400.81
681.922	6314.93
682.27	6303.63
682.618	6278.32
682.966	6294.59
683.314	6293.46
683.661	6247.36
684.009	6275.84
684.357	6243.52
684.705	6211.43
685.053	6265.22
685.4	6280.58
685.748	6245.56
686.095	6243.75
686.443	6223.18
686.79	6218.66
687.138	6230.64
687.485	6161.04
687.832	6151.77
688.18	6166.01
688.527	6161.04
688.874	6130.08
689.221	6102.74
689.568	6021.38
689.915	6097.09
690.262	6049.4
690.609	5994.72
690.956	6035.17
691.303	6064.54
691.65	5983.64
691.997	5999.01
692.344	5979.57
692.69	6010.31
693.037	6015.51
693.383	5978.22
693.73	5991.33
694.077	5895.73
694.423	5900.48
694.769	5845.57
695.116	5846.24
695.462	5842.85
695.808	5803.99
696.155	5818
696.501	5764.66
696.847	5751.11
697.193	5753.37
697.539	5726.7
697.885	5663.88
698.231	5701.84
698.577	5716.3
698.923	5694.84
699.269	5686.25
699.614	5730.32
699.96	5696.87
700.306	5682.86
700.651	5671.33
700.997	5704.55
701.342	5601.05
701.688	5663.42
702.033	5516.08
702.379	5563.77
702.724	5509.08
703.069	5503.65
703.415	5432.47
703.76	5432.24
704.105	5411.23
704.45	5425.24
704.795	5417.1
705.14	5379.14
705.485	5415.75
705.83	5441.06
706.175	5435.18
706.52	5425.92
706.865	5475.18
707.209	5449.19
707.554	5406.48
707.899	5376.65
708.243	5376.65
708.588	5302.76
708.932	5288.29
709.277	5265.92
709.621	5220.95
709.966	5217.56
710.31	5218.01
710.654	5258.69
710.998	5194.96
711.342	5173.49
711.687	5198.13
712.031	5179.82
712.375	5136.21
712.719	5163.55
713.063	5204.23
713.407	5201.06
713.75	5165.36
714.094	5157.9
714.438	5152.93
714.782	5202.87
715.125	5126.04
715.469	5134.17
715.812	5085.59
716.156	5038.58
716.499	5007.4
716.843	5057.34
717.186	5011.69
717.53	5012.82
717.873	5070.9
718.216	5006.49
718.559	4995.87
718.902	4926.95
719.246	5000.84
719.589	5005.14
719.932	4978.92
720.275	4950.9
720.617	5026.15
720.96	5017.34
721.303	4987.74
721.646	4991.13
721.989	4973.5
722.331	4958.36
722.674	4930.11
723.016	4936.89
723.359	4898.47
723.701	4884.01
724.044	4861.41
724.386	4804.46
724.729	4850.56
725.071	4854.86
725.413	4777.57
725.755	4835.2
726.097	4808.08
726.439	4804.01
726.782	4796.78
727.124	4844.69
727.465	4856.21
727.807	4825.71
728.149	4816.22
728.491	4809.66
728.833	4837.01
729.175	4843.33
729.516	4767.18
729.858	4805.59
730.199	4751.36
730.541	4782.09
730.882	4742.54
731.224	4689.44
731.565	4718.36
731.906	4694.86
732.248	4590.46
732.589	4637.24
732.93	4658.93
733.271	4646.5
733.612	4678.82
733.953	4640.4
734.294	4645.15
734.635	4683.56
734.976	4650.34
735.317	4679.04
735.658	4712.04
735.999	4670
736.339	4670.91
736.68	4684.47
737.021	4676.78
737.361	4615.54
737.702	4631.81
738.042	4593.17
738.383	4602.44
738.723	4592.27
739.063	4522.66
739.404	4544.58
739.744	4515.43
740.084	4468.65
740.424	4550.01
740.764	4523.12
741.104	4496
741.444	4470.24
741.784	4456.68
742.124	4544.58
742.464	4520.4
742.804	4543.91
743.143	4537.58
743.483	4530.57
743.823	4527.18
744.162	4495.55
744.502	4549.33
744.841	4491.25
745.181	4487.18
745.52	4411.48
745.86	4492.38
746.199	4396.79
746.538	4370.35
746.877	4404.25
747.216	4377.58
747.556	4383.68
747.895	4350.92
748.234	4327.41
748.573	4356.11
748.911	4352.5
749.25	4354.08
749.589	4392.27
749.928	4362.67
750.267	4373.97
750.605	4327.64
750.944	4388.66
751.283	4396.57
751.621	4373.97
751.96	4352.05
752.298	4353.85
752.636	4338.04
752.975	4281.31
753.313	4284.7
753.651	4292.61
753.989	4259.62
754.327	4214.88
754.666	4209.68
755.004	4223.24
755.342	4221.2
755.679	4181.43
756.017	4130.81
756.355	4166.74
756.693	4129
757.031	4157.48
757.368	4149.57
757.706	4168.32
758.044	4185.05
758.381	4167.64
758.719	4165.16
759.056	4156.8
759.394	4177.36
759.731	4129.23
760.068	4149.11
760.405	4135.1
760.743	4127.65
761.08	4106.63
761.417	4080.19
761.754	4060.08
762.091	4020.76
762.428	4017.59
762.765	4008.33
763.102	3980.53
763.438	3947.54
763.775	3943.47
764.112	3917.48
764.449	3946.41
764.785	3896.69
765.122	3898.95
765.458	3915.67
765.795	3877.71
766.131	3912.51
766.467	3865.28
766.804	3891.04
767.14	3863.47
767.476	3883.13
767.812	3903.24
768.148	3844.04
768.485	3824.38
768.821	3859.4
769.157	3839.52
769.492	3805.85
769.828	3805.17
770.164	3740.99
770.5	3771.5
770.836	3718.16
771.171	3739.18
