Data from foam2_polystyrene_foam_FLMS001491_00049.txt Node
Date: Wed Feb 08 10:58:02 GMT 2017
User: dcchb
Spectrometer: FLMS00149
Trigger mode: 0
Integration Time (sec): 2.000000E-2
Scans to average: 10
Electric dark correction enabled: true
Nonlinearity correction enabled: false
Boxcar width: 0
XAxis mode: Wavelengths
Number of Pixels in Spectrum: 2048
>>>>>Begin Spectral Data<<<<<
341.393	-7.43
341.776	-7.43
342.16	-7.43
342.543	-71.38
342.927	-60.08
343.31	-62.12
343.693	-61.44
344.077	-67.31
344.46	-64.15
344.843	-75.9
345.226	-32.51
345.61	-53.76
345.993	-18.5
346.376	-13.08
346.759	14.94
347.142	43.42
347.525	55.17
347.908	72.79
348.291	87.03
348.674	80.48
349.057	94.94
349.44	123.64
349.823	151.89
350.206	169.29
350.588	215.39
350.971	227.82
351.354	226.91
351.737	254.03
352.119	280.02
352.502	288.16
352.884	298.33
353.267	302.17
353.65	322.05
354.032	320.25
354.414	335.16
354.797	331.54
355.179	327.93
355.562	347.82
355.944	341.94
356.326	349.62
356.709	374.26
357.091	374.03
357.473	349.62
357.855	343.75
358.238	390.75
358.62	358.44
359.002	367.25
359.384	369.06
359.766	367.02
360.148	363.41
360.53	353.01
360.912	362.05
361.294	376.74
361.676	374.48
362.057	364.99
362.439	364.76
362.821	373.58
363.203	381.26
363.584	355.05
363.966	338.78
364.348	357.76
364.729	358.66
365.111	361.15
365.493	354.6
365.874	359.11
366.256	339
366.637	355.05
367.019	333.13
367.4	374.48
367.781	355.5
368.163	362.73
368.544	344.88
368.925	367.02
369.306	357.76
369.688	364.31
370.069	362.05
370.45	376.97
370.831	370.19
371.212	397.98
371.593	363.63
371.974	375.16
372.355	352.79
372.736	369.06
373.117	375.84
373.498	389.17
373.879	376.74
374.26	363.63
374.641	364.54
375.021	385.33
375.402	385.55
375.783	363.86
376.163	415.16
376.544	390.98
376.925	410.41
377.305	405.89
377.686	399.34
378.066	428.72
378.447	430.07
378.827	417.64
379.208	409.28
379.588	427.59
379.968	423.52
380.349	408.83
380.729	405.22
381.109	424.2
381.489	442.5
381.87	425.33
382.25	430.98
382.63	431.88
383.01	444.76
383.39	444.99
383.77	459.23
384.15	437.98
384.53	453.12
384.91	462.16
385.29	454.48
385.67	453.8
386.049	494.93
386.429	475.04
386.809	470.07
387.189	469.62
387.568	483.86
387.948	509.85
388.328	509.62
388.707	492.44
389.087	503.52
389.466	523.4
389.846	522.05
390.225	529.73
390.605	513.24
390.984	523.4
391.363	544.42
391.743	542.16
392.122	528.83
392.501	549.39
392.881	554.82
393.26	574.48
393.639	544.19
394.018	588.49
394.397	583.52
394.776	551.43
395.155	589.17
395.534	583.74
395.913	573.57
396.292	588.71
396.671	601.14
397.05	605.89
397.429	611.31
397.808	617.87
398.186	629.62
398.565	642.5
398.944	640.92
399.323	633.01
399.701	649.95
400.08	659.67
400.458	661.48
400.837	641.59
401.215	673.23
401.594	684.08
401.972	690.18
402.351	687.92
402.729	669.16
403.107	685.89
403.486	704.19
403.864	699.22
404.242	712.55
404.62	732.89
404.999	715.04
405.377	746.68
405.755	727.92
406.133	742.38
406.511	753.91
406.889	755.94
407.267	785.32
407.645	789.61
408.023	799.56
408.401	785.54
408.779	798.43
409.156	812.21
409.534	833.68
409.912	843.17
410.29	850.63
410.667	882.26
411.045	859.44
411.422	880.46
411.8	880.68
412.178	874.13
412.555	915.03
412.933	920.68
413.31	940.34
413.687	931.08
414.065	956.16
414.442	962.71
414.819	1005.43
415.197	979.66
415.574	1002.26
415.951	1009.04
416.328	1019.21
416.705	1016.95
417.082	1033.22
417.46	1050.17
417.837	1059.89
418.214	1062.37
418.591	1093.11
418.967	1080.68
419.344	1080.9
419.721	1078.64
420.098	1133.11
420.475	1145.31
420.852	1139.43
421.228	1155.25
421.605	1142.15
421.982	1163.39
422.358	1184.63
422.735	1198.19
423.111	1172.88
423.488	1224.63
423.864	1241.13
424.241	1249.49
424.617	1275.47
424.994	1271.41
425.37	1270.5
425.746	1284.97
426.123	1325.42
426.499	1321.12
426.875	1352.54
427.251	1352.08
427.627	1407.67
428.003	1401.35
428.379	1404.06
428.756	1424.17
429.132	1403.83
429.507	1439.76
429.883	1463.72
430.259	1508.46
430.635	1531.51
431.011	1539.2
431.387	1561.8
431.763	1624.39
432.138	1597.95
432.514	1648.8
432.89	1607.22
433.265	1682.92
433.641	1661.45
434.016	1724.05
434.392	1754.11
434.767	1738.51
435.143	1765.41
435.518	1775.57
435.894	1789.36
436.269	1818.51
436.644	1885.85
437.02	1880.2
437.395	1867.55
437.77	1898.96
438.145	1919.07
438.52	1965.63
438.895	1965.85
439.271	1995.68
439.646	2052.18
440.021	2035.23
440.395	2041.78
440.77	2040.2
441.145	2075.68
441.52	2112.74
441.895	2109.13
442.27	2154.55
442.645	2140.54
443.019	2212.85
443.394	2163.14
443.769	2209.24
444.143	2211.5
444.518	2276.58
444.892	2223.47
445.267	2265.96
445.641	2323.13
446.016	2311.15
446.39	2332.4
446.764	2338.27
447.139	2348.67
447.513	2404.48
447.887	2409
448.262	2405.39
448.636	2418.27
449.01	2457.36
449.384	2480.42
449.758	2508.21
450.132	2555.44
450.506	2546.85
450.88	2562.22
451.254	2557.25
451.628	2586.85
452.002	2637.92
452.376	2678.6
452.75	2724.25
453.123	2747.98
453.497	2763.8
453.871	2785.72
454.244	2811.48
454.618	2824.13
454.992	2890.35
455.365	2895.09
455.739	2969.89
456.112	2997.46
456.486	2978.03
456.859	3009.67
457.232	3086.27
457.606	3115.2
457.979	3091.7
458.352	3189.77
458.725	3216.44
459.099	3268.64
459.472	3322.65
459.845	3346.38
460.218	3356.32
460.591	3398.81
460.964	3436.55
461.337	3557.45
461.71	3555.19
462.083	3592.93
462.456	3634.28
462.829	3621.63
463.201	3682.19
463.574	3742.98
463.947	3748.18
464.32	3822.53
464.692	3868.85
465.065	3946.82
465.438	3959.7
465.81	4026.59
466.183	4079.92
466.555	4173.25
466.928	4166.92
467.3	4196.08
467.672	4240.14
468.045	4383.19
468.417	4335.06
468.789	4410.76
469.161	4479.46
469.534	4529.4
469.906	4588.61
470.278	4645.1
470.65	4738.21
471.022	4827.25
471.394	4918.77
471.766	4916.06
472.138	5011.2
472.51	5091.87
472.882	5164.64
473.253	5269.95
473.625	5336.84
473.997	5440.11
474.369	5434.46
474.74	5476.49
475.112	5653.21
475.484	5751.52
475.855	5779.99
476.227	5862.02
476.598	5994.9
476.97	6073.09
477.341	6166.42
477.713	6306.98
478.084	6327.55
478.455	6515.56
478.827	6609.8
479.198	6801.88
479.569	6823.8
479.94	6950.81
480.311	7000.3
480.682	7184.25
481.053	7310.34
481.424	7452.04
481.795	7534.97
482.166	7650
482.537	7795.76
482.908	7946.26
483.279	8017.9
483.65	8175.63
484.021	8388.51
484.391	8474.16
484.762	8495.17
485.133	8605.45
485.503	8611.33
485.874	8949.85
486.244	8976.29
486.615	9152.78
486.985	9293.57
487.356	9434.81
487.726	9560.68
488.097	9762.48
488.467	9833.67
488.837	9936.94
489.207	10072.53
489.578	10275.01
489.948	10355.69
490.318	10454.44
490.688	10545.74
491.058	10718.16
491.428	10875.9
491.798	10969.23
492.168	11200.19
492.538	11202.9
492.908	11405.15
493.278	11491.93
493.648	11538.71
494.017	11741.41
494.387	11830.23
494.757	11908.19
495.126	12017.34
495.496	12166.94
495.866	12201.74
496.235	12331.91
496.605	12451.23
496.974	12564.22
497.344	12675.18
497.713	12755.85
498.082	12909.97
498.452	13041.27
498.821	13083.75
499.19	13128.5
499.559	13265.22
499.928	13399.68
500.298	13480.35
500.667	13633.57
501.036	13493.46
501.405	13788.14
501.774	13743.62
502.143	13984.07
502.512	14007.34
502.88	14155.59
503.249	14163.27
503.618	14332.08
503.987	14357.16
504.356	14458.18
504.724	14572.98
505.093	14632.19
505.462	14661.79
505.83	14876.25
506.199	15011.84
506.567	15131.61
506.936	15137.26
507.304	15453.18
507.672	15436.46
508.041	15551.48
508.409	15744.7
508.777	15763.91
509.145	15899.27
509.514	16040.51
509.882	16086.38
510.25	16174.97
510.618	16271.46
510.986	16442.08
511.354	16541.51
511.722	16755.75
512.09	16959.81
512.458	16857.89
512.826	17120.71
513.193	17255.62
513.561	17300.82
513.929	17400.93
514.297	17606.12
514.664	17681.37
515.032	17734.7
515.4	18065.99
515.767	17964.75
516.135	18180.79
516.502	18047.24
516.869	18515.25
517.237	18544.63
517.604	18478.64
517.972	18796.37
518.339	18749.59
518.706	18883.83
519.073	19035.23
519.44	19143.71
519.808	19294.44
520.175	19414.21
520.542	19765.61
520.909	19794.76
521.276	19883.8
521.643	20126.28
522.009	20315.65
522.376	20466.38
522.743	20536.66
523.11	20766.49
523.477	21076.08
523.843	21149.98
524.21	21289.19
524.577	21512.68
524.943	21643.53
525.31	21810.3
525.676	21962.84
526.043	22133.91
526.409	22310.85
526.776	22441.47
527.142	22471.3
527.508	22720.11
527.874	22915.13
528.241	22993.77
528.607	23188.8
528.973	23362.8
529.339	23534.1
529.705	23675.56
530.071	23877.82
530.437	23947.2
530.803	23967.99
531.169	24279.62
531.535	24187.64
531.901	24338.15
532.267	24543.11
532.632	24637.35
532.998	24791.47
533.364	24974.96
533.73	25066.71
534.095	25253.38
534.461	25299.25
534.826	25480.71
535.192	25615.17
535.557	25760.71
535.923	25723.87
536.288	25863.53
536.653	25995.5
537.019	26039.57
537.384	26096.52
537.749	26313.23
538.114	26334.25
538.479	26389.16
538.845	26632.32
539.21	26614.24
539.575	26715.03
539.94	26772.43
540.305	26921.58
540.67	26893.11
541.034	27076.6
541.399	27285.19
541.764	27314.34
542.129	27399.76
542.494	27621
542.858	27668.68
543.223	27795.46
543.587	27893.76
543.952	27916.81
544.316	27962.68
544.681	28057.6
545.045	28089.69
545.41	28237.93
545.774	28412.16
546.138	28394.99
546.503	28506.85
546.867	28612.38
547.231	28848.54
547.595	28880.4
547.959	29005.14
548.324	29061.19
548.688	29181.41
549.052	29266.38
549.416	29424.34
549.779	29366.71
550.143	29514.05
550.507	29604.9
550.871	29832.24
551.235	29673.37
551.599	29983.42
551.962	29975.51
552.326	30083.98
552.689	30256.86
553.053	30164.21
553.417	30361.49
553.78	30610.3
554.143	30568.72
554.507	30689.62
554.87	30905.2
555.234	31220.9
555.597	30965.54
555.96	31297.06
556.323	31391.75
556.686	31491.86
557.05	31696.6
557.413	31771.85
557.776	31904.95
558.139	31961.45
558.502	32113.08
558.865	32189.24
559.228	32466.52
559.59	32425.39
559.953	32735.21
560.316	33071.25
560.679	33085.03
561.041	33349.21
561.404	33513.5
561.767	33620.61
562.129	33606.6
562.492	34029.64
562.854	33741.06
563.217	34103.31
563.579	34218.34
563.941	34404.32
564.304	34668.72
564.666	34604.32
565.028	34698.55
565.39	34906
565.753	35117.97
566.115	35024.87
566.477	35218.76
566.839	35394.58
567.201	35558.42
567.563	35725.42
567.925	35857.39
568.287	35942.36
568.648	35991.85
569.01	36264.84
569.372	36525.62
569.734	36277.27
570.095	36722.23
570.457	36901.88
570.819	36949.57
571.18	36871.6
571.542	37160.63
571.903	37067.53
572.265	37252.16
572.626	37364.7
572.987	37564.92
573.349	37633.61
573.71	37805.14
574.071	38123.55
574.432	38048.07
574.794	38245.58
575.155	38225.46
575.516	38147.95
575.877	38208.97
576.238	38372.35
576.599	38534.61
576.96	38439.7
577.32	38706.81
577.681	38694.6
578.042	38820.02
578.403	38858.22
578.763	38935.05
579.124	38852.34
579.485	39105.44
579.845	39196.96
580.206	38989.06
580.566	39049.85
580.927	39136.63
581.287	39272.44
581.648	39241.03
582.008	39339.33
582.368	39296.4
582.728	39477.41
583.089	39286.23
583.449	39249.84
583.809	39426.11
584.169	39449.61
584.529	39446.22
584.889	39732.77
585.249	39503.4
585.609	39561.25
585.969	39686.22
586.329	39629.04
586.688	39587.01
587.048	39579.1
587.408	39530.97
587.768	39572.77
588.127	39636.95
588.487	39464.98
588.846	39825.42
589.206	39650.74
589.565	39550.85
589.925	39653.22
590.284	39673.34
590.643	39702.71
591.003	39667.69
591.362	39998.75
591.721	39789.26
592.08	39772.54
592.44	39942.93
592.799	39851.64
593.158	39786.78
593.517	39763.5
593.876	39809.38
594.235	39854.12
594.593	39892.09
594.952	39951.29
595.311	39764.63
595.67	39769.38
596.029	40045.75
596.387	40067
596.746	40123.49
597.104	39885.08
597.463	39848.7
597.822	39985.64
598.18	39914.23
598.538	39936.38
598.897	40208.91
599.255	39866.32
599.613	40381.79
599.972	40228.8
600.33	40371.4
600.688	40204.39
601.046	40387.67
601.404	40530.71
601.762	40422.47
602.12	40580.88
602.478	40485.29
602.836	40518.51
603.194	40403.26
603.552	40502.01
603.91	40350.83
604.268	40590.83
604.625	40321.23
604.983	40608.68
605.341	40394.67
605.698	40672.63
606.056	40709.47
606.413	40689.81
606.771	40885.05
607.128	40851.16
607.485	40771.39
607.843	40958.27
608.2	41073.75
608.557	41279.39
608.914	41042.56
609.272	41164.14
609.629	41276.68
609.986	41405.49
610.343	41208.44
610.7	41612.49
611.057	41509.22
611.414	41482.1
611.771	41579.27
612.127	41643.91
612.484	41606.84
612.841	41698.82
613.198	41537.24
613.554	41586.73
613.911	41807.52
614.267	41679.16
614.624	41553.06
614.98	41776.1
615.337	41928.42
615.693	41885.25
616.05	41748.54
616.406	42134.74
616.762	42035.53
617.118	42102.2
617.475	42011.35
617.831	42116.21
618.187	42054.29
618.543	42218.81
618.899	42241.63
619.255	42227.17
619.611	42274.62
619.967	42294.28
620.323	42452.02
620.678	42167.96
621.034	42227.84
621.39	42377.22
621.746	42198.69
622.101	42609.76
622.457	42170.67
622.812	42373.15
623.168	42466.26
623.523	42348.07
623.879	42597.55
624.234	42289.99
624.589	42420.61
624.945	42465.35
625.3	42567.72
625.655	42501.06
626.01	42421.74
626.365	42488.18
626.72	42351.46
627.075	42478.46
627.43	42322.98
627.785	42271.01
628.14	42338.8
628.495	42451.12
628.85	42478.23
629.205	42305.81
629.559	42410.44
629.914	42130.22
630.269	42180.39
630.623	42117.11
630.978	42066.72
631.332	42273.72
631.687	42318.46
632.041	42149.65
632.396	42069.43
632.75	41917.12
633.104	42070.79
633.459	41942.65
633.813	41863.79
634.167	41935.87
634.521	41886.61
634.875	41902.66
635.229	41819.95
635.583	41618.14
635.937	41625.37
636.291	41458.37
636.645	41527.52
636.999	41476.68
637.352	41507.41
637.706	41264.71
638.06	41421.76
638.413	41403.91
638.767	41226.97
639.121	41382.89
639.474	41159.62
639.828	41003.24
640.181	41074.43
640.534	40986.3
640.888	40930.03
641.241	40793.08
641.594	40833.08
641.947	41050.25
642.301	40797.37
642.654	40867.43
643.007	40819.29
643.36	40754.44
643.713	40735.68
644.066	40714.66
644.419	40562.58
644.771	40271.29
645.124	39913.1
645.477	39813.22
645.83	39711.53
646.182	39419.33
646.535	39232.44
646.888	39221.82
647.24	39210.3
647.593	39269.73
647.945	39228.38
648.298	38983.86
648.65	38860.7
649.002	38791.78
649.355	38948.83
649.707	38778.44
650.059	39063.86
650.411	39372.78
650.763	39497.97
651.115	39864.97
651.467	39730.06
651.819	39768.02
652.171	39734.58
652.523	39604.86
652.875	39631.53
653.227	39422.49
653.578	39628.82
653.93	39423.62
654.282	39390.4
654.633	39130.75
654.985	39287.13
655.337	39181.82
655.688	39200.81
656.039	39297.75
656.391	39042.84
656.742	39135.04
657.094	39128.49
657.445	39233.12
657.796	39183.4
658.147	38934.37
658.498	39095.72
658.849	39143.41
659.2	38882.62
659.551	38982.05
659.902	39046.69
660.253	38956.07
660.604	39032
660.955	38786.81
661.306	38904.99
661.656	38999.45
662.007	38911.32
662.358	38846.69
662.708	38948.83
663.059	38980.25
663.409	38645.57
663.76	38832.91
664.11	38935.5
664.461	38831.1
664.811	38697.32
665.161	38753.13
665.511	38618
665.862	38737.99
666.212	38746.35
666.562	38722.17
666.912	38814.37
667.262	38628.17
667.612	38478.79
667.962	38620.93
668.312	38549.07
668.662	38611.67
669.011	38429.98
669.361	38488.73
669.711	38375.06
670.06	38400.6
670.41	38433.14
670.76	38206.03
671.109	38404.22
671.459	38362.41
671.808	38344.56
672.157	38421.16
672.507	38188.18
672.856	38212.81
673.205	38410.77
673.554	38386.59
673.904	38236.99
674.253	38371.9
674.602	38325.57
674.951	37618.93
675.3	37486.05
675.649	38072.02
675.998	37917.45
676.346	38072.93
676.695	38337.55
677.044	37893.72
677.393	38139.14
677.741	38071.12
678.09	37930.1
678.438	37750.22
678.787	37939.14
679.135	37792.03
679.484	37516.78
679.832	37889.2
680.181	37444.02
680.529	37726.04
680.877	37546.39
681.225	37560.85
681.573	37800.16
681.922	37514.75
682.27	37474.07
682.618	37495.54
682.966	37361.08
683.314	37387.29
683.661	37274.08
684.009	37003.35
684.357	36995.21
684.705	36959.06
685.053	37051.71
685.4	36847.87
685.748	36733.53
686.095	36722.23
686.443	36535.34
686.79	36424.83
687.138	36520.2
687.485	36489.92
687.832	36354.1
688.18	36379.86
688.527	36177.61
688.874	36306.87
689.221	35929.7
689.568	35901.68
689.915	35916.15
690.262	35755.7
690.609	35708.24
690.956	35609.26
691.303	35540.11
691.65	35495.14
691.997	35524.97
692.344	35201.14
692.69	35244.98
693.037	35197.97
693.383	34875.72
693.73	35025.77
694.077	34748.95
694.423	34856.74
694.769	34677.76
695.116	34714.6
695.462	34569.51
695.808	34480.48
696.155	34517.31
696.501	34260.82
696.847	34187.83
697.193	34084.56
697.539	34181.73
697.885	33834.84
698.231	33861.51
698.577	33848.86
698.923	33795.98
699.269	33663.32
699.614	33531.8
699.96	33369.77
700.306	33496.1
700.651	33359.15
700.997	33199.83
701.342	33268.53
701.688	33056.33
702.033	33052.94
702.379	33037.58
702.724	32862.67
703.069	32889.11
703.415	32527.08
703.76	32575.44
704.105	32629.9
704.45	32578.15
704.795	32283.93
705.14	32288.22
705.485	32282.8
705.83	32076.47
706.175	32064.27
706.52	31998.51
706.865	31815.24
707.209	31964.39
707.554	31768.91
707.899	31785.63
708.243	31590.84
708.588	31572.31
708.932	31262.48
709.277	31334.57
709.621	31231.52
709.966	31156.95
710.31	31107.46
710.654	30865.21
710.998	30835.83
711.342	30881.93
711.687	30762.61
712.031	30719.9
712.375	30479
712.719	30591.09
713.063	30569.62
713.407	30727.58
713.75	30550.19
714.094	30441.49
714.438	30392.22
714.782	30382.28
715.125	30140.93
715.469	30330.98
715.812	30137.54
716.156	29853.03
716.499	29919.24
716.843	29907.72
717.186	29731
717.53	29968.96
717.873	29956.3
718.216	29734.39
718.559	29592.02
718.902	29367.62
719.246	29500.95
719.589	29400.84
719.932	29319.48
720.275	29297.34
720.617	29270.67
720.96	29241.97
721.303	29147.74
721.646	29204.23
721.989	28975.31
722.331	29064.57
722.674	28998.36
723.016	29005.82
723.359	28969.21
723.701	28931.47
724.044	28643.57
724.386	28623.91
724.729	28771.48
725.071	28559.05
725.413	28633.4
725.755	28498.71
726.097	28447.42
726.439	28374.42
726.782	28358.6
727.124	28497.13
727.465	28382.56
727.807	28316.57
728.149	28145.5
728.491	28093.75
728.833	28185.28
729.175	27949.8
729.516	27898.28
729.858	27999.97
730.199	27955.9
730.541	27871.84
730.882	27814.21
731.224	27933.08
731.565	27614.67
731.906	27601.34
732.248	27747.77
732.589	27596.82
732.93	27430.49
733.271	27479.08
733.612	27441.79
733.953	27565.63
734.294	27380.33
734.635	27340.55
734.976	27362.7
735.317	27120.45
735.658	27169.26
735.999	27197.28
736.339	27112.99
736.68	27148.92
737.021	27090.84
737.361	26929.26
737.702	27081.8
738.042	26828.25
738.383	26822.6
738.723	26797.52
739.063	26668.03
739.404	26715.03
739.744	26746.67
740.084	26536.73
740.424	26568.14
740.764	26540.35
741.104	26584.87
741.444	26423.51
741.784	26402.95
742.124	26419.9
742.464	26342.16
742.804	26404.98
743.143	26224.2
743.483	26250.41
743.823	26146.69
744.162	26166.8
744.502	26181.03
744.841	25985.33
745.181	26164.31
745.52	25953.47
745.86	26009.06
746.199	25873.92
746.538	25788.73
746.877	25905.11
747.216	25964.54
747.556	25860.14
747.895	25868.05
748.234	25687.94
748.573	25633.25
748.911	25597.77
749.25	25608.17
749.589	25446.36
749.928	25560.26
750.267	25576.3
750.605	25355.07
750.944	25415.63
751.283	25178.12
751.621	25378.57
751.96	25207.05
752.298	25121.4
752.636	25090.89
752.975	25033.04
753.313	24850.45
753.651	25029.43
