Data from foam_black_FLMS001491_00037.txt Node
Date: Wed Feb 08 10:43:48 GMT 2017
User: dcchb
Spectrometer: FLMS00149
Trigger mode: 0
Integration Time (sec): 2.000000E-2
Scans to average: 10
Electric dark correction enabled: true
Nonlinearity correction enabled: false
Boxcar width: 0
XAxis mode: Wavelengths
Number of Pixels in Spectrum: 2048
>>>>>Begin Spectral Data<<<<<
341.393	-12.85
341.776	-12.85
342.16	-12.85
342.543	-63.92
342.927	-60.99
343.31	-71.16
343.693	-57.37
344.077	-44.72
344.46	-53.3
344.843	-37.26
345.226	-47.43
345.61	-64.6
345.993	-14.43
346.376	-17.15
346.759	16.98
347.142	29.18
347.525	38.9
347.908	57.65
348.291	74.15
348.674	88.16
349.057	102.4
349.44	130.42
349.823	151.44
350.206	151.44
350.588	173.81
350.971	200.47
351.354	219.46
351.737	217.88
352.119	250.42
352.502	245.22
352.884	247.71
353.267	252.68
353.65	275.95
354.032	270.08
354.414	304.2
354.797	285.9
355.179	296.52
355.562	294.71
355.944	309.4
356.326	315.73
356.709	343.97
357.091	323.41
357.473	335.16
357.855	336.74
358.238	329.29
358.62	326.8
359.002	335.16
359.384	329.06
359.766	329.06
360.148	313.69
360.53	314.6
360.912	294.94
361.294	328.83
361.676	315.27
362.057	317.08
362.439	311.88
362.821	312.56
363.203	328.83
363.584	311.88
363.966	299.91
364.348	303.07
364.729	321.38
365.111	312.56
365.493	311.66
365.874	338.78
366.256	303.98
366.637	290.87
367.019	310.53
367.4	296.07
367.781	309.17
368.163	287.25
368.544	316.4
368.925	303.98
369.306	307.36
369.688	292.9
370.069	294.26
370.45	298.1
370.831	301.49
371.212	284.09
371.593	294.48
371.974	306.23
372.355	300.81
372.736	299.91
373.117	277.76
373.498	306.23
373.879	300.36
374.26	298.33
374.641	305.33
375.021	286.35
375.402	323.64
375.783	305.56
376.163	311.43
376.544	321.38
376.925	285.9
377.305	301.94
377.686	289.29
378.066	312.56
378.447	315.95
378.827	314.6
379.208	321.15
379.588	313.69
379.968	323.86
380.349	295.16
380.729	312.56
381.109	327.03
381.489	308.49
381.87	310.75
382.25	323.86
382.63	318.66
383.01	332
383.39	320.7
383.77	313.01
384.15	329.06
384.53	327.7
384.91	314.82
385.29	305.1
385.67	328.38
386.049	326.12
386.429	328.38
386.809	360.02
387.189	345.1
387.568	333.8
387.948	324.31
388.328	351.66
388.707	320.92
389.087	329.51
389.466	350.53
389.846	360.24
390.225	331.54
390.605	341.49
390.984	337.65
391.363	326.12
391.743	350.08
392.122	355.27
392.501	365.22
392.881	345.78
393.26	341.94
393.639	350.53
394.018	354.82
394.397	377.65
394.776	358.44
395.155	369.51
395.534	336.52
395.913	355.05
396.292	366.8
396.671	375.16
397.05	387.36
397.429	383.3
397.808	388.27
398.186	347.82
398.565	390.07
398.944	375.84
399.323	355.95
399.701	364.99
400.08	346.46
400.458	369.51
400.837	371.54
401.215	366.12
401.594	364.76
401.972	375.16
402.351	366.35
402.729	382.17
403.107	384.2
403.486	366.57
403.864	378.55
404.242	369.28
404.62	387.14
404.999	390.07
405.377	392.79
405.755	381.49
406.133	392.56
406.511	367.48
406.889	395.72
407.267	398.66
407.645	390.75
408.023	390.98
408.401	397.98
408.779	417.42
409.156	385.55
409.534	422.62
409.912	414.93
410.29	406.12
410.667	414.48
411.045	411.77
411.422	426.46
411.8	395.5
412.178	407.48
412.555	426.01
412.933	427.59
413.31	413.58
413.687	426.46
414.065	427.14
414.442	430.3
414.819	428.72
415.197	441.15
415.574	423.07
415.951	442.05
416.328	457.87
416.705	426.68
417.082	433.24
417.46	439.11
417.837	428.94
418.214	433.46
418.591	438.89
418.967	444.54
419.344	464.87
419.721	461.26
420.098	451.32
420.475	449.73
420.852	463.07
421.228	473.91
421.605	443.41
421.982	484.31
422.358	459
422.735	478.43
423.111	471.65
423.488	484.31
423.864	479.34
424.241	506.23
424.617	479.34
424.994	495.16
425.37	474.14
425.746	478.21
426.123	498.77
426.499	485.44
426.875	495.38
427.251	506.23
427.627	512.11
428.003	489.51
428.379	527.7
428.756	515.72
429.132	509.17
429.507	520.92
429.883	528.15
430.259	537.64
430.635	516.4
431.011	538.77
431.387	528.6
431.763	540.8
432.138	540.8
432.514	557.3
432.89	550.3
433.265	554.36
433.641	563.4
434.016	548.26
434.392	576.96
434.767	569.73
435.143	604.98
435.518	546.91
435.894	578.32
436.269	576.51
436.644	594.36
437.02	579.22
437.395	577.64
437.77	576.96
438.145	605.21
438.52	564.31
438.895	600.46
439.271	608.83
439.646	620.8
440.021	593.23
440.395	592.56
440.77	632.33
441.145	615.38
441.52	636.17
441.895	634.59
442.27	632.78
442.645	643.85
443.019	637.07
443.394	627.36
443.769	616.51
444.143	600.46
444.518	643.85
444.892	654.25
445.267	665.55
445.641	630.07
446.016	623.74
446.39	636.85
446.764	621.48
447.139	644.76
447.513	629.84
447.887	650.18
448.262	667.81
448.636	653.8
449.01	689.73
449.384	691.76
449.758	661.71
450.132	676.85
450.506	686.56
450.88	684.08
451.254	678.43
451.628	695.83
452.002	707.81
452.376	711.65
452.75	722.27
453.123	712.78
453.497	724.75
453.871	711.87
454.244	729.95
454.618	745.32
454.992	742.83
455.365	735.38
455.739	768.82
456.112	750.74
456.486	753.23
456.859	764.53
457.232	770.63
457.606	760.46
457.979	753.91
458.352	789.16
458.725	791.42
459.099	814.47
459.472	819.89
459.845	789.61
460.218	803.17
460.591	807.24
460.964	833
461.337	840.91
461.71	840.91
462.083	867.58
462.456	836.84
462.829	845.66
463.201	841.59
463.574	849.5
463.947	878.88
464.32	898.08
464.692	909.38
465.065	894.02
465.438	903.28
465.81	939.44
466.183	921.13
466.555	959.78
466.928	924.75
467.3	957.07
467.672	969.27
468.045	974.69
468.417	972.88
468.789	963.84
469.161	988.7
469.534	995.71
469.906	1015.59
470.278	1030.51
470.65	1026.67
471.022	1041.36
471.394	1059.89
471.766	1051.98
472.138	1069.83
472.51	1083.16
472.882	1086.1
473.253	1116.38
473.625	1096.5
473.997	1118.64
474.369	1110.73
474.74	1155.48
475.112	1133.11
475.484	1195.48
475.855	1202.48
476.227	1192.77
476.598	1221.01
476.97	1230.96
477.341	1247.68
477.713	1256.04
478.084	1246.55
478.455	1279.54
478.827	1314.8
479.198	1320.9
479.569	1319.09
479.94	1338.98
480.311	1378.75
480.682	1393.44
481.053	1410.61
481.424	1438.86
481.795	1466.2
482.166	1461.91
482.537	1455.36
482.908	1473.89
483.279	1519.31
483.65	1531.29
484.021	1549.59
484.391	1552.76
484.762	1595.47
485.133	1590.27
485.503	1625.3
485.874	1649.25
486.244	1645.18
486.615	1671.4
486.985	1669.81
487.356	1698.51
487.726	1719.31
488.097	1717.5
488.467	1755.24
488.837	1778.51
489.207	1802.47
489.578	1809.02
489.948	1860.54
490.318	1840.88
490.688	1860.32
491.058	1859.64
491.428	1881.79
491.798	1920.2
492.168	1952.97
492.538	1940.99
492.908	1966.3
493.278	1987.55
493.648	2006.76
494.017	2000.2
494.387	2034.78
494.757	2027.32
495.126	2041.1
495.496	2039.52
495.866	2076.58
496.235	2095.79
496.605	2139.63
496.974	2146.64
497.344	2086.98
497.713	2119.52
498.082	2185.28
498.452	2184.15
498.821	2215.56
499.19	2222.12
499.559	2185.73
499.928	2217.37
500.298	2242.23
500.667	2237.94
501.036	2279.06
501.405	2278.84
501.774	2307.31
502.143	2307.99
502.512	2282.91
502.88	2352.06
503.249	2329.46
503.618	2331.72
503.987	2343.24
504.356	2347.31
504.724	2382.34
505.093	2414.2
505.462	2401.32
505.83	2423.02
506.199	2423.92
506.567	2435.44
506.936	2463.69
507.304	2480.87
507.672	2503.92
508.041	2530.36
508.409	2573.07
508.777	2575.33
509.145	2559.51
509.514	2552.96
509.882	2601.99
510.25	2590.02
510.618	2597.25
510.986	2649.68
511.354	2645.38
511.722	2689.45
512.09	2684.25
512.458	2678.38
512.826	2693.97
513.193	2712.05
513.561	2711.37
513.929	2770.35
514.297	2767.87
514.664	2760.63
515.032	2798.37
515.4	2792.95
515.767	2808.99
516.135	2813.06
516.502	2862.1
516.869	2857.13
517.237	2872.72
517.604	2888.09
517.972	2914.08
518.339	2930.57
518.706	2934.87
519.073	2976.67
519.44	2944.13
519.808	3008.08
520.175	3008.76
520.542	3089.89
520.909	3067.29
521.276	3053.06
521.643	3093.96
522.009	3123.34
522.376	3139.83
522.743	3153.17
523.11	3221.86
523.477	3194.52
523.843	3231.81
524.21	3299.83
524.577	3301.86
524.943	3304.35
525.31	3314.52
525.676	3358.58
526.043	3409.88
526.409	3391.35
526.776	3421.86
527.142	3482.42
527.508	3426.6
527.874	3442.42
528.241	3470.45
528.607	3503.21
528.973	3494.85
529.339	3517.45
529.705	3553.61
530.071	3619.59
530.437	3650.78
530.803	3635.41
531.169	3643.1
531.535	3616.43
531.901	3648.52
532.267	3688.97
532.632	3696.2
532.998	3708.86
533.364	3693.94
533.73	3811
534.095	3754.96
534.461	3775.52
534.826	3792.7
535.192	3792.92
535.557	3859.14
535.923	3856.65
536.288	3854.84
536.653	3923.99
537.019	3909.3
537.384	3935.52
537.749	3975.52
538.114	3908.4
538.479	3931.9
538.845	3944.11
539.21	3966.25
539.575	3972.13
539.94	4035.85
540.305	4048.28
540.67	4030.2
541.034	4068.17
541.399	4119.02
541.764	4077.44
542.129	4132.12
542.494	4074.05
542.858	4131.45
543.223	4133.93
543.587	4166.92
543.952	4160.37
544.316	4138.45
544.681	4211.89
545.045	4186.13
545.41	4245.79
545.774	4215.28
546.138	4232.91
546.503	4278.11
546.867	4280.14
547.231	4313.81
547.595	4307.49
547.959	4297.54
548.324	4286.47
548.688	4301.38
549.052	4323.08
549.416	4364.66
549.779	4333.93
550.143	4360.14
550.507	4402.17
550.871	4422.51
551.235	4446.69
551.599	4484.43
551.962	4444.88
552.326	4480.14
552.689	4524.66
553.053	4474.71
553.417	4515.16
553.78	4554.03
554.143	4550.42
554.507	4570.76
554.87	4607.82
555.234	4646.46
555.597	4626.57
555.96	4636.29
556.323	4657.98
556.686	4730.3
557.05	4647.59
557.413	4732.79
557.776	4704.76
558.139	4767.13
558.502	4793.8
558.865	4818.66
559.228	4871.76
559.59	4843.06
559.953	4888.04
560.316	4930.29
560.679	4988.15
561.041	5004.42
561.404	5002.38
561.767	5027.01
562.129	4998.31
562.492	5025.21
562.854	5007.58
563.217	5073.34
563.579	5084.19
563.941	5133.68
564.304	5105.88
564.666	5186.33
565.028	5237.63
565.39	5226.56
565.753	5231.08
566.115	5244.64
566.477	5328.93
566.839	5288.7
567.201	5293
567.563	5337.97
567.925	5377.97
568.287	5378.87
568.648	5350.62
569.01	5397.85
569.372	5437.17
569.734	5451.86
570.095	5445.31
570.457	5463.39
570.819	5488.47
571.18	5493.44
571.542	5572.76
571.903	5560.79
572.265	5539.54
572.626	5584.29
572.987	5585.19
573.349	5606.43
573.71	5615.47
574.071	5652.76
574.432	5721.91
574.794	5689.37
575.155	5708.13
575.516	5671.52
575.877	5763.04
576.238	5742.48
576.599	5766.88
576.96	5773.21
577.32	5742.48
577.681	5798.52
578.042	5785.86
578.403	5814.79
578.763	5810.27
579.124	5838.07
579.485	5836.48
579.845	5845.98
580.206	5833.77
580.566	5953.77
580.927	5941.79
581.287	5926.88
581.648	5876.71
582.008	5909.03
582.368	5858.86
582.728	5948.35
583.089	5916.71
583.449	5894.56
583.809	5906.54
584.169	5937.27
584.529	5944.96
584.889	5920.78
585.249	5950.83
585.609	5885.75
585.969	5994.22
586.329	5941.79
586.688	5939.53
587.048	5928.46
587.408	5943.15
587.768	5914.22
588.127	5925.3
588.487	5898.63
588.846	5967.1
589.206	5979.31
589.565	5996.71
589.925	5957.39
590.284	5963.71
590.643	5969.59
591.003	5991.96
591.362	5995.12
591.721	5955.13
592.08	5911.29
592.44	5999.87
592.799	5991.28
593.158	5940.44
593.517	5968.91
593.876	5923.94
594.235	5883.49
594.593	5993.32
594.952	5979.53
595.311	5956.71
595.67	5913.32
596.029	6076.48
596.387	5967.78
596.746	6047.55
597.104	6009.81
597.463	5986.09
597.822	6042.81
598.18	6031.51
598.538	6020.89
598.897	6023.37
599.255	5993.54
599.613	6109.92
599.972	6037.38
600.33	6123.71
600.688	6029.47
601.046	6120.55
601.404	6106.53
601.762	6050.26
602.12	6102.24
602.478	6077.83
602.836	6087.33
603.194	6099.08
603.552	6068.8
603.91	6045.97
604.268	6066.76
604.625	6077.38
604.983	6065.41
605.341	6125.97
605.698	6145.86
606.056	6112.18
606.413	6135.23
606.771	6120.77
607.128	6136.59
607.485	6101.34
607.843	6110.83
608.2	6146.99
608.557	6197.15
608.914	6128.45
609.272	6161.9
609.629	6171.39
609.986	6206.42
610.343	6161.22
610.7	6255.46
611.057	6172.3
611.414	6203.48
611.771	6215.91
612.127	6173.43
612.484	6225.18
612.841	6287.55
613.198	6230.6
613.554	6252.97
613.911	6329.35
614.267	6298.62
614.624	6332.52
614.98	6294.33
615.337	6394.66
615.693	6374.32
616.05	6368.9
616.406	6411.84
616.762	6382.01
617.118	6372.06
617.475	6376.13
617.831	6483.93
618.187	6465.39
618.543	6430.82
618.899	6472.63
619.255	6478.95
619.611	6437.37
619.967	6479.41
620.323	6421.33
620.678	6436.92
621.034	6436.02
621.39	6372.29
621.746	6386.75
622.101	6511.5
622.457	6418.16
622.812	6410.26
623.168	6399.86
623.523	6422.91
623.879	6414.55
624.234	6337.26
624.589	6342.69
624.945	6350.37
625.3	6328.22
625.655	6347.88
626.01	6351.95
626.365	6325.51
626.72	6258.62
627.075	6259.07
627.43	6307.21
627.785	6245.06
628.14	6268.79
628.495	6297.49
628.85	6158.28
629.205	6280.54
629.559	6261.33
629.914	6287.55
630.269	6269.24
630.623	6238.28
630.978	6278.51
631.332	6298.62
631.687	6305.85
632.041	6263.82
632.396	6288.22
632.75	6256.36
633.104	6294.78
633.459	6338.84
633.813	6306.3
634.167	6294.33
634.521	6296.81
634.875	6329.81
635.229	6352.86
635.583	6346.3
635.937	6308.56
636.291	6360.99
636.645	6349.47
636.999	6367.54
637.352	6363.02
637.706	6270.82
638.06	6314.21
638.413	6342.69
638.767	6246.42
639.121	6305.17
639.474	6309.92
639.828	6263.37
640.181	6243.71
640.534	6288.22
640.888	6210.03
641.241	6247.32
641.594	6239.41
641.947	6214.33
642.301	6189.92
642.654	6233.76
643.007	6216.81
643.36	6186.98
643.713	6100.43
644.066	6156.02
644.419	6102.69
644.771	6022.47
645.124	5996.71
645.477	5958.52
645.83	5898.4
646.182	5903.38
646.535	5913.32
646.888	5916.03
647.24	5920.78
647.593	5955.58
647.945	5916.93
648.298	5910.16
648.65	5869.48
649.002	5885.75
649.355	5818.41
649.707	5853.43
650.059	5836.03
650.411	5924.84
650.763	5956.03
651.115	5945.63
651.467	6001
651.819	6027.89
652.171	6010.72
652.523	6000.32
652.875	5994.9
653.227	5963.94
653.578	6006.2
653.93	5997.61
654.282	5945.86
654.633	5947.22
654.985	5969.59
655.337	5983.6
655.688	5994.67
656.039	5971.4
656.391	5973.2
656.742	5966.65
657.094	5973.88
657.445	6012.07
657.796	5960.78
658.147	5965.52
658.498	5892.08
658.849	5913.09
659.2	5921.68
659.551	5938.18
659.902	5961.23
660.253	5895.01
660.604	5861.34
660.955	5864.28
661.306	5906.09
661.656	5852.76
662.007	5900.66
662.358	5859.31
662.708	5830.16
663.059	5849.82
663.409	5813.43
663.76	5826.54
664.11	5835.58
664.461	5785.41
664.811	5805.07
665.161	5818.86
665.511	5815.24
665.862	5800.1
666.212	5824.51
666.562	5752.65
666.912	5819.76
667.262	5805.75
667.612	5793.32
667.962	5810.27
668.312	5760.1
668.662	5808.24
669.011	5828.58
669.361	5840.55
669.711	5782.93
670.06	5826.77
670.41	5786.77
670.76	5762.14
671.109	5839.42
671.459	5843.26
671.808	5838.52
672.157	5862.25
672.507	5815.92
672.856	5812.98
673.205	5838.29
673.554	5875.35
673.904	5852.08
674.253	5862.02
674.602	5883.26
674.951	5800.55
675.3	5777.28
675.649	5850.04
675.998	5831.06
676.346	5851.4
676.695	5875.13
677.044	5859.54
677.393	5800.33
677.741	5809.37
678.09	5839.2
678.438	5789.48
678.787	5797.62
679.135	5857.73
679.484	5781.8
679.832	5784.28
680.181	5765.3
680.529	5744.96
680.877	5734.79
681.225	5739.54
681.573	5763.04
681.922	5718.75
682.27	5651.41
682.618	5652.99
682.966	5638.3
683.314	5634.23
683.661	5603.04
684.009	5543.16
684.357	5532.54
684.705	5574.8
685.053	5545.87
685.4	5537.51
685.748	5495.7
686.095	5487.57
686.443	5430.62
686.79	5492.99
687.138	5495.25
687.485	5482.82
687.832	5417.74
688.18	5426.78
688.527	5446.66
688.874	5382.26
689.221	5365.54
689.568	5391.07
689.915	5403.05
690.262	5361.7
690.609	5374.12
690.956	5359.21
691.303	5377.06
691.65	5294.8
691.997	5322.6
692.344	5298.42
692.69	5326.22
693.037	5306.33
693.383	5287.35
693.73	5327.57
694.077	5315.14
694.423	5311.3
694.769	5295.93
695.116	5313.33
695.462	5318.76
695.808	5259.1
696.155	5223.17
696.501	5192.66
696.847	5255.94
697.193	5237.63
697.539	5236.27
697.885	5217.52
698.231	5225.2
698.577	5187.91
698.923	5190.17
699.269	5175.49
699.614	5148.14
699.96	5145.88
700.306	5108.59
700.651	5115.15
700.997	5118.54
701.342	5081.7
701.688	5107.69
702.033	5075.83
702.379	5072.66
702.724	5072.21
703.069	5044.87
703.415	5013.23
703.76	4956.73
704.105	4979.11
704.45	4986.79
704.795	4899.11
705.14	4868.6
705.485	4913.12
705.83	4941.37
706.175	4930.29
706.52	4842.39
706.865	4842.61
707.209	4847.58
707.554	4829.51
707.899	4828.6
708.243	4809.62
708.588	4799
708.932	4757.87
709.277	4741.15
709.621	4761.03
709.966	4733.69
710.31	4811.65
710.654	4677.87
710.998	4696.4
711.342	4698.21
711.687	4692.79
712.031	4723.07
712.375	4640.36
712.719	4667.48
713.063	4688.04
713.407	4682.84
713.75	4651.66
714.094	4664.31
714.438	4650.75
714.782	4664.54
715.125	4629.51
715.469	4654.6
715.812	4645.1
716.156	4620.92
716.499	4582.05
716.843	4649.85
717.186	4561.49
717.53	4609.17
717.873	4593.13
718.216	4596.29
718.559	4574.37
718.902	4582.73
719.246	4529.4
719.589	4541.15
719.932	4573.69
720.275	4529.85
720.617	4578.44
720.96	4523.07
721.303	4559.23
721.646	4514.26
721.989	4493.24
722.331	4559.91
722.674	4443.53
723.016	4516.52
723.359	4443.98
723.701	4501.38
724.044	4452.34
724.386	4447.82
724.729	4423.87
725.071	4414.6
725.413	4401.72
725.755	4397.88
726.097	4353.13
726.439	4394.26
726.782	4399.23
727.124	4449.18
727.465	4368.5
727.807	4382.06
728.149	4321.27
728.491	4326.47
728.833	4337.32
729.175	4312.91
729.516	4315.17
729.858	4307.26
730.199	4301.38
730.541	4290.54
730.882	4309.07
731.224	4280.37
731.565	4305.23
731.906	4258.45
732.248	4236.75
732.589	4241.27
732.93	4241.5
733.271	4234.04
733.612	4260.48
733.953	4255.74
734.294	4184.1
734.635	4199.24
734.976	4241.95
735.317	4185.45
735.658	4148.85
735.999	4195.85
736.339	4220.26
736.68	4170.77
737.021	4170.99
737.361	4191.56
737.702	4166.7
738.042	4172.57
738.383	4202.63
738.723	4166.7
739.063	4118.79
739.404	4103.65
739.744	4130.09
740.084	4125.12
740.424	4151.33
740.764	4118.56
741.104	4114.72
741.444	4135.96
741.784	4125.57
742.124	4089.41
742.464	4095.74
742.804	4139.81
743.143	4093.03
743.483	4099.58
743.823	4037.21
744.162	4028.4
744.502	4079.24
744.841	4051.45
745.181	4078.79
745.52	4065.01
745.86	4053.26
746.199	4028.62
746.538	4006.93
746.877	4022.3
747.216	4051.22
747.556	3992.47
747.895	4030.66
748.234	3989.08
748.573	3994.73
748.911	4003.31
749.25	4028.85
749.589	3995.63
749.928	4015.97
750.267	4034.72
750.605	3976.65
750.944	3971
751.283	4000.15
751.621	4043.09
751.96	3935.07
752.298	3963.31
752.636	3919.02
752.975	3909.98
753.313	3916.08
753.651	3910.66
753.989	3924.44
754.327	3885.12
754.666	3894.39
755.004	3888.97
755.342	3888.29
755.679	3910.43
756.017	3857.78
756.355	3862.07
756.693	3868.63
757.031	3868.63
757.368	3851.45
757.706	3792.7
758.044	3814.84
758.381	3825.01
758.719	3779.36
759.056	3763.77
759.394	3821.85
759.731	3792.47
760.068	3770.32
760.405	3791.57
760.743	3707.95
761.08	3732.81
761.417	3709.54
761.754	3748.63
762.091	3752.92
762.428	3719.25
762.765	3676.54
763.102	3683.1
763.438	3655.75
763.775	3653.04
764.112	3641.51
764.449	3649.88
764.785	3608.52
765.122	3612.36
765.458	3572.14
765.795	3617.11
766.131	3583.21
766.467	3585.24
766.804	3546.38
767.14	3502.54
767.476	3557
767.812	3506.15
768.148	3507.05
768.485	3502.08
768.821	3465.7
769.157	3468.64
769.492	3463.89
769.828	3504.12
770.164	3458.02
770.5	3443.55
770.836	3452.14
771.171	3396.32
771.507	3457.34
