Data from foam_black_FLMS001491_00001.txt Node
Date: Wed Feb 08 10:43:24 GMT 2017
User: dcchb
Spectrometer: FLMS00149
Trigger mode: 0
Integration Time (sec): 2.000000E-2
Scans to average: 10
Electric dark correction enabled: true
Nonlinearity correction enabled: false
Boxcar width: 0
XAxis mode: Wavelengths
Number of Pixels in Spectrum: 2048
>>>>>Begin Spectral Data<<<<<
341.393	18.23
341.776	18.23
342.16	18.23
342.543	-80.07
342.927	-57.47
343.31	-62.44
343.693	-73.97
344.077	-77.58
344.46	-76.9
344.843	-45.72
345.226	-33.52
345.61	-35.1
345.993	-10.69
346.376	0.38
346.759	18.23
347.142	32.92
347.525	53.26
347.908	53.71
348.291	62.53
348.674	81.96
349.057	112.92
349.44	123.32
349.823	140.94
350.206	155.18
350.588	178.68
350.971	205.8
351.354	231.56
351.737	230.21
352.119	238.79
352.502	261.39
352.884	278.79
353.267	279.92
353.65	280.37
354.032	315.18
354.414	312.46
354.797	327.6
355.179	328.06
355.562	316.98
355.944	338
356.326	337.77
356.709	321.5
357.091	335.06
357.473	352.01
357.855	354.5
358.238	315.63
358.62	345.91
359.002	365.8
359.384	319.24
359.766	351.11
360.148	348.39
360.53	347.49
360.912	336.19
361.294	335.06
361.676	333.03
362.057	341.16
362.439	346.81
362.821	340.26
363.203	334.16
363.584	310.66
363.966	321.73
364.348	335.74
364.729	338.23
365.111	313.14
365.493	345.46
365.874	314.27
366.256	333.93
366.637	316.76
367.019	327.38
367.4	342.97
367.781	320.37
368.163	320.15
368.544	326.02
368.925	314.27
369.306	319.02
369.688	342.75
370.069	319.02
370.45	326.25
370.831	333.93
371.212	335.74
371.593	331.9
371.974	341.62
372.355	337.55
372.736	350.43
373.117	312.24
373.498	319.02
373.879	318.79
374.26	330.77
374.641	329.86
375.021	342.29
375.402	338.9
375.783	346.13
376.163	364.21
376.544	351.11
376.925	354.5
377.305	363.08
377.686	350.43
378.066	322.18
378.447	351.78
378.827	342.07
379.208	338.23
379.588	370.54
379.968	357.66
380.349	361.05
380.729	375.06
381.109	362.86
381.489	384.55
381.87	368.28
382.25	357.43
382.63	382.74
383.01	383.2
383.39	400.37
383.77	391.33
384.15	397.66
384.53	422.29
384.91	407.6
385.29	408.28
385.67	419.58
386.049	397.89
386.429	388.85
386.809	413.93
387.189	406.02
387.568	406.47
387.948	401.05
388.328	408.28
388.707	410.99
389.087	406.25
389.466	425.91
389.846	419.35
390.225	425.23
390.605	422.07
390.984	438.34
391.363	415.74
391.743	420.26
392.122	441.95
392.501	453.7
392.881	441.73
393.26	443.76
393.639	470.2
394.018	430.65
394.397	461.61
394.776	460.03
395.155	464.78
395.534	442.4
395.913	474.04
396.292	471.1
396.671	495.74
397.05	460.48
397.429	474.72
397.808	478.56
398.186	505
398.565	487.6
398.944	486.92
399.323	469.52
399.701	497.09
400.08	494.38
400.458	483.53
400.837	502.52
401.215	500.93
401.594	521.5
401.972	533.02
402.351	527.6
402.729	533.47
403.107	533.47
403.486	527.15
403.864	551.1
404.242	567.15
404.62	526.92
404.999	538.67
405.377	540.48
405.755	567.15
406.133	547.71
406.511	553.81
406.889	565.56
407.267	595.85
407.645	575.06
408.023	596.98
408.401	603.98
408.779	617.77
409.156	609.18
409.534	618.9
409.912	614.15
410.29	627.94
410.667	632.68
411.045	616.64
411.422	624.09
411.8	629.97
412.178	653.02
412.555	669.52
412.933	674.49
413.31	646.01
413.687	645.34
414.065	701.38
414.442	667.93
414.819	686.24
415.197	683.53
415.574	733.24
415.951	718.55
416.328	706.13
416.705	738.89
417.082	716.07
417.46	730.31
417.837	738.89
418.214	755.62
418.591	736.86
418.967	752.23
419.344	736.86
419.721	763.07
420.098	753.81
420.475	779.8
420.852	775.28
421.228	775.28
421.605	751.32
421.982	785.22
422.358	802.39
422.735	841.26
423.111	814.15
423.488	812.79
423.864	811.43
424.241	831.32
424.617	822.05
424.994	824.54
425.37	874.71
425.746	850.3
426.123	873.58
426.499	850.75
426.875	866.57
427.251	906.35
427.627	916.74
428.003	943.63
428.379	934.82
428.756	954.03
429.132	953.12
429.507	952.45
429.883	982.95
430.259	999.68
430.635	971.66
431.011	987.47
431.387	1003.74
431.763	1010.98
432.138	1039.45
432.514	1026.34
432.89	1010.75
433.265	1036.29
433.641	1070.18
434.016	1069.51
434.392	1079
434.767	1100.92
435.143	1098.66
435.518	1079.9
435.894	1131.65
436.269	1134.59
436.644	1142.5
437.02	1158.09
437.395	1166.9
437.77	1184.98
438.145	1180.01
438.52	1201.25
438.895	1188.37
439.271	1189.95
439.646	1233.8
440.021	1255.04
440.395	1232.44
440.77	1236.51
441.145	1278.31
441.52	1268.6
441.895	1227.92
442.27	1272.21
442.645	1270.18
443.019	1296.62
443.394	1309.95
443.769	1321.48
444.143	1321.02
444.518	1314.92
444.892	1332.55
445.267	1318.54
445.641	1362.83
446.016	1354.47
446.39	1360.57
446.764	1370.74
447.139	1353.79
447.513	1381.59
447.887	1366.67
448.262	1408.48
448.636	1420.46
449.01	1422.72
449.384	1447.8
449.758	1421.81
450.132	1417.75
450.506	1455.03
450.88	1481.7
451.254	1469.27
451.628	1475.82
452.002	1513.79
452.376	1504.07
452.75	1538.42
453.123	1561.24
453.497	1536.39
453.871	1581.36
454.244	1601.92
454.618	1613.9
454.992	1630.39
455.365	1625.88
455.739	1686.89
456.112	1687.57
456.486	1684.4
456.859	1713.78
457.232	1751.3
457.606	1715.14
457.979	1765.31
458.352	1814.57
458.725	1817.28
459.099	1831.97
459.472	1836.27
459.845	1835.36
460.218	1870.16
460.591	1875.59
460.964	1917.85
461.337	1957.84
461.71	1972.53
462.083	2000.33
462.456	2009.37
462.829	2002.81
463.201	2037.16
463.574	2015.24
463.947	2041.68
464.32	2095.47
464.692	2117.16
465.065	2132.08
465.438	2159.42
465.81	2181.11
466.183	2201.45
466.555	2270.6
466.928	2247.1
467.3	2255.46
467.672	2299.08
468.045	2346.53
468.417	2377.95
468.789	2323.03
469.161	2393.76
469.534	2426.98
469.906	2470.15
470.278	2495.46
470.65	2531.39
471.022	2576.58
471.394	2636.02
471.766	2648.45
472.138	2650.26
472.51	2683.7
472.882	2778.84
473.253	2765.51
473.625	2825.39
473.997	2878.72
474.369	2880.08
474.74	2908.78
475.112	2981.09
475.484	3017.93
475.855	3094.99
476.227	3110.36
476.598	3142.45
476.97	3190.81
477.341	3223.12
477.713	3288.2
478.084	3307.19
478.455	3415.43
478.827	3431.25
479.198	3535.88
479.569	3532.94
479.94	3613.39
480.311	3635.09
480.682	3729.32
481.053	3792.6
481.424	3861.97
481.795	3875.76
482.166	3915.31
482.537	3990.11
482.908	4065.13
483.279	4079.14
483.65	4156.2
484.021	4227.16
484.391	4349.19
484.762	4347.16
485.133	4392.58
485.503	4423.99
485.874	4494.05
486.244	4553.26
486.615	4649.07
486.985	4653.14
487.356	4756.41
487.726	4754.61
488.097	4914.15
488.467	4970.87
488.837	5031.89
489.207	5097.42
489.578	5112.11
489.948	5167.7
490.318	5200.92
490.688	5261.94
491.058	5355.27
491.428	5364.99
491.798	5441.82
492.168	5555.72
492.538	5539.9
492.908	5581.48
493.278	5706.45
493.648	5642.49
494.017	5768.82
494.387	5818.31
494.757	5847.46
495.126	5943.28
495.496	5914.12
495.866	6016.27
496.235	6009.49
496.605	6091.75
496.974	6145.98
497.344	6127.45
497.713	6238.18
498.082	6216.04
498.452	6346.88
498.821	6346.66
499.19	6374.45
499.559	6447.67
499.928	6474.79
500.298	6492.64
500.667	6631.62
501.036	6590.49
501.405	6712.3
501.774	6721.56
502.143	6726.31
502.512	6835.23
502.88	6819.86
503.249	6851.27
503.618	6922.69
503.987	6944.61
504.356	7019.18
504.724	7020.31
505.093	7075
505.462	7148.22
505.83	7136.46
506.199	7206.52
506.567	7270.47
506.936	7330.81
507.304	7380.75
507.672	7451.03
508.041	7496
508.409	7506.4
508.777	7580.3
509.145	7605.15
509.514	7622.78
509.882	7737.13
510.25	7768.99
510.618	7820.29
510.986	7788.43
511.354	7889.67
511.722	7984.13
512.09	7999.72
512.458	8020.28
512.826	8112.71
513.193	8104.8
513.561	8186.15
513.929	8240.62
514.297	8312.03
514.664	8437
515.032	8429.99
515.4	8527.39
515.767	8527.39
516.135	8585.24
516.502	8540.27
516.869	8743.2
517.237	8704.56
517.604	8678.8
517.972	8836.76
518.339	8908.85
518.706	8996.3
519.073	9014.16
519.44	9117.43
519.808	9242.85
520.175	9139.35
520.542	9267.48
520.909	9313.36
521.276	9422.28
521.643	9463.64
522.009	9560.36
522.376	9589.51
522.743	9691.43
523.11	9752.44
523.477	9857.98
523.843	9906.11
524.21	10018.87
524.577	10127.8
524.943	10065.88
525.31	10220.68
525.676	10281.01
526.043	10329.15
526.409	10431.75
526.776	10572.53
527.142	10555.81
527.508	10643.94
527.874	10727.1
528.241	10822.24
528.607	10775.69
528.973	10945.63
529.339	10886.87
529.705	11093.42
530.071	11142.91
530.437	11186.98
530.803	11219.97
531.169	11270.59
531.535	11274.21
531.901	11366.41
532.267	11429.91
532.632	11558.04
532.998	11527.08
533.364	11673.07
533.73	11780.86
534.095	11800.07
534.461	11774.54
534.826	11771.82
535.192	11937.92
535.557	11934.76
535.923	12022.21
536.288	12105.15
536.653	12025.15
537.019	12064.92
537.384	12158.25
537.749	12273.96
538.114	12265.14
538.479	12278.02
538.845	12353.5
539.21	12540.84
539.575	12483.67
539.94	12529.32
540.305	12560.28
540.67	12604.34
541.034	12617.68
541.399	12667.17
541.764	12701.97
542.129	12766.6
542.494	12804.79
542.858	12950.1
543.223	12951.91
543.587	12978.35
543.952	13001.17
544.316	13096.99
544.681	13050.89
545.045	13083.65
545.41	13173.59
545.774	13291.11
546.138	13248.85
546.503	13402.97
546.867	13338.34
547.231	13412.01
547.595	13565.22
547.959	13543.53
548.324	13603.19
548.688	13557.09
549.052	13612.45
549.416	13680.25
549.779	13701.72
550.143	13804.54
550.507	13849.28
550.871	13962.5
551.235	13954.36
551.599	14020.8
551.962	14061.03
552.326	14141.93
552.689	14203.62
553.053	14190.97
553.417	14269.61
553.78	14449.04
554.143	14328.82
554.507	14472.09
554.87	14571.52
555.234	14677.51
555.597	14623.27
555.96	14676.61
556.323	14708.7
556.686	14776.49
557.05	14867.56
557.413	14993.21
557.776	14926.99
558.139	15112.75
558.502	15091.96
558.865	15144.39
559.228	15324.95
559.59	15328.57
559.953	15479.75
560.316	15526.75
560.679	15578.05
561.041	15695.56
561.404	15793.64
561.767	15881.09
562.129	15835.9
562.492	16018.49
562.854	15958.38
563.217	15964.48
563.579	16081.09
563.941	16144.36
564.304	16211.93
564.666	16390.91
565.028	16312.49
565.39	16425.49
565.753	16584.8
566.115	16604.92
566.477	16666.84
566.839	16765.59
567.201	16882.42
567.563	16849.88
567.925	16941.86
568.287	17086.71
568.648	17104.56
569.01	17149.99
569.372	17339.36
569.734	17216.88
570.095	17317.21
570.457	17413.48
570.819	17370.77
571.18	17451.9
571.542	17578.45
571.903	17604.66
572.265	17725.34
572.626	17769.18
572.987	17692.12
573.349	17800.37
573.71	17897.76
574.071	17898.67
574.432	17961.04
574.794	18102.5
575.155	17974.6
575.516	18029.29
575.877	18134.59
576.238	18138.66
576.599	18263.63
576.96	18194.93
577.32	18247.13
577.681	18357.19
578.042	18425.66
578.403	18331.2
578.763	18358.09
579.124	18472.21
579.485	18454.59
579.845	18599.89
580.206	18530.52
580.566	18537.3
580.927	18506.34
581.287	18690.96
581.648	18461.59
582.008	18571.64
582.368	18594.92
582.728	18623.17
583.089	18589.27
583.449	18697.74
583.809	18733.9
584.169	18658.87
584.529	18669.04
584.889	18782.49
585.249	18674.69
585.609	18656.16
585.969	18897.29
586.329	18693.22
586.688	18765.99
587.048	18780.45
587.408	18709.04
587.768	18733.9
588.127	18720.79
588.487	18666.56
588.846	18888.92
589.206	18869.04
589.565	18826.78
589.925	18912.65
590.284	18851.19
590.643	18857.96
591.003	18903.39
591.362	19028.81
591.721	18961.24
592.08	18971.63
592.44	19054.12
592.799	19026.55
593.158	19027.68
593.517	19040.56
593.876	19060.67
594.235	19093.21
594.593	19030.84
594.952	19095.25
595.311	19091.4
595.67	19149.71
596.029	19158.3
596.387	19214.34
596.746	19314.68
597.104	19167.34
597.463	19215.92
597.822	19282.81
598.18	19230.84
598.538	19221.12
598.897	19461.79
599.255	19232.87
599.613	19529.13
599.972	19383.83
600.33	19429.02
600.688	19350.61
601.046	19428.57
601.404	19530.72
601.762	19490.26
602.12	19609.36
602.478	19450.94
602.836	19564.39
603.194	19365.75
603.552	19502.69
603.91	19507.89
604.268	19586.31
604.625	19464.28
604.983	19647.32
605.341	19548.12
605.698	19533.2
606.056	19573.88
606.413	19560.32
606.771	19711.05
607.128	19676.02
607.485	19607.32
607.843	19532.75
608.2	19714.67
608.557	19834.89
608.914	19758.05
609.272	19893.19
609.629	19900.88
609.986	19852.06
610.343	19749.24
610.7	19945.62
611.057	19881.89
611.414	19819.3
611.771	19888.22
612.127	20105.62
612.484	19931.16
612.841	19988.33
613.198	19919.18
613.554	19896.13
613.911	19986.07
614.267	19907.65
614.624	20082.79
614.98	19942
615.337	20097.93
615.693	20120.3
616.05	20022.23
616.406	20144.26
616.762	20041.21
617.118	19998.95
617.475	20067.65
617.831	20172.05
618.187	20139.29
618.543	20119.17
618.899	20218.61
619.255	20237.59
619.611	20211.38
619.967	20336.57
620.323	20226.97
620.678	20294.31
621.034	20101.32
621.39	20090.47
621.746	20043.7
622.101	20379.28
622.457	20229
622.812	20269
623.168	20235.78
623.523	20235.78
623.879	20244.14
624.234	20093.64
624.589	20231.26
624.945	20180.42
625.3	20178.61
625.655	20102.68
626.01	20218.83
626.365	20233.97
626.72	20127.31
627.075	20182.22
627.43	20065.39
627.785	20028.33
628.14	20177.7
628.495	20132.06
628.85	20152.39
629.205	20078.05
629.559	20159.63
629.914	20087.08
630.269	20130.25
630.623	20093.64
630.978	20024.49
631.332	20081.21
631.687	20133.64
632.041	20057.93
632.396	20050.93
632.75	19951.04
633.104	20048.22
633.459	19855.45
633.813	19894.1
634.167	19938.61
634.521	19856.81
634.875	19797.83
635.229	19872.4
635.583	19749.47
635.937	19784.27
636.291	19640.77
636.645	19738.39
636.999	19742.46
637.352	19749.01
637.706	19511.96
638.06	19648
638.413	19570.94
638.767	19632.18
639.121	19626.76
639.474	19472.64
639.828	19491.85
640.181	19542.47
640.534	19539.75
640.888	19522.81
641.241	19513.31
641.594	19386.09
641.947	19549.02
642.301	19477.38
642.654	19448.46
643.007	19473.09
643.36	19458.17
643.713	19410.94
644.066	19508.79
644.419	19361
644.771	19357.84
645.124	19075.81
645.477	19024.97
645.83	18881.24
646.182	18906.55
646.535	18959.88
646.888	18843.28
647.24	18911.3
647.593	18959.2
647.945	18980.45
648.298	18833.11
648.65	18758.98
649.002	18804.18
649.355	18796.27
649.707	18802.6
650.059	18858.42
650.411	19057.51
650.763	19034.91
651.115	19200.55
651.467	19235.13
651.819	19151.06
652.171	19169.59
652.523	19022.03
652.875	19106.32
653.227	18997.17
653.578	19187
653.93	19120.56
654.282	19012.31
654.633	18987.45
654.985	19040.56
655.337	18981.35
655.688	18979.54
656.039	19156.04
656.391	18966.66
656.742	18878.08
657.094	18947.45
657.445	18938.41
657.796	18942.71
658.147	18916.49
658.498	18951.75
658.849	18908.36
659.2	18880.34
659.551	18835.59
659.902	18889.6
660.253	18870.62
660.604	18855.48
660.955	18791.98
661.306	18724.41
661.656	18716.95
662.007	18765.76
662.358	18695.71
662.708	18737.97
663.059	18780.23
663.409	18550.18
663.76	18704.75
664.11	18685.31
664.461	18695.26
664.811	18686.67
665.161	18634.24
665.511	18599.21
665.862	18561.48
666.212	18591.3
666.562	18694.58
666.912	18526.45
667.262	18575.71
667.612	18549.27
667.962	18564.64
668.312	18576.62
668.662	18535.49
669.011	18556.05
669.361	18525.77
669.711	18429.28
670.06	18384.76
670.41	18346.34
670.76	18220.02
671.109	18370.07
671.459	18300.24
671.808	18405.77
672.157	18351.99
672.507	18234.93
672.856	18310.86
673.205	18231.09
673.554	18189.73
673.904	18096.18
674.253	18254.36
674.602	18141.6
674.951	17956.75
675.3	17753.81
675.649	18113.13
675.998	18032
676.346	18059.79
676.695	18094.82
677.044	18047.14
677.393	17961.49
677.741	18022.96
678.09	17968.27
678.438	17919.01
678.787	17923.3
679.135	17826.81
679.484	17756.3
679.832	17840.82
680.181	17692.35
680.529	17810.53
680.877	17653.48
681.225	17708.84
681.573	17855.28
681.922	17679.24
682.27	17613.7
682.618	17551.33
682.966	17615.06
683.314	17640.6
683.661	17555.85
684.009	17380.72
684.357	17353.82
684.705	17345.24
685.053	17347.95
685.4	17358.12
685.748	17317.21
686.095	17297.1
686.443	17184.34
686.79	17218.46
687.138	17172.81
687.485	17189.31
687.832	17155.86
688.18	17221.17
688.527	17164.45
688.874	17142.76
689.221	17074.73
689.568	17092.36
689.915	16983.21
690.262	16942.53
690.609	17047.62
690.956	16983.66
691.303	16940.05
691.65	16727.4
691.997	16754.97
692.344	16683.33
692.69	16754.07
693.037	16777.57
693.383	16639.94
693.73	16618.48
694.077	16512.72
694.423	16483.34
694.769	16467.74
695.116	16527.4
695.462	16459.84
695.808	16354.3
696.155	16421.64
696.501	16294.64
696.847	16301.42
697.193	16131.71
697.539	16253.51
697.885	16089.22
698.231	16153.18
698.577	16096.68
698.923	15994.31
699.269	16035.89
699.614	16005.38
699.96	16017.14
700.306	15966.97
700.651	15806.97
700.997	15798.84
701.342	15715.67
701.688	15793.86
702.033	15818.04
702.379	15685.17
702.724	15674.77
703.069	15678.16
703.415	15555.23
703.76	15512.29
704.105	15499.86
704.45	15550.25
704.795	15452.86
705.14	15352.75
705.485	15420.31
705.83	15281.56
706.175	15325.18
706.52	15219.42
706.865	15262.58
707.209	15181.9
707.554	15187.55
707.899	15126.54
708.243	15049.93
708.588	15074.34
708.932	14896.71
709.277	14992.98
709.621	14996.37
709.966	14852.19
710.31	14956.6
710.654	14735.59
710.998	14863.49
711.342	14821.01
711.687	14790.73
712.031	14693.78
712.375	14671.41
712.719	14752.76
713.063	14690.39
713.407	14550.51
713.75	14566.33
714.094	14556.61
714.438	14543.73
714.782	14620.56
715.125	14476.16
715.469	14423.96
715.812	14420.79
716.156	14212.66
716.499	14356.84
716.843	14323.62
717.186	14297.63
717.53	14294.02
717.873	14322.04
718.216	14277.97
718.559	14196.17
718.902	14094.93
719.246	14049.28
719.589	14063.97
719.932	14016.28
720.275	14034.36
720.617	14013.35
720.96	13979.45
721.303	13954.59
721.646	13884.76
721.989	13917.3
722.331	13950.3
722.674	13840.02
723.016	13825.55
723.359	13823.75
723.701	13826.01
724.044	13680.25
724.386	13644.77
724.729	13670.53
725.071	13586.92
725.413	13661.27
725.755	13573.58
726.097	13509.4
726.439	13583.98
726.782	13464.43
727.124	13575.39
727.465	13481.61
727.807	13425.11
728.149	13403.87
728.491	13368.84
728.833	13329.97
729.175	13318.68
729.516	13463.76
729.858	13308.73
730.199	13320.26
730.541	13266.47
730.882	13195.97
731.224	13343.31
731.565	13189.87
731.906	13185.57
732.248	13187.83
732.589	13129.75
732.93	13130.21
733.271	13149.19
733.612	13175.85
733.953	13122.3
734.294	12974.73
734.635	13030.55
734.976	13061.05
735.317	13024.22
735.658	12976.99
735.999	12903.77
736.339	12880.72
736.68	12867.16
737.021	12870.55
737.361	12856.54
737.702	12853.6
738.042	12761.85
738.383	12682.31
738.723	12739.48
739.063	12644.79
739.404	12811.34
739.744	12681.18
740.084	12585.81
740.424	12641.63
740.764	12623.1
741.104	12671.69
741.444	12574.74
741.784	12499.94
742.124	12468.53
742.464	12482.54
742.804	12450.9
743.143	12445.03
743.483	12411.35
743.823	12408.87
744.162	12304.24
744.502	12388.98
744.841	12347.4
745.181	12361.64
745.52	12252.94
745.86	12301.3
746.199	12184.24
746.538	12200.29
746.877	12313.5
747.216	12247.74
747.556	12172.94
747.895	12136.33
748.234	12065.83
748.573	12200.74
748.911	12106.28
749.25	12032.83
749.589	12053.17
749.928	11991.48
750.267	11977.69
750.605	12030.8
750.944	11944.7
751.283	11909.22
751.621	11977.69
751.96	11904.48
752.298	11794.87
752.636	11798.49
752.975	11765.5
753.313	11748.32
753.651	11824.03
753.989	11733.63
754.327	11727.08
754.666	11569.12
755.004	11653.63
755.342	11685.95
755.679	11603.01
756.017	11551.94
756.355	11599.85
756.693	11508.78
