Data from foam_black_FLMS001491_00031.txt Node
Date: Wed Feb 08 10:43:47 GMT 2017
User: dcchb
Spectrometer: FLMS00149
Trigger mode: 0
Integration Time (sec): 2.000000E-2
Scans to average: 10
Electric dark correction enabled: true
Nonlinearity correction enabled: false
Boxcar width: 0
XAxis mode: Wavelengths
Number of Pixels in Spectrum: 2048
>>>>>Begin Spectral Data<<<<<
341.393	-26.23
341.776	-26.23
342.16	-26.23
342.543	-71.42
342.927	-64.19
343.31	-75.27
343.693	-69.62
344.077	-51.09
344.46	-57.41
344.843	-48.37
345.226	-55.61
345.61	-39.11
345.993	-19.67
346.376	-10.18
346.759	10.61
347.142	42.47
347.525	40.44
347.908	60.55
348.291	93.32
348.674	79.31
349.057	99.64
349.44	139.42
349.823	132.41
350.206	152.75
350.588	170.83
350.971	192.98
351.354	214.67
351.737	224.84
352.119	237.27
352.502	251.73
352.884	235.69
353.267	254.44
353.65	261.67
354.032	272.75
354.414	272.3
354.797	287.66
355.179	301.45
355.562	292.18
355.944	306.87
356.326	312.52
356.709	317.04
357.091	305.51
357.473	307.1
357.855	304.16
358.238	312.97
358.62	303.93
359.002	304.38
359.384	331.73
359.766	315.01
360.148	327.89
360.53	310.49
360.912	307.77
361.294	303.71
361.676	304.16
362.057	311.84
362.439	306.42
362.821	320.66
363.203	307.55
363.584	303.93
363.966	312.75
364.348	290.83
364.729	290.83
365.111	283.37
365.493	308.23
365.874	305.97
366.256	279.53
366.637	289.92
367.019	305.06
367.4	301.67
367.781	284.05
368.163	301.22
368.544	293.76
368.925	284.72
369.306	301.9
369.688	294.89
370.069	282.01
370.45	277.94
370.831	287.89
371.212	301.67
371.593	282.69
371.974	296.7
372.355	261.45
372.736	297.38
373.117	296.93
373.498	288.79
373.879	273.2
374.26	287.21
374.641	289.47
375.021	274.1
375.402	296.02
375.783	307.32
376.163	298.28
376.544	298.96
376.925	286.31
377.305	296.25
377.686	321.11
378.066	297.15
378.447	301.9
378.827	312.29
379.208	306.19
379.588	315.23
379.968	311.16
380.349	301.22
380.729	303.25
381.109	320.66
381.489	316.14
381.87	301.22
382.25	316.59
382.63	303.03
383.01	338.73
383.39	312.75
383.77	304.38
384.15	311.16
384.53	299.86
384.91	316.59
385.29	308.9
385.67	337.38
386.049	321.79
386.429	321.79
386.809	320.2
387.189	324.27
387.568	331.28
387.948	325.18
388.328	317.49
388.707	339.41
389.087	345.97
389.466	343.93
389.846	304.61
390.225	331.05
390.605	328.11
390.984	340.32
391.363	327.66
391.743	336.47
392.122	334.89
392.501	344.84
392.881	337.38
393.26	333.08
393.639	349.36
394.018	345.74
394.397	342.8
394.776	330.15
395.155	324.5
395.534	359.52
395.913	340.32
396.292	338.06
396.671	339.86
397.05	345.29
397.429	349.36
397.808	357.72
398.186	371.5
398.565	351.62
398.944	355.23
399.323	379.64
399.701	365.4
400.08	375.34
400.458	349.36
400.837	360.65
401.215	351.62
401.594	363.37
401.972	364.27
402.351	348.68
402.729	360.88
403.107	370.37
403.486	374.21
403.864	364.72
404.242	353.65
404.62	375.12
404.999	384.83
405.377	375.12
405.755	379.64
406.133	390.26
406.511	370.15
406.889	373.31
407.267	381.67
407.645	377.38
408.023	400.2
408.401	386.19
408.779	374.21
409.156	397.04
409.534	401.56
409.912	400.88
410.29	406.3
410.667	409.24
411.045	390.71
411.422	404.27
411.8	402.46
412.178	400.2
412.555	412.18
412.933	426.19
413.31	428.68
413.687	411.5
414.065	428
414.442	410.37
414.819	436.58
415.197	429.35
415.574	418.96
415.951	423.03
416.328	438.17
416.705	432.97
417.082	426.64
417.46	423.48
417.837	428
418.214	433.87
418.591	438.62
418.967	442.91
419.344	449.47
419.721	464.38
420.098	440.2
420.475	458.73
420.852	469.8
421.228	458.5
421.605	451.5
421.982	459.41
422.358	437.04
422.735	471.16
423.111	471.16
423.488	463.7
423.864	459.63
424.241	464.15
424.617	481.56
424.994	476.81
425.37	458.28
425.746	482.91
426.123	485.4
426.499	485.4
426.875	482.01
427.251	499.86
427.627	488.33
428.003	512.97
428.379	515.68
428.756	496.47
429.132	498.5
429.507	519.97
429.883	527.88
430.259	517.49
430.635	521.78
431.011	520.42
431.387	531.5
431.763	525.17
432.138	529.92
432.514	548.45
432.89	557.03
433.265	555.45
433.641	546.41
434.016	543.7
434.392	556.81
434.767	544.15
435.143	560.88
435.518	585.73
435.894	554.77
436.269	588.22
436.644	578.95
437.02	579.86
437.395	571.27
437.77	602.68
438.145	590.48
438.52	583.93
438.895	609.24
439.271	590.03
439.646	605.62
440.021	589.12
440.395	602.91
440.77	604.49
441.145	593.64
441.52	623.47
441.895	621.21
442.27	612.17
442.645	639.07
443.019	627.77
443.394	650.36
443.769	635.9
444.143	626.18
444.518	625.73
444.892	617.82
445.267	622.12
445.641	625.28
446.016	652.4
446.39	638.84
446.764	637.26
447.139	658.27
447.513	658.95
447.887	647.2
448.262	658.27
448.636	650.59
449.01	663.7
449.384	674.77
449.758	671.83
450.132	683.36
450.506	667.09
450.88	680.87
451.254	676.8
451.628	658.27
452.002	690.59
452.376	701.21
452.75	697.14
453.123	717.26
453.497	714.54
453.871	728.1
454.244	715.22
454.618	724.49
454.992	730.14
455.365	724.49
455.739	737.37
456.112	752.51
456.486	731.72
456.859	742.79
457.232	743.7
457.606	775.78
457.979	748.44
458.352	788.44
458.725	773.3
459.099	779.17
459.472	811.04
459.845	810.13
460.218	809.23
460.591	809.46
460.964	811.26
461.337	824.82
461.71	837.7
462.083	839.51
462.456	841.77
462.829	837.03
463.201	866.18
463.574	864.37
463.947	863.01
464.32	853.97
464.692	892.62
465.065	880.87
465.438	916.35
465.81	900.53
466.183	930.36
466.555	926.52
466.928	921.32
467.3	934.65
467.672	945.95
468.045	961.99
468.417	976.46
468.789	977.36
469.161	946.18
469.534	974.65
469.906	999.06
470.278	992.73
470.65	1041.09
471.022	1039.73
471.394	1045.83
471.766	1038.15
472.138	1062.33
472.51	1062.56
472.882	1111.6
473.253	1081.31
473.625	1123.57
473.997	1108.88
474.369	1117.92
474.74	1126.96
475.112	1127.19
475.484	1162.67
475.855	1176.9
476.227	1191.82
476.598	1183.91
476.97	1218.26
477.341	1251.48
477.713	1245.15
478.084	1265.04
478.455	1284.92
478.827	1281.31
479.198	1354.07
479.569	1347.52
479.94	1346.62
480.311	1358.59
480.682	1386.62
481.053	1408.99
481.424	1429.55
481.795	1436.33
482.166	1426.39
482.537	1465.71
482.908	1468.65
483.279	1504.35
483.65	1517.23
484.021	1529.66
484.391	1554.75
484.762	1550.68
485.133	1593.39
485.503	1584.13
485.874	1605.59
486.244	1610.56
486.615	1655.54
486.985	1667.29
487.356	1701.18
487.726	1689.21
488.097	1764.23
488.467	1729.66
488.837	1771.92
489.207	1797.45
489.578	1812.37
489.948	1834.51
490.318	1847.39
490.688	1829.09
491.058	1883.1
491.428	1903.44
491.798	1910.9
492.168	1948.86
492.538	1944.12
492.908	1972.82
493.278	1961.97
493.648	2023.89
494.017	2032.25
494.387	2055.07
494.757	2032.93
495.126	2046.26
495.496	2043.55
495.866	2067.95
496.235	2111.79
496.605	2130.55
496.974	2103.43
497.344	2104.11
497.713	2163.54
498.082	2164.22
498.452	2173.71
498.821	2182.98
499.19	2195.86
499.559	2188.85
499.928	2211
500.298	2236.99
500.667	2270.66
501.036	2270.66
501.405	2289.19
501.774	2270.43
502.143	2286.25
502.512	2315.41
502.88	2313.15
503.249	2323.09
503.618	2313.82
503.987	2366.7
504.356	2398.11
504.724	2383.88
505.093	2359.02
505.462	2405.8
505.83	2439.24
506.199	2446.7
506.567	2465.46
506.936	2469.07
507.304	2474.95
507.672	2522.63
508.041	2525.57
508.409	2530.09
508.777	2578
509.145	2547.26
509.514	2487.38
509.882	2596.3
510.25	2585
510.618	2598.34
510.986	2625.23
511.354	2648.28
511.722	2697.99
512.09	2665
512.458	2663.87
512.826	2700.03
513.193	2727.15
513.561	2703.64
513.929	2738.67
514.297	2777.31
514.664	2744.32
515.032	2822.96
515.4	2792
515.767	2773.02
516.135	2810.76
516.502	2846.46
516.869	2861.15
517.237	2911.1
517.604	2872.9
517.972	2908.16
518.339	2936.63
518.706	2963.75
519.073	2927.37
519.44	2956.29
519.808	3027.93
520.175	2979.79
520.542	3059.11
520.909	3079
521.276	3091.66
521.643	3124.88
522.009	3149.96
522.376	3144.31
522.743	3223.86
523.11	3220.01
523.477	3239.9
523.843	3239.45
524.21	3291.65
524.577	3317.19
524.943	3301.14
525.31	3309.73
525.676	3391.31
526.043	3364.42
526.409	3412.55
526.776	3442.61
527.142	3400.8
527.508	3455.49
527.874	3459.78
528.241	3481.48
528.607	3488.48
528.973	3532.1
529.339	3554.92
529.705	3536.39
530.071	3556.5
530.437	3603.28
530.803	3640.12
531.169	3617.52
531.535	3633.11
531.901	3677.86
532.267	3680.12
532.632	3700.68
532.998	3747.01
533.364	3724.18
533.73	3731.87
534.095	3773.45
534.461	3811.19
534.826	3845.08
535.192	3806.21
535.557	3857.06
535.923	3818.64
536.288	3856.83
536.653	3895.93
537.019	3899.09
537.384	3905.19
537.749	3943.39
538.114	3920.79
538.479	3934.35
538.845	3977.06
539.21	4001.24
539.575	3980.45
539.94	4043.04
540.305	4021.8
540.67	4007.34
541.034	4069.03
541.399	4117.62
541.764	4065.42
542.129	4083.27
542.494	4099.09
542.858	4126.66
543.223	4125.75
543.587	4152.42
543.952	4132.53
544.316	4168.46
544.681	4165.75
545.045	4195.13
545.41	4236.71
545.774	4253.89
546.138	4248.01
546.503	4236.94
546.867	4217.5
547.231	4280.55
547.595	4291.85
547.959	4332.08
548.324	4337.72
548.688	4323.26
549.052	4353.54
549.416	4365.97
549.779	4359.42
550.143	4353.09
550.507	4402.58
550.871	4417.27
551.235	4426.54
551.599	4447.78
551.962	4453.2
552.326	4490.94
552.689	4515.8
553.053	4539.75
553.417	4521.45
553.78	4588.34
554.143	4561.67
554.507	4597.61
554.87	4607.1
555.234	4590.6
555.597	4602.12
555.96	4695.23
556.323	4712.4
556.686	4673.99
557.05	4717.38
557.413	4736.81
557.776	4741.1
558.139	4803.93
558.502	4836.92
558.865	4801.67
559.228	4839.41
559.59	4855
559.953	4879.63
560.316	4936.58
560.679	4950.14
561.041	4937.94
561.404	5004.83
561.767	5012.96
562.129	4964.6
562.492	5027.42
562.854	5064.49
563.217	5062.45
563.579	5092.73
563.941	5126.63
564.304	5092.96
564.666	5132.05
565.028	5200.75
565.39	5191.71
565.753	5224.03
566.115	5235.78
566.477	5296.34
566.839	5296.12
567.201	5294.54
567.563	5346.74
567.925	5392.61
568.287	5405.04
568.648	5372.73
569.01	5385.61
569.372	5489.56
569.734	5447.07
570.095	5448.88
570.457	5474.19
570.819	5506.73
571.18	5505.15
571.542	5508.32
571.903	5568.43
572.265	5567.98
572.626	5621.08
572.987	5567.75
573.349	5637.13
573.71	5656.11
574.071	5635.77
574.432	5701.3
574.794	5716.22
575.155	5688.88
575.516	5681.87
575.877	5714.41
576.238	5797.12
576.599	5789.89
576.96	5767.74
577.32	5810.91
577.681	5789.89
578.042	5820.4
578.403	5834.41
578.763	5834.86
579.124	5843.67
579.485	5831.02
579.845	5920.51
580.206	5907.18
580.566	5924.58
580.927	5932.26
581.287	5900.85
581.648	5958.02
582.008	5943.11
582.368	5948.3
582.728	5935.65
583.089	5919.15
583.449	5934.75
583.809	6008.42
584.169	5948.08
584.529	5916.21
584.889	6017.45
585.249	5925.48
585.609	5903.56
585.969	5946.27
586.329	5941.98
586.688	5973.39
587.048	5991.92
587.408	5947.63
587.768	6001.41
588.127	5957.12
588.487	5926.16
588.846	5961.86
589.206	5951.92
589.565	5961.86
589.925	5952.37
590.284	5928.42
590.643	5981.52
591.003	5970.45
591.362	5948.76
591.721	5997.12
592.08	5974.07
592.44	5977.23
592.799	5964.57
593.158	5937.91
593.517	5989.88
593.876	5920.51
594.235	5969.32
594.593	5955.31
594.952	5943.33
595.311	5925.93
595.67	5943.78
596.029	5998.02
596.387	5967.96
596.746	6070.56
597.104	5921.41
597.463	6021.97
597.822	6033.73
598.18	6017.45
598.538	6033.95
598.897	6027.85
599.255	5980.39
599.613	6128.41
599.972	6056.32
600.33	6065.36
600.688	6006.61
601.046	6094.74
601.404	6097.9
601.762	6117.57
602.12	6094.06
602.478	6146.49
602.836	6097.68
603.194	6026.49
603.552	6054.29
603.91	6063.56
604.268	6124.12
604.625	6091.8
604.983	6152.37
605.341	6058.36
605.698	6157.79
606.056	6131.58
606.413	6123.44
606.771	6153.95
607.128	6115.98
607.485	6126.83
607.843	6166.6
608.2	6153.5
608.557	6175.87
608.914	6154.85
609.272	6162.99
609.629	6166.38
609.986	6217.45
610.343	6173.16
610.7	6252.93
611.057	6154.63
611.414	6157.56
611.771	6190.33
612.127	6259.71
612.484	6248.41
612.841	6272.14
613.198	6217.9
613.554	6287.28
613.911	6334.28
614.267	6289.99
614.624	6346.26
614.98	6328.63
615.337	6324.11
615.693	6347.39
616.05	6441.85
616.406	6357.11
616.762	6367.28
617.118	6345.58
617.475	6388.07
617.831	6439.36
618.187	6395.07
618.543	6451.12
618.899	6454.05
619.255	6494.05
619.611	6480.49
619.967	6441.17
620.323	6514.62
620.678	6429.2
621.034	6418.12
621.39	6430.55
621.746	6456.09
622.101	6480.49
622.457	6383.32
622.812	6363.43
623.168	6343.55
623.523	6411.34
623.879	6400.5
624.234	6342.42
624.589	6366.82
624.945	6366.37
625.3	6344.45
625.655	6352.14
626.01	6334.06
626.365	6340.84
626.72	6288.41
627.075	6283.66
627.43	6246.15
627.785	6245.47
628.14	6334.96
628.495	6290.67
628.85	6280.05
629.205	6297.22
629.559	6275.75
629.914	6261.97
630.269	6274.85
630.623	6254.28
630.978	6247.96
631.332	6300.84
631.687	6343.77
632.041	6315.07
632.396	6285.24
632.75	6255.41
633.104	6309.65
633.459	6327.73
633.813	6284.34
634.167	6341.51
634.521	6333.38
634.875	6346.71
635.229	6279.37
635.583	6341.06
635.937	6334.51
636.291	6319.14
636.645	6349.42
636.999	6346.26
637.352	6349.65
637.706	6299.48
638.06	6288.41
638.413	6351.68
638.767	6307.16
639.121	6306.94
639.474	6316.66
639.828	6299.26
640.181	6306.94
640.534	6271.23
640.888	6242.53
641.241	6227.62
641.594	6227.17
641.947	6244.57
642.301	6168.64
642.654	6174.29
643.007	6255.87
643.36	6185.13
643.713	6178.35
644.066	6151.24
644.419	6101.29
644.771	6056.32
645.124	5978.36
645.477	5889.77
645.83	5899.49
646.182	5926.38
646.535	5952.37
646.888	5921.64
647.24	5940.39
647.593	5894.29
647.945	5955.08
648.298	5943.56
648.65	5856.78
649.002	5843.67
649.355	5873.5
649.707	5887.51
650.059	5841.41
650.411	5906.72
650.763	5899.49
651.115	6019.94
651.467	5975.42
651.819	6012.26
652.171	5994.18
652.523	5979.94
652.875	6035.76
653.227	5957.34
653.578	6002.09
653.93	6029.66
654.282	5987.4
654.633	5996.21
654.985	6016.55
655.337	5950.34
655.688	6011.13
656.039	6050.9
656.391	5986.27
656.742	5967.06
657.094	6006.61
657.445	5984.91
657.796	5955.08
658.147	5934.97
658.498	5924.12
658.849	5942.88
659.2	5916.21
659.551	5885.71
659.902	5927.06
660.253	5937.46
660.604	5926.16
660.955	5919.15
661.306	5912.15
661.656	5884.35
662.007	5912.37
662.358	5870.11
662.708	5855.2
663.059	5899.04
663.409	5820.85
663.76	5859.27
664.11	5850
664.461	5874.41
664.811	5819.95
665.161	5870.11
665.511	5842.77
665.862	5780.4
666.212	5768.65
666.562	5819.95
666.912	5775.43
667.262	5800.06
667.612	5763.45
667.962	5775.2
668.312	5842.32
668.662	5836.89
669.011	5853.84
669.361	5781.75
669.711	5821.3
670.06	5804.58
670.41	5831.47
670.76	5823.34
671.109	5790.12
671.459	5818.14
671.808	5835.09
672.157	5798.93
672.507	5778.37
672.856	5826.05
673.205	5814.97
673.554	5838.7
673.904	5899.72
674.253	5874.41
674.602	5909.89
674.951	5774.07
675.3	5795.09
675.649	5877.12
675.998	5789.44
676.346	5851.81
676.695	5894.97
677.044	5855.2
677.393	5856.78
677.741	5838.48
678.09	5815.43
678.438	5868.98
678.787	5873.28
679.135	5805.71
679.484	5816.33
679.832	5784.92
680.181	5805.03
680.529	5764.35
680.877	5739.72
681.225	5730.23
681.573	5753.05
681.922	5683.68
682.27	5733.85
682.618	5670.8
682.966	5657.92
683.314	5663.79
683.661	5636
684.009	5524.59
684.357	5598.71
684.705	5545.83
685.053	5550.57
685.4	5523
685.748	5492.72
686.095	5529.78
686.443	5487.3
686.79	5445.04
687.138	5450.46
687.485	5461.76
687.832	5427.87
688.18	5445.27
688.527	5423.12
688.874	5403.46
689.221	5363.91
689.568	5349.45
689.915	5378.38
690.262	5370.24
690.609	5395.1
690.956	5375.21
691.303	5310.58
691.65	5342.22
691.997	5343.57
692.344	5301.32
692.69	5338.38
693.037	5354.2
693.383	5329.79
693.73	5302.45
694.077	5288.43
694.423	5310.35
694.769	5312.61
695.116	5247.53
695.462	5263.12
695.808	5229.45
696.155	5263.35
696.501	5257.7
696.847	5273.97
697.193	5199.85
697.539	5247.08
697.885	5193.97
698.231	5259.06
698.577	5175.89
698.923	5226.97
699.269	5214.76
699.614	5161.43
699.96	5165.27
700.306	5143.58
700.651	5141.77
700.997	5125.27
701.342	5092.06
701.688	5102.9
702.033	5061.55
702.379	5080.76
702.724	5044.15
703.069	5048.67
703.415	4990.14
703.76	4971.61
704.105	4965.73
704.45	5006.18
704.795	4913.98
705.14	4949.23
705.485	4934.55
705.83	4899.74
706.175	4928.44
706.52	4877.15
706.865	4860.88
707.209	4874.43
707.554	4798.73
707.899	4812.74
708.243	4754.89
708.588	4783.36
708.932	4762.35
709.277	4739.3
709.621	4756.47
709.966	4709.01
710.31	4760.09
710.654	4713.31
710.998	4706.98
711.342	4702.91
711.687	4670.82
712.031	4631.05
712.375	4660.88
712.719	4660.88
713.063	4692.52
713.407	4704.27
713.75	4680.09
714.094	4645.29
714.438	4659.3
714.782	4669.47
715.125	4573.65
715.469	4640.99
715.812	4568.23
716.156	4573.88
716.499	4634.67
716.843	4579.07
717.186	4534.33
717.53	4592.41
717.873	4644.84
718.216	4624.72
718.559	4593.09
718.902	4515.35
719.246	4532.3
719.589	4544.05
719.932	4539.98
720.275	4541.34
720.617	4573.88
720.96	4495.69
721.303	4523.93
721.646	4530.71
721.989	4494.1
722.331	4504.05
722.674	4481
723.016	4511.73
723.359	4473.99
723.701	4473.77
724.044	4463.6
724.386	4395.8
724.729	4441.68
725.071	4419.98
725.413	4439.42
725.755	4384.96
726.097	4426.76
726.439	4427.21
726.782	4346.76
727.124	4389.7
727.465	4359.87
727.807	4368.23
728.149	4369.59
728.491	4348.35
728.833	4344.96
729.175	4313.77
729.516	4314.22
729.858	4248.46
730.199	4312.19
730.541	4346.54
730.882	4271.29
731.224	4281.46
731.565	4253.21
731.906	4281.46
732.248	4274.68
732.589	4225.19
732.93	4226.09
733.271	4240.1
733.612	4243.04
733.953	4258.4
734.294	4233.32
734.635	4191.97
734.976	4207.33
735.317	4151.06
735.658	4196.71
735.999	4190.38
736.339	4191.74
736.68	4168.24
737.021	4184.06
737.361	4157.39
737.702	4171.4
738.042	4187.67
738.383	4187.22
738.723	4114.23
739.063	4148.35
739.404	4114.45
739.744	4136.83
740.084	4104.28
740.424	4131.63
740.764	4115.36
741.104	4099.09
741.444	4058.41
741.784	4094.79
742.124	4125.08
742.464	4103.83
742.804	4103.38
743.143	4080.56
743.483	4136.6
743.823	4028.81
744.162	4057.73
744.502	4049.14
744.841	4073.55
745.181	4078.07
745.52	4059.54
745.86	4061.35
746.199	4051.18
746.538	4022.93
746.877	4057.73
747.216	4045.53
747.556	4058.41
747.895	4017.51
748.234	3998.75
748.573	4007.79
748.911	4019.32
749.25	4051.18
749.589	4011.41
749.928	3998.3
750.267	4037.39
750.605	3996.49
750.944	3967.11
751.283	3959.2
751.621	4024.96
751.96	3965.31
752.298	3959.2
752.636	3966.44
752.975	3932.09
753.313	3955.14
753.651	3939.54
753.989	3909.49
754.327	3915.36
754.666	3912.43
755.004	3943.61
755.342	3923.5
755.679	3855.03
756.017	3849.83
756.355	3879.21
756.693	3863.39
757.031	3876.95
757.368	3831.52
757.706	3841.92
758.044	3840.34
758.381	3848.47
758.719	3779.32
759.056	3810.06
759.394	3777.06
759.731	3777.06
760.068	3736.16
760.405	3742.49
760.743	3737.74
761.08	3731.19
761.417	3697.06
761.754	3672.66
762.091	3734.58
762.428	3693.67
762.765	3695.71
763.102	3697.97
763.438	3648.48
763.775	3660
764.112	3627.69
764.449	3643.73
764.785	3658.42
765.122	3604.18
765.458	3610.29
765.795	3549.95
766.131	3563.51
766.467	3580
766.804	3575.94
767.14	3498.65
767.476	3501.59
767.812	3515.6
768.148	3530.74
768.485	3519.89
768.821	3476.28
769.157	3453.91
769.492	3469.5
769.828	3464.53
770.164	3430.86
770.5	3425.43
770.836	3470.18
771.171	3412.33
771.507	3392.21
771.842	3361.48
