Data from foam2_polystyrene_foam_FLMS001491_00073.txt Node
Date: Wed Feb 08 10:58:28 GMT 2017
User: dcchb
Spectrometer: FLMS00149
Trigger mode: 0
Integration Time (sec): 2.000000E-2
Scans to average: 10
Electric dark correction enabled: true
Nonlinearity correction enabled: false
Boxcar width: 0
XAxis mode: Wavelengths
Number of Pixels in Spectrum: 2048
>>>>>Begin Spectral Data<<<<<
341.393	0.93
341.776	0.93
342.16	0.93
342.543	-80.42
342.927	-77.26
343.31	-74.55
343.693	-67.99
344.077	-52.85
344.46	-59.86
344.843	-41.55
345.226	-29.8
345.61	-18.05
345.993	-37.26
346.376	-17.15
346.759	-7.88
347.142	14.49
347.525	40.93
347.908	69.86
348.291	73.47
348.674	102.62
349.057	105.56
349.44	113.02
349.823	147.14
350.206	178.55
350.588	216.07
350.971	222.4
351.354	230.53
351.737	264.43
352.119	271.43
352.502	262.62
352.884	274.15
353.267	310.3
353.65	304.65
354.032	290.87
354.414	325.67
354.797	315.05
355.179	313.47
355.562	346.01
355.944	360.92
356.326	353.01
356.709	358.21
357.091	366.8
357.473	347.59
357.855	352.34
358.238	374.48
358.62	383.07
359.002	367.02
359.384	355.5
359.766	364.31
360.148	354.82
360.53	383.52
360.912	363.41
361.294	356.4
361.676	361.15
362.057	375.16
362.439	353.92
362.821	367.48
363.203	348.04
363.584	363.86
363.966	348.04
364.348	356.86
364.729	364.09
365.111	366.57
365.493	349.85
365.874	368.83
366.256	356.63
366.637	347.14
367.019	356.86
367.4	354.14
367.781	367.48
368.163	357.76
368.544	362.96
368.925	359.79
369.306	381.04
369.688	368.15
370.069	345.1
370.45	360.24
370.831	381.71
371.212	379.23
371.593	372.45
371.974	362.05
372.355	349.85
372.736	358.66
373.117	351.43
373.498	373.8
373.879	373.13
374.26	373.13
374.641	366.57
375.021	369.28
375.402	388.49
375.783	390.3
376.163	410.41
376.544	428.04
376.925	397.08
377.305	404.54
377.686	374.48
378.066	411.54
378.447	395.27
378.827	412.67
379.208	413.12
379.588	408.38
379.968	416.74
380.349	421.49
380.729	406.8
381.109	416.06
381.489	434.59
381.87	434.37
382.25	426.68
382.63	455.61
383.01	434.82
383.39	443.18
383.77	440.24
384.15	447.7
384.53	466.46
384.91	457.19
385.29	475.5
385.67	481.37
386.049	472.56
386.429	498.09
386.809	463.97
387.189	484.76
387.568	494.25
387.948	483.63
388.328	494.03
388.707	512.78
389.087	499.22
389.466	526.79
389.846	525.66
390.225	521.14
390.605	518.21
390.984	532.67
391.363	521.6
391.743	548.49
392.122	531.99
392.501	534.03
392.881	546.68
393.26	561.6
393.639	576.06
394.018	582.16
394.397	572.22
394.776	591.65
395.155	555.27
395.534	579.45
395.913	577.87
396.292	586.45
396.671	589.17
397.05	596.62
397.429	611.31
397.808	588.71
398.186	621.71
398.565	616.74
398.944	617.87
399.323	624.42
399.701	647.24
400.08	630.97
400.458	621.71
400.837	641.14
401.215	660.35
401.594	659.67
401.972	670.29
402.351	680.91
402.729	678.2
403.107	695.83
403.486	694.93
403.864	689.28
404.242	708.94
404.62	734.47
404.999	705.32
405.377	721.14
405.755	725.43
406.133	734.02
406.511	752.32
406.889	758.88
407.267	788.03
407.645	780.12
408.023	791.19
408.401	805.88
408.779	803.17
409.156	815.6
409.534	837.07
409.912	841.14
410.29	853.11
410.667	861.7
411.045	876.39
411.422	873
411.8	881.36
412.178	879.78
412.555	911.19
412.933	918.2
413.31	918.2
413.687	923.39
414.065	961.36
414.442	956.16
414.819	946.9
415.197	986.67
415.574	998.65
415.951	1000
416.328	1023.5
416.705	1032.54
417.082	1034.13
417.46	1036.39
417.837	1028.25
418.214	1068.02
418.591	1061.7
418.967	1077.74
419.344	1085.2
419.721	1082.03
420.098	1103.05
420.475	1104.41
420.852	1102.6
421.228	1142.82
421.605	1144.4
421.982	1157.06
422.358	1176.27
422.735	1194.12
423.111	1195.03
423.488	1222.59
423.864	1208.13
424.241	1203.84
424.617	1244.97
424.994	1269.6
425.37	1262.14
425.746	1275.25
426.123	1286.55
426.499	1286.32
426.875	1313.44
427.251	1327.22
427.627	1366.77
428.003	1384.85
428.379	1391.63
428.756	1406.77
429.132	1429.37
429.507	1459.88
429.883	1455.58
430.259	1488.58
430.635	1472.08
431.011	1528.58
431.387	1544.39
431.763	1574.9
432.138	1588.24
432.514	1589.36
432.89	1625.97
433.265	1620.78
433.641	1706.65
434.016	1673.2
434.392	1708.68
434.767	1772.86
435.143	1761.56
435.518	1756.37
435.894	1783.03
436.269	1794.78
436.644	1817.16
437.02	1838.85
437.395	1840.66
437.77	1900.54
438.145	1912.75
438.52	1904.16
438.895	1933.54
439.271	1955.46
439.646	1987.55
440.021	1992.07
440.395	2032.97
440.77	2020.99
441.145	2007.66
441.52	2052.86
441.895	2086.08
442.27	2097.37
442.645	2128.56
443.019	2119.07
443.394	2149.35
443.769	2147.54
444.143	2159.75
444.518	2195.9
444.892	2190.93
445.267	2250.59
445.641	2247.88
446.016	2226.18
446.39	2257.82
446.764	2291.27
447.139	2306.86
447.513	2340.98
447.887	2362.23
448.262	2359.97
448.636	2388.89
449.01	2416.24
449.384	2420.98
449.758	2461.43
450.132	2464.14
450.506	2469.79
450.88	2500.53
451.254	2533.75
451.628	2565.84
452.002	2581.2
452.376	2594.31
452.75	2637.7
453.123	2624.59
453.497	2694.65
453.871	2687.42
454.244	2768.77
454.618	2756.57
454.992	2845.6
455.365	2844.93
455.739	2885.83
456.112	2929.67
456.486	2956.56
456.859	2950.91
457.232	3007.18
457.606	3028.65
457.979	3037.46
458.352	3102.32
458.725	3133.05
459.099	3176.67
459.472	3225.71
459.845	3269.77
460.218	3286.04
460.591	3302.54
460.964	3331.01
461.337	3429.09
461.71	3414.18
462.083	3454.85
462.456	3505.92
462.829	3562.87
463.201	3588.63
463.574	3567.17
463.947	3666.37
464.32	3748.18
464.692	3750.89
465.065	3801.96
465.438	3827.95
465.81	3889.87
466.183	3935.97
466.555	4036.31
466.928	4051.45
467.3	4053.71
467.672	4065.01
468.045	4222.06
468.417	4242.18
468.789	4253.93
469.161	4293.02
469.534	4384.32
469.906	4465
470.278	4564.88
470.65	4565.78
471.022	4618.66
471.394	4708.15
471.766	4788.38
472.138	4871.76
472.51	4940.01
472.882	4985.89
473.253	5086.9
473.625	5158.08
473.997	5250.29
474.369	5280.12
474.74	5372.09
475.112	5444.18
475.484	5523.27
475.855	5631.29
476.227	5626.32
476.598	5837.16
476.97	5848.01
477.341	5994.45
477.713	6077.83
478.084	6122.81
478.455	6242.35
478.827	6285.74
479.198	6531.83
479.569	6556.69
479.94	6685.73
480.311	6788.55
480.682	6899.73
481.053	7058.83
481.424	7212.49
481.795	7266.05
482.166	7353.51
482.537	7460.85
482.908	7640.73
483.279	7700.62
483.65	7811.8
484.021	7991.91
484.391	8110.55
484.762	8165.46
485.133	8282.97
485.503	8329.53
485.874	8555.06
486.244	8561.61
486.615	8775.62
486.985	8884.77
487.356	8993.69
487.726	9109.17
488.097	9290.63
488.467	9394.13
488.837	9509.83
489.207	9619.89
489.578	9806.32
489.948	9849.94
490.318	9922.93
490.688	10055.13
491.058	10209.03
491.428	10418.29
491.798	10440.66
492.168	10676.81
492.538	10752.74
492.908	10842.91
493.278	11015.33
493.648	10979.85
494.017	11145.05
494.387	11269.56
494.757	11313.63
495.126	11448.54
495.496	11588.42
495.866	11658.48
496.235	11797.68
496.605	11821.64
496.974	11940.28
497.344	12079.94
497.713	12206.26
498.082	12281.06
498.452	12381.85
498.821	12470.43
499.19	12458.23
499.559	12643.31
499.928	12726.47
500.298	12860.26
500.667	12928.05
501.036	12935.73
501.405	13159
501.774	13157.42
502.143	13269.06
502.512	13284.42
502.88	13378.43
503.249	13431.77
503.618	13664.98
503.987	13615.04
504.356	13826.78
504.724	13894.8
505.093	13924.41
505.462	14016.61
505.83	14203.04
506.199	14265.87
506.567	14476.03
506.936	14486.65
507.304	14600.32
507.672	14696.36
508.041	14777.27
508.409	14811.16
508.777	15100.2
509.145	15175.67
509.514	15158.5
509.882	15332.73
510.25	15416.35
510.618	15446.18
510.986	15566.17
511.354	15774.08
511.722	15834.64
512.09	16013.84
512.458	15995.09
512.826	16200.51
513.193	16278.24
513.561	16424
513.929	16602.08
514.297	16629.87
514.664	16823.31
515.032	16901.96
515.4	17067.15
515.767	17053.82
516.135	17206.36
516.502	17187.6
516.869	17533.8
517.237	17589.4
517.604	17477.76
517.972	17829.84
518.339	17975.83
518.706	18015.15
519.073	18091.08
519.44	18286.78
519.808	18401.13
520.175	18425.98
520.542	18707.33
520.909	18800.66
521.276	18828.46
521.643	19081.11
522.009	19221.9
522.376	19340.54
522.743	19416.69
523.11	19583.02
523.477	19881.77
523.843	19971.48
524.21	20147.52
524.577	20387.06
524.943	20501.64
525.31	20604.46
525.676	20779.14
526.043	20969.42
526.409	21072.02
526.776	21198.11
527.142	21244.67
527.508	21454.38
527.874	21703.41
528.241	21801.49
528.607	21876.74
528.973	22109.73
529.339	22067.47
529.705	22298.65
530.071	22621.35
530.437	22639.43
530.803	22840.33
531.169	22944.06
531.535	22829.03
531.901	23010.72
532.267	23176.82
532.632	23364.39
532.998	23357.15
533.364	23564.15
533.73	23582.91
534.095	23819.51
534.461	23964.82
534.826	24024.26
535.192	24137.25
535.557	24447.75
535.923	24344.25
536.288	24547.18
536.653	24651.81
537.019	24600.51
537.384	24728.64
537.749	24885.93
538.114	24967.96
538.479	24880.96
538.845	25251.57
539.21	25193.04
539.575	25259.25
539.94	25367.95
540.305	25564.55
540.67	25426.03
541.034	25623.54
541.399	25797.32
541.764	25946.69
542.129	25868.73
542.494	25965.67
542.858	26157.76
543.223	26175.16
543.587	26359.79
543.952	26246.12
544.316	26476.17
544.681	26441.14
545.045	26610.4
545.41	26823.05
545.774	26790.74
546.138	26828.25
546.503	27004.97
546.867	27071.86
547.231	27165.42
547.595	27314.56
547.959	27326.09
548.324	27474.11
548.688	27526.54
549.052	27635.69
549.416	27800.88
549.779	27767.89
550.143	27839.07
550.507	28065.96
550.871	28120.42
551.235	28157.48
551.599	28403.35
551.962	28385.04
552.326	28555.21
552.689	28678.6
553.053	28550.24
553.417	28783.68
553.78	29048.53
554.143	28985.93
554.507	29132.14
554.87	29245.36
555.234	29489.87
555.597	29385.47
555.96	29546.14
556.323	29791.79
556.686	29756.08
557.05	29976.64
557.413	30072.01
557.776	30218.89
558.139	30404.65
558.502	30559.9
558.865	30569.17
559.228	30789.5
559.59	30907.92
559.953	31010.96
560.316	31355.14
560.679	31312.65
561.041	31534.79
561.404	31616.6
561.767	31847.1
562.129	31785.86
562.492	32128.9
562.854	32075.34
563.217	32155.57
563.579	32339.74
563.941	32549.91
564.304	32764.82
564.666	32855.21
565.028	32925.04
565.39	33121.87
565.753	33205.93
566.115	33308.98
566.477	33548.75
566.839	33605.92
567.201	33725.92
567.563	33901.96
567.925	34082.97
568.287	34125.46
568.648	34363.64
569.01	34543.3
569.372	34713.92
569.734	34572.9
570.095	34923.18
570.457	35055.6
570.819	35092.44
571.18	35197.75
571.542	35343.05
571.903	35343.28
572.265	35496.04
572.626	35514.8
572.987	35621.24
573.349	35675.93
573.71	35898.75
574.071	35919.31
574.432	36090.6
574.794	36305.51
575.155	36188.23
575.516	36241.11
575.877	36284.95
576.238	36413.08
576.599	36496.02
576.96	36549.35
577.32	36632.74
577.681	36762.9
578.042	36734.66
578.403	36855.56
578.763	36960.64
579.124	36976.01
579.485	37025.95
579.845	37203.57
580.206	37072.05
580.566	37136.68
580.927	37193.17
581.287	37360.4
581.648	37130.58
582.008	37373.73
582.368	37314.08
582.728	37453.96
583.089	37379.84
583.449	37373.51
583.809	37456.9
584.169	37565.37
584.529	37352.27
584.889	37837.68
585.249	37597.23
585.609	37446.5
585.969	37744.57
586.329	37407.86
586.688	37549.55
587.048	37463.45
587.408	37400.17
587.768	37391.36
588.127	37496.22
588.487	37483.34
588.846	37688.08
589.206	37434.07
589.565	37373.73
589.925	37620.06
590.284	37560.85
590.643	37597.46
591.003	37724.01
591.362	37609.21
591.721	37630
592.08	37599.27
592.44	37650.56
592.799	37679.72
593.158	37509.78
593.517	37625.03
593.876	37747.28
594.235	37652.37
594.593	37815.53
594.952	37655.99
595.311	37543.9
595.67	37721.07
596.029	37827.96
596.387	37967.39
596.746	37931.91
597.104	37793.16
597.463	37800.84
597.822	37942.31
598.18	37762.88
598.538	37872.03
598.897	38081.74
599.255	37700.28
599.613	38273.37
599.972	37951.12
600.33	38048.07
600.688	37928.52
601.046	38083.55
601.404	38320.15
601.762	38204.45
602.12	38345.91
602.478	38332.35
602.836	38295.97
603.194	38320.38
603.552	38246.25
603.91	38289.87
604.268	38469.53
604.625	38362.18
604.983	38501.61
605.341	38298.46
605.698	38566.25
606.056	38601.5
606.413	38449.86
606.771	38657.32
607.128	38809.18
607.485	38446.93
607.843	38524.21
608.2	38919.91
608.557	38951.32
608.914	38809.86
609.272	38924.65
609.629	38961.49
609.986	39112.9
610.343	38914.26
610.7	39215.95
611.057	39084.42
611.414	39118.77
611.771	39042.84
612.127	39297.98
612.484	39238.54
612.841	39405.32
613.198	39093.46
613.554	39152.22
613.911	39391.08
614.267	39463.4
614.624	39436.96
614.98	39414.36
615.337	39559.89
615.693	39472.21
616.05	39473.79
616.406	39681.7
616.762	39525.77
617.118	39638.99
617.475	39573.45
617.831	39750.62
618.187	39896.83
618.543	39893.22
618.899	40152.64
619.255	39938.64
619.611	39962.82
619.967	40114.45
620.323	40248.46
620.678	39940.22
621.034	39910.62
621.39	39949.26
621.746	40011.86
622.101	40362.58
622.457	39995.81
622.812	40095.92
623.168	40243.72
623.523	40254.34
623.879	40439.87
624.234	39957.62
624.589	40256.82
624.945	40138.86
625.3	40198.97
625.655	40203.04
626.01	40186.32
626.365	40244.62
626.72	40146.54
627.075	40128.46
627.43	40158.52
627.785	39923.27
628.14	40054.79
628.495	40106.09
628.85	40073.55
629.205	39895.02
629.559	40222.02
629.914	39898.64
630.269	39923.95
630.623	39962.37
630.978	39748.14
631.332	40058.18
631.687	40106.09
632.041	39897.74
632.396	39936.38
632.75	39758.08
633.104	39826.78
633.459	39677.63
633.813	39612.55
634.167	39475.15
634.521	39545.66
634.875	39624.75
635.229	39431.08
635.583	39193.57
635.937	39201.71
636.291	39211.2
636.645	39247.13
636.999	39139.56
637.352	39191.99
637.706	38927.37
638.06	39023.63
638.413	38938.89
638.767	38857.76
639.121	38920.13
639.474	38583.42
639.828	38721.27
640.181	38767.6
640.534	38817.54
640.888	38492.12
641.241	38411.9
641.594	38473.59
641.947	38578
642.301	38438.34
642.654	38396.31
643.007	38446.7
643.36	38400.37
643.713	38224.11
644.066	38366.7
644.419	38029.54
644.771	37913.38
645.124	37590.23
645.477	37582.09
645.83	37270.23
646.182	37078.83
646.535	36963.58
646.888	36963.58
647.24	36699.85
647.593	36929.23
647.945	36853.97
648.298	36743.92
648.65	36692.85
649.002	36636.81
649.355	36821.21
649.707	36705.5
650.059	36889.68
650.411	37151.59
650.763	37293.74
651.115	37532.15
651.467	37453.51
651.819	37528.53
652.171	37364.24
652.523	37278.82
652.875	37285.83
653.227	36956.34
653.578	37368.09
653.93	37163.12
654.282	37041.54
654.633	36951.15
654.985	37095.32
655.337	37239.73
655.688	37069.11
656.039	37191.59
656.391	36953.18
656.742	37120.18
657.094	37099.62
657.445	37115.89
657.796	36858.04
658.147	36834.77
658.498	36731.49
658.849	36892.84
659.2	36810.36
659.551	36712.06
659.902	36832.73
660.253	36775.78
660.604	36802.22
660.955	36560.2
661.306	36680.42
661.656	36705.73
662.007	36612.17
662.358	36625.28
662.708	36660.76
663.059	36765.84
663.409	36394.55
663.76	36692.85
664.11	36716.8
664.461	36635.9
664.811	36706.63
665.161	36689.69
665.511	36637.26
665.862	36633.64
666.212	36643.81
666.562	36769.23
666.912	36664.37
667.262	36421.22
667.612	36537.37
667.962	36580.08
668.312	36470.26
668.662	36717.71
669.011	36528.79
669.361	36505.06
669.711	36481.78
670.06	36340.77
670.41	36345.97
670.76	36335.8
671.109	36339.19
671.459	36247.21
671.808	36263.71
672.157	36356.13
672.507	36002.02
672.856	36059.65
673.205	36222.35
673.554	36186.87
673.904	35882.25
674.253	36104.39
674.602	36048.35
674.951	35673.89
675.3	35508.7
675.649	35903.04
675.998	36009.7
676.346	35913.66
676.695	36017.39
677.044	35858.07
677.393	36037.5
677.741	35907.33
678.09	35780.33
678.438	35728.35
678.787	35928.8
679.135	35721.35
679.484	35690.62
679.832	35843.38
680.181	35480.9
680.529	35538.75
680.877	35404.3
681.225	35341.02
681.573	35404.07
681.922	35176.05
682.27	35093.12
682.618	35159.33
682.966	35058.99
683.314	35022.61
683.661	35129.5
684.009	34843.41
684.357	34856.96
684.705	34834.59
685.053	34782.84
685.4	34672.34
685.748	34503.08
686.095	34542.85
686.443	34446.81
686.79	34338.79
687.138	34377.2
687.485	34339.92
687.832	34196.19
688.18	34251.33
688.527	34030.55
688.874	34122.75
689.221	33933.6
689.568	33984.22
689.915	33759.82
690.262	33690.22
690.609	33667.84
690.956	33487.96
691.303	33632.59
691.65	33467.17
691.997	33473.72
692.344	33311.92
692.69	33225.37
693.037	33339.04
693.383	33053.85
693.73	33098.82
694.077	32900.41
694.423	32830.58
694.769	32669.68
695.116	32620.41
695.462	32534.09
695.808	32392.17
696.155	32505.61
696.501	32226.75
696.847	32231.5
697.193	32070.82
697.539	32280.76
697.885	32014.33
698.231	31833.77
698.577	31883.71
698.923	31945.18
699.269	31613.66
699.614	31517.62
699.96	31523.04
700.306	31585.64
700.651	31328.92
700.997	31245.31
701.342	31337.96
701.688	31118.53
702.033	31077.18
702.379	30959.89
702.724	30811.2
703.069	31055.93
703.415	30585.89
703.76	30561.48
704.105	30538.43
704.45	30483.07
704.795	30233.36
705.14	30176.64
705.485	30107.49
705.83	30048.73
706.175	30114.72
706.52	30044.44
706.865	30038.11
707.209	29932.8
707.554	29756.53
707.899	29778.68
708.243	29611.68
708.588	29635.18
708.932	29445.58
709.277	29448.97
709.621	29498.01
709.966	29279.03
710.31	29324.91
710.654	28924.01
710.998	29137.57
711.342	29205.81
711.687	29102.09
712.031	28772.38
712.375	28833.17
712.719	28849.67
713.063	28705.26
713.407	28825.26
713.75	28623.91
714.094	28667.52
714.438	28528.32
714.782	28585.72
715.125	28335.55
715.469	28397.02
715.812	28211.94
716.156	27981.89
716.499	28079.29
716.843	28109.57
717.186	27973.76
717.53	27990.48
717.873	27931.27
718.216	27936.02
718.559	27662.13
718.902	27557.04
719.246	27679.75
719.589	27527.89
719.932	27402.47
720.275	27493.77
720.617	27367.22
720.96	27209.93
721.303	27442.7
721.646	27379.87
721.989	27097.62
722.331	27243.83
722.674	27096.94
723.016	27110.05
723.359	27141.01
723.701	27116.38
724.044	26834.58
724.386	26852.88
724.729	26967.45
725.071	26782.83
725.413	26844.75
725.755	26797.29
726.097	26635.49
726.439	26524.53
726.782	26589.16
727.124	26690.4
727.465	26603.17
727.807	26496.73
728.149	26481.37
728.491	26379
728.833	26429.62
729.175	26278.21
729.516	26203.86
729.858	26274.14
730.199	26247.47
730.541	26105.33
730.882	26051.55
731.224	26132.67
731.565	25987.37
731.906	25953.02
732.248	26007.71
732.589	25789.41
732.93	25723.65
733.271	25835.06
733.612	25758
733.953	25743.31
734.294	25618.56
734.635	25545.8
734.976	25558.68
735.317	25443.2
735.658	25425.12
735.999	25508.96
736.339	25440.49
736.68	25343.32
737.021	25387.16
737.361	25221.51
737.702	25407.72
738.042	25191.68
738.383	25035.98
738.723	25155.53
739.063	25107.62
739.404	25067.39
739.744	25068.52
740.084	24944.91
740.424	25081.63
740.764	25019.03
741.104	25004.34
741.444	24793.27
741.784	24797.57
742.124	24835.31
742.464	24748.53
742.804	24699.04
743.143	24699.49
743.483	24686.38
743.823	24570.23
744.162	24455.43
744.502	24474.19
744.841	24366.62
745.181	24416.79
745.52	24313.29
745.86	24315.1
746.199	24343.34
746.538	24270.58
746.877	24295.21
747.216	24265.38
747.556	24258.37
747.895	24209.34
748.234	24059.73
748.573	24053.41
748.911	23998.04
749.25	23992.62
749.589	23931.15
749.928	23840.76
750.267	23935.22
750.605	23727.09
750.944	23736.58
751.283	23601.22
751.621	23712.4
751.96	23544.95
752.298	23508.34
752.636	23562.12
752.975	23480.54
753.313	23302.47
