Data from foam1_polythene_foam_FLMS001491_00063.txt Node
Date: Wed Feb 08 10:55:13 GMT 2017
User: dcchb
Spectrometer: FLMS00149
Trigger mode: 0
Integration Time (sec): 2.000000E-2
Scans to average: 10
Electric dark correction enabled: true
Nonlinearity correction enabled: false
Boxcar width: 0
XAxis mode: Wavelengths
Number of Pixels in Spectrum: 2048
>>>>>Begin Spectral Data<<<<<
341.393	-0.97
341.776	-0.97
342.16	-0.97
342.543	-56.11
342.927	-73.29
343.31	-51.37
343.693	-81.42
344.077	-61.99
344.46	-60.18
344.843	-48.2
345.226	-46.62
345.61	-40.75
345.993	-23.8
346.376	-13.18
346.759	12.36
347.142	30.66
347.525	37.89
347.908	66.59
348.291	90.32
348.674	76.54
349.057	113.15
349.44	111.79
349.823	135.97
350.206	154.95
350.588	162.41
350.971	193.82
351.354	203.09
351.737	228.85
352.119	221.39
352.502	215.06
352.884	227.04
353.267	257.32
353.65	272.92
354.032	278.79
354.414	279.7
354.797	280.6
355.179	291.67
355.562	302.97
355.944	309.98
356.326	293.26
356.709	309.98
357.091	292.58
357.473	319.92
357.855	314.27
358.238	302.52
358.62	319.24
359.002	290.09
359.384	309.07
359.766	316.08
360.148	313.14
360.53	314.5
360.912	299.36
361.294	314.05
361.676	293.48
362.057	307.72
362.439	299.36
362.821	299.36
363.203	295.06
363.584	297.55
363.966	308.4
364.348	293.26
364.729	271.79
365.111	299.36
365.493	289.87
365.874	313.14
366.256	285.8
366.637	291
367.019	287.61
367.4	299.36
367.781	277.21
368.163	297.77
368.544	283.76
368.925	279.7
369.306	296.87
369.688	305.91
370.069	285.35
370.45	288.06
370.831	291.22
371.212	297.77
371.593	301.39
371.974	304.1
372.355	284.67
372.736	285.12
373.117	293.26
373.498	284.22
373.879	273.59
374.26	282.63
374.641	290.54
375.021	274.05
375.402	284.44
375.783	305.46
376.163	306.59
376.544	310.66
376.925	310.2
377.305	284.89
377.686	285.12
378.066	290.54
378.447	306.59
378.827	305.68
379.208	286.7
379.588	294.84
379.968	306.59
380.349	293.48
380.729	311.33
381.109	295.97
381.489	301.84
381.87	305.91
382.25	286.25
382.63	306.14
383.01	310.88
383.39	307.72
383.77	313.59
384.15	297.32
384.53	306.81
384.91	299.58
385.29	319.69
385.67	300.49
386.049	330.99
386.429	304.33
386.809	308.62
387.189	315.63
387.568	312.46
387.948	301.39
388.328	314.05
388.707	309.98
389.087	312.01
389.466	323.76
389.846	338.23
390.225	324.44
390.605	324.21
390.984	323.31
391.363	342.97
391.743	322.86
392.122	340.49
392.501	335.29
392.881	334.84
393.26	340.26
393.639	352.69
394.018	316.76
394.397	321.05
394.776	321.28
395.155	331.22
395.534	324.44
395.913	327.15
396.292	341.62
396.671	354.04
397.05	328.73
397.429	315.18
397.808	342.75
398.186	355.85
398.565	335.51
398.944	332.58
399.323	336.19
399.701	316.31
400.08	330.77
400.458	318.57
400.837	338
401.215	332.8
401.594	330.99
401.972	347.72
402.351	347.94
402.729	343.65
403.107	361.73
403.486	344.78
403.864	354.95
404.242	355.63
404.62	360.15
404.999	364.44
405.377	364.44
405.755	352.24
406.133	364.67
406.511	349.3
406.889	345.68
407.267	356.76
407.645	363.54
408.023	376.64
408.401	348.85
408.779	356.98
409.156	357.43
409.534	380.71
409.912	380.26
410.29	370.77
410.667	366.25
411.045	391.78
411.422	375.06
411.8	367.83
412.178	389.52
412.555	355.4
412.933	374.61
413.31	387.26
413.687	378.45
414.065	383.87
414.442	376.19
414.819	380.71
415.197	380.26
415.574	406.02
415.951	373.48
416.328	388.85
416.705	410.09
417.082	394.27
417.46	373.93
417.837	396.53
418.214	392.01
418.591	406.02
418.967	391.78
419.344	405.57
419.721	396.08
420.098	415.51
420.475	415.29
420.852	409.18
421.228	400.82
421.605	398.11
421.982	397.66
422.358	407.38
422.735	405.12
423.111	415.29
423.488	408.96
423.864	409.86
424.241	444.66
424.617	427.94
424.994	443.31
425.37	428.84
425.746	433.36
426.123	425.23
426.499	413.48
426.875	411.67
427.251	442.63
427.627	465.45
428.003	435.62
428.379	432.69
428.756	450.31
429.132	455.96
429.507	455.74
429.883	457.32
430.259	472.01
430.635	457.09
431.011	459.8
431.387	470.88
431.763	474.72
432.138	479.24
432.514	454.61
432.89	482.18
433.265	482.63
433.641	469.52
434.016	490.31
434.392	491.67
434.767	491.67
435.143	503.87
435.518	504.55
435.894	520.59
436.269	517.88
436.644	504.77
437.02	523.53
437.395	516.98
437.77	509.29
438.145	527.6
438.52	530.31
438.895	523.31
439.271	531.67
439.646	537.54
440.021	534.15
440.395	540.48
440.77	546.36
441.145	550.65
441.52	553.36
441.895	549.97
442.27	542.29
442.645	565.34
443.019	560.37
443.394	549.07
443.769	589.52
444.143	576.19
444.518	601.5
444.892	570.54
445.267	580.48
445.641	597.43
446.016	612.79
446.39	596.07
446.764	612.57
447.139	600.59
447.513	610.53
447.887	599.69
448.262	618.22
448.636	624.32
449.01	626.13
449.384	631.1
449.758	636.52
450.132	634.04
450.506	641.95
450.88	665.45
451.254	639.91
451.628	691.44
452.002	658.22
452.376	675.17
452.75	671.55
453.123	681.04
453.497	674.94
453.871	663.41
454.244	663.19
454.618	672.68
454.992	709.74
455.365	677.43
455.739	695.05
456.112	713.81
456.486	692.79
456.859	685.34
457.232	686.24
457.606	711.1
457.979	704.54
458.352	721.49
458.725	704.09
459.099	717.65
459.472	728.05
459.845	724.2
460.218	729.85
460.591	689.18
460.964	713.13
461.337	724.2
461.71	733.7
462.083	727.14
462.456	731.44
462.829	714.49
463.201	756.29
463.574	744.09
463.947	747.25
464.32	734.83
464.692	752
465.065	770.76
465.438	766.46
465.81	763.07
466.183	772.11
466.555	813.92
466.928	781.15
467.3	798.1
467.672	794.26
468.045	792.45
468.417	797.65
468.789	822.96
469.161	802.39
469.534	824.99
469.906	802.39
470.278	842.85
470.65	831.09
471.022	857.08
471.394	857.99
471.766	840.13
472.138	862.05
472.51	860.25
472.882	867.03
473.253	889.85
473.625	897.98
473.997	872.9
474.369	910.64
474.74	915.16
475.112	921.49
475.484	913.13
475.855	919.45
476.227	945.44
476.598	937.31
476.97	934.82
477.341	964.88
477.713	979.56
478.084	968.27
478.455	1003.52
478.827	1013.46
479.198	1048.49
479.569	1039.22
479.94	1038.09
480.311	1062.5
480.682	1091.88
481.053	1088.94
481.424	1081.26
481.795	1060.47
482.166	1119.45
482.537	1088.71
482.908	1144.76
483.279	1135.49
483.65	1166.68
484.021	1172.1
484.391	1183.18
484.762	1172.55
485.133	1196.73
485.503	1233.34
485.874	1241.7
486.244	1244.19
486.615	1260.24
486.985	1253.23
487.356	1292.78
487.726	1284.87
488.097	1296.84
488.467	1313.79
488.837	1320.35
489.207	1344.75
489.578	1371.87
489.948	1373.23
490.318	1384.07
490.688	1373.68
491.058	1403.06
491.428	1446.45
491.798	1430.63
492.168	1458.2
492.538	1461.81
492.908	1462.04
493.278	1502.04
493.648	1486.9
494.017	1500
494.387	1523.05
494.757	1523.28
495.126	1528.25
495.496	1552.2
495.866	1579.77
496.235	1586.1
496.605	1599.21
496.974	1590.62
497.344	1579.55
497.713	1604.18
498.082	1614.35
498.452	1664.52
498.821	1672.65
499.19	1651.41
499.559	1671.3
499.928	1660
500.298	1689.83
500.667	1677.17
501.036	1717.17
501.405	1725.08
501.774	1709.04
502.143	1734.12
502.512	1736.15
502.88	1770.96
503.249	1770.5
503.618	1774.57
503.987	1800.11
504.356	1788.36
504.724	1824.97
505.093	1783.39
505.462	1840.56
505.83	1812.76
506.199	1876.72
506.567	1870.61
506.936	1851.86
507.304	1876.49
507.672	1875.13
508.041	1904.96
508.409	1883.72
508.777	1933.44
509.145	1955.81
509.514	1920.78
509.882	1942.7
510.25	1977.05
510.618	1945.87
510.986	1966.43
511.354	1968.92
511.722	2020.22
512.09	2020.44
512.458	2034.9
512.826	2062.02
513.193	2050.04
513.561	2059.76
513.929	2057.28
514.297	2072.87
514.664	2104.96
515.032	2123.49
515.4	2085.98
515.767	2133.66
516.135	2152.87
516.502	2177.5
516.869	2170.27
517.237	2197.16
517.604	2179.31
517.972	2243.71
518.339	2214.11
518.706	2231.51
519.073	2267.21
519.44	2283.71
519.808	2281.68
520.175	2282.13
520.542	2316.7
520.909	2327.33
521.276	2305.18
521.643	2342.92
522.009	2337.72
522.376	2363.48
522.743	2367.78
523.11	2378.85
523.477	2396.7
523.843	2419.07
524.21	2451.84
524.577	2452.07
524.943	2492.52
525.31	2493.88
525.676	2499.75
526.043	2559.64
526.409	2547.43
526.776	2572.74
527.142	2544.04
527.508	2563.93
527.874	2576.58
528.241	2605.51
528.607	2631.27
528.973	2664.27
529.339	2639.86
529.705	2651.61
530.071	2707.2
530.437	2668.79
530.803	2700.88
531.169	2713.98
531.535	2696.58
531.901	2764.38
532.267	2745.39
532.632	2740.87
532.998	2757.15
533.364	2797.6
533.73	2793.3
534.095	2807.77
534.461	2828.56
534.826	2838.5
535.192	2837.59
535.557	2848.89
535.923	2859.29
536.288	2890.25
536.653	2865.84
537.019	2876.24
537.384	2875.79
537.749	2931.83
538.114	2895.22
538.479	2936.35
538.845	2942.68
539.21	2971.6
539.575	2939.29
539.94	2969.12
540.305	2977.7
540.67	2954.88
541.034	2995.1
541.399	2980.87
541.764	2980.64
542.129	3052.05
542.494	3025.16
542.858	3022.67
543.223	3062
543.587	3058.83
543.952	3075.1
544.316	3020.19
544.681	3045.95
545.045	3084.82
545.41	3126.63
545.774	3095.89
546.138	3102.22
546.503	3123.01
546.867	3109.45
547.231	3173.63
547.595	3165.27
547.959	3161.2
548.324	3191.48
548.688	3177.92
549.052	3194.65
549.416	3201.2
549.779	3172.28
550.143	3189
550.507	3210.69
550.871	3250.92
551.235	3245.49
551.599	3253.4
551.962	3294.31
552.326	3251.6
552.689	3271.03
553.053	3317.58
553.417	3288.66
553.78	3344.7
554.143	3327.53
554.507	3363
554.87	3356.68
555.234	3328.66
555.597	3352.84
555.96	3391.25
556.323	3417.92
556.686	3387.86
557.05	3407.75
557.413	3434.64
557.776	3461.31
558.139	3469.89
558.502	3471.02
558.865	3495.88
559.228	3493.62
559.59	3517.35
559.953	3553.73
560.316	3541.76
560.679	3527.52
561.041	3582.89
561.404	3631.92
561.767	3603
562.129	3537.46
562.492	3619.95
562.854	3681.41
563.217	3670.57
563.579	3667.86
563.941	3704.01
564.304	3716.67
564.666	3751.02
565.028	3753.28
565.39	3739.04
565.753	3770.45
566.115	3781.75
566.477	3809.32
566.839	3795.31
567.201	3848.19
567.563	3832.37
567.925	3832.6
568.287	3868.98
568.648	3820.17
569.01	3883.44
569.372	3898.81
569.734	3860.17
570.095	3934.52
570.457	3932.26
570.819	3906.49
571.18	3967.96
571.542	3953.27
571.903	3915.76
572.265	3997.11
572.626	3966.38
572.987	3992.59
573.349	3991.91
573.71	4025.59
574.071	4014.29
574.432	4047.05
574.794	4005.7
575.155	4093.83
575.516	4068.07
575.877	4061.07
576.238	4088.86
576.599	4085.25
576.96	4105.36
577.32	4111.91
577.681	4127.96
578.042	4137.67
578.403	4144.45
578.763	4130.22
579.124	4104.68
579.485	4166.37
579.845	4138.35
580.206	4109.88
580.566	4146.71
580.927	4140.84
581.287	4164.57
581.648	4171.12
582.008	4160.27
582.368	4143.55
582.728	4161.18
583.089	4191.46
583.449	4194.4
583.809	4196.66
584.169	4158.46
584.529	4126.37
584.889	4209.99
585.249	4137.67
585.609	4145.13
585.969	4199.37
586.329	4159.37
586.688	4181.97
587.048	4178.35
587.408	4221.06
587.768	4166.15
588.127	4146.94
588.487	4141.06
588.846	4211.57
589.206	4176.54
589.565	4159.37
589.925	4206.82
590.284	4173.6
590.643	4209.54
591.003	4208.18
591.362	4189.42
591.721	4169.54
592.08	4203.21
592.44	4234.17
592.799	4213.83
593.158	4238.91
593.517	4216.54
593.876	4170.44
594.235	4157.11
594.593	4195.3
594.952	4226.48
595.311	4192.14
595.67	4162.53
596.029	4203.43
596.387	4200.95
596.746	4207.05
597.104	4215.19
597.463	4174.06
597.822	4210.21
598.18	4157.33
598.538	4200.95
598.897	4211.34
599.255	4182.87
599.613	4209.76
599.972	4195.98
600.33	4219.48
600.688	4210.89
601.046	4252.92
601.404	4190.55
601.762	4210.44
602.12	4159.37
602.478	4225.36
602.836	4224
603.194	4159.59
603.552	4169.54
603.91	4201.85
604.268	4252.25
604.625	4175.41
604.983	4214.51
605.341	4203.43
605.698	4253.38
606.056	4258.35
606.413	4224.68
606.771	4238.69
607.128	4245.47
607.485	4221.97
607.843	4237.11
608.2	4256.09
608.557	4262.64
608.914	4238.91
609.272	4230.33
609.629	4271.91
609.986	4240.72
610.343	4217.22
610.7	4264.22
611.057	4249.99
611.414	4279.36
611.771	4256.99
612.127	4250.21
612.484	4262.87
612.841	4267.39
613.198	4231.23
613.554	4239.14
613.911	4287.73
614.267	4216.77
614.624	4240.5
614.98	4262.19
615.337	4268.74
615.693	4273.94
616.05	4293.83
616.406	4278.23
616.762	4199.14
617.118	4271.91
617.475	4212.93
617.831	4263.77
618.187	4265.58
618.543	4280.04
618.899	4311.45
619.255	4281.62
619.611	4260.16
619.967	4296.54
620.323	4245.02
620.678	4267.39
621.034	4286.37
621.39	4268.07
621.746	4278.23
622.101	4280.04
622.457	4286.82
622.812	4283.88
623.168	4243.43
623.523	4279.59
623.879	4270.55
624.234	4207.73
624.589	4282.53
624.945	4254.96
625.3	4255.86
625.655	4280.49
626.01	4285.92
626.365	4268.97
626.72	4235.52
627.075	4207.95
627.43	4244.34
627.785	4273.72
628.14	4247.05
628.495	4238.01
628.85	4220.61
629.205	4218.58
629.559	4216.32
629.914	4214.51
630.269	4199.82
630.623	4197.56
630.978	4177.45
631.332	4204.56
631.687	4200.72
632.041	4164.34
632.396	4150.1
632.75	4178.12
633.104	4165.47
633.459	4178.58
633.813	4151.46
634.167	4126.37
634.521	4121.63
634.875	4120.72
635.229	4133.83
635.583	4107.17
635.937	4102.65
636.291	4119.14
636.645	4089.99
636.999	4082.08
637.352	4055.87
637.706	4006.83
638.06	4039.37
638.413	4030.78
638.767	4044.12
639.121	4007.28
639.474	4039.15
639.828	4029.2
640.181	4039.82
640.534	4019.71
640.888	3973.38
641.241	3994.4
641.594	4011.12
641.947	3980.16
642.301	3951.92
642.654	3993.5
643.007	3958.47
643.36	3988.07
643.713	3957.34
644.066	3963.44
644.419	3928.41
644.771	3885.7
645.124	3881.41
645.477	3843.44
645.83	3807.96
646.182	3827.85
646.535	3852.71
646.888	3833.5
647.24	3823.78
647.593	3810
647.945	3821.75
648.298	3785.59
648.65	3826.5
649.002	3775.42
649.355	3772.03
649.707	3788.3
650.059	3755.31
650.411	3791.02
650.763	3803.67
651.115	3841.64
651.467	3838.92
651.819	3828.98
652.171	3847.96
652.523	3799.38
652.875	3797.12
653.227	3820.39
653.578	3808.19
653.93	3806.61
654.282	3773.16
654.633	3785.82
654.985	3767.06
655.337	3755.99
655.688	3739.04
656.039	3746.95
656.391	3742.43
656.742	3751.02
657.094	3765.25
657.445	3734.29
657.796	3745.14
658.147	3737.23
658.498	3723.22
658.849	3740.4
659.2	3757.57
659.551	3724.13
659.902	3730.9
660.253	3722.54
660.604	3733.39
660.955	3690.68
661.306	3695.43
661.656	3709.66
662.007	3684.13
662.358	3690.91
662.708	3695.43
663.059	3678.93
663.409	3683.67
663.76	3692.71
664.11	3677.57
664.461	3670.12
664.811	3693.17
665.161	3649.1
665.511	3645.03
665.862	3675.31
666.212	3701.75
666.562	3663.34
666.912	3689.32
667.262	3655.88
667.612	3656.33
667.962	3661.98
668.312	3618.59
668.662	3635.54
669.011	3649.1
669.361	3623.11
669.711	3610.91
670.06	3612.04
670.41	3612.26
670.76	3623.56
671.109	3603
671.459	3609.78
671.808	3597.57
672.157	3614.3
672.507	3581.3
672.856	3619.27
673.205	3559.38
673.554	3598.7
673.904	3555.32
674.253	3575.65
674.602	3597.12
674.951	3494.3
675.3	3512.38
675.649	3558.03
675.998	3563.45
676.346	3617.01
676.695	3629.44
677.044	3531.14
677.393	3527.75
677.741	3544.24
678.09	3535.2
678.438	3551.93
678.787	3572.72
679.135	3540.85
679.484	3534.98
679.832	3518.03
680.181	3501.31
680.529	3527.07
680.877	3530.01
681.225	3495.66
681.573	3497.01
681.922	3504.92
682.27	3470.8
682.618	3471.02
682.966	3459.73
683.314	3472.15
683.661	3457.01
684.009	3437.81
684.357	3411.82
684.705	3441.42
685.053	3393.06
685.4	3402.1
685.748	3425.83
686.095	3371.37
686.443	3417.69
686.79	3377.24
687.138	3419.73
687.485	3407.75
687.832	3352.38
688.18	3365.94
688.527	3357.36
688.874	3378.15
689.221	3304.48
689.568	3300.41
689.915	3272.16
690.262	3353.74
690.609	3307.87
690.956	3295.21
691.303	3280.75
691.65	3262.89
691.997	3295.44
692.344	3202.78
692.69	3269.45
693.037	3269.22
693.383	3227.64
693.73	3285.72
694.077	3217.25
694.423	3209.56
694.769	3185.38
695.116	3210.69
695.462	3216.12
695.808	3195.78
696.155	3211.82
696.501	3149.68
696.847	3204.82
697.193	3122.56
697.539	3175.67
697.885	3152.84
698.231	3098.83
698.577	3139.28
698.923	3111.49
699.269	3090.7
699.614	3114.65
699.96	3090.24
700.306	3073.07
700.651	3065.61
700.997	3086.4
701.342	3062.9
701.688	3073.29
702.033	3058.83
702.379	3072.39
702.724	3027.42
703.069	3034.2
703.415	3011.83
703.76	2998.95
704.105	2991.94
704.45	2973.86
704.795	2975.44
705.14	2985.84
705.485	2975.22
705.83	2957.82
706.175	2943.81
706.52	2948.33
706.865	2931.38
707.209	2933.86
707.554	2924.6
707.899	2920.98
708.243	2905.84
708.588	2856.13
708.932	2876.92
709.277	2918.27
709.621	2888.89
709.966	2855
710.31	2849.8
710.654	2827.65
710.998	2842.34
711.342	2870.81
711.687	2833.53
712.031	2859.52
712.375	2855
712.719	2854.77
713.063	2853.19
713.407	2821.55
713.75	2826.97
714.094	2788.33
714.438	2791.95
714.782	2806.18
715.125	2799.18
715.469	2795.34
715.812	2769.57
716.156	2762.57
716.499	2774.32
716.843	2749.91
717.186	2769.35
717.53	2749.01
717.873	2757.15
718.216	2716.02
718.559	2723.02
718.902	2730.93
719.246	2744.26
719.589	2713.53
719.932	2703.59
720.275	2726.19
720.617	2723.93
720.96	2688.22
721.303	2688.9
721.646	2700.2
721.989	2677.15
722.331	2690.93
722.674	2671.5
723.016	2673.98
723.359	2660.2
723.701	2676.47
724.044	2628.79
724.386	2645.06
724.729	2678.73
725.071	2642.12
725.413	2671.05
725.755	2624.04
726.097	2652.29
726.439	2601.44
726.782	2650.48
727.124	2633.98
727.465	2622.91
727.807	2613.65
728.149	2576.58
728.491	2608.22
728.833	2612.06
729.175	2593.08
729.516	2588.11
729.858	2555.57
730.199	2575
730.541	2582.01
730.882	2600.09
731.224	2629.01
731.565	2577.49
731.906	2537.04
732.248	2541.78
732.589	2545.17
732.93	2514.89
733.271	2568
733.612	2575
733.953	2536.81
734.294	2543.82
734.635	2537.04
734.976	2567.32
735.317	2510.37
735.658	2547.66
735.999	2511.28
736.339	2522.57
736.68	2531.16
737.021	2534.78
737.361	2532.74
737.702	2504.72
738.042	2509.47
738.383	2523.93
738.723	2508.11
739.063	2505.63
739.404	2484.16
739.744	2503.82
740.084	2462.92
740.424	2488.9
740.764	2449.13
741.104	2480.32
741.444	2470.6
741.784	2480.09
742.124	2455.46
742.464	2432.63
742.804	2444.61
743.143	2457.94
743.483	2477.15
743.823	2454.1
744.162	2432.18
744.502	2459.53
744.841	2444.84
745.181	2463.37
745.52	2415.23
745.86	2429.02
746.199	2420.43
746.538	2416.36
746.877	2428.79
747.216	2430.83
747.556	2402.8
747.895	2380.66
748.234	2405.29
748.573	2407.78
748.911	2411.39
749.25	2369.81
749.589	2375.01
749.928	2381.34
750.267	2386.08
750.605	2340.88
750.944	2348.57
751.283	2360.55
751.621	2346.99
751.96	2366.42
752.298	2331.39
752.636	2337.5
752.975	2380.88
753.313	2313.99
753.651	2337.95
753.989	2333.2
754.327	2324.61
754.666	2329.81
755.004	2309.47
755.342	2278.97
755.679	2299.76
756.017	2274.67
756.355	2316.25
756.693	2305.18
757.031	2278.51
757.368	2296.59
757.706	2270.15
758.044	2228.35
758.381	2277.16
758.719	2273.54
759.056	2277.16
759.394	2255.46
759.731	2244.16
760.068	2194.22
760.405	2230.83
760.743	2231.96
761.08	2229.02
761.417	2216.59
761.754	2203.49
762.091	2216.37
762.428	2169.59
762.765	2176.6
763.102	2183.6
763.438	2153.55
763.775	2176.82
764.112	2180.66
764.449	2148.35
764.785	2175.92
765.122	2131.62
765.458	2151.29
765.795	2129.59
766.131	2116.71
766.467	2121.46
766.804	2086.2
767.14	2102.47
767.476	2110.83
767.812	2094.56
768.148	2089.37
768.485	2066.77
768.821	2089.59
769.157	2071.29
769.492	2077.16
769.828	2087.56
770.164	2046.2
770.5	2032.64
770.836	2029.93
771.171	2036.26
771.507	2039.42
771.842	2037.16
772.178	2054.56
