Data from foam1_polythene_foam_FLMS001491_00097.txt Node
Date: Wed Feb 08 10:55:40 GMT 2017
User: dcchb
Spectrometer: FLMS00149
Trigger mode: 0
Integration Time (sec): 2.000000E-2
Scans to average: 10
Electric dark correction enabled: true
Nonlinearity correction enabled: false
Boxcar width: 0
XAxis mode: Wavelengths
Number of Pixels in Spectrum: 2048
>>>>>Begin Spectral Data<<<<<
341.393	-7.56
341.776	-7.56
342.16	-7.56
342.543	-66.54
342.927	-65.63
343.31	-60.66
343.693	-88.46
344.077	-66.76
344.46	-39.42
344.843	-55.24
345.226	-40.1
345.61	-32.64
345.993	-18.63
346.376	-17.27
346.759	1.48
347.142	41.26
347.525	36.28
347.908	62.05
348.291	63.85
348.674	106.34
349.057	107.92
349.44	137.75
349.823	115.15
350.206	149.73
350.588	172.55
350.971	169.16
351.354	218.88
351.737	217.97
352.119	240.57
352.502	256.84
352.884	269.72
353.267	271.31
353.65	265.2
354.032	285.54
354.414	278.76
354.797	308.82
355.179	306.56
355.562	291.64
355.944	310.63
356.326	312.21
356.709	314.47
357.091	323.96
357.473	321.93
357.855	325.54
358.238	323.73
358.62	332.77
359.002	333
359.384	318.31
359.766	336.16
360.148	333.23
360.53	320.8
360.912	326.22
361.294	316.95
361.676	294.13
362.057	311.53
362.439	313.11
362.821	334.13
363.203	304.3
363.584	300.23
363.966	294.36
364.348	315.37
364.729	309.72
365.111	315.15
365.493	301.59
365.874	289.39
366.256	304.3
366.637	275.37
367.019	318.08
367.4	311.98
367.781	310.85
368.163	274.92
368.544	315.15
368.925	283.96
369.306	308.14
369.688	300.46
370.069	296.84
370.45	304.3
370.831	303.85
371.212	321.47
371.593	309.5
371.974	308.82
372.355	305.43
372.736	312.89
373.117	305.88
373.498	332.1
373.879	307.92
374.26	302.72
374.641	326.67
375.021	293.68
375.402	324.19
375.783	300.01
376.163	321.47
376.544	322.38
376.925	323.51
377.305	316.05
377.686	280.8
378.066	312.44
378.447	311.98
378.827	316.05
379.208	344.07
379.588	319.21
379.968	335.94
380.349	314.47
380.729	307.92
381.109	334.58
381.489	330.06
381.87	324.86
382.25	345.65
382.63	313.11
383.01	321.7
383.39	319.67
383.77	343.17
384.15	320.34
384.53	329.61
384.91	348.82
385.29	340.68
385.67	339.78
386.049	348.37
386.429	337.75
386.809	334.36
387.189	367.35
387.568	351.98
387.948	347.91
388.328	344.75
388.707	353.56
389.087	340.68
389.466	368.25
389.846	346.78
390.225	370.74
390.605	366.67
390.984	369.83
391.363	358.31
391.743	359.44
392.122	357.63
392.501	353.34
392.881	354.24
393.26	352.66
393.639	351.08
394.018	381.59
394.397	375.03
394.776	383.39
395.155	378.2
395.534	352.43
395.913	366.22
396.292	383.17
396.671	392.66
397.05	386.11
397.429	400.79
397.808	390.4
398.186	367.35
398.565	365.32
398.944	372.55
399.323	403.51
399.701	393.79
400.08	384.98
400.458	402.15
400.837	389.95
401.215	403.73
401.594	392.66
401.972	409.83
402.351	375.26
402.729	396.05
403.107	368.93
403.486	392.43
403.864	394.47
404.242	399.44
404.62	433.34
404.999	415.71
405.377	409.38
405.755	410.74
406.133	403.96
406.511	408.7
406.889	444.41
407.267	412.32
407.645	437.4
408.023	449.15
408.401	439.89
408.779	435.6
409.156	427.69
409.534	448.02
409.912	445.54
410.29	449.15
410.667	435.14
411.045	477.4
411.422	443.05
411.8	467.69
412.178	480.11
412.555	483.28
412.933	469.27
413.31	477.63
413.687	475.82
414.065	474.01
414.442	470.85
414.819	509.49
415.197	491.41
415.574	493.67
415.951	477.85
416.328	469.72
416.705	494.8
417.082	499.77
417.46	496.39
417.837	505.2
418.214	525.09
418.591	498.65
418.967	516.72
419.344	523.05
419.721	521.7
420.098	518.76
420.475	530.51
420.852	540
421.228	555.14
421.605	549.72
421.982	536.16
422.358	563.28
422.735	547.23
423.111	550.62
423.488	556.95
423.864	569.15
424.241	550.85
424.617	567.57
424.994	573.67
425.37	565.54
425.746	574.35
426.123	593.78
426.499	568.93
426.875	591.07
427.251	589.94
427.627	607.57
428.003	611.86
428.379	595.37
428.756	613.9
429.132	625.2
429.507	616.61
429.883	653.22
430.259	626.55
430.635	630.84
431.011	630.62
431.387	651.64
431.763	652.54
432.138	634.69
432.514	689.83
432.89	649.6
433.265	683.27
433.641	684.85
434.016	678.75
434.392	686.66
434.767	713.78
435.143	715.36
435.518	716.94
435.894	733.22
436.269	744.74
436.644	748.36
437.02	744.74
437.395	742.25
437.77	766.89
438.145	765.98
438.52	794.46
438.895	757.17
439.271	771.86
439.646	793.78
440.021	797.17
440.395	798.52
440.77	811.86
441.145	805.08
441.52	821.8
441.895	827.45
442.27	827.22
442.645	805.98
443.019	848.24
443.394	849.6
443.769	876.71
444.143	852.31
444.518	873.1
444.892	872.42
445.267	897.28
445.641	905.87
446.016	897.5
446.39	875.81
446.764	909.03
447.139	911.29
447.513	921.91
447.887	927.56
448.262	923.94
448.636	937.28
449.01	932.76
449.384	942.93
449.758	969.14
450.132	989.03
450.506	969.37
450.88	997.39
451.254	1007.33
451.628	1021.12
452.002	1004.85
452.376	1014.11
452.75	1024.96
453.123	1031.06
453.497	1060.44
453.871	1057.73
454.244	1060.44
454.618	1064.96
454.992	1066.54
455.365	1078.06
455.739	1084.62
456.112	1117.61
456.486	1090.95
456.859	1108.12
457.232	1114.67
457.606	1096.37
457.979	1158.06
458.352	1146.31
458.725	1127.78
459.099	1163.03
459.472	1177.5
459.845	1167.55
460.218	1171.62
460.591	1193.99
460.964	1211.85
461.337	1208.91
461.71	1224.05
462.083	1236.7
462.456	1262.69
462.829	1240.09
463.201	1279.19
463.574	1251.85
463.947	1262.92
464.32	1302.47
464.692	1315.35
465.065	1314.22
465.438	1300.88
465.81	1334.56
466.183	1369.58
466.555	1372.07
466.928	1399.86
467.3	1370.26
467.672	1404.16
468.045	1443.93
468.417	1431.73
468.789	1454.55
469.161	1439.86
469.534	1473.99
469.906	1500.65
470.278	1504.04
470.65	1498.17
471.022	1547.66
471.394	1575.9
471.766	1568.22
472.138	1576.13
472.51	1620.42
472.882	1618.16
473.253	1649.35
473.625	1670.14
473.997	1689.57
474.369	1693.64
474.74	1704.49
475.112	1738.39
475.484	1783.58
475.855	1789.23
476.227	1818.38
476.598	1843.47
476.97	1845.95
477.341	1887.76
477.713	1922.34
478.084	1933.41
478.455	1985.84
478.827	1984.26
479.198	2081.2
479.569	2035.55
479.94	2077.59
480.311	2077.13
480.682	2149.68
481.053	2197.58
481.424	2210.46
481.795	2222.22
482.166	2220.41
482.537	2287.3
482.908	2348.31
483.279	2355.55
483.65	2388.99
484.021	2424.02
484.391	2453.17
484.762	2473.73
485.133	2455.2
485.503	2500.85
485.874	2567.29
486.244	2601.64
486.615	2631.24
486.985	2690.45
487.356	2709.43
487.726	2699.94
488.097	2783.78
488.467	2751.92
488.837	2852.93
489.207	2904.01
489.578	2891.58
489.948	2934.74
490.318	2956.43
490.688	2987.85
491.058	2991.91
491.428	3075.98
491.798	3075.53
492.168	3166.6
492.538	3133.83
492.908	3221.74
493.278	3251.34
493.648	3230.32
494.017	3326.82
494.387	3343.09
494.757	3316.2
495.126	3385.8
495.496	3409.75
495.866	3395.07
496.235	3442.3
496.605	3501.73
496.974	3501.96
497.344	3563.65
497.713	3565.46
498.082	3582.18
498.452	3632.35
498.821	3640.03
499.19	3658.34
499.559	3710.76
499.928	3692.01
500.298	3774.04
500.667	3784.21
501.036	3811.1
501.405	3854.49
501.774	3828.28
502.143	3878.44
502.512	3930.19
502.88	3927.48
503.249	3978.78
503.618	3979.23
503.987	4001.38
504.356	4008.84
504.724	4043.86
505.093	4043.41
505.462	4098.1
505.83	4136.74
506.199	4130.64
506.567	4177.87
506.936	4215.84
507.304	4264.87
507.672	4268.49
508.041	4317.98
508.409	4355.04
508.777	4386
509.145	4409.05
509.514	4407.47
509.882	4420.8
510.25	4452.21
510.618	4509.84
510.986	4549.16
511.354	4557.52
511.722	4580.8
512.09	4615.6
512.458	4630.06
512.826	4732.88
513.193	4741.47
513.561	4723.62
513.929	4751.64
514.297	4858.53
514.664	4854.69
515.032	4891.52
515.4	4906.44
515.767	4981.24
516.135	4982.37
516.502	5026.89
516.869	5085.87
517.237	5051.75
517.604	5068.24
517.972	5100.78
518.339	5155.25
518.706	5152.08
519.073	5232.31
519.44	5232.76
519.808	5251.29
520.175	5285.19
520.542	5390.27
520.909	5463.49
521.276	5402.92
521.643	5499.42
522.009	5496.93
522.376	5519.76
522.743	5651.73
523.11	5618.96
523.477	5681.11
523.843	5688.34
524.21	5810.82
524.577	5818.73
524.943	5873.87
525.31	5944.38
525.676	5941.21
526.043	6033.19
526.409	6006.97
526.776	6045.17
527.142	6077.48
527.508	6160.87
527.874	6211.94
528.241	6228.44
528.607	6268.44
528.973	6258.49
529.339	6267.08
529.705	6367.87
530.071	6445.83
530.437	6391.37
530.803	6498.71
531.169	6521.31
531.535	6513.63
531.901	6546.17
532.267	6599.28
532.632	6664.81
532.998	6654.42
533.364	6725.37
533.73	6762.21
534.095	6778.25
534.461	6813.51
534.826	6836.33
535.192	6916.33
535.557	6885.37
535.923	6900.06
536.288	6907.29
536.653	7048.3
537.019	7000.4
537.384	7052.15
537.749	7051.02
538.114	7044.01
538.479	7148.64
538.845	7157.45
539.21	7182.09
539.575	7239.71
539.94	7210.11
540.305	7264.12
540.67	7254.17
541.034	7260.05
541.399	7284.68
541.764	7369.88
542.129	7355.64
542.494	7412.14
542.858	7399.03
543.223	7419.14
543.587	7485.81
543.952	7475.41
544.316	7498.01
544.681	7575.52
545.045	7578.01
545.41	7646.93
545.774	7644.45
546.138	7715.18
546.503	7639.25
546.867	7661.39
547.231	7747.27
547.595	7792.01
547.959	7829.98
548.324	7853.48
548.688	7857.32
549.052	7896.87
549.416	7895.06
549.779	7902.97
550.143	7910.88
550.507	7947.26
550.871	8014.38
551.235	8085.79
551.599	8032.23
551.962	8153.36
552.326	8093.93
552.689	8111.1
553.053	8102.29
553.417	8169.86
553.78	8233.13
554.143	8281.94
554.507	8355.39
554.87	8362.85
555.234	8450.75
555.597	8390.19
555.96	8396.52
556.323	8434.03
556.686	8460.92
557.05	8562.84
557.413	8615.27
557.776	8631.99
558.139	8657.75
558.502	8692.78
558.865	8650.3
559.228	8721.93
559.59	8764.87
559.953	8838.76
560.316	8945.2
560.679	8926.45
561.041	9009.38
561.404	9054.13
561.767	9082.6
562.129	9005.99
562.492	9090.06
562.854	9130.96
563.217	9170.06
563.579	9244.4
563.941	9292.54
564.304	9303.16
564.666	9325.53
565.028	9376.83
565.39	9355.14
565.753	9360.78
566.115	9467.22
566.477	9510.39
566.839	9517.17
567.201	9679.65
567.563	9706.54
567.925	9646.2
568.287	9642.13
568.648	9695.69
569.01	9727.33
569.372	9795.8
569.734	9866.99
570.095	9983.59
570.457	9987.21
570.819	9947.21
571.18	9939.53
571.542	10060.88
571.903	10002.12
572.265	10042.8
572.626	10068.11
572.987	10119.18
573.349	10153.76
573.71	10234.66
574.071	10240.99
574.432	10209.12
574.794	10253.64
575.155	10309.69
575.516	10290.25
575.877	10308.56
576.238	10400.98
576.599	10443.92
576.96	10454.99
577.32	10417.71
577.681	10437.59
578.042	10476.46
578.403	10429.68
578.763	10431.49
579.124	10469
579.485	10447.08
579.845	10502
580.206	10568.44
580.566	10573.18
580.927	10582.22
581.287	10656.12
581.648	10559.85
582.008	10647.53
582.368	10559.85
582.728	10616.57
583.089	10547.87
583.449	10585.61
583.809	10718.94
584.169	10750.35
584.529	10672.61
584.889	10749.9
585.249	10650.47
585.609	10569.57
585.969	10663.8
586.329	10688.21
586.688	10679.17
587.048	10651.6
587.408	10697.25
587.768	10707.87
588.127	10733.63
588.487	10625.61
588.846	10697.25
589.206	10570.47
589.565	10621.32
589.925	10721.65
590.284	10705.16
590.643	10766.85
591.003	10775.89
591.362	10766.62
591.721	10708.09
592.08	10704.7
592.44	10778.15
592.799	10774.99
593.158	10723.23
593.517	10748.55
593.876	10761.43
594.235	10750.58
594.593	10815.66
594.952	10756.23
595.311	10741.31
595.67	10733.86
596.029	10867.19
596.387	10802.55
596.746	10800.75
597.104	10795.55
597.463	10812.95
597.822	10875.1
598.18	10817.24
598.538	10869.22
598.897	10908.09
599.255	10722.78
599.613	10858.82
599.972	10834.19
600.33	10854.53
600.688	10800.97
601.046	10873.74
601.404	10858.15
601.762	10897.69
602.12	10970.23
602.478	10906.06
602.836	10954.87
603.194	10898.37
603.552	10877.36
603.91	10877.58
604.268	10896.11
604.625	10906.73
604.983	10928.65
605.341	10969.56
605.698	11003.68
606.056	11003
606.413	11014.07
606.771	10962.32
607.128	11001.65
607.485	10925.26
607.843	10929.56
608.2	10968.88
608.557	11086.62
608.914	11106.73
609.272	11074.86
609.629	11158.93
609.986	11147.86
610.343	11075.77
610.7	11154.64
611.057	11102.89
611.414	11115.32
611.771	11105.6
612.127	11163
612.484	11142.21
612.841	11216.78
613.198	11203
613.554	11196.67
613.911	11289.32
614.267	11263.56
614.624	11218.36
614.98	11248.42
615.337	11296.1
615.693	11299.27
616.05	11267.63
616.406	11319.38
616.762	11299.49
617.118	11221.98
617.475	11300.39
617.831	11293.62
618.187	11258.81
618.543	11262.2
618.899	11311.92
619.255	11349.43
619.611	11348.53
619.967	11365.48
620.323	11364.8
620.678	11310.79
621.034	11337.68
621.39	11329.09
621.746	11365.7
622.101	11439.6
622.457	11344.69
622.812	11326.38
623.168	11446.83
623.523	11373.16
623.879	11373.84
624.234	11333.61
624.589	11344.46
624.945	11369.09
625.3	11393.05
625.655	11320.28
626.01	11403.22
626.365	11355.31
626.72	11377.91
627.075	11394.63
627.43	11348.3
627.785	11270.34
628.14	11369.55
628.495	11347.17
628.85	11358.02
629.205	11324.35
629.559	11423.1
629.914	11318.7
630.269	11260.85
630.623	11230.79
630.978	11178.36
631.332	11299.49
631.687	11242.09
632.041	11244.58
632.396	11172.26
632.75	11169.1
633.104	11206.61
633.459	11109.44
633.813	11140.63
634.167	11045.26
634.521	11107.63
634.875	11092.49
635.229	11127.07
635.583	11100.63
635.937	11091.81
636.291	11040.29
636.645	11064.47
636.999	11102.43
637.352	11123.68
637.706	10970.01
638.06	11073.73
638.413	11002.78
638.767	10991.48
639.121	10971.14
639.474	10908.54
639.828	10934.08
640.181	10918.26
640.534	10940.86
640.888	10893.63
641.241	10779.73
641.594	10895.43
641.947	10911.7
642.301	10785.15
642.654	10820.63
643.007	10886.39
643.36	10835.55
643.713	10763.69
644.066	10778.83
644.419	10809.56
644.771	10761.88
645.124	10656.57
645.477	10559.17
645.83	10530.92
646.182	10521.88
646.535	10406.63
646.888	10348.56
647.24	10436.46
647.593	10380.19
647.945	10358.5
648.298	10350.59
648.65	10340.19
649.002	10325.28
649.355	10311.72
649.707	10317.82
650.059	10335.45
650.411	10439.63
650.763	10477.82
651.115	10629.9
651.467	10525.27
651.819	10488.21
652.171	10475.78
652.523	10395.56
652.875	10415.67
653.227	10391.04
653.578	10462
653.93	10414.99
654.282	10360.08
654.633	10385.84
654.985	10383.36
655.337	10384.49
655.688	10376.13
656.039	10403.24
656.391	10323.47
656.742	10313.53
657.094	10348.1
657.445	10384.03
657.796	10349.23
658.147	10314.21
658.498	10330.48
658.849	10343.36
659.2	10309.46
659.551	10306.97
659.902	10311.49
660.253	10314.66
660.604	10245.28
660.955	10255.68
661.306	10237.37
661.656	10193.31
662.007	10272.85
662.358	10257.48
662.708	10305.62
663.059	10219.29
663.409	10161.22
663.76	10270.37
664.11	10236.02
664.461	10256.58
664.811	10181.33
665.161	10202.57
665.511	10199.86
665.862	10120.31
666.212	10210.93
666.562	10233.76
666.912	10209.12
667.262	10176.36
667.612	10141.78
667.962	10215.45
668.312	10103.82
668.662	10177.94
669.011	10122.12
669.361	10085.96
669.711	10116.25
670.06	10054.55
670.41	10029.69
670.76	9999.41
671.109	10133.42
671.459	10024.95
671.808	10102.23
672.157	10122.57
672.507	10069.69
672.856	10020.88
673.205	10022.91
673.554	10071.95
673.904	10029.24
674.253	10057.04
674.602	9955.12
674.951	9868.34
675.3	9805.97
675.649	9963.48
675.998	9948.34
676.346	9984.72
676.695	9981.33
677.044	9963.25
677.393	9954.22
677.741	9917.61
678.09	9946.53
678.438	9946.08
678.787	9936.59
679.135	9885.06
679.484	9789.7
679.832	9928.23
680.181	9764.62
680.529	9787.21
680.877	9847.1
681.225	9842.81
681.573	9837.61
681.922	9786.99
682.27	9808.68
682.618	9773.2
682.966	9727.78
683.314	9742.7
683.661	9709.93
684.009	9607.56
684.357	9626.09
684.705	9621.34
685.053	9699.76
685.4	9621.8
685.748	9577.5
686.095	9648.01
686.443	9577.05
686.79	9597.84
687.138	9541.35
687.485	9554.23
687.832	9501.35
688.18	9483.72
688.527	9427.68
688.874	9389.48
689.221	9401.46
689.568	9440.56
689.915	9384.29
690.262	9349.49
690.609	9348.36
690.956	9355.59
691.303	9271.97
691.65	9238.98
691.997	9280.56
692.344	9244.86
692.69	9203.73
693.037	9197.63
693.383	9096.61
693.73	9159.21
694.077	9116.95
694.423	9056.39
694.769	9035.14
695.116	9011.42
695.462	9039.89
695.808	9052.09
696.155	9035.6
696.501	8973.45
696.847	8995.82
697.193	8923.28
697.539	8930.06
697.885	8874.7
698.231	8837.18
698.577	8747.02
698.923	8740.69
699.269	8732.33
699.614	8698.88
699.96	8701.14
700.306	8657.3
700.651	8690.07
700.997	8607.13
701.342	8662.95
701.688	8702.72
702.033	8560.13
702.379	8643.52
702.724	8568.94
703.069	8584.76
703.415	8413.92
703.76	8394.93
704.105	8534.37
704.45	8423.86
704.795	8403.52
705.14	8335.95
705.485	8347.7
705.83	8356.52
706.175	8320.59
706.52	8343.41
706.865	8276.75
707.209	8314.94
707.554	8272
707.899	8302.06
708.243	8181.61
708.588	8216.18
708.932	8129.18
709.277	8180.03
709.621	8168.73
709.966	8062.97
710.31	8090.99
710.654	8087.15
710.998	8023.64
711.342	8041.27
711.687	8064.55
712.031	7975.74
712.375	7992.46
712.719	8028.62
713.063	7984.55
713.407	7974.83
713.75	7940.48
714.094	7858.45
714.438	7866.59
714.782	7815.97
715.125	7829.3
715.469	7848.73
715.812	7843.31
716.156	7876.53
716.499	7813.26
716.843	7851.67
717.186	7768.74
717.53	7825.91
717.873	7821.16
718.216	7839.92
718.559	7714.5
718.902	7681.96
719.246	7611.45
719.589	7666.59
719.932	7577.55
720.275	7635.18
720.617	7586.82
720.96	7615.97
721.303	7632.69
721.646	7663.43
721.989	7528.97
722.331	7519.48
722.674	7599.02
723.016	7595.41
723.359	7476.09
723.701	7530.78
724.044	7582.3
724.386	7458.91
724.729	7473.38
725.071	7452.81
725.413	7447.16
725.755	7442.64
726.097	7451.68
726.439	7331.23
726.782	7353.61
727.124	7375.98
727.465	7394.51
727.807	7321.97
728.149	7326.49
728.491	7286.04
728.833	7269.54
729.175	7357.22
729.516	7268.64
729.858	7307.05
730.199	7275.42
730.541	7234.97
730.882	7268.41
731.224	7271.57
731.565	7224.57
731.906	7198.81
732.248	7194.74
732.589	7165.59
732.93	7125.14
733.271	7142.31
733.612	7204.46
733.953	7203.55
734.294	7135.08
734.635	7103.22
734.976	7107.51
735.317	7156.78
735.658	7113.16
735.999	7095.76
736.339	7108.87
736.68	7129.66
737.021	7072.94
737.361	7033.84
737.702	7027.06
738.042	7057.12
738.383	6992.49
738.723	6994.29
739.063	6983.67
739.404	7024.35
739.744	7014.41
740.084	6921.98
740.424	6948.42
740.764	6944.35
741.104	6952.94
741.444	6953.16
741.784	6919.95
742.124	6890.57
742.464	6868.2
742.804	6877.01
743.143	6818.7
743.483	6888.31
743.823	6795.2
744.162	6825.71
744.502	6830.23
744.841	6790.23
745.181	6798.82
745.52	6762.66
745.86	6756.11
746.199	6780.06
746.538	6827.07
746.877	6765.15
747.216	6828.42
747.556	6734.41
747.895	6711.59
748.234	6689.89
748.573	6720.85
748.911	6697.8
749.25	6647.41
749.589	6620.29
749.928	6569.67
750.267	6649.22
750.605	6590.46
750.944	6640.4
751.283	6561.99
751.621	6555.89
751.96	6562.67
752.298	6615.32
752.636	6633.17
752.975	6545.94
753.313	6539.16
753.651	6517.92
753.989	6508.88
754.327	6442.22
754.666	6436.79
755.004	6487.87
755.342	6415.33
755.679	6439.28
756.017	6395.67
756.355	6394.08
756.693	6395.21
757.031	6405.38
757.368	6329
757.706	6377.59
758.044	6307.98
758.381	6343.01
758.719	6299.4
759.056	6321.77
759.394	6251.04
759.731	6174.65
760.068	6225.73
760.405	6185.95
760.743	6208.33
761.08	6222.11
761.417	6183.24
761.754	6103.47
762.091	6138.72
762.428	6060.98
762.765	6016.69
763.102	6058.27
763.438	6035.45
763.775	6051.27
764.112	6059.18
764.449	6085.39
