Data from foam2_polystyrene_foam_FLMS001491_00036.txt Node
Date: Wed Feb 08 10:57:53 GMT 2017
User: dcchb
Spectrometer: FLMS00149
Trigger mode: 0
Integration Time (sec): 2.000000E-2
Scans to average: 10
Electric dark correction enabled: true
Nonlinearity correction enabled: false
Boxcar width: 0
XAxis mode: Wavelengths
Number of Pixels in Spectrum: 2048
>>>>>Begin Spectral Data<<<<<
341.393	-8.93
341.776	-8.93
342.16	-8.93
342.543	-77.63
342.927	-79.21
343.31	-68.81
343.693	-57.74
344.077	-76.5
344.46	-67.68
344.843	-41.69
345.226	-56.38
345.61	-28.13
345.993	-25.65
346.376	-2.15
346.759	15.71
347.142	32.43
347.525	34.46
347.908	49.15
348.291	91.64
348.674	100.9
349.057	100.45
349.44	128.47
349.823	148.13
350.206	169.15
350.588	216.38
350.971	209.82
351.354	220.45
351.737	227
352.119	254.12
352.502	263.61
352.884	276.49
353.267	290.05
353.65	295.92
354.032	304.51
354.414	300.9
354.797	317.84
355.179	330.05
355.562	338.41
355.944	307
356.326	339.09
356.709	352.65
357.091	334.57
357.473	332.53
357.855	323.04
358.238	360.56
358.62	339.09
359.002	337.05
359.384	365.08
359.766	350.61
360.148	341.12
360.53	347.67
360.912	344.74
361.294	349.26
361.676	343.38
362.057	336.15
362.439	359.88
362.821	333.21
363.203	342.93
363.584	338.86
363.966	332.76
364.348	350.39
364.729	339.99
365.111	337.51
365.493	346.77
365.874	331.18
366.256	337.05
366.637	330.27
367.019	328.47
367.4	340.89
367.781	321.46
368.163	341.12
368.544	325.08
368.925	329.82
369.306	336.83
369.688	336.38
370.069	329.82
370.45	345.87
370.831	332.08
371.212	340.67
371.593	356.71
371.974	328.01
372.355	326.43
372.736	342.02
373.117	331.63
373.498	365.98
373.879	345.87
374.26	333.89
374.641	365.75
375.021	351.52
375.402	343.15
375.783	354.23
376.163	368.69
376.544	357.17
376.925	373.89
377.305	369.14
377.686	352.42
378.066	378.86
378.447	377.96
378.827	359.88
379.208	389.48
379.588	370.72
379.968	356.71
380.349	377.96
380.729	376.83
381.109	383.15
381.489	382.93
381.87	387.67
382.25	382.7
382.63	395.13
383.01	390.84
383.39	386.32
383.77	370.05
384.15	403.04
384.53	392.42
384.91	406.88
385.29	412.53
385.67	398.75
386.049	423.38
386.429	415.02
386.809	423.83
387.189	429.71
387.568	441.01
387.948	421.8
388.328	439.42
388.707	448.69
389.087	430.16
389.466	457.28
389.846	434.45
390.225	427.67
390.605	447.56
390.984	461.12
391.363	458.41
391.743	487.33
392.122	455.47
392.501	457.5
392.881	472.19
393.26	471.74
393.639	486.43
394.018	502.25
394.397	465.86
394.776	480.33
395.155	470.84
395.534	481.46
395.913	488.46
396.292	501.12
396.671	512.87
397.05	489.59
397.429	488.91
397.808	506.99
398.186	490.72
398.565	502.92
398.944	514.68
399.323	528.91
399.701	540.21
400.08	551.96
400.458	539.08
400.837	539.31
401.215	528.69
401.594	541.12
401.972	572.75
402.351	542.25
402.729	558.29
403.107	568.01
403.486	594.67
403.864	575.69
404.242	574.11
404.62	601.68
404.999	583.83
405.377	619.98
405.755	605.29
406.133	605.29
406.511	604.16
406.889	609.36
407.267	644.62
407.645	646.65
408.023	623.6
408.401	649.81
408.779	660.66
409.156	659.53
409.534	671.06
409.912	651.17
410.29	664.05
410.667	690.72
411.045	682.58
411.422	686.87
411.8	702.47
412.178	713.54
412.555	707.67
412.933	715.35
413.31	740.88
413.687	742.92
414.065	733.65
414.442	773.2
414.819	764.84
415.197	772.07
415.574	810.49
415.951	798.74
416.328	799.41
416.705	798.51
417.082	796.48
417.46	811.62
417.837	805.97
418.214	817.27
418.591	816.81
418.967	825.18
419.344	846.42
419.721	864.5
420.098	874.67
420.475	867.66
420.852	873.31
421.228	902.46
421.605	877.15
421.982	885.97
422.358	917.83
422.735	941.78
423.111	931.39
423.488	933.87
423.864	939.98
424.241	952.4
424.617	953.08
424.994	950.37
425.37	986.75
425.746	1004.83
426.123	1004.15
426.499	993.53
426.875	1015.91
427.251	1037.6
427.627	1046.19
428.003	1051.16
428.379	1080.99
428.756	1081.21
429.132	1065.62
429.507	1102.23
429.883	1107.88
430.259	1119.18
430.635	1129.12
431.011	1167.99
431.387	1171.83
431.763	1203.92
432.138	1203.25
432.514	1222
432.89	1229.69
433.265	1247.99
433.641	1283.7
434.016	1268.1
434.392	1306.29
434.767	1312.17
435.143	1340.87
435.518	1330.7
435.894	1335.9
436.269	1356.01
436.644	1392.62
437.02	1396.01
437.395	1406.18
437.77	1421.09
438.145	1451.83
438.52	1455.22
438.895	1465.16
439.271	1467.65
439.646	1530.69
440.021	1520.75
440.395	1497.02
440.77	1505.16
441.145	1535.89
441.52	1560.3
441.895	1577.25
442.27	1593.74
442.645	1585.61
443.019	1586.96
443.394	1610.01
443.769	1635.78
444.143	1631.03
444.518	1664.93
444.892	1646.62
445.267	1682.78
445.641	1683.23
446.016	1707.19
446.39	1701.09
446.764	1739.5
447.139	1754.42
447.513	1764.13
447.887	1774.53
448.262	1758.26
448.636	1813.85
449.01	1803.68
449.384	1828.54
449.758	1847.3
450.132	1860.63
450.506	1858.6
450.88	1877.13
451.254	1871.02
451.628	1912.83
452.002	1954.41
452.376	1964.58
452.75	1985.82
453.123	1966.61
453.497	2012.49
453.871	2039.16
454.244	2052.49
454.618	2066.27
454.992	2138.14
455.365	2139.49
455.739	2173.39
456.112	2181.07
456.486	2230.79
456.859	2208.42
457.232	2282.76
457.606	2258.81
457.979	2296.1
458.352	2337.23
458.725	2365.93
459.099	2358.02
459.472	2405.47
459.845	2413.61
460.218	2450.67
460.591	2485.02
460.964	2448.64
461.337	2537.45
461.71	2550.55
462.083	2621.51
462.456	2616.09
462.829	2593.49
463.201	2667.61
463.574	2642.53
463.947	2687.05
464.32	2740.83
464.692	2791.9
465.065	2767.72
465.438	2849.3
465.81	2879.59
466.183	2887.72
466.555	2974.27
466.928	2963.2
467.3	2985.35
467.672	3050.43
468.045	3059.24
468.417	3101.95
468.789	3131.78
469.161	3173.14
469.534	3203.19
469.906	3289.97
470.278	3312.34
470.65	3355.5
471.022	3388.05
471.394	3424.2
471.766	3463.3
472.138	3521.83
472.51	3586.46
472.882	3643.63
473.253	3698.32
473.625	3705.33
473.997	3797.53
474.369	3838.43
474.74	3837.07
475.112	3948.48
475.484	4021.25
475.855	4066.22
476.227	4146.67
476.598	4197.97
476.97	4271.64
477.341	4327.68
477.713	4459.2
478.084	4435.25
478.455	4569.48
478.827	4592.99
479.198	4766.54
479.569	4748.24
479.94	4873.43
480.311	4897.61
480.682	4988.91
481.053	5109.58
481.424	5196.59
481.795	5269.13
482.166	5285.62
482.537	5344.15
482.908	5512.51
483.279	5572.85
483.65	5613.75
484.021	5768.55
484.391	5846.51
484.762	5899.62
485.133	5906.17
485.503	6006.51
485.874	6131.48
486.244	6202.44
486.615	6324.47
486.985	6419.38
487.356	6491.24
487.726	6574.63
488.097	6702.08
488.467	6694.17
488.837	6847.16
489.207	6928.97
489.578	7024.79
489.948	7172.35
490.318	7234.95
490.688	7198.34
491.058	7405.34
491.428	7501.61
491.798	7529.18
492.168	7687.37
492.538	7681.49
492.908	7800.81
493.278	7921.94
493.648	7953.8
494.017	8001.26
494.387	8096.4
494.757	8187.69
495.126	8290.97
495.496	8321.25
495.866	8405.99
496.235	8536.16
496.605	8516.5
496.974	8626.33
497.344	8689.15
497.713	8754.01
498.082	8858.86
498.452	8943.61
498.821	8951.29
499.19	8994.9
499.559	9053.89
499.928	9132.08
500.298	9251.4
500.667	9307.44
501.036	9379.3
501.405	9366.65
501.774	9444.61
502.143	9586.53
502.512	9629.24
502.88	9649.8
503.249	9645.51
503.618	9902.9
503.987	9820.87
504.356	9869.46
504.724	9993.97
505.093	10005.5
505.462	10074.2
505.83	10230.13
506.199	10291.59
506.567	10394.42
506.936	10394.19
507.304	10588.31
507.672	10621.3
508.041	10685.93
508.409	10735.42
508.777	10839.6
509.145	10891.13
509.514	10941.75
509.882	11035.53
510.25	11089.31
510.618	11127.96
510.986	11190.78
511.354	11280.95
511.722	11405.24
512.09	11617.21
512.458	11583.76
512.826	11699.01
513.193	11688.62
513.561	11786.92
513.929	11872.12
514.297	11948.27
514.664	12066.01
515.032	12146.69
515.4	12248.6
515.767	12351.88
516.135	12426.23
516.502	12362.05
516.869	12609.5
517.237	12670.97
517.604	12643.62
517.972	12902.15
518.339	12865.54
518.706	12892.88
519.073	13028.7
519.44	13124.74
519.808	13285.87
520.175	13270.5
520.542	13442.92
520.909	13530.15
521.276	13560.43
521.643	13762.69
522.009	13847.43
522.376	13993.64
522.743	14040.2
523.11	14263.47
523.477	14318.15
523.843	14395.89
524.21	14480.41
524.577	14613.06
524.943	14673.63
525.31	14781.42
525.676	14979.61
526.043	15078.81
526.409	15166.04
526.776	15291.69
527.142	15347.05
527.508	15491.01
527.874	15492.36
528.241	15595.64
528.607	15702.3
528.973	15823.2
529.339	15809.64
529.705	16090.76
530.071	16185.45
530.437	16258.89
530.803	16367.14
531.169	16406.69
531.535	16410.98
531.901	16513.13
532.267	16576.85
532.632	16752.89
532.998	16863.62
533.364	17013.9
533.73	16929.84
534.095	17211.64
534.461	17151.75
534.826	17322.82
535.192	17348.58
535.557	17444.17
535.923	17431.07
536.288	17536.38
536.653	17625.64
537.019	17547.22
537.384	17632.87
537.749	17763.49
538.114	17847.55
538.479	17916.48
538.845	18048.23
539.21	18071.28
539.575	18108.34
539.94	18145.62
540.305	18349.69
540.67	18326.18
541.034	18512.39
541.399	18505.84
541.764	18563.47
542.129	18558.27
542.494	18680.75
542.858	18706.29
543.223	18899.96
543.587	18875.1
543.952	18945.83
544.316	18986.51
544.681	19070.57
545.045	19086.16
545.41	19155.09
545.774	19330.23
546.138	19307.4
546.503	19428.53
546.867	19326.16
547.231	19597.34
547.595	19656.77
547.959	19664.45
548.324	19688.63
548.688	19844.56
549.052	19926.59
549.416	19976.76
549.779	19946.71
550.143	19964.56
550.507	20254.04
550.871	20168.17
551.235	20242.29
551.599	20377.88
551.962	20533.81
552.326	20587.82
552.689	20647.93
553.053	20566.58
553.417	20754.82
553.78	20944.87
554.143	20855.84
554.507	21115.94
554.87	21182.38
555.234	21235.49
555.597	21110.97
555.96	21353.9
556.323	21354.58
556.686	21482.26
557.05	21614.91
557.413	21679.77
557.776	21618.53
558.139	21772.2
558.502	21841.57
558.865	21886.54
559.228	22072.08
559.59	22249.92
559.953	22248.57
560.316	22527.2
560.679	22543.93
561.041	22640.2
561.404	22688.1
561.767	22887.19
562.129	22766.52
562.492	23004.71
562.854	23074.99
563.217	23044.48
563.579	23196.34
563.941	23280.18
564.304	23445.15
564.666	23532.83
565.028	23531.02
565.39	23736.21
565.753	23928.3
566.115	23909.54
566.477	24103.43
566.839	24116.54
567.201	24286.71
567.563	24283.99
567.925	24511.56
568.287	24528.73
568.648	24637.43
569.01	24759.91
569.372	24911.1
569.734	24847.6
570.095	24981.38
570.457	25163.07
570.819	25121.03
571.18	25166.91
571.542	25307.02
571.903	25272.67
572.265	25426.11
572.626	25555.37
572.987	25581.36
573.349	25620.68
573.71	25680.79
574.071	25856.83
574.432	25831.52
574.794	26010.05
575.155	26001.01
575.516	25963.5
575.877	26111.06
576.238	26233.32
576.599	26280.55
576.96	26339.99
577.32	26379.08
577.681	26385.86
578.042	26541.34
578.403	26495.46
578.763	26543.6
579.124	26606.65
579.485	26641.9
579.845	26625.18
580.206	26653.2
580.566	26650.94
580.927	26699.98
581.287	26774.78
581.648	26763.03
582.008	26742.69
582.368	26766.19
582.728	26840.31
583.089	26930.93
583.449	26890.25
583.809	26946.52
584.169	27018.61
584.529	26949.23
584.889	27054.09
585.249	26896.81
585.609	26961.66
585.969	26964.6
586.329	26922.57
586.688	27042.11
587.048	26848.9
587.408	26911.95
587.768	26969.57
588.127	26900.65
588.487	26809.35
588.846	27080.3
589.206	26949.01
589.565	27054.77
589.925	27116.91
590.284	27150.59
590.643	27031.27
591.003	27143.58
591.362	27164.82
591.721	27134.31
592.08	27230.58
592.44	27161.66
592.799	27260.41
593.158	27071.72
593.517	27057.25
593.876	27216.12
594.235	27019.06
594.593	27072.85
594.952	27151.94
595.311	27014.32
595.67	27233.97
596.029	27397.58
596.387	27422.22
596.746	27386.06
597.104	27236.01
597.463	27344.03
597.822	27406.85
598.18	27293.41
598.538	27211.6
598.897	27458.37
599.255	27210.47
599.613	27625.15
599.972	27440.52
600.33	27521.2
600.688	27386.51
601.046	27610.01
601.404	27612.04
601.762	27581.76
602.12	27729.33
602.478	27690.91
602.836	27732.27
603.194	27523.23
603.552	27695.43
603.91	27478.49
604.268	27719.38
604.625	27674.19
604.983	27745.15
605.341	27730.01
605.698	27965.93
606.056	27910.79
606.413	27854.75
606.771	28017.46
607.128	27938.14
607.485	27755.77
607.843	27906.95
608.2	28002.31
608.557	28109.66
608.914	28043.67
609.272	28098.36
609.629	28135.87
609.986	28263.78
610.343	28166.38
610.7	28351.01
611.057	28198.69
611.414	28337.9
611.771	28269.88
612.127	28529.98
612.484	28556.65
612.841	28466.26
613.198	28492.25
613.554	28449.76
613.911	28693.37
614.267	28628.51
614.624	28619.02
614.98	28543.77
615.337	28777.21
615.693	28677.55
616.05	28605.46
616.406	28746.93
616.762	28574.05
617.118	28663.99
617.475	28676.87
617.831	28701.28
618.187	28732.69
618.543	28799.81
618.899	28872.12
619.255	28847.94
619.611	28781.96
619.967	28989.63
620.323	29061.5
620.678	28925.68
621.034	28808.62
621.39	28802.75
621.746	28815.4
622.101	29190.08
622.457	28868.28
622.812	28898.34
623.168	29091.78
623.523	29008.84
623.879	28899.92
624.234	28852.24
624.589	29017.66
624.945	28918
625.3	29046.13
625.655	28914.83
626.01	28948.96
626.365	28944.89
626.72	28945.34
627.075	28875.74
627.43	28826.25
627.785	28789.41
628.14	28863.76
628.495	28810.65
628.85	28808.62
629.205	28690.21
629.559	28863.08
629.914	28785.8
630.269	28751.45
630.623	28659.02
630.978	28625.12
631.332	28696.31
631.687	28731.79
632.041	28727.04
632.396	28637.33
632.75	28448.63
633.104	28553.49
633.459	28455.18
633.813	28436.2
634.167	28385.36
634.521	28392.81
634.875	28327.96
635.229	28341.29
635.583	28243.44
635.937	28133.38
636.291	28306.94
636.645	28255.42
636.999	28112.37
637.352	28231.24
637.706	28189.88
638.06	28170.9
638.413	28094.06
638.767	28116.21
639.121	28032.82
639.474	27913.5
639.828	27933.62
640.181	27922.32
640.534	27904.69
640.888	27725.49
641.241	27574.08
641.594	27667.41
641.947	27707.41
642.301	27720.51
642.654	27566.62
643.007	27710.34
643.36	27565.26
643.713	27577.92
644.066	27598.03
644.419	27378.6
644.771	27247.98
645.124	27105.61
645.477	27086.41
645.83	26881.44
646.182	26653.2
646.535	26586.08
646.888	26608
647.24	26441.68
647.593	26606.42
647.945	26488.68
648.298	26411.85
648.65	26344.51
649.002	26219.76
649.355	26300.89
649.707	26344.73
650.059	26505.18
650.411	26724.83
650.763	26747.66
651.115	26928.9
651.467	26929.57
651.819	26959.63
652.171	26886.19
652.523	26819.75
652.875	26737.72
653.227	26667.21
653.578	26807.54
653.93	26742.01
654.282	26608.68
654.633	26451.85
654.985	26670.15
655.337	26690.03
655.688	26660.2
656.039	26732.52
656.391	26542.47
656.742	26516.48
657.094	26410.04
657.445	26561
657.796	26482.81
658.147	26364.17
658.498	26366.65
658.849	26396.48
659.2	26406.65
659.551	26373.66
659.902	26421.34
660.253	26288.69
660.604	26389.02
660.955	26212.08
661.306	26258.41
661.656	26292.98
662.007	26449.81
662.358	26412.07
662.708	26394.45
663.059	26293.66
663.409	26205.53
663.76	26370.49
664.11	26274
664.461	26344.28
664.811	26263.6
665.161	26258.41
665.511	26175.47
665.862	26242.81
666.212	26345.63
666.562	26215.02
666.912	26148.13
667.262	26073.33
667.612	26012.54
667.962	26096.15
668.312	26009.82
668.662	26214.11
669.011	26135.47
669.361	26050.28
669.711	26049.6
670.06	25927.11
670.41	25991.52
670.76	25858.19
671.109	26052.31
671.459	25901.8
671.808	25929.15
672.157	25942.48
672.507	25783.16
672.856	25636.28
673.205	25871.75
673.554	25899.54
673.904	25782.94
674.253	25879.43
674.602	25641.25
674.951	25343.4
675.3	25279.45
675.649	25707.01
675.998	25562.15
676.346	25656.39
676.695	25650.96
677.044	25446.9
677.393	25558.76
677.741	25677.63
678.09	25535.71
678.438	25490.29
678.787	25550.18
679.135	25490.29
679.484	25262.73
679.832	25445.32
680.181	25305.89
680.529	25389.73
680.877	25220.92
681.225	25300.01
681.573	25353.8
681.922	25193.57
682.27	25171.2
682.618	25098.44
682.966	24890.53
683.314	24975.05
683.661	24838.78
684.009	24734.83
684.357	24747.94
684.705	24782.74
685.053	24691.89
685.4	24687.83
685.748	24454.39
686.095	24657.77
686.443	24528.73
686.79	24544.78
687.138	24378.91
687.485	24443.76
687.832	24319.47
688.18	24314.5
688.527	24099.59
688.874	24202.87
689.221	24149.31
689.568	24148.4
689.915	23951.57
690.262	23913.16
690.609	23834.74
690.956	23904.57
691.303	23824.8
691.65	23694.18
691.997	23691.47
692.344	23571.02
692.69	23519.95
693.037	23602.66
693.383	23320.86
693.73	23460.51
694.077	23248.77
694.423	23218.49
694.769	23199.5
695.116	23140.75
695.462	23119.73
695.808	23074.99
696.155	23017.59
696.501	22799.97
696.847	22905.5
697.193	22639.97
697.539	22790.47
697.885	22550.25
698.231	22530.59
698.577	22521.1
698.923	22518.62
699.269	22395.91
699.614	22291.73
699.96	22193.65
700.306	22204.5
700.651	22151.17
700.997	22029.59
701.342	22006.54
701.688	21929.48
702.033	21936.94
702.379	21936.94
702.724	21905.07
703.069	21867.79
703.415	21795.92
703.76	21766.09
704.105	21726.77
704.45	21762.25
704.795	21512.54
705.14	21546.67
705.485	21477.97
705.83	21410.62
706.175	21342.38
706.52	21411.98
706.865	21317.97
707.209	21142.83
707.554	21170.18
707.899	21124.3
708.243	20956.85
708.588	20937.87
708.932	20903.97
709.277	20744.65
709.621	20760.7
709.966	20595.28
710.31	20740.36
710.654	20432.12
710.998	20469.18
711.342	20540.82
711.687	20373.81
712.031	20402.97
712.375	20333.14
712.719	20387.6
713.063	20322.74
713.407	20391.22
713.75	20320.93
714.094	20317.32
714.438	20227.83
714.782	20304.89
715.125	20158.68
715.469	20093.82
715.812	19986.71
716.156	19921.85
716.499	20040.49
716.843	20024.22
717.186	19879.36
717.53	19968.4
717.873	19827.16
718.216	19774.06
718.559	19667.39
718.902	19631.91
719.246	19668.3
719.589	19613.38
719.932	19425.36
720.275	19448.42
720.617	19411.81
720.96	19386.5
721.303	19324.12
721.646	19342.43
721.989	19231.92
722.331	19264.92
722.674	19228.53
723.016	19266.73
723.359	19204.58
723.701	19170.68
724.044	19125.49
724.386	19086.16
724.729	19072.61
725.071	19023.57
725.413	19061.76
725.755	19012.95
726.097	19059.5
726.439	18840.3
726.782	18855.66
727.124	18931.37
727.465	18830.35
727.807	18694.99
728.149	18705.16
728.491	18694.31
728.833	18642.79
729.175	18673.75
729.516	18471.04
729.858	18472.4
730.199	18537.03
730.541	18467.88
730.882	18471.27
731.224	18549.23
731.565	18385.39
731.906	18328.67
732.248	18353.53
732.589	18327.54
732.93	18225.17
733.271	18196.24
733.612	18141.33
733.953	18305.17
734.294	18092.74
734.635	18081.67
734.976	18050.26
735.317	18007.55
735.658	17944.73
735.999	17984.27
736.339	17871.96
736.68	17973.2
737.021	17824.73
737.361	17785.86
737.702	17965.97
738.042	17882.58
738.383	17895.91
738.723	17828.8
739.063	17846.65
739.404	17815.92
739.744	17693.66
740.084	17614.11
740.424	17684.17
740.764	17606.43
741.104	17729.82
741.444	17582.02
741.784	17607.79
742.124	17609.59
742.464	17461.8
742.804	17464.29
743.143	17427.9
743.483	17532.31
743.823	17365.98
744.162	17356.94
744.502	17362.82
744.841	17393.33
745.181	17296.38
745.52	17264.29
745.86	17203.95
746.199	17219.77
746.538	17197.17
746.877	17205.99
747.216	17222.26
747.556	17163.73
747.895	17095.48
748.234	16935.71
748.573	16930.74
748.911	16944.75
749.25	16861.59
749.589	16892.32
749.928	16917.18
750.267	16814.36
750.605	16816.85
750.944	16795.6
751.283	16777.75
751.621	16724.64
751.96	16720.58
752.298	16677.87
752.636	16664.53
752.975	16534.82
753.313	16505.89
753.651	16587.02
753.989	16503.86
754.327	16356.07
754.666	16432
