Data from foam2_polystyrene_foam_FLMS001491_00033.txt Node
Date: Wed Feb 08 10:57:52 GMT 2017
User: dcchb
Spectrometer: FLMS00149
Trigger mode: 0
Integration Time (sec): 2.000000E-2
Scans to average: 10
Electric dark correction enabled: true
Nonlinearity correction enabled: false
Boxcar width: 0
XAxis mode: Wavelengths
Number of Pixels in Spectrum: 2048
>>>>>Begin Spectral Data<<<<<
341.393	10.73
341.776	10.73
342.16	10.73
342.543	-56.38
342.927	-71.52
343.31	-70.17
343.693	-63.16
344.077	-49.38
344.46	-51.41
344.843	-53.22
345.226	-27.23
345.61	-34.24
345.993	-29.49
346.376	-13.22
346.759	0.56
347.142	32.65
347.525	40.79
347.908	67.23
348.291	68.13
348.674	79.88
349.057	102.26
349.44	110.84
349.823	119.43
350.206	145.65
350.588	186.77
350.971	204.18
351.354	235.81
351.737	237.39
352.119	258.64
352.502	258.19
352.884	275.13
353.267	296.15
353.65	286.21
354.032	306.09
354.414	297.28
354.797	316.04
355.179	312.42
355.562	332.53
355.944	338.86
356.326	336.15
356.709	332.99
357.091	322.59
357.473	338.86
357.855	341.12
358.238	350.16
358.62	339.09
359.002	338.64
359.384	353.32
359.766	356.49
360.148	344.51
360.53	357.39
360.912	342.02
361.294	364.17
361.676	356.71
362.057	358.52
362.439	325.3
362.821	329.37
363.203	332.76
363.584	344.51
363.966	327.79
364.348	320.78
364.729	334.79
365.111	345.41
365.493	309.71
365.874	321.46
366.256	329.6
366.637	324.17
367.019	318.52
367.4	323.04
367.781	346.77
368.163	321.69
368.544	329.6
368.925	354
369.306	343.61
369.688	328.92
370.069	321.69
370.45	339.77
370.831	318.3
371.212	333.89
371.593	325.08
371.974	322.59
372.355	332.99
372.736	373.21
373.117	339.77
373.498	351.29
373.879	344.28
374.26	341.12
374.641	324.17
375.021	328.69
375.402	338.86
375.783	346.54
376.163	352.65
376.544	380.67
376.925	390.39
377.305	350.39
377.686	357.84
378.066	384.06
378.447	353.78
378.827	345.19
379.208	387.67
379.588	372.08
379.968	382.7
380.349	381.35
380.729	367.56
381.109	391.74
381.489	383.83
381.87	375.47
382.25	391.52
382.63	405.53
383.01	390.61
383.39	386.77
383.77	406.43
384.15	375.47
384.53	411.85
384.91	415.24
385.29	396.03
385.67	403.72
386.049	401.23
386.429	415.92
386.809	411.63
387.189	455.24
387.568	423.15
387.948	431.51
388.328	433.1
388.707	418.63
389.087	438.07
389.466	455.69
389.846	455.02
390.225	448.69
390.605	442.36
390.984	478.29
391.363	464.96
391.743	461.34
392.122	457.05
392.501	468.12
392.881	469.03
393.26	484.39
393.639	475.35
394.018	477.39
394.397	483.26
394.776	477.84
395.155	489.82
395.534	501.12
395.913	494.56
396.292	497.73
396.671	514.9
397.05	519.42
397.429	523.72
397.808	499.99
398.186	510.61
398.565	544.51
398.944	520.1
399.323	525.97
399.701	514
400.08	535.24
400.458	546.54
400.837	548.35
401.215	545.18
401.594	563.49
401.972	553.77
402.351	558.06
402.729	569.82
403.107	555.8
403.486	574.34
403.864	589.7
404.242	586.31
404.62	592.87
404.999	584.28
405.377	589.93
405.755	592.87
406.133	599.42
406.511	626.76
406.889	608.46
407.267	598.74
407.645	628.8
408.023	630.38
408.401	619.08
408.779	655.69
409.156	648.23
409.534	663.6
409.912	681.9
410.29	680.77
410.667	704.05
411.045	682.58
411.422	680.55
411.8	677.61
412.178	737.72
412.555	741.56
412.933	721.45
413.31	750.38
413.687	747.21
414.065	761.22
414.442	758.29
414.819	781.79
415.197	764.16
415.574	778.17
415.951	790.83
416.328	799.41
416.705	777.04
417.082	829.24
417.46	838.28
417.837	816.14
418.214	843.93
418.591	834.44
418.967	844.16
419.344	853.65
419.721	847.32
420.098	878.96
420.475	863.37
420.852	878.73
421.228	894.55
421.605	909.47
421.982	910.15
422.358	899.52
422.735	935.46
423.111	922.35
423.488	922.35
423.864	942.01
424.241	988.56
424.617	973.65
424.994	972.97
425.37	984.95
425.746	992.18
426.123	989.24
426.499	1008.22
426.875	1026.75
427.251	1029.69
427.627	1050.71
428.003	1038.05
428.379	1063.59
428.756	1098.16
429.132	1096.36
429.507	1129.8
429.883	1125.06
430.259	1136.13
430.635	1114.21
431.011	1135.68
431.387	1181.1
431.763	1213.41
432.138	1233.75
432.514	1233.3
432.89	1221.1
433.265	1273.07
433.641	1272.4
434.016	1269.68
434.392	1297.25
434.767	1309.23
435.143	1312.39
435.518	1325.95
435.894	1334.77
436.269	1389.45
436.644	1355.56
437.02	1389
437.395	1398.04
437.77	1442.11
438.145	1441.66
438.52	1481.2
438.895	1455.67
439.271	1483.69
439.646	1512.62
440.021	1496.8
440.395	1556.23
440.77	1515.33
441.145	1534.99
441.52	1553.97
441.895	1558.26
442.27	1574.99
442.645	1620.18
443.019	1593.97
443.394	1617.02
443.769	1650.47
444.143	1617.92
444.518	1646.85
444.892	1631.93
445.267	1671.03
445.641	1700.86
446.016	1720.07
446.39	1726.4
446.764	1726.62
447.139	1735.21
447.513	1783.57
447.887	1789.67
448.262	1784.92
448.636	1761.65
449.01	1820.18
449.384	1861.98
449.758	1859.05
450.132	1864.02
450.506	1871.93
450.88	1899.5
451.254	1901.08
451.628	1951.7
452.002	1960.29
452.376	1946.28
452.75	1994.64
453.123	2006.84
453.497	2043.22
453.871	2022.43
454.244	2063.34
454.618	2088.42
454.992	2106.27
455.365	2110.11
455.739	2162.09
456.112	2184.24
456.486	2201.64
456.859	2205.48
457.232	2259.71
457.606	2234.4
457.979	2276.89
458.352	2305.59
458.725	2367.51
459.099	2381.29
459.472	2424.91
459.845	2427.39
460.218	2438.24
460.591	2466.49
460.964	2478.69
461.337	2525.24
461.71	2556.66
462.083	2582.87
462.456	2575.86
462.829	2613.83
463.201	2650.21
463.574	2631.68
463.947	2686.14
464.32	2730.66
464.692	2795.75
465.065	2836.2
465.438	2847.5
465.81	2860.38
466.183	2892.24
466.555	2976.98
466.928	3003.65
467.3	2995.29
467.672	3053.59
468.045	3092.69
468.417	3100.6
468.789	3111.9
469.161	3168.62
469.534	3200.71
469.906	3256.3
470.278	3288.39
470.65	3318.9
471.022	3412.68
471.394	3463.07
471.766	3458.78
472.138	3503.75
472.51	3639.79
472.882	3651.09
473.253	3699.45
473.625	3740.81
473.997	3809.28
474.369	3818.32
474.74	3867.81
475.112	3938.09
475.484	4032.1
475.855	4056.28
476.227	4114.81
476.598	4229.15
476.97	4245.43
477.341	4305.99
477.713	4379.43
478.084	4461.69
478.455	4550.5
478.827	4597.73
479.198	4720.44
479.569	4713.89
479.94	4824.62
480.311	4938.97
480.682	4972.64
481.053	5110.26
481.424	5217.15
481.795	5259.86
482.166	5312.52
482.537	5342.35
482.908	5470.7
483.279	5593.19
483.65	5630.25
484.021	5793.86
484.391	5837.7
484.762	5874.31
485.133	5899.39
485.503	5992.27
485.874	6122.21
486.244	6176.45
486.615	6327.18
486.985	6375.99
487.356	6524.46
487.726	6567.85
488.097	6692.37
488.467	6684.01
488.837	6807.84
489.207	7014.17
489.578	7033.37
489.948	7069.53
490.318	7228.17
490.688	7235.63
491.058	7378.68
491.428	7475.17
491.798	7484.21
492.168	7700.25
492.538	7731.44
492.908	7831.32
493.278	7924.65
493.648	7858.89
494.017	8062.5
494.387	8130.97
494.757	8175.72
495.126	8244.64
495.496	8333.45
495.866	8427.69
496.235	8471.3
496.605	8558.98
496.974	8572.09
497.344	8641.69
497.713	8742.93
498.082	8840.11
498.452	8911.29
498.821	9000.33
499.19	9004.17
499.559	9141.79
499.928	9190.38
500.298	9191.51
500.667	9317.83
501.036	9318.74
501.405	9440.54
501.774	9446.64
502.143	9575.23
502.512	9570.71
502.88	9744.94
503.249	9708.33
503.618	9844.37
503.987	9774.55
504.356	9892.96
504.724	9962.34
505.093	10013.64
505.462	10078.04
505.83	10072.16
506.199	10247.98
506.567	10429.44
506.936	10400.07
507.304	10517.35
507.672	10540.4
508.041	10603
508.409	10636.9
508.777	10785.59
509.145	10893.84
509.514	10910.11
509.882	11005.47
510.25	10979.94
510.618	11121.18
510.986	11187.62
511.354	11275.07
511.722	11397.55
512.09	11528.62
512.458	11452.24
512.826	11650.43
513.193	11732.23
513.561	11707.15
513.929	11845.68
514.297	11939.46
514.664	12055.16
515.032	12139.23
515.4	12309.85
515.767	12273.01
516.135	12325.66
516.502	12341.71
516.869	12591.19
517.237	12579.44
517.604	12557.3
517.972	12820.79
518.339	12875.93
518.706	12985.53
519.073	13064.18
519.44	13144.17
519.808	13209.03
520.175	13292.64
520.542	13494.9
520.909	13547.1
521.276	13570.15
521.643	13721.33
522.009	13850.14
522.376	13952.51
522.743	14046.3
523.11	14222.79
523.477	14292.39
523.843	14419.62
524.21	14495.78
524.577	14568.54
524.943	14698.48
525.31	14742.1
525.676	14921.75
526.043	14964.69
526.409	15107.96
526.776	15323.33
527.142	15354.96
527.508	15434.06
527.874	15549.76
528.241	15670.44
528.607	15705.91
528.973	15898.9
529.339	15876.76
529.705	16026.81
530.071	16194.26
530.437	16230.65
530.803	16356.75
531.169	16398.1
531.535	16380.7
531.901	16592.22
532.267	16716.06
532.632	16697.53
532.998	16815.94
533.364	16838.54
533.73	16997.86
534.095	17129.61
534.461	17274.91
534.826	17245.08
535.192	17267.68
535.557	17438.07
535.923	17310.84
536.288	17558.07
536.653	17582.25
537.019	17612.53
537.384	17683.94
537.749	17767.78
538.114	17834.45
538.479	17883.03
538.845	17984.27
539.21	17999.64
539.575	18081.45
539.94	18160.99
540.305	18343.81
540.67	18293.87
541.034	18398.27
541.399	18472.4
541.764	18588.32
542.129	18687.08
542.494	18618.15
542.858	18753.97
543.223	18833.29
543.587	18856.57
543.952	18906.06
544.316	18968.43
544.681	19037.8
545.045	19162.32
545.41	19260.4
545.774	19225.14
546.138	19259.72
546.503	19431.24
546.867	19419.72
547.231	19603.44
547.595	19549.43
547.959	19587.85
548.324	19746.26
548.688	19909.19
549.052	19910.1
549.416	19995.29
549.779	19986.25
550.143	20053.82
550.507	20249.3
550.871	20207.72
551.235	20230.32
551.599	20419.24
551.962	20371.78
552.326	20533.81
552.689	20609.29
553.053	20583.53
553.417	20614.71
553.78	20979.67
554.143	20740.58
554.507	20966.34
554.87	21039.33
555.234	21235.49
555.597	21117.52
555.96	21239.33
556.323	21361.36
556.686	21470.73
557.05	21574.23
557.413	21505.54
557.776	21723.61
558.139	21951.63
558.502	21835.92
558.865	21828.24
559.228	21962.7
559.59	22226.87
559.953	22234.56
560.316	22615.79
560.679	22458.51
561.041	22629.8
561.404	22697.82
561.767	22803.81
562.129	22758.61
562.492	23029.11
562.854	23013.75
563.217	23049
563.579	23165.83
563.941	23375.09
564.304	23545.48
564.666	23668.87
565.028	23627.06
565.39	23712.48
565.753	23885.36
566.115	23968.75
566.477	24035.19
566.839	24085.58
567.201	24368.51
567.563	24290.1
567.925	24570.31
568.287	24527.38
568.648	24662.29
569.01	24754.49
569.372	24944.77
569.734	24694.6
570.095	25039.91
570.457	25138.44
570.819	25145.89
571.18	25178.89
571.542	25248.04
571.903	25333.46
572.265	25423.85
572.626	25476.51
572.987	25511.98
573.349	25533.23
573.71	25752.2
574.071	25772.54
574.432	25906.32
574.794	26048.69
575.155	26049.82
575.516	25932.09
575.877	26031.74
576.238	26118.07
576.599	26220.67
576.96	26214.34
577.32	26398.29
577.681	26389.7
578.042	26413.66
578.403	26518.96
578.763	26507.66
579.124	26619.75
579.485	26567.32
579.845	26704.95
580.206	26607.32
580.566	26697.49
580.927	26694.55
581.287	26844.15
581.648	26712.63
582.008	26846.19
582.368	26855.23
582.728	26940.42
583.089	26863.81
583.449	26950.36
583.809	26892.29
584.169	26956.69
584.529	26982.23
584.889	27027.65
585.249	26897.03
585.609	26877.6
585.969	27050.7
586.329	26887.09
586.688	27040.76
587.048	26920.99
587.408	26943.13
587.768	26965.51
588.127	26890.03
588.487	26977.93
588.846	27125.28
589.206	26986.07
589.565	27031.04
589.925	27132.73
590.284	27164.82
590.643	27019.52
591.003	27207.99
591.362	27200.98
591.721	27046.86
592.08	27042.79
592.44	27187.42
592.799	27186.06
593.158	27084.6
593.517	27084.37
593.876	27125.73
594.235	27153.75
594.593	27209.34
594.952	27273.97
595.311	27180.87
595.67	27106.97
596.029	27338.83
596.387	27355.78
596.746	27411.14
597.104	27233.52
597.463	27379.05
597.822	27393.97
598.18	27279.62
598.538	27271.94
598.897	27458.6
599.255	27179.96
599.613	27612.72
599.972	27379.51
600.33	27457.02
600.688	27391.48
601.046	27582.44
601.404	27641.42
601.762	27550.35
602.12	27720.06
602.478	27713.51
602.836	27594.87
603.194	27608.88
603.552	27703.11
603.91	27444.14
604.268	27656.79
604.625	27606.17
604.983	27794.18
605.341	27669.67
605.698	27736.33
606.056	27870.57
606.413	27890
606.771	27916.67
607.128	28032.6
607.485	27934.75
607.843	27817.23
608.2	28045.48
608.557	28077.34
608.914	28011.13
609.272	28092.03
609.629	28140.62
609.986	28303.32
610.343	28157.79
610.7	28374.28
611.057	28375.86
611.414	28244.34
611.771	28354.4
612.127	28450.44
612.484	28420.38
612.841	28534.28
613.198	28395.07
613.554	28436.43
613.911	28572.92
614.267	28446.14
614.624	28452.25
614.98	28531.11
615.337	28755.97
615.693	28668.29
616.05	28548.74
616.406	28663.99
616.762	28650.66
617.118	28621.28
617.475	28621.73
617.831	28629.19
618.187	28596.2
618.543	28747.83
618.899	28851.56
619.255	28814.95
619.611	28703.54
619.967	28969.29
620.323	29029.18
620.678	28793.48
621.034	28858.79
621.39	28845.23
621.746	28844.33
622.101	29150.53
622.457	28960.71
622.812	28907.15
623.168	28976.75
623.523	29020.82
623.879	29177.65
624.234	28849.3
624.589	29078.67
624.945	28942.4
625.3	29046.81
625.655	28933.82
626.01	28949.18
626.365	29000.48
626.72	28904.21
627.075	28929.97
627.43	28845.46
627.785	28885.91
628.14	28774.05
628.495	28908.73
628.85	28864.66
629.205	28829.19
629.559	28878.22
629.914	28813.14
630.269	28772.92
630.623	28739.7
630.978	28541.51
631.332	28769.98
631.687	28624.67
632.041	28611.34
632.396	28579.25
632.75	28526.59
633.104	28525.92
633.459	28391.46
633.813	28416.09
634.167	28415.86
634.521	28411.34
634.875	28441.63
635.229	28353.72
635.583	28374.28
635.937	28254.29
636.291	28226.26
636.645	28211.35
636.999	28160.28
637.352	28178.13
637.706	28074.4
638.06	28238.69
638.413	28062.43
638.767	28072.6
639.121	28067.4
639.474	27944.46
639.828	27914.18
640.181	27840.74
640.534	27858.36
640.888	27864.24
641.241	27667.41
641.594	27666.5
641.947	27680.06
642.301	27613.85
642.654	27668.31
643.007	27731.59
643.36	27645.94
643.713	27549.45
644.066	27663.11
644.419	27456.34
644.771	27228.78
645.124	27032.85
645.477	26972.06
645.83	26763.48
646.182	26693.2
646.535	26682.35
646.888	26598.28
647.24	26446.88
647.593	26494.11
647.945	26498.63
648.298	26400.55
648.65	26351.28
649.002	26287.56
649.355	26393.77
649.707	26221.12
650.059	26386.09
650.411	26823.36
650.763	26714.89
651.115	26974.77
651.467	26883.02
651.819	26887.77
652.171	26864.72
652.523	26857.94
652.875	26710.15
653.227	26740.43
653.578	26715.57
653.93	26782.46
654.282	26622.69
654.633	26634.21
654.985	26758.73
655.337	26605.74
655.688	26610.71
656.039	26773.42
656.391	26519.19
656.742	26498.4
657.094	26573.43
657.445	26416.59
657.796	26473.09
658.147	26366.65
658.498	26344.96
658.849	26419.98
659.2	26352.87
659.551	26456.14
659.902	26525.29
660.253	26399.64
660.604	26366.88
660.955	26225.86
661.306	26343.83
661.656	26346.99
662.007	26229.71
662.358	26327.1
662.708	26264.96
663.059	26205.3
663.409	26136.83
663.76	26311.51
664.11	26204.4
664.461	26263.15
664.811	26281.68
665.161	26170.27
665.511	26080.78
665.862	26030.39
666.212	26157.39
666.562	26229.25
666.912	26118.07
667.262	26107
667.612	26036.94
667.962	26075.59
668.312	25973.89
668.662	26114
669.011	25935.93
669.361	26030.61
669.711	26157.84
670.06	26040.56
670.41	25916.04
670.76	25970.96
671.109	26054.12
671.459	25926.21
671.808	25823.61
672.157	25987
672.507	25763.96
672.856	25829.72
673.205	25809.83
673.554	25970.05
673.904	25816.61
674.253	25893.44
674.602	25719.21
674.951	25367.81
675.3	25199.68
675.649	25624.3
675.998	25735.71
676.346	25638.08
676.695	25779.77
677.044	25474.02
677.393	25551.53
677.741	25702.26
678.09	25615.94
678.438	25521.48
678.787	25463.85
679.135	25496.17
679.484	25379.33
679.832	25350.63
680.181	25336.85
680.529	25356.96
680.877	25288.04
681.225	25218.43
681.573	25364.87
681.922	25123.52
682.27	25099.11
682.618	25031.77
682.966	24942.73
683.314	24894.37
683.661	24926.46
684.009	24688.28
684.357	24700.48
684.705	24670.65
685.053	24822.74
685.4	24596.75
685.748	24506.14
686.095	24466.59
686.443	24471.56
686.79	24474.95
687.138	24544.78
687.485	24386.59
687.832	24322.86
688.18	24214.39
688.527	24257.78
688.874	24092.13
689.221	24142.98
689.568	24076.77
689.915	23971.91
690.262	24113.38
690.609	23854.85
690.956	23793.39
691.303	23757.68
691.65	23622.09
691.997	23660.06
692.344	23472.94
692.69	23455.09
693.037	23558.14
693.383	23299.84
693.73	23376.22
694.077	23203.57
694.423	23217.58
694.769	23137.58
695.116	23199.5
695.462	23041.99
695.808	23050.81
696.155	23050.81
696.501	22808.78
696.847	22825.73
697.193	22618.05
697.539	22791.38
697.885	22567.43
698.231	22470.03
698.577	22529.24
698.923	22469.58
699.269	22340.77
699.614	22225.97
699.96	22201.56
700.306	22312.97
700.651	22161.11
700.997	22048.35
701.342	21950.5
701.688	22002.47
702.033	22027.56
702.379	21886.54
702.724	21795.7
703.069	21885.87
703.415	21649.71
703.76	21729.71
704.105	21637.06
704.45	21689.94
704.795	21555.48
705.14	21562.71
705.485	21437.97
705.83	21355.26
706.175	21449.49
706.52	21367.91
706.865	21215.37
707.209	21289.5
707.554	21052.67
707.899	21104.87
708.243	21037.53
708.588	20974.93
708.932	20882.28
709.277	20748.04
709.621	20646.35
709.966	20593.24
710.31	20663.3
710.654	20538.56
710.998	20571.78
711.342	20488.16
711.687	20463.53
712.031	20358
712.375	20374.04
712.719	20382.18
713.063	20422.85
713.407	20328.62
713.75	20350.99
714.094	20353.93
714.438	20219.02
714.782	20219.24
715.125	20053.15
715.469	20074.39
715.812	19958.23
716.156	19881.62
716.499	19885.92
716.843	19979.47
717.186	19886.6
717.53	19866.03
717.873	19908.52
718.216	19808.63
718.559	19659.48
718.902	19568.64
719.246	19632.59
719.589	19533.16
719.932	19416.78
720.275	19539.49
720.617	19340.85
720.96	19409.09
721.303	19427.85
721.646	19368.42
721.989	19245.03
722.331	19211.13
722.674	19163.22
723.016	19249.32
723.359	19157.35
723.701	19293.39
724.044	19057.69
724.386	19064.02
724.729	19099.72
725.071	19006.62
725.413	19006.62
725.755	18910.12
726.097	18859.28
726.439	18797.81
726.782	18836.91
727.124	18890.24
727.465	18757.13
727.807	18749.45
728.149	18694.99
728.491	18680.3
728.833	18642.79
729.175	18604.37
729.516	18521.21
729.858	18485.28
730.199	18467.88
730.541	18561.66
730.882	18439.4
731.224	18413.64
731.565	18367.99
731.906	18395.34
732.248	18346.98
732.589	18248.67
732.93	18101.78
733.271	18261.1
733.612	18189.47
733.953	18138.39
734.294	18147.43
734.635	18087.55
734.976	18021.33
735.317	17995.8
735.658	17935.91
735.999	17949.02
736.339	17919.19
736.68	17974.1
737.021	17912.86
737.361	17843.49
737.702	17910.15
738.042	17863.82
738.383	17740.89
738.723	17774.56
739.063	17697.5
739.404	17813.2
739.744	17658.18
740.084	17649.82
740.424	17697.5
740.764	17622.25
741.104	17712.19
741.444	17613.66
741.784	17539.76
742.124	17561.46
742.464	17476.26
742.804	17510.39
743.143	17410.5
743.483	17455.93
743.823	17346.32
744.162	17311.52
744.502	17454.12
744.841	17431.75
745.181	17433.55
745.52	17281.69
745.86	17258.42
746.199	17176.16
746.538	17158.08
746.877	17276.04
747.216	17142.04
747.556	17053.9
747.895	17104.3
748.234	17000.57
748.573	16978.2
748.911	16935.03
749.25	16911.53
749.589	16862.27
749.928	16899.56
750.267	16895.49
750.605	16740.01
750.944	16782.04
751.283	16693.46
751.621	16755.38
751.96	16683.97
752.298	16641.94
752.636	16650.52
752.975	16521.03
753.313	16582.5
753.651	16648.94
753.989	16533.24
754.327	16421.38
754.666	16376.41
