Data from foam2_polystyrene_foam_FLMS001491_00008.txt Node
Date: Wed Feb 08 10:57:26 GMT 2017
User: dcchb
Spectrometer: FLMS00149
Trigger mode: 0
Integration Time (sec): 2.000000E-2
Scans to average: 10
Electric dark correction enabled: true
Nonlinearity correction enabled: false
Boxcar width: 0
XAxis mode: Wavelengths
Number of Pixels in Spectrum: 2048
>>>>>Begin Spectral Data<<<<<
341.393	-1.6
341.776	-1.6
342.16	-1.6
342.543	-46.11
342.927	-57.41
343.31	-45.66
343.693	-64.42
344.077	-61.71
344.46	-62.39
344.843	-56.74
345.226	-45.21
345.61	-37.3
345.993	-26
346.376	12.64
346.759	7.22
347.142	27.78
347.525	39.98
347.908	54.9
348.291	69.59
348.674	86.09
349.057	101.23
349.44	105.97
349.823	143.71
350.206	176.93
350.588	202.92
350.971	211.73
351.354	225.52
351.737	266.65
352.119	241.11
352.502	273.2
352.884	276.59
353.267	294.67
353.65	311.62
354.032	301.67
354.414	310.94
354.797	325.4
355.179	352.29
355.562	360.65
355.944	340.54
356.326	342.35
356.709	334.67
357.091	355.23
357.473	354.1
357.855	334.21
358.238	352.29
358.62	351.39
359.002	329.69
359.384	359.07
359.766	355
360.148	363.82
360.53	346.19
360.912	370.37
361.294	329.47
361.676	341.9
362.057	341.67
362.439	350.94
362.821	336.25
363.203	334.67
363.584	352.97
363.966	335.8
364.348	321.11
364.729	352.52
365.111	349.13
365.493	334.67
365.874	346.19
366.256	317.27
366.637	340.99
367.019	312.75
367.4	349.36
367.781	329.92
368.163	352.97
368.544	331.05
368.925	333.76
369.306	346.19
369.688	335.34
370.069	342.8
370.45	339.19
370.831	331.05
371.212	346.42
371.593	337.83
371.974	337.83
372.355	345.74
372.736	356.59
373.117	341.22
373.498	356.81
373.879	336.7
374.26	353.87
374.641	344.16
375.021	342.12
375.402	348.45
375.783	358.85
376.163	376.25
376.544	372.86
376.925	378.96
377.305	360.88
377.686	388.22
378.066	372.63
378.447	360.65
378.827	403.82
379.208	363.59
379.588	405.85
379.968	391.39
380.349	409.47
380.729	385.74
381.109	408.34
381.489	417.38
381.87	404.27
382.25	412.18
382.63	406.3
383.01	405.85
383.39	414.44
383.77	422.57
384.15	409.24
384.53	410.14
384.91	403.59
385.29	420.09
385.67	442.91
386.049	434.78
386.429	443.82
386.809	440.43
387.189	437.26
387.568	445.17
387.948	464.15
388.328	441.78
388.707	448.11
389.087	458.05
389.466	463.02
389.846	457.6
390.225	477.26
390.605	498.73
390.984	474.32
391.363	497.37
391.743	477.71
392.122	497.6
392.501	486.07
392.881	488.33
393.26	489.92
393.639	493.08
394.018	480.2
394.397	521.1
394.776	501.89
395.155	525.4
395.534	510.03
395.913	534.21
396.292	531.72
396.671	540.99
397.05	557.03
397.429	546.64
397.808	549.12
398.186	555.45
398.565	551.16
398.944	535.57
399.323	567.65
399.701	571.5
400.08	584.15
400.458	576.92
400.837	566.75
401.215	582.8
401.594	596.13
401.972	556.13
402.351	599.74
402.729	583.93
403.107	605.85
403.486	617.82
403.864	618.95
404.242	627.09
404.62	637.26
404.999	637.48
405.377	639.29
405.755	637.26
406.133	663.02
406.511	660.53
406.889	661.66
407.267	682
407.645	670.7
408.023	683.36
408.401	691.27
408.779	710.7
409.156	712.96
409.534	711.38
409.912	724.26
410.29	745.95
410.667	738.27
411.045	735.79
411.422	752.96
411.8	769.68
412.178	769.46
412.555	786.86
412.933	779.63
413.31	797.25
413.687	822.11
414.065	828.44
414.442	835.9
414.819	843.81
415.197	853.75
415.574	851.94
415.951	861.21
416.328	857.36
416.705	875.67
417.082	876.57
417.46	890.58
417.837	920.41
418.214	909.79
418.591	932.39
418.967	902.34
419.344	938.04
419.721	952.05
420.098	941.2
420.475	934.42
420.852	978.94
421.228	977.14
421.605	969.23
421.982	1001.99
422.358	998.83
422.735	1001.32
423.111	1016
423.488	1028.21
423.864	1027.53
424.241	1047.42
424.617	1067.08
424.994	1043.35
425.37	1057.59
425.746	1071.82
426.123	1098.71
426.499	1097.58
426.875	1132.39
427.251	1124.48
427.627	1135.1
428.003	1165.38
428.379	1163.35
428.756	1199.95
429.132	1189.33
429.507	1220.97
429.883	1229.78
430.259	1268.2
430.635	1264.59
431.011	1263.23
431.387	1302.1
431.763	1326.96
432.138	1333.28
432.514	1366.96
432.89	1338.26
433.265	1390.68
433.641	1384.58
434.016	1378.25
434.392	1453.28
434.767	1467.29
435.143	1445.82
435.518	1462.55
435.894	1492.83
436.269	1500.96
436.644	1540.28
437.02	1539.61
437.395	1542.09
437.77	1573.96
438.145	1610.79
438.52	1593.39
438.895	1615.08
439.271	1616.67
439.646	1650.56
440.021	1702.99
440.395	1684.91
440.77	1674.29
441.145	1722.43
441.52	1723.78
441.895	1720.17
442.27	1771.01
442.645	1759.26
443.019	1775.31
443.394	1763.78
443.769	1799.94
444.143	1810.33
444.518	1833.16
444.892	1847.17
445.267	1857.79
445.641	1891.46
446.016	1877.22
446.39	1897.11
446.764	1921.97
447.139	1933.95
447.513	1929.88
447.887	1930.1
448.262	1949.54
448.636	1970.56
449.01	2012.36
449.384	2038.8
449.758	2034.28
450.132	2056.2
450.506	2070.21
450.88	2112.25
451.254	2103.89
451.628	2128.74
452.002	2168.97
452.376	2159.7
452.75	2203.09
453.123	2217.1
453.497	2257.55
453.871	2255.75
454.244	2295.74
454.618	2292.81
454.992	2340.49
455.365	2333.71
455.739	2392.47
456.112	2397.21
456.486	2462.52
456.859	2482.18
457.232	2516.53
457.606	2497.77
457.979	2550.88
458.352	2606.02
458.725	2630.65
459.099	2632.01
459.472	2694.38
459.845	2691.21
460.218	2712.91
460.591	2751.78
460.964	2759.46
461.337	2805.11
461.71	2872.45
462.083	2907.71
462.456	2896.18
462.829	2942.73
463.201	2956.97
463.574	3002.39
463.947	3063.18
464.32	3071.77
464.692	3109.06
465.065	3148.6
465.438	3194.03
465.81	3192.22
466.183	3233.35
466.555	3303.4
466.928	3334.59
467.3	3374.59
467.672	3366.45
468.045	3471.98
468.417	3446.67
468.789	3515.83
469.161	3606.67
469.534	3556.05
469.906	3637.86
470.278	3701.13
470.65	3745.2
471.022	3815.25
471.394	3868.36
471.766	3918.07
472.138	3954.46
472.51	4062.25
472.882	4076.26
473.253	4160.33
473.625	4225.64
473.997	4303.6
474.369	4338.63
474.74	4362.36
475.112	4499.3
475.484	4542.47
475.855	4580.88
476.227	4651.61
476.598	4759.41
476.97	4779.75
477.341	4870.37
477.713	4946.75
478.084	5025.84
478.455	5146.97
478.827	5186.52
479.198	5334.31
479.569	5356.23
479.94	5459.96
480.311	5531.59
480.682	5653.62
481.053	5779.72
481.424	5868.98
481.795	5915.08
482.166	5997.12
482.537	6036.21
482.908	6221.07
483.279	6290.89
483.65	6428.29
484.021	6536.09
484.391	6557.1
484.762	6626.25
485.133	6699.02
485.503	6812.91
485.874	6966.36
486.244	6973.59
486.615	7173.13
486.985	7218.1
487.356	7381.26
487.726	7414.93
488.097	7580.8
488.467	7637.98
488.837	7789.61
489.207	7866.22
489.578	8002.26
489.948	8057.85
490.318	8230.73
490.688	8250.16
491.058	8353.21
491.428	8463.04
491.798	8474.11
492.168	8692.64
492.538	8758.17
492.908	8797.49
493.278	8931.5
493.648	8989.13
494.017	9070.26
494.387	9132.63
494.757	9294.2
495.126	9317.71
495.496	9433.86
495.866	9461.88
496.235	9541.2
496.605	9693.29
496.974	9760.63
497.344	9763.57
497.713	9841.54
498.082	9936.22
498.452	9988.2
498.821	10147.29
499.19	10168.98
499.559	10223.45
499.928	10353.84
500.298	10408.3
500.667	10457.11
501.036	10407.17
501.405	10587.96
501.774	10660.95
502.143	10697.33
502.512	10708.86
502.88	10859.36
503.249	10939.13
503.618	10982.07
503.987	11178.45
504.356	11160.14
504.724	11181.16
505.093	11274.72
505.462	11393.13
505.83	11366.01
506.199	11487.82
506.567	11700.92
506.936	11637.42
507.304	11793.57
507.672	11853.01
508.041	11956.28
508.409	12064.98
508.777	12147.92
509.145	12216.61
509.514	12224.98
509.882	12390.62
510.25	12459.32
510.618	12558.53
510.986	12597.17
511.354	12814.11
511.722	12811.63
512.09	12932.53
512.458	12873.32
512.826	13069.7
513.193	13130.94
513.561	13166.42
513.929	13256.13
514.297	13420.88
514.664	13500.2
515.032	13542.91
515.4	13679.4
515.767	13792.39
516.135	13878.72
516.502	13866.97
516.869	14142.66
517.237	14163.23
517.604	14164.59
517.972	14310.57
518.339	14407.29
518.706	14503.11
519.073	14530.23
519.44	14607.51
519.808	14816.32
520.175	14866.49
520.542	15041.85
520.909	15170.21
521.276	15171.56
521.643	15325.91
522.009	15487.71
522.376	15593.47
522.743	15757.99
523.11	15815.84
523.477	15989.62
523.843	16115.04
524.21	16243.63
524.577	16399.1
524.943	16451.08
525.31	16558.42
525.676	16764.52
526.043	16821.01
526.409	16889.49
526.776	17168.35
527.142	17199.53
527.508	17213.54
527.874	17391.62
528.241	17586.87
528.607	17700.31
528.973	17762.68
529.339	17863.92
529.705	18008.78
530.071	18127.64
530.437	18248.77
530.803	18323.57
531.169	18415.77
531.535	18342.33
531.901	18592.94
532.267	18579.61
532.632	18811.69
532.998	18870.68
533.364	18984.12
533.73	19056.43
534.095	19200.16
534.461	19326.71
534.826	19343.43
535.192	19507.04
535.557	19559.25
535.923	19520.38
536.288	19604.44
536.653	19718.34
537.019	19690.32
537.384	19820.93
537.749	19902.51
538.114	20013.7
538.479	20129.85
538.845	20181.38
539.21	20101.38
539.575	20396.29
539.94	20393.57
540.305	20495.49
540.67	20511.76
541.034	20693
541.399	20654.36
541.764	20807.35
542.129	20830.62
542.494	20932.77
542.858	20954.92
543.223	21035.36
543.587	21071.75
543.952	21067.68
544.316	21181.58
544.681	21188.13
545.045	21312.42
545.41	21509.48
545.774	21541.79
546.138	21574.33
546.503	21577.95
546.867	21665.4
547.231	21984.49
547.595	21957.6
547.959	21979.75
548.324	22020.2
548.688	22061.55
549.052	22202.57
549.416	22219.74
549.779	22217.25
550.143	22394.65
550.507	22589.67
550.871	22700.63
551.235	22732.5
551.599	22898.59
551.962	22927.97
552.326	22971.36
552.689	23068.53
553.053	23064.46
553.417	23111.92
553.78	23452.25
554.143	23327.06
554.507	23479.82
554.87	23531.34
555.234	23767.27
555.597	23595.3
555.96	23815.18
556.323	23944.67
556.686	24017.89
557.05	24177.88
557.413	24187.15
557.776	24273.92
558.139	24462.62
558.502	24506.23
558.865	24540.58
559.228	24692.9
559.59	24825.77
559.953	25065.54
560.316	25227.57
560.679	25210.17
561.041	25321.81
561.404	25605.64
561.767	25750.27
562.129	25431.18
562.492	25917.04
562.854	25847.44
563.217	25933.32
563.579	26081.79
563.941	26271.84
564.304	26319.52
564.666	26572.39
565.028	26615.11
565.39	26710.47
565.753	26823.01
566.115	26984.14
566.477	27074.98
566.839	27076.34
567.201	27372.15
567.563	27266.61
567.925	27598.13
568.287	27626.38
568.648	27625.7
569.01	27814.85
569.372	28043.77
569.734	27940.95
570.095	28096.42
570.457	28204.89
570.819	28250.54
571.18	28208.51
571.542	28343.42
571.903	28438.56
572.265	28524.66
572.626	28723.52
572.987	28789.51
573.349	28762.17
573.71	28957.64
574.071	28976.17
574.432	29117.19
574.794	29261.36
575.155	29231.53
575.516	29310.4
575.877	29357.18
576.238	29417.74
576.599	29543.39
576.96	29637.85
577.32	29585.87
577.681	29772.08
578.042	29709.04
578.403	29787.9
578.763	29850.05
579.124	29878.97
579.485	29990.84
579.845	30107.67
580.206	30072.19
580.566	30076.94
580.927	30024.28
581.287	30158.51
581.648	30047.56
582.008	30292.07
582.368	30056.37
582.728	30185.86
583.089	30194.9
583.449	30231.73
583.809	30245.52
584.169	30356.25
584.529	30250.26
584.889	30657.26
585.249	30281.68
585.609	30437.6
585.969	30496.13
586.329	30439.86
586.688	30453.2
587.048	30431.28
587.408	30337.72
587.768	30393.76
588.127	30237.61
588.487	30323.03
588.846	30510.14
589.206	30332.75
589.565	30283.03
589.925	30549.47
590.284	30460.2
590.643	30395.12
591.003	30598.5
591.362	30439.41
591.721	30564.61
592.08	30500.88
592.44	30719.63
592.799	30631.5
593.158	30582.23
593.517	30665.17
593.876	30617.26
594.235	30613.42
594.593	30819.29
594.952	30693.64
595.311	30691.61
595.67	30683.25
596.029	30819.29
596.387	30867.65
596.746	30900.64
597.104	30763.7
597.463	30781.78
597.822	31008.89
598.18	30769.8
598.538	30774.77
598.897	30928.21
599.255	30805.5
599.613	31114.2
599.972	30855.22
600.33	31013.86
600.688	30837.59
601.046	31000.75
601.404	31143.35
601.762	31101.31
602.12	31280.07
602.478	31144.48
602.836	31220.86
603.194	31109.68
603.552	31153.07
603.91	31013.41
604.268	31212.05
604.625	31096.57
604.983	31259.28
605.341	31193.74
605.698	31302.44
606.056	31356.22
606.413	31263.12
606.771	31402.78
607.128	31384.47
607.485	31241.65
607.843	31327.3
608.2	31375.88
608.557	31495.2
608.914	31469.89
609.272	31551.02
609.629	31771.13
609.986	31711.69
610.343	31639.15
610.7	32004.79
611.057	31806.16
611.414	31850.45
611.771	31856.78
612.127	32008.41
612.484	32033.95
612.841	31944
613.198	31926.6
613.554	31869.66
613.911	32087.96
614.267	32036.43
614.624	32010.44
614.98	32117.33
615.337	32299.48
615.693	32197.56
616.05	32229.65
616.406	32306.48
616.762	32339.7
617.118	32235.3
617.475	32333.37
617.831	32358.46
618.187	32452.47
618.543	32435.29
618.899	32647.26
619.255	32604.55
619.611	32387.61
619.967	32620.37
620.323	32670.31
620.678	32433.94
621.034	32403.65
621.39	32502.41
621.746	32439.13
622.101	32744.44
622.457	32503.31
622.812	32572.24
623.168	32706.92
623.523	32746.24
623.879	32826.47
624.234	32547.15
624.589	32754.6
624.945	32816.98
625.3	32749.18
625.655	32689.97
626.01	32687.26
626.365	32684.1
626.72	32708.28
627.075	32686.36
627.43	32640.26
627.785	32468.06
628.14	32665.57
628.495	32669.18
628.85	32634.38
629.205	32403.88
629.559	32494.72
629.914	32424.9
630.269	32505.35
630.623	32417.89
630.978	32230.55
631.332	32444.1
631.687	32421.51
632.041	32373.15
632.396	32337.44
632.75	32138.8
633.104	32259.93
633.459	31983.33
633.813	31984.23
634.167	32014.06
634.521	32034.17
634.875	32111.23
635.229	32027.62
635.583	31797.79
635.937	31821.97
636.291	31869.43
636.645	32014.51
636.999	31714.41
637.352	31883.44
637.706	31685.25
638.06	31860.17
638.413	31707.63
638.767	31686.38
639.121	31691.13
639.474	31513.73
639.828	31501.76
640.181	31535.88
640.534	31586.27
640.888	31416.33
641.241	31294.76
641.594	31334.76
641.947	31443.23
642.301	31301.54
642.654	31263.8
643.007	31363.23
643.36	31158.49
643.713	31167.98
644.066	31271.93
644.419	31143.35
644.771	30931.15
645.124	30613.42
645.477	30618.62
645.83	30331.17
646.182	30100.44
646.535	30189.25
646.888	30233.77
647.24	30067.9
647.593	30167.55
647.945	30182.92
648.298	29996.71
648.65	29812.08
649.002	29834.46
649.355	29957.84
649.707	29915.36
650.059	30071.51
650.411	30409.13
650.763	30344.95
651.115	30711.27
651.467	30560.99
651.819	30602.57
652.171	30445.06
652.523	30367.1
652.875	30408.23
653.227	30388.34
653.578	30569.35
653.93	30425.4
654.282	30254.11
654.633	30114.22
654.985	30151.96
655.337	30166.88
655.688	30196.03
656.039	30283.26
656.391	30069.03
656.742	30087.33
657.094	30190.83
657.445	30394.44
657.796	30061.34
658.147	29979.08
658.498	29981.8
658.849	30286.87
659.2	30116.26
659.551	30009.59
659.902	30050.27
660.253	30024.06
660.604	30112.64
660.955	29785.19
661.306	29982.25
661.656	29862.7
662.007	30068.8
662.358	29930.95
662.708	29808.47
663.059	29860.9
663.409	29743.38
663.76	29866.09
664.11	29927.56
664.461	29932.98
664.811	29818.18
665.161	29887.56
665.511	29851.63
665.862	29780.67
666.212	29826.55
666.562	29825.64
666.912	29849.37
667.262	29679.88
667.612	29632.88
667.962	29719.88
668.312	29646.66
668.662	29739.09
669.011	29611.18
669.361	29657.96
669.711	29756.27
670.06	29612.99
670.41	29516.05
670.76	29621.35
671.109	29592.88
671.459	29641.01
671.808	29443.05
672.157	29512.2
672.507	29262.95
672.856	29405.09
673.205	29343.85
673.554	29452.77
673.904	29290.52
674.253	29533.9
674.602	29353.79
674.951	28930.98
675.3	28899.79
675.649	29340.46
675.998	29251.42
676.346	29175.72
676.695	29356.28
677.044	29103.4
677.393	29167.13
677.741	29204.64
678.09	29069.96
678.438	28973.46
678.787	29026.79
679.135	29091.42
679.484	28871.32
679.832	28965.33
680.181	28893.92
680.529	28892.33
680.877	28881.26
681.225	28720.59
681.573	28866.35
681.922	28599.69
682.27	28540.7
682.618	28587.03
682.966	28427.71
683.314	28571.66
683.661	28437.2
684.009	28295.51
684.357	28303.42
684.705	28154.05
685.053	28084.67
685.4	28079.93
685.748	27933.26
686.095	27933.04
686.443	27875.19
686.79	27759.03
687.138	27762.42
687.485	27719.48
687.832	27642.2
688.18	27600.39
688.527	27514.74
688.874	27441.3
689.221	27482.43
689.568	27279.27
689.915	27324.92
690.262	27244.47
690.609	27196.78
690.956	27106.39
691.303	27105.94
691.65	26930.13
691.997	26945.94
692.344	26822.11
692.69	26776.91
693.037	26887.19
693.383	26637.7
693.73	26781.43
694.077	26555.22
694.423	26503.92
694.769	26517.93
695.116	26368.78
695.462	26350.25
695.808	26284.27
696.155	26324.72
696.501	26084.05
696.847	26107.77
697.193	25888.12
697.539	25983.26
697.885	25820.55
698.231	25731.06
698.577	25777.16
698.923	25621.23
699.269	25422.14
699.614	25391.41
699.96	25316.83
700.306	25276.16
700.651	25251.75
700.997	25223.73
701.342	25115.71
701.688	25061.7
702.033	24909.16
702.379	24907.35
702.724	24819.45
703.069	24750.97
703.415	24584.65
703.76	24694.25
704.105	24687.25
704.45	24441.15
704.795	24391.66
705.14	24289.52
705.485	24207.03
705.83	24235.96
706.175	24199.58
706.52	24079.35
706.865	24060.6
707.209	24019.92
707.554	23939.92
707.899	23936.98
708.243	23974.04
708.588	23884.1
708.932	23738.12
709.277	23631.68
709.621	23584.45
709.966	23531.57
710.31	23683.88
710.654	23368.86
710.998	23506.71
711.342	23434.4
711.687	23314.63
712.031	23114.18
712.375	23081.19
712.719	23139.72
713.063	23102.66
713.407	23141.75
713.75	22920.97
714.094	22948.31
714.438	22892.49
714.782	22904.02
715.125	22769.78
715.469	22872.38
715.812	22710.12
716.156	22552.84
716.499	22719.84
716.843	22722.33
717.186	22521.43
717.53	22633.97
717.873	22558.26
718.216	22493.41
718.559	22443.69
718.902	22214.09
719.246	22241.66
719.589	22122.12
719.932	22054.32
720.275	22073.53
720.617	22015.45
720.96	22025.17
721.303	22018.84
721.646	21942.69
721.989	21811.62
722.331	21869.47
722.674	21764.39
723.016	21859.07
723.359	21778.4
723.701	21812.29
724.044	21563.94
724.386	21404.17
724.729	21681.45
725.071	21564.62
725.413	21479.65
725.755	21470.61
726.097	21345.41
726.439	21292.31
726.782	21384.28
727.124	21439.2
727.465	21249.82
727.807	21174.12
728.149	21156.04
728.491	21045.53
728.833	21236.94
729.175	21052.09
729.516	20917.63
729.858	20970.06
730.199	20995.37
730.541	20935.93
730.882	20892.77
731.224	20869.04
731.565	20818.42
731.906	20761.02
732.248	20659.1
732.589	20707.01
732.93	20508.37
733.271	20559.67
733.612	20652.55
733.953	20531.2
734.294	20482.16
734.635	20464.76
734.976	20520.58
735.317	20438.77
735.658	20432.67
735.999	20347.47
736.339	20351.09
736.68	20432.44
737.021	20388.6
737.361	20245.56
737.702	20292.56
738.042	20228.83
738.383	20144.99
738.723	20259.11
739.063	20155.84
739.404	20180.47
739.744	20056.18
740.084	19921.95
740.424	20028.84
740.764	19804.21
741.104	19964.88
741.444	19849.18
741.784	19737.09
742.124	19848.28
742.464	19669.75
742.804	19714.27
743.143	19714.27
743.483	19640.6
743.823	19543.43
744.162	19456.42
744.502	19677.66
744.841	19487.61
745.181	19533.26
745.52	19343.43
745.86	19434.28
746.199	19491
746.538	19397.67
746.877	19440.15
747.216	19423.66
747.556	19286.94
747.895	19423.88
748.234	19231.8
748.573	19265.47
748.911	19203.32
749.25	19239.48
749.589	19033.16
749.928	19068.86
750.267	19113.83
750.605	19102.08
750.944	19010.33
751.283	18940.05
751.621	18874.74
751.96	18837.91
752.298	18819.15
752.636	18794.52
752.975	18699.38
753.313	18602.89
753.651	18759.04
753.989	18629.1
754.327	18647.18
