Data from foam1_polythene_foam_FLMS001491_00026.txt Node
Date: Wed Feb 08 10:54:36 GMT 2017
User: dcchb
Spectrometer: FLMS00149
Trigger mode: 0
Integration Time (sec): 2.000000E-2
Scans to average: 10
Electric dark correction enabled: true
Nonlinearity correction enabled: false
Boxcar width: 0
XAxis mode: Wavelengths
Number of Pixels in Spectrum: 2048
>>>>>Begin Spectral Data<<<<<
341.393	-8.9
341.776	-8.9
342.16	-8.9
342.543	-59.07
342.927	-67.65
343.31	-82.12
343.693	-69.01
344.077	-63.13
344.46	-51.61
344.843	-55
345.226	-58.16
345.61	-19.52
345.993	-13.64
346.376	-9.35
346.759	-13.19
347.142	36.3
347.525	48.73
347.908	84.43
348.291	84.43
348.674	87.82
349.057	93.02
349.44	116.3
349.823	129.18
350.206	186.13
350.588	165.33
350.971	188.61
351.354	196.97
351.737	202.62
352.119	237.88
352.502	244.65
352.884	234.03
353.267	273.13
353.65	277.65
354.032	278.55
354.414	286.46
354.797	300.7
355.179	290.76
355.562	301.38
355.944	328.04
356.326	314.71
356.709	314.94
357.091	328.04
357.473	333.69
357.855	329.85
358.238	312.22
358.62	342.28
359.002	304.54
359.384	305.9
359.766	323.75
360.148	340.7
360.53	316.52
360.912	338.89
361.294	320.81
361.676	292.11
362.057	307.03
362.439	304.54
362.821	309.06
363.203	311.09
363.584	307.48
363.966	295.27
364.348	303.18
364.729	316.52
365.111	327.82
365.493	300.25
365.874	302.05
366.256	291.66
366.637	313.81
367.019	309.29
367.4	313.35
367.781	305.22
368.163	309.74
368.544	292.11
368.925	286.91
369.306	286.01
369.688	304.77
370.069	314.26
370.45	299.12
370.831	283.98
371.212	283.3
371.593	293.47
371.974	316.29
372.355	301.38
372.736	308.16
373.117	310.64
373.498	316.52
373.879	304.54
374.26	286.24
374.641	296.63
375.021	283.52
375.402	317.42
375.783	311.09
376.163	300.7
376.544	301.15
376.925	302.96
377.305	295.5
377.686	303.64
378.066	304.31
378.447	304.09
378.827	329.17
379.208	309.74
379.588	316.74
379.968	308.61
380.349	315.84
380.729	309.74
381.109	331.66
381.489	319
381.87	301.83
382.25	321.49
382.63	327.82
383.01	335.95
383.39	318.55
383.77	306.12
384.15	311.55
384.53	325.1
384.91	323.75
385.29	331.88
385.67	332.11
386.049	333.92
386.429	351.32
386.809	337.76
387.189	337.99
387.568	328.72
387.948	356.74
388.328	340.25
388.707	337.99
389.087	329.85
389.466	336.86
389.846	332.79
390.225	336.63
390.605	373.69
390.984	342.05
391.363	344.31
391.743	370.53
392.122	342.28
392.501	344.99
392.881	366.46
393.26	365.33
393.639	356.29
394.018	390.87
394.397	325.33
394.776	362.62
395.155	365.56
395.534	356.74
395.913	357.65
396.292	373.01
396.671	379.79
397.05	350.64
397.429	358.32
397.808	362.84
398.186	381.37
398.565	387.93
398.944	378.66
399.323	392.67
399.701	387.48
400.08	376.18
400.458	389.06
400.837	383.63
401.215	392
401.594	420.02
401.972	372.11
402.351	390.19
402.729	386.35
403.107	403.75
403.486	396.51
403.864	407.14
404.242	427.25
404.62	405.78
404.999	399.23
405.377	419.79
405.755	407.14
406.133	431.09
406.511	410.98
406.889	397.64
407.267	433.12
407.645	424.08
408.023	422.28
408.401	404.88
408.779	415.95
409.156	438.32
409.534	433.12
409.912	451.43
410.29	459.11
410.667	445.33
411.045	448.72
411.422	433.58
411.8	432.67
412.178	450.75
412.555	466.57
412.933	438.77
413.31	450.98
413.687	453.69
414.065	471.99
414.442	471.77
414.819	467.25
415.197	481.94
415.574	487.59
415.951	464.31
416.328	516.51
416.705	504.31
417.082	493.24
417.46	481.71
417.837	472.22
418.214	492.11
418.591	501.37
418.967	497.3
419.344	504.99
419.721	488.94
420.098	505.89
420.475	514.7
420.852	518.09
421.228	529.62
421.605	508.83
421.982	521.03
422.358	548.6
422.735	533.01
423.111	550.64
423.488	542.5
423.864	543.4
424.241	564.87
424.617	543.18
424.994	544.76
425.37	570.52
425.746	550.18
426.123	546.12
426.499	582.5
426.875	547.7
427.251	571.65
427.627	577.08
428.003	555.83
428.379	594.48
428.756	609.62
429.132	606.45
429.507	609.16
429.883	592.67
430.259	622.27
430.635	620.69
431.011	640.8
431.387	653.46
431.763	627.7
432.138	655.04
432.514	645.32
432.89	631.76
433.265	654.14
433.641	676.51
434.016	690.97
434.392	675.83
434.767	695.04
435.143	684.19
435.518	711.31
435.894	698.43
436.269	702.5
436.644	718.54
437.02	721.93
437.395	716.96
437.77	752.89
438.145	749.73
438.52	743.62
438.895	751.53
439.271	776.39
439.646	762.16
440.021	764.19
440.395	759.22
440.77	798.76
441.145	787.47
441.52	809.61
441.895	794.7
442.27	796.5
442.645	815.49
443.019	828.14
443.394	824.07
443.769	837.41
444.143	817.07
444.518	846.45
444.892	829.95
445.267	840.8
445.641	839.89
446.016	840.8
446.39	875.82
446.764	862.49
447.139	872.89
447.513	909.95
447.887	872.43
448.262	912.21
448.636	894.58
449.01	937.07
449.384	915.15
449.758	895.26
450.132	974.13
450.506	949.27
450.88	947.46
451.254	933.45
451.628	933
452.002	976.16
452.376	962.6
452.75	968.48
453.123	991.08
453.497	999.66
453.871	1009.61
454.244	1005.31
454.618	1020.45
454.992	1021.58
455.365	1026.55
455.739	1100.45
456.112	1050.06
456.486	1070.85
456.859	1066.33
457.232	1067.23
457.606	1087.8
457.979	1085.54
458.352	1081.24
458.725	1123.05
459.099	1112.2
459.472	1143.16
459.845	1110.17
460.218	1161.92
460.591	1125.31
460.964	1170.05
461.337	1169.38
461.71	1166.21
462.083	1168.92
462.456	1190.84
462.829	1205.53
463.201	1196.27
463.574	1238.07
463.947	1246.21
464.32	1274.68
464.692	1268.36
465.065	1266.32
465.438	1270.62
465.81	1274.01
466.183	1314.23
466.555	1312.2
466.928	1361.46
467.3	1331.63
467.672	1347
468.045	1352.65
468.417	1375.02
468.789	1381.12
469.161	1393.78
469.534	1427.22
469.906	1424.51
470.278	1431.29
470.65	1482.81
471.022	1466.32
471.394	1490.5
471.766	1486.88
472.138	1536.82
472.51	1555.58
472.882	1557.16
473.253	1575.02
473.625	1603.71
473.997	1616.14
474.369	1612.75
474.74	1663.83
475.112	1686.2
475.484	1684.84
475.855	1723.03
476.227	1731.4
476.598	1793.54
476.97	1796.03
477.341	1811.62
477.713	1839.87
478.084	1841.9
478.455	1870.83
478.827	1902.92
479.198	1923.03
479.569	1940.88
479.94	1997.83
480.311	1991.95
480.682	2058.84
481.053	2094.78
481.424	2080.31
481.795	2101.55
482.166	2178.39
482.537	2146.75
482.908	2196.24
483.279	2229.24
483.65	2285.96
484.021	2305.62
484.391	2345.84
484.762	2369.12
485.133	2419.29
485.503	2402.56
485.874	2485.73
486.244	2452.73
486.615	2544.26
486.985	2560.75
487.356	2597.81
487.726	2629.68
488.097	2676.23
488.467	2676.91
488.837	2741.76
489.207	2752.39
489.578	2762.33
489.948	2826.06
490.318	2810.01
490.688	2842.55
491.058	2911.93
491.428	2922.78
491.798	2945.6
492.168	2962.32
492.538	3060.4
492.908	3083.45
493.278	3079.61
493.648	3086.39
494.017	3129.55
494.387	3187.4
494.757	3197.57
495.126	3238.02
495.496	3203.22
495.866	3294.07
496.235	3301.98
496.605	3318.02
496.974	3351.92
497.344	3327.74
497.713	3393.95
498.082	3411.35
498.452	3486.38
498.821	3504
499.19	3528.18
499.559	3531.12
499.928	3563.44
500.298	3575.41
500.667	3659.03
501.036	3628.97
501.405	3635.53
501.774	3635.98
502.143	3709.42
502.512	3692.93
502.88	3749.2
503.249	3757.78
503.618	3813.83
503.987	3797.33
504.356	3830.77
504.724	3850.44
505.093	3855.41
505.462	3890.21
505.83	3948.96
506.199	3981.73
506.567	4025.35
506.936	4018.79
507.304	4069.86
507.672	4066.93
508.041	4102.41
508.409	4162.07
508.777	4154.61
509.145	4173.59
509.514	4202.97
509.882	4234.15
510.25	4243.19
510.618	4234.61
510.986	4311.21
511.354	4301.05
511.722	4349.63
512.09	4402.06
512.458	4381.72
512.826	4424.88
513.193	4461.27
513.561	4482.96
513.929	4564.54
514.297	4578.33
514.664	4593.47
515.032	4611.32
515.4	4673.46
515.767	4674.37
516.135	4706.91
516.502	4647.7
516.869	4803.63
517.237	4812.9
517.604	4848.6
517.972	4870.97
518.339	4941.48
518.706	4884.53
519.073	4907.36
519.44	4993.91
519.808	5000.91
520.175	5044.08
520.542	5087.69
520.909	5184.41
521.276	5125.88
521.643	5221.25
522.009	5233
522.376	5291.75
522.743	5268.93
523.11	5348.48
523.477	5390.96
523.843	5447.68
524.21	5503.5
524.577	5493.33
524.943	5551.63
525.31	5605.19
525.676	5646.32
526.043	5635.7
526.409	5677.96
526.776	5762.02
527.142	5828.01
527.508	5808.35
527.874	5906.2
528.241	5869.14
528.607	5905.75
528.973	5994.56
529.339	6004.5
529.705	5997.95
530.071	6092.41
530.437	6101.68
530.803	6124.5
531.169	6220.77
531.535	6173.76
531.901	6221.67
532.267	6184.84
532.632	6287.21
532.998	6309.58
533.364	6306.87
533.73	6363.59
534.095	6393.19
534.461	6375.57
534.826	6458.73
535.192	6475.68
535.557	6541.21
535.923	6555.9
536.288	6550.93
536.653	6580.53
537.019	6594.09
537.384	6598.16
537.749	6646.29
538.114	6695.78
538.479	6657.14
538.845	6726.74
539.21	6741.66
539.575	6749.57
539.94	6856.01
540.305	6888.32
540.67	6868.21
541.034	6872.95
541.399	6926.06
541.764	6861.43
542.129	6946.85
542.494	6978.49
542.858	7039.28
543.223	7004.48
543.587	7051.48
543.952	7082.44
544.316	7108.43
544.681	7100.52
545.045	7126.96
545.41	7156.79
545.774	7147.3
546.138	7157.47
546.503	7240.4
546.867	7202.21
547.231	7258.93
547.595	7266.16
547.959	7364.92
548.324	7340.74
548.688	7332.6
549.052	7380.96
549.416	7471.36
549.779	7368.99
550.143	7360.63
550.507	7477.91
550.871	7445.6
551.235	7495.31
551.599	7488.53
551.962	7578.47
552.326	7609.88
552.689	7622.31
553.053	7666.61
553.417	7672.26
553.78	7778.24
554.143	7682.43
554.507	7748.64
554.87	7744.8
555.234	7859.6
555.597	7834.06
555.96	7828.64
556.323	7927.62
556.686	7879.71
557.05	8015.07
557.413	8029.76
557.776	8048.97
558.139	8171.68
558.502	8108.63
558.865	8124.9
559.228	8203.77
559.59	8204.45
559.953	8193.37
560.316	8263.65
560.679	8314.05
561.041	8368.28
561.404	8414.38
561.767	8502.06
562.129	8444.21
562.492	8505.23
562.854	8515.62
563.217	8482.18
563.579	8535.51
563.941	8587.71
564.304	8589.97
564.666	8639.91
565.028	8749.06
565.39	8742.51
565.753	8766.24
566.115	8896.86
566.477	8836.75
566.839	8834.26
567.201	8949.96
567.563	8980.24
567.925	9018.89
568.287	9059.11
568.648	9075.38
569.01	9126.68
569.372	9167.13
569.734	9180.92
570.095	9183.63
570.457	9261.82
570.819	9281.25
571.18	9217.98
571.542	9362.15
571.903	9328.94
572.265	9386.34
572.626	9322.83
572.987	9428.59
573.349	9465.43
573.71	9438.76
574.071	9498.2
574.432	9475.82
574.794	9590.62
575.155	9579.78
575.516	9582.94
575.877	9542.72
576.238	9598.31
576.599	9626.78
576.96	9693.22
577.32	9697.06
577.681	9733.44
578.042	9716.95
578.403	9757.4
578.763	9801.01
579.124	9782.93
579.485	9800.11
579.845	9747.46
580.206	9852.31
580.566	9864.74
580.927	9802.6
581.287	9866.55
581.648	9845.53
582.008	9838.53
582.368	9843.05
582.728	9847.57
583.089	9854.12
583.449	9829.04
583.809	9799.66
584.169	9853.89
584.529	9862.03
584.889	9898.64
585.249	9862.25
585.609	9789.71
585.969	9876.27
586.329	9897.51
586.688	9834.23
587.048	9923.04
587.408	9825.65
587.768	9863.61
588.127	9903.38
588.487	9775.25
588.846	9933.89
589.206	9874.01
589.565	9882.59
589.925	9954.46
590.284	9881.01
590.643	9921.46
591.003	9969.82
591.362	9959.65
591.721	9961.46
592.08	9953.1
592.44	9960.11
592.799	9946.55
593.158	9951.29
593.517	9898.19
593.876	9993.32
594.235	9948.81
594.593	9921.46
594.952	9963.95
595.311	9889.6
595.67	9985.42
596.029	9973.44
596.387	10013.66
596.746	10079.2
597.104	9955.13
597.463	10008.24
597.822	10052.53
598.18	9910.16
598.538	9934.8
598.897	10030.16
599.255	9930.73
599.613	10069.71
599.972	10034.23
600.33	10037.84
600.688	10041.91
601.046	10031.52
601.404	10042.36
601.762	10051.18
602.12	10098.63
602.478	10107.67
602.836	10115.58
603.194	10071.29
603.552	10030.84
603.91	10035.13
604.268	10091.85
604.625	10067.45
604.983	10135.69
605.341	10033.78
605.698	10094.34
606.056	10122.13
606.413	10132.98
606.771	10190.38
607.128	10215.69
607.485	10142.93
607.843	10187.9
608.2	10221.79
608.557	10286.2
608.914	10113.32
609.272	10301.34
609.629	10233.77
609.986	10357.16
610.343	10218.4
610.7	10288.01
611.057	10285.29
611.414	10332.98
611.771	10287.33
612.127	10317.38
612.484	10335.69
612.841	10334.56
613.198	10314.67
613.554	10363.94
613.911	10452.75
614.267	10345.86
614.624	10406.87
614.98	10365.07
615.337	10431.51
615.693	10393.77
616.05	10402.35
616.406	10427.44
616.762	10427.44
617.118	10405.74
617.475	10465.85
617.831	10416.36
618.187	10457.49
618.543	10468.11
618.899	10492.97
619.255	10466.08
619.611	10423.14
619.967	10525.97
620.323	10468.11
620.678	10403.71
621.034	10436.03
621.39	10476.02
621.746	10398.74
622.101	10465.85
622.457	10391.28
622.812	10436.03
623.168	10500.43
623.523	10516.47
623.879	10494.1
624.234	10464.5
624.589	10524.84
624.945	10622.01
625.3	10503.37
625.655	10455.23
626.01	10512.63
626.365	10557.15
626.72	10546.08
627.075	10431.96
627.43	10368.91
627.785	10450.49
628.14	10404.61
628.495	10441
628.85	10479.87
629.205	10412.75
629.559	10472.18
629.914	10399.87
630.269	10410.04
630.623	10353.99
630.978	10350.38
631.332	10381.79
631.687	10437.15
632.041	10364.39
632.396	10402.35
632.75	10321.68
633.104	10397.16
633.459	10324.84
633.813	10335.24
634.167	10290.94
634.521	10227.67
634.875	10317.38
635.229	10205.3
635.583	10172.3
635.937	10187.67
636.291	10156.03
636.645	10171.63
636.999	10141.8
637.352	10167.11
637.706	10074.9
638.06	10155.81
638.413	10192.19
638.767	10139.31
639.121	10146.09
639.474	9995.81
639.828	10100.67
640.181	10054.79
640.534	10066.09
640.888	9955.36
641.241	9947.22
641.594	9955.59
641.947	10014.34
642.301	9931.18
642.654	9928.69
643.007	9957.62
643.36	9964.85
643.713	9933.89
644.066	10096.15
644.419	9934.12
644.771	9843.72
645.124	9768.25
645.477	9667.68
645.83	9637.85
646.182	9614.58
646.535	9572.54
646.888	9598.31
647.24	9523.73
647.593	9526.9
647.945	9493.22
648.298	9493
648.65	9522.38
649.002	9475.15
649.355	9431.53
649.707	9499.78
650.059	9493.45
650.411	9604.63
650.763	9653.9
651.115	9734.8
651.467	9713.56
651.819	9670.17
652.171	9660.45
652.523	9600.11
652.875	9627.23
653.227	9547.69
653.578	9645.31
653.93	9658.19
654.282	9611.41
654.633	9515.6
654.985	9540.68
655.337	9495.94
655.688	9500.23
656.039	9615.71
656.391	9559.66
656.742	9547.91
657.094	9548.36
657.445	9548.36
657.796	9530.51
658.147	9563.28
658.498	9507.69
658.849	9570.96
659.2	9435.37
659.551	9447.58
659.902	9510.63
660.253	9416.39
660.604	9488.25
660.955	9436.5
661.306	9425.43
661.656	9443.28
662.007	9402.38
662.358	9476.05
662.708	9418.65
663.059	9469.04
663.409	9326
663.76	9406
664.11	9324.19
664.461	9363.74
664.811	9341.82
665.161	9351.76
665.511	9330.29
665.862	9355.83
666.212	9371.19
666.562	9275.6
666.912	9312.89
667.262	9272.67
667.612	9311.31
667.962	9263.17
668.312	9255.49
668.662	9290.29
669.011	9245.1
669.361	9278.32
669.711	9315.38
670.06	9231.08
670.41	9236.73
670.76	9192.44
671.109	9247.36
671.459	9198.09
671.808	9176.62
672.157	9257.07
672.507	9192.22
672.856	9138.88
673.205	9158.32
673.554	9197.19
673.904	9195.38
674.253	9207.58
674.602	9164.65
674.951	8993.8
675.3	8961.71
675.649	9199.9
675.998	9127.13
676.346	9135.49
676.695	9123.97
677.044	9055.04
677.393	9072.67
677.741	9123.97
678.09	9059.34
678.438	9101.82
678.787	9114.93
679.135	9038.77
679.484	9014.59
679.832	9082.16
680.181	9014.14
680.529	9064.99
680.877	9003.52
681.225	8987.48
681.573	9055.72
681.922	8951.32
682.27	8960.36
682.618	8951.77
682.966	8916.52
683.314	8931.43
683.661	8921.04
684.009	8906.35
684.357	8852.79
684.705	8855.73
685.053	8839.23
685.4	8788.16
685.748	8743.19
686.095	8814.15
686.443	8770.98
686.79	8713.36
687.138	8789.97
687.485	8791.55
687.832	8682.17
688.18	8721.49
688.527	8648.05
688.874	8610.54
689.221	8594.49
689.568	8569.18
689.915	8598.33
690.262	8531.44
690.609	8512.46
690.956	8517.88
691.303	8452.8
691.65	8443.08
691.997	8467.26
692.344	8408.28
692.69	8410.09
693.037	8321.73
693.383	8328.06
693.73	8312.92
694.077	8335.74
694.423	8278.34
694.769	8263.65
695.116	8258.23
695.462	8231.79
695.808	8236.99
696.155	8223.43
696.501	8134.39
696.847	8134.62
697.193	8038.12
697.539	8110.21
697.885	8014.62
698.231	7974.39
698.577	8019.37
698.923	7978.24
699.269	7901.18
699.614	7913.15
699.96	7910.22
700.306	7941.18
700.651	7886.04
700.997	7841.07
701.342	7767.62
701.688	7769.88
702.033	7773.95
702.379	7821.86
702.724	7732.59
703.069	7800.61
703.415	7686.72
703.76	7694.4
704.105	7764.23
704.45	7696.44
704.795	7615.31
705.14	7617.34
705.485	7593.84
705.83	7597.23
706.175	7588.19
706.52	7537.34
706.865	7502.32
707.209	7575.54
707.554	7481.75
707.899	7513.84
708.243	7467.06
708.588	7509.55
708.932	7341.42
709.277	7455.76
709.621	7437.91
709.966	7361.3
710.31	7391.81
710.654	7313.4
710.998	7334.19
711.342	7367.86
711.687	7337.12
712.031	7343
712.375	7275.88
712.719	7270.91
713.063	7283.11
713.407	7237.92
713.75	7205.15
714.094	7243.34
714.438	7196.79
714.782	7161.53
715.125	7152.5
715.469	7211.48
715.812	7170.12
716.156	7114.3
716.499	7109.78
716.843	7105.94
717.186	7065.94
717.53	7124.02
717.873	7104.81
718.216	7032.5
718.559	7070.24
718.902	7008.32
719.246	7034.31
719.589	6969.22
719.932	6935.33
720.275	6949.79
720.617	6988.21
720.96	6934.65
721.303	6870.24
721.646	6907.53
721.989	6918.38
722.331	6882.45
722.674	6887.19
723.016	6924.48
723.359	6840.19
723.701	6919.06
724.044	6812.17
724.386	6811.26
724.729	6767.42
725.071	6740.53
725.413	6776.69
725.755	6781.88
726.097	6761.55
726.439	6756.8
726.782	6723.58
727.124	6775.78
727.465	6717.03
727.807	6672.06
728.149	6656.24
728.491	6674.09
728.833	6681.55
729.175	6690.81
729.516	6690.59
729.858	6618.27
730.199	6607.43
730.541	6595.45
730.882	6595.45
731.224	6593.19
731.565	6578.27
731.906	6541.44
732.248	6522.23
732.589	6430.03
732.93	6477.49
733.271	6531.49
733.612	6487.43
733.953	6492.17
734.294	6472.74
734.635	6411.5
734.976	6467.32
735.317	6418.96
735.658	6470.25
735.999	6446.98
736.339	6395.45
736.68	6423.25
737.021	6418.28
737.361	6380.54
737.702	6498.73
738.042	6350.03
738.383	6311.61
738.723	6383.02
739.063	6370.6
739.404	6370.37
739.744	6329.92
740.084	6304.61
740.424	6317.49
740.764	6285.4
741.104	6301.9
741.444	6239.3
741.784	6311.84
742.124	6269.81
742.464	6242.24
742.804	6251.28
743.143	6256.7
743.483	6252.63
743.823	6218.28
744.162	6182.13
744.502	6227.1
744.841	6225.51
745.181	6258.51
745.52	6174.44
745.86	6210.37
746.199	6157.72
746.538	6178.28
746.877	6189.81
747.216	6190.49
747.556	6189.36
747.895	6139.19
748.234	6128.12
748.573	6098.51
748.911	6113.88
749.25	6083.82
749.589	6020.32
749.928	6100.09
750.267	6011.73
750.605	6038.85
750.944	6065.52
751.283	6054.22
751.621	6086.31
751.96	5961.34
752.298	5939.87
752.636	6025.29
752.975	5947.78
753.313	5975.8
753.651	5956.14
753.989	5923.38
754.327	5902.13
754.666	5937.39
755.004	5898.97
755.342	5879.76
755.679	5876.6
756.017	5844.06
756.355	5861.68
756.693	5836.82
757.031	5780.78
757.368	5768.35
757.706	5798.18
758.044	5788.01
758.381	5754.79
758.719	5752.31
759.056	5807.9
759.394	5703.27
759.731	5645.64
760.068	5660.56
760.405	5657.85
760.743	5621.46
761.08	5660.56
761.417	5586.44
761.754	5636.6
762.091	5570.84
762.428	5602.25
762.765	5613.78
763.102	5564.51
763.438	5526.55
763.775	5477.96
764.112	5507.79
764.449	5514.57
764.785	5486.32
765.122	5413.56
765.458	5444.97
765.795	5397.51
766.131	5381.47
766.467	5401.13
766.804	5333.79
767.14	5346.44
767.476	5330.62
767.812	5298.76
768.148	5294.24
