Data from foam_black_FLMS001491_00086.txt Node
Date: Wed Feb 08 10:44:51 GMT 2017
User: dcchb
Spectrometer: FLMS00149
Trigger mode: 0
Integration Time (sec): 2.000000E-2
Scans to average: 10
Electric dark correction enabled: true
Nonlinearity correction enabled: false
Boxcar width: 0
XAxis mode: Wavelengths
Number of Pixels in Spectrum: 2048
>>>>>Begin Spectral Data<<<<<
341.393	-19.99
341.776	-19.99
342.16	-19.99
342.543	-49.36
342.927	-83.26
343.31	-48.23
343.693	-68.57
344.077	-79.42
344.46	-62.24
344.843	-55.92
345.226	-50.72
345.61	-37.84
345.993	-39.19
346.376	-6.88
346.759	7.36
347.142	33.35
347.525	48.04
347.908	54.36
348.291	80.13
348.674	100.01
349.057	125.77
349.44	105.21
349.823	134.59
350.206	155.15
350.588	194.92
350.971	223.62
351.354	228.37
351.737	232.89
352.119	249.61
352.502	262.27
352.884	257.52
353.267	257.07
353.65	296.62
354.032	301.36
354.414	287.35
354.797	294.13
355.179	304.53
355.562	311.08
355.944	316.95
356.326	323.96
356.709	351.76
357.091	337.07
357.473	308.14
357.855	313.34
358.238	325.09
358.62	330.29
359.002	346.33
359.384	327.12
359.766	323.06
360.148	330.74
360.53	324.19
360.912	341.59
361.294	348.14
361.676	314.24
362.057	335.26
362.439	329.38
362.821	332.1
363.203	335.03
363.584	332.1
363.966	341.36
364.348	313.34
364.729	318.54
365.111	307.24
365.493	321.02
365.874	312.66
366.256	299.55
366.637	306.11
367.019	326.22
367.4	328.93
367.781	307.01
368.163	318.99
368.544	299.78
368.925	312.44
369.306	329.38
369.688	312.44
370.069	317.18
370.45	332.55
370.831	305.66
371.212	344.52
371.593	328.25
371.974	323.06
372.355	322.83
372.736	328.48
373.117	331.19
373.498	316.5
373.879	313.11
374.26	326.67
374.641	306.33
375.021	316.73
375.402	346.11
375.783	341.14
376.163	319.44
376.544	343.39
376.925	330.97
377.305	347.91
377.686	330.29
378.066	329.38
378.447	355.37
378.827	338.42
379.208	347.91
379.588	337.29
379.968	336.84
380.349	364.41
380.729	359.21
381.109	352.66
381.489	367.35
381.87	377.74
382.25	327.58
382.63	336.62
383.01	365.32
383.39	348.37
383.77	382.72
384.15	347.46
384.53	371.87
384.91	375.94
385.29	362.6
385.67	375.48
386.049	371.42
386.429	403.28
386.809	391.08
387.189	368.25
387.568	375.03
387.948	390.85
388.328	399.21
388.707	378.42
389.087	396.5
389.466	398.99
389.846	393.79
390.225	388.14
390.605	382.94
390.984	393.56
391.363	403.28
391.743	386.33
392.122	406.67
392.501	391.53
392.881	406.67
393.26	413.45
393.639	423.62
394.018	417.07
394.397	412.09
394.776	425.65
395.155	451.64
395.534	438.76
395.913	419.1
396.292	439.44
396.671	439.89
397.05	435.82
397.429	429.04
397.808	445.31
398.186	426.1
398.565	446.22
398.944	441.7
399.323	449.83
399.701	469.27
400.08	460.23
400.458	486.67
400.837	448.7
401.215	471.75
401.594	475.37
401.972	462.26
402.351	461.81
402.729	470.85
403.107	469.27
403.486	470.62
403.864	472.66
404.242	469.27
404.62	466.78
404.999	501.36
405.377	490.74
405.755	488.48
406.133	516.95
406.511	481.92
406.889	497.52
407.267	521.92
407.645	512.66
408.023	534.12
408.401	537.29
408.779	512.2
409.156	521.7
409.534	525.76
409.912	530.96
410.29	554.91
410.667	543.62
411.045	545.88
411.422	532.09
411.8	540.23
412.178	558.98
412.555	583.39
412.933	560.56
413.31	557.85
413.687	569.6
414.065	578.87
414.442	589.04
414.819	580.9
415.197	600.56
415.574	596.5
415.951	609.6
416.328	615.93
416.705	591.52
417.082	620.45
417.46	614.35
417.837	606.66
418.214	642.37
418.591	634.23
418.967	627.46
419.344	629.49
419.721	637.85
420.098	631.07
420.475	661.58
420.852	665.87
421.228	677.85
421.605	658.64
421.982	664.52
422.358	693.89
422.735	693.67
423.111	681.01
423.488	709.94
423.864	690.73
424.241	698.87
424.617	710.39
424.994	740.67
425.37	730.73
425.746	744.51
426.123	719.66
426.499	731.41
426.875	738.41
427.251	747.9
427.627	777.06
428.003	780.9
428.379	767.79
428.756	770.95
429.132	790.39
429.507	800.56
429.883	794.68
430.259	819.77
430.635	808.69
431.011	828.58
431.387	842.59
431.763	853.44
432.138	847.56
432.514	858.41
432.89	869.03
433.265	870.61
433.641	861.12
434.016	877.84
434.392	916.71
434.767	916.71
435.143	907.67
435.518	920.78
435.894	950.84
436.269	940.44
436.644	961.23
437.02	951.06
437.395	951.74
437.77	997.62
438.145	991.74
438.52	978.86
438.895	996.94
439.271	1000.1
439.646	1061.79
440.021	1035.81
440.395	1020.44
440.77	1019.54
441.145	1056.37
441.52	1052.08
441.895	1062.47
442.27	1059.08
442.645	1058.4
443.019	1087.33
443.394	1056.14
443.769	1082.81
444.143	1085.3
444.518	1081.68
444.892	1087.56
445.267	1121.45
445.641	1126.65
446.016	1130.49
446.39	1105.41
446.764	1124.39
447.139	1156.25
447.513	1144.05
447.887	1134.11
448.262	1129.81
448.636	1134.79
449.01	1181.11
449.384	1191.96
449.758	1175.01
450.132	1214.33
450.506	1200.32
450.88	1203.03
451.254	1237.83
451.628	1221.34
452.002	1233.77
452.376	1236.25
452.75	1251.62
453.123	1279.64
453.497	1279.42
453.871	1306.31
454.244	1304.27
454.618	1342.01
454.992	1367.55
455.365	1327.78
455.739	1358.28
456.112	1363.26
456.486	1352.86
456.859	1390.37
457.232	1421.33
457.606	1452.29
457.979	1443.03
458.352	1447.77
458.725	1501.1
459.099	1495
459.472	1493.65
459.845	1543.14
460.218	1524.83
460.591	1596.47
460.964	1522.57
461.337	1586.98
461.71	1626.75
462.083	1629.69
462.456	1624.94
462.829	1626.3
463.201	1650.71
463.574	1664.94
463.947	1696.13
464.32	1722.57
464.692	1729.8
465.065	1712.85
465.438	1759.18
465.81	1808.67
466.183	1817.03
466.555	1799.4
466.928	1834.43
467.3	1845.73
467.672	1860.87
468.045	1914.88
468.417	1903.58
468.789	1920.53
469.161	1951.26
469.534	1958.95
469.906	1974.99
470.278	2016.12
470.65	2027.87
471.022	2067.64
471.394	2089.56
471.766	2139.28
472.138	2142.44
472.51	2143.57
472.882	2221.54
473.253	2252.95
473.625	2243.01
473.997	2284.36
474.369	2303.8
474.74	2341.53
475.112	2409.33
475.484	2439.39
475.855	2461.31
476.227	2482.55
476.598	2564.35
476.97	2594.64
477.341	2626.95
477.713	2648.19
478.084	2645.48
478.455	2721.41
478.827	2746.72
479.198	2836.89
479.569	2820.84
479.94	2884.57
480.311	2923.44
480.682	2970.9
481.053	3038.92
481.424	3073.49
481.795	3076.43
482.166	3162.76
482.537	3165.69
482.908	3231
483.279	3292.24
483.65	3329.53
484.021	3390.09
484.391	3392.35
484.762	3436.42
485.133	3472.35
485.503	3532.24
485.874	3556.64
486.244	3581.5
486.615	3632.35
486.985	3654.49
487.356	3780.37
487.726	3771.1
488.097	3852
488.467	3896.07
488.837	3913.02
489.207	3975.62
489.578	4054.94
489.948	4052
490.318	4134.03
490.688	4138.1
491.058	4204.08
491.428	4230.98
491.798	4295.61
492.168	4360.46
492.538	4404.08
492.908	4395.94
493.278	4505.09
493.648	4475.04
494.017	4520.91
494.387	4558.65
494.757	4614.7
495.126	4646.33
495.496	4620.34
495.866	4693.56
496.235	4753.67
496.605	4775.82
496.974	4793.45
497.344	4832.09
497.713	4901.69
498.082	4916.16
498.452	4957.28
498.821	4957.51
499.19	4929.72
499.559	5022.37
499.928	5087.9
500.298	5149.6
500.667	5120.22
501.036	5143.27
501.405	5178.52
501.774	5225.07
502.143	5302.13
502.512	5290.84
502.88	5351.17
503.249	5338.74
503.618	5402.47
503.987	5411.06
504.356	5456.71
504.724	5473.66
505.093	5486.31
505.462	5508.68
505.83	5553.88
506.199	5584.16
506.567	5664.38
506.936	5690.37
507.304	5710.94
507.672	5779.18
508.041	5763.59
508.409	5810.14
508.777	5887.43
509.145	5918.16
509.514	5851.5
509.882	5914.77
510.25	6020.76
510.618	5992.74
510.986	6039.06
511.354	6118.16
511.722	6125.39
512.09	6173.07
512.458	6183.69
512.826	6225.05
513.193	6282.45
513.561	6339.62
513.929	6368.32
514.297	6424.36
514.664	6442.44
515.032	6471.6
515.4	6534.19
515.767	6557.02
516.135	6627.07
516.502	6629.11
516.869	6784.13
517.237	6773.51
517.604	6739.38
517.972	6818.93
518.339	6881.53
518.706	6887.18
519.073	6914.07
519.44	7025.48
519.808	7105.93
520.175	7083.78
520.542	7155.42
520.909	7163.33
521.276	7260.73
521.643	7271.57
522.009	7334.85
522.376	7450.1
522.743	7469.31
523.11	7552.02
523.477	7603.32
523.843	7684.9
524.21	7819.81
524.577	7759.25
524.943	7825.91
525.31	7878.11
525.676	7945
526.043	7918.79
526.409	8064.32
526.776	8102.74
527.142	8095.28
527.508	8167.6
527.874	8281.27
528.241	8297.31
528.607	8344.31
528.973	8436.74
529.339	8425.67
529.705	8498.21
530.071	8620.01
530.437	8723.29
530.803	8691.88
531.169	8781.82
531.535	8785.66
531.901	8755.38
532.267	8841.93
532.632	8947.01
532.998	8990.4
533.364	8989.04
533.73	9035.6
534.095	9117.18
534.461	9129.15
534.826	9161.69
535.192	9156.5
535.557	9288.47
535.923	9262.93
536.288	9337.96
536.653	9422.48
537.019	9319.88
537.384	9450.05
537.749	9487.79
538.114	9464.29
538.479	9555.58
538.845	9631.06
539.21	9641.23
539.575	9642.13
539.94	9626.99
540.305	9763.71
540.67	9731.17
541.034	9762.81
541.399	9874.67
541.764	9895.69
542.129	9824.05
542.494	9911.5
542.858	9960.77
543.223	9965.29
543.587	10114.66
543.952	10000.54
544.316	10049.13
544.681	10096.13
545.045	10152.4
545.41	10250.48
545.774	10252.96
546.138	10243.02
546.503	10271.5
546.867	10273.98
547.231	10391.72
547.595	10413.86
547.959	10450.7
548.324	10483.24
548.688	10495.9
549.052	10558.04
549.416	10557.14
549.779	10571.83
550.143	10669.68
550.507	10701.31
550.871	10788.77
551.235	10789.9
551.599	10840.52
551.962	10918.03
552.326	10925.49
552.689	10974.98
553.053	10983.12
553.417	11041.19
553.78	11128.65
554.143	11136.56
554.507	11197.12
554.87	11251.81
555.234	11387.17
555.597	11313.05
555.96	11375.42
556.323	11471.92
556.686	11542.42
557.05	11594.85
557.413	11659.03
557.776	11602.76
558.139	11793.49
558.502	11717.11
558.865	11866.26
559.228	11956.2
559.59	12029.87
559.953	12016.31
560.316	12183.54
560.679	12170.2
561.041	12344.89
561.404	12329.52
561.767	12409.97
562.129	12426.92
562.492	12500.82
562.854	12571.1
563.217	12564.77
563.579	12696.74
563.941	12746.91
564.304	12850.86
564.666	12838.66
565.028	12944.87
565.39	12990.75
565.753	13002.72
566.115	13095.83
566.477	13174.47
566.839	13175.15
567.201	13305.31
567.563	13322.49
567.925	13467.12
568.287	13464.86
568.648	13583.05
569.01	13594.12
569.372	13648.36
569.734	13574.46
570.095	13815.81
570.457	13835.47
570.819	13898.07
571.18	13835.92
571.542	13971.74
571.903	14060.55
572.265	14085.41
572.626	14096.71
572.987	14089.02
573.349	14164.73
573.71	14189.36
574.071	14229.58
574.432	14268.68
574.794	14351.39
575.155	14375.79
575.516	14323.37
575.877	14507.99
576.238	14505.28
576.599	14611.27
576.96	14632.74
577.32	14638.16
577.681	14628.67
578.042	14615.79
578.403	14682
578.763	14752.06
579.124	14827.31
579.485	14749.12
579.845	14802.9
580.206	14775.11
580.566	14801.09
580.927	14792.28
581.287	14985.95
581.648	14878.61
582.008	15064.82
582.368	14968.1
582.728	14972.39
583.089	14976.91
583.449	14922.9
583.809	15032.95
584.169	14944.82
584.529	14963.12
584.889	15087.87
585.249	15001.09
585.609	14978.26
585.969	15025.72
586.329	15075.66
586.688	15202.21
587.048	15131.71
587.408	15124.7
587.768	15194.76
588.127	15098.49
588.487	15148.43
588.846	15218.26
589.206	15050.13
589.565	15160.41
589.925	15244.7
590.284	15141.42
590.643	15294.64
591.003	15212.83
591.362	15318.37
591.721	15260.97
592.08	15258.26
592.44	15299.84
592.799	15244.47
593.158	15211.93
593.517	15221.42
593.876	15353.85
594.235	15229.33
594.593	15279.73
594.952	15410.34
595.311	15278.37
595.67	15293.28
596.029	15338.03
596.387	15304.58
596.746	15429.55
597.104	15432.72
597.463	15370.57
597.822	15429.33
598.18	15389.33
598.538	15357.24
598.897	15451.47
599.255	15360.18
599.613	15605.59
599.972	15479.95
600.33	15541.19
600.688	15460.51
601.046	15558.59
601.404	15659.38
601.762	15606.72
602.12	15582.99
602.478	15561.98
602.836	15659.6
603.194	15512.94
603.552	15655.53
603.91	15620.28
604.268	15592.71
604.625	15670.22
604.983	15747.51
605.341	15571.02
605.698	15728.98
606.056	15747.74
606.413	15677
606.771	15824.57
607.128	15789.54
607.485	15648.08
607.843	15787.51
608.2	15833.84
608.557	15896.43
608.914	15898.69
609.272	15924.23
609.629	15980.72
609.986	15990.44
610.343	15954.51
610.7	15955.19
611.057	15978.69
611.414	15986.83
611.771	15922.65
612.127	16069.31
612.484	16147.95
612.841	16015.53
613.198	15970.1
613.554	16018.01
613.911	16125.35
614.267	16041.29
614.624	16109.53
614.98	16124
615.337	16216.42
615.693	16290.55
616.05	16167.61
616.406	16317.44
616.762	16258
617.118	16215.07
617.475	16208.97
617.831	16209.64
618.187	16323.54
618.543	16291.22
618.899	16273.82
619.255	16301.17
619.611	16265.24
619.967	16394.27
620.323	16392.01
620.678	16306.14
621.034	16265.91
621.39	16264.11
621.746	16162.19
622.101	16511.33
622.457	16307.04
622.812	16389.07
623.168	16447.6
623.523	16333.26
623.879	16349.08
624.234	16291.68
624.589	16323.99
624.945	16333.48
625.3	16422.97
625.655	16394.5
626.01	16434.72
626.365	16425.23
626.72	16418.45
627.075	16363.99
627.43	16343.65
627.785	16287.61
628.14	16438.34
628.495	16414.61
628.85	16348.85
629.205	16298.68
629.559	16411.9
629.914	16305.01
630.269	16300.49
630.623	16248.97
630.978	16239.47
631.332	16248.51
631.687	16290.32
632.041	16288.74
632.396	16378.91
632.75	16279.02
633.104	16256.87
633.459	16195.63
633.813	16193.83
634.167	16150.44
634.521	16266.59
634.875	16255.97
635.229	16249.64
635.583	16086.94
635.937	16024.56
636.291	16153.15
636.645	16074.73
636.999	16051.46
637.352	16098.91
637.706	16042.42
638.06	16048.29
638.413	16037.22
638.767	15912.25
639.121	16055.98
639.474	15959.03
639.828	15949.31
640.181	15909.77
640.534	15952.02
640.888	15835.64
641.241	15848.75
641.594	15909.77
641.947	15868.64
642.301	15833.61
642.654	15815.76
643.007	15807.62
643.36	15718.13
643.713	15688.53
644.066	15885.36
644.419	15687.62
644.771	15582.99
645.124	15335.54
645.477	15221.87
645.83	15254.19
646.182	15240.86
646.535	15255.09
646.888	15300.74
647.24	15151.59
647.593	15228.88
647.945	15203.8
648.298	15168.54
648.65	15134.64
649.002	15052.61
649.355	15120.18
649.707	14969.9
650.059	15078.15
650.411	15250.57
650.763	15226.17
651.115	15394.07
651.467	15281.53
651.819	15318.37
652.171	15277.01
652.523	15255.32
652.875	15283.79
653.227	15150.92
653.578	15274.3
653.93	15296.45
654.282	15136.9
654.633	15108.2
654.985	15137.81
655.337	15155.66
655.688	15250.35
656.039	15176.23
656.391	15028.88
656.742	15193.85
657.094	15063.91
657.445	15260.74
657.796	15182.1
658.147	15138.26
658.498	15090.58
658.849	15130.8
659.2	15051.03
659.551	15067.08
659.902	15060.3
660.253	15091.48
660.604	15120.63
660.955	14986.63
661.306	15073.4
661.656	15012.39
662.007	15001.54
662.358	14946.63
662.708	15076.11
663.059	15020.75
663.409	14911.37
663.76	15001.09
664.11	14910.92
664.461	14953.18
664.811	14947.08
665.161	15005.16
665.511	14960.86
665.862	14962.45
666.212	14930.81
666.562	14940.3
666.912	14888.1
667.262	14883.13
667.612	14849.68
667.962	14881.09
668.312	14907.31
668.662	15012.39
669.011	14879.96
669.361	14841.77
669.711	14867.31
670.06	14856.69
670.41	14797.7
670.76	14795.67
671.109	14849.68
671.459	14805.84
671.808	14810.36
672.157	14914.54
672.507	14779.85
672.856	14738.72
673.205	14793.64
673.554	14805.84
673.904	14761.32
674.253	14874.76
674.602	14744.15
674.951	14553.42
675.3	14489.24
675.649	14651.04
675.998	14672.28
676.346	14619.63
676.695	14713.41
677.044	14606.97
677.393	14690.14
677.741	14629.35
678.09	14597.26
678.438	14604.49
678.787	14627.09
679.135	14729.91
679.484	14492.85
679.832	14593.19
680.181	14466.64
680.529	14444.95
680.877	14498.73
681.225	14396.13
681.573	14531.04
681.922	14351.39
682.27	14307.55
682.618	14327.66
682.966	14347.55
683.314	14290.15
683.661	14406.75
684.009	14223.03
684.357	14189.81
684.705	14191.39
685.053	14152.75
685.4	14136.48
685.748	14116.82
686.095	14064.39
686.443	14058.74
686.79	14037.27
687.138	14051.06
687.485	14021.68
687.832	13976.71
688.18	13980.55
688.527	13920.89
688.874	13857.62
689.221	13843.83
689.568	13799.31
689.915	13786.66
690.262	13733.78
690.609	13778.75
690.956	13682.93
691.303	13665.98
691.65	13565.42
691.997	13600
692.344	13480.9
692.69	13430.28
693.037	13516.38
693.383	13408.36
693.73	13503.5
694.077	13355.93
694.423	13317.97
694.769	13345.31
695.116	13193.68
695.462	13191.42
695.808	13123.17
696.155	13145.32
696.501	13091.76
696.847	13045.21
697.193	12980.8
697.539	12995.27
697.885	12924.08
698.231	12849.51
698.577	12919.56
698.923	12886.79
699.269	12724.09
699.614	12698.55
699.96	12663.3
700.306	12640.92
700.651	12606.12
700.997	12604.99
701.342	12578.1
701.688	12579.91
702.033	12625.56
702.379	12493.13
702.724	12514.83
703.069	12536.52
703.415	12383.08
703.76	12273.93
704.105	12256.08
704.45	12388.5
704.795	12213.37
705.14	12175.63
705.485	12212.01
705.83	12093.82
706.175	12170.65
706.52	12106.02
706.865	12068.51
707.209	11960.72
707.554	11965.46
707.899	11955.74
708.243	11929.76
708.588	11915.97
708.932	11751.91
709.277	11732.47
709.621	11758.46
709.966	11614.96
710.31	11755.52
710.654	11637.11
710.998	11662.65
711.342	11577.45
711.687	11640.5
712.031	11536.77
712.375	11426.95
712.719	11503.78
713.063	11437.57
713.407	11456.1
713.75	11330.22
714.094	11362.54
714.438	11359.6
714.782	11373.39
715.125	11273.73
715.469	11363.44
715.812	11286.61
716.156	11288.42
716.499	11210.45
716.843	11282.09
717.186	11113.06
717.53	11258.36
717.873	11161.64
718.216	11210.68
718.559	11098.14
718.902	11042.77
719.246	11102.21
719.589	11006.39
719.932	10998.93
720.275	10940.86
720.617	10990.57
720.96	10954.87
721.303	10922.55
721.646	10912.16
721.989	10884.36
722.331	10849.56
722.674	10774.53
723.016	10854.08
723.359	10765.27
723.701	10857.69
724.044	10838.71
724.386	10694.31
724.729	10808.2
725.071	10747.64
725.413	10718.04
725.755	10626.97
726.097	10692.73
726.439	10575.44
726.782	10636.01
727.124	10626.97
727.465	10572.28
727.807	10568.21
728.149	10527.99
728.491	10483.47
728.833	10510.13
729.175	10483.02
729.516	10499.06
729.858	10453.19
730.199	10477.14
730.541	10445.28
730.882	10465.84
731.224	10408.22
731.565	10383.81
731.906	10340.87
732.248	10360.53
732.589	10274.66
732.93	10249.8
733.271	10279.4
733.612	10244.83
733.953	10253.87
734.294	10318.27
734.635	10215
734.976	10217.03
735.317	10190.82
735.658	10184.49
735.999	10159.41
736.339	10158.05
736.68	10166.19
737.021	10093.42
737.361	10005.97
737.702	10127.09
738.042	10125.74
738.383	10045.74
738.723	10044.16
739.063	10050.26
739.404	10014.78
739.744	9978.62
740.084	9939.3
740.424	9913.99
740.764	9908.57
741.104	9973.42
741.444	9878.06
741.784	9868.12
742.124	9845.07
742.464	9845.74
742.804	9899.75
743.143	9913.99
743.483	9869.7
743.823	9811.39
744.162	9717.39
744.502	9707.67
744.841	9703.37
745.181	9798.29
745.52	9694.79
745.86	9683.71
746.199	9582.25
746.538	9665.18
746.877	9708.35
747.216	9606.88
747.556	9579.08
747.895	9639.42
748.234	9589.71
748.573	9557.39
748.911	9485.98
749.25	9534.34
749.589	9552.64
749.928	9510.39
750.267	9525.53
750.605	9426.77
750.944	9451.86
751.283	9422.7
751.621	9436.49
751.96	9309.26
752.298	9393.55
752.636	9358.75
752.975	9378.41
753.313	9243.73
753.651	9274.23
753.989	9235.59
754.327	9264.52
754.666	9239.66
755.004	9219.77
755.342	9208.92
755.679	9181.13
756.017	9135.03
756.355	9181.35
756.693	9081.92
757.031	9103.16
757.368	9105.2
757.706	9040.79
758.044	8987.91
758.381	8982.94
