Data from foam2_polystyrene_foam_FLMS001491_00066.txt Node
Date: Wed Feb 08 10:58:20 GMT 2017
User: dcchb
Spectrometer: FLMS00149
Trigger mode: 0
Integration Time (sec): 2.000000E-2
Scans to average: 10
Electric dark correction enabled: true
Nonlinearity correction enabled: false
Boxcar width: 0
XAxis mode: Wavelengths
Number of Pixels in Spectrum: 2048
>>>>>Begin Spectral Data<<<<<
341.393	-17.23
341.776	-17.23
342.16	-17.23
342.543	-50
342.927	-68.08
343.31	-54.29
343.693	-78.02
344.077	-46.83
344.46	-49.32
344.843	-65.59
345.226	-50.45
345.61	-33.5
345.993	-23.33
346.376	1.07
346.759	4.24
347.142	19.15
347.525	28.87
347.908	43.33
348.291	77
348.674	92.14
349.057	135.53
349.44	131.69
349.823	143.44
350.206	166.49
350.588	185.7
350.971	209.2
351.354	235.42
351.737	241.75
352.119	256.43
352.502	266.38
352.884	276.32
353.267	250.78
353.65	297.56
354.032	307.96
354.414	313.61
354.797	315.19
355.179	320.84
355.562	333.72
355.944	325.36
356.326	348.86
356.709	337.79
357.091	316.09
357.473	346.83
357.855	334.62
358.238	354.74
358.62	337.11
359.002	330.33
359.384	356.09
359.766	353.38
360.148	346.83
360.53	343.89
360.912	348.41
361.294	344.34
361.676	370.1
362.057	363.1
362.439	326.94
362.821	340.5
363.203	352.25
363.584	342.99
363.966	343.44
364.348	344.79
364.729	321.07
365.111	336.88
365.493	316.32
365.874	323.55
366.256	321.52
366.637	324.91
367.019	332.14
367.4	326.26
367.781	338.69
368.163	339.14
368.544	331.23
368.925	335.53
369.306	336.88
369.688	344.79
370.069	350.89
370.45	326.71
370.831	339.37
371.212	363.78
371.593	338.24
371.974	337.56
372.355	340.27
372.736	350.22
373.117	351.12
373.498	372.36
373.879	350.44
374.26	333.49
374.641	345.92
375.021	344.57
375.402	349.54
375.783	353.83
376.163	362.42
376.544	361.97
376.925	370.33
377.305	349.09
377.686	355.87
378.066	377.56
378.447	375.3
378.827	368.75
379.208	377.11
379.588	386.83
379.968	385.47
380.349	371.69
380.729	366.71
381.109	387.28
381.489	407.84
381.87	383.44
382.25	398.13
382.63	399.71
383.01	404.9
383.39	397.45
383.77	380.95
384.15	405.81
384.53	392.25
384.91	388.63
385.29	398.58
385.67	394.96
386.049	411.23
386.429	415.07
386.809	441.74
387.189	432.47
387.568	420.5
387.948	408.52
388.328	432.7
388.707	420.95
389.087	415.3
389.466	436.77
389.846	462.98
390.225	436.77
390.605	426.82
390.984	457.56
391.363	451.01
391.743	457.33
392.122	439.25
392.501	458.01
392.881	479.48
393.26	449.88
393.639	442.64
394.018	469.31
394.397	483.32
394.776	462.3
395.155	460.04
395.534	470.21
395.913	497.78
396.292	497.56
396.671	497.56
397.05	483.32
397.429	508.18
397.808	521.74
398.186	500.95
398.565	500.27
398.944	498.24
399.323	511.79
399.701	493.94
400.08	512.02
400.458	524.68
400.837	524.22
401.215	503.21
401.594	549.08
401.972	547.05
402.351	536.88
402.729	540.72
403.107	529.2
403.486	547.73
403.864	553.83
404.242	546.37
404.62	561.96
404.999	585.24
405.377	564.22
405.755	554.51
406.133	597.89
406.511	579.59
406.889	606.93
407.267	595.41
407.645	594.5
408.023	619.36
408.401	612.81
408.779	614.16
409.156	623.88
409.534	638.57
409.912	642.41
410.29	653.03
410.667	641.28
411.045	660.27
411.422	659.36
411.8	665.91
412.178	669.98
412.555	676.76
412.933	705.46
413.31	677.89
413.687	685.58
414.065	709.98
414.442	702.52
414.819	721.51
415.197	721.05
415.574	713.6
415.951	738.68
416.328	722.18
416.705	747.95
417.082	757.89
417.46	735.07
417.837	760.83
418.214	754.73
418.591	769.64
418.967	789.75
419.344	766.93
419.721	797.44
420.098	778.23
420.475	789.08
420.852	791.79
421.228	803.99
421.605	784.56
421.982	813.03
422.358	840.83
422.735	825.68
423.111	832.01
423.488	852.8
423.864	872.24
424.241	865.68
424.617	872.24
424.994	882.86
425.37	874.04
425.746	876.76
426.123	897.55
426.499	924.89
426.875	913.82
427.251	931.22
427.627	952.46
428.003	942.29
428.379	950.43
428.756	956.53
429.132	993.36
429.507	985
429.883	1018.45
430.259	1008.96
430.635	1018.67
431.011	1036.07
431.387	1074.94
431.763	1071.1
432.138	1059.12
432.514	1087.82
432.89	1082.17
433.265	1151.1
433.641	1114.04
434.016	1095.73
434.392	1135.28
434.767	1156.52
435.143	1152.68
435.518	1188.16
435.894	1189.29
436.269	1200.59
436.644	1204.43
437.02	1219.12
437.395	1234.04
437.77	1249.18
438.145	1267.48
438.52	1227.93
438.895	1277.65
439.271	1291.89
439.646	1328.5
440.021	1331.66
440.395	1296.41
440.77	1333.69
441.145	1337.76
441.52	1364.43
441.895	1367.82
442.27	1356.97
442.645	1375.05
443.019	1420.25
443.394	1402.62
443.769	1455.5
444.143	1399.23
444.518	1467.7
444.892	1448.72
445.267	1455.5
445.641	1480.81
446.016	1489.4
446.39	1483.52
446.764	1514.48
447.139	1468.61
447.513	1522.39
447.887	1536.63
448.262	1541.15
448.636	1534.59
449.01	1580.92
449.384	1566.46
449.758	1580.92
450.132	1617.98
450.506	1636.06
450.88	1598.55
451.254	1651.65
451.628	1633.57
452.002	1655.72
452.376	1665.44
452.75	1693.23
453.123	1723.06
453.497	1711.99
453.871	1766.45
454.244	1751.99
454.618	1772.33
454.992	1813.68
455.365	1764.19
455.739	1820.23
456.112	1860.01
456.486	1854.81
456.859	1889.84
457.232	1940.91
457.606	1896.16
457.979	1907.24
458.352	1970.29
458.725	1970.74
459.099	1982.49
459.472	2003.05
459.845	2020.23
460.218	2045.09
460.591	2064.52
460.964	2056.16
461.337	2112.2
461.71	2133.9
462.083	2199.43
462.456	2179.1
462.829	2164.41
463.201	2188.81
463.574	2227.91
463.947	2221.58
464.32	2314.01
464.692	2302.71
465.065	2307.91
465.438	2341.35
465.81	2357.85
466.183	2409.37
466.555	2407.79
466.928	2395.13
467.3	2468.13
467.672	2501.57
468.045	2516.04
468.417	2524.62
468.789	2556.03
469.161	2584.73
469.534	2629.93
469.906	2667.9
470.278	2696.14
470.65	2699.31
471.022	2801.68
471.394	2845.52
471.766	2857.5
472.138	2847.78
472.51	2923.03
472.882	2977.94
473.253	2979.53
473.625	3015.91
473.997	3100.2
474.369	3098.17
474.74	3109.69
475.112	3201.67
475.484	3210.03
475.855	3252.74
476.227	3307.88
476.598	3350.59
476.97	3448.89
477.341	3485.73
477.713	3580.19
478.084	3542.9
478.455	3604.37
478.827	3659.51
479.198	3749.22
479.569	3741.77
479.94	3879.84
480.311	3883.46
480.682	3985.83
481.053	4040.97
481.424	4145.82
481.795	4160.29
482.166	4203.22
482.537	4273.28
482.908	4345.59
483.279	4395.31
483.65	4452.26
484.021	4534.06
484.391	4591.24
484.762	4618.35
485.133	4676.2
485.503	4711.23
485.874	4820.83
486.244	4860.15
486.615	4949.87
486.985	5018.57
487.356	5136.53
487.726	5134.05
488.097	5217.43
488.467	5184.67
488.837	5365.9
489.207	5400.93
489.578	5448.84
489.948	5527.71
490.318	5606.8
490.688	5692.68
491.058	5749.62
491.428	5792.11
491.798	5875.27
492.168	5982.39
492.538	6012.44
492.908	6033.23
493.278	6121.36
493.648	6143.51
494.017	6238.65
494.387	6221.02
494.757	6349.83
495.126	6374.47
495.496	6430.51
495.866	6513.22
496.235	6553.22
496.605	6595.02
496.974	6624.18
497.344	6695.59
497.713	6717.96
498.082	6815.36
498.452	6839.99
498.821	6874.34
499.19	6928.35
499.559	6964.05
499.928	7039.98
500.298	7055.35
500.667	7169.92
501.036	7161.34
501.405	7224.61
501.774	7253.31
502.143	7354.78
502.512	7292.41
502.88	7431.16
503.249	7453.76
503.618	7437.94
503.987	7530.59
504.356	7589.8
504.724	7584.6
505.093	7658.05
505.462	7717.48
505.83	7803.35
506.199	7820.53
506.567	7985.72
506.936	7970.58
507.304	8049.22
507.672	8083.35
508.041	8155.21
508.409	8197.47
508.777	8244.7
509.145	8289.44
509.514	8314.3
509.882	8420.06
510.25	8396.33
510.618	8478.59
510.986	8551.58
511.354	8622.77
511.722	8703.67
512.09	8769.66
512.458	8780.5
512.826	8853.95
513.193	8912.03
513.561	8942.53
513.929	9017.33
514.297	9072.7
514.664	9120.16
515.032	9157.44
515.4	9247.38
515.767	9259.14
516.135	9395.4
516.502	9323.31
516.869	9516.3
517.237	9624.32
517.604	9542.29
517.972	9662.29
518.339	9722.63
518.706	9760.14
519.073	9829.52
519.44	9919
519.808	10022.96
520.175	9984.31
520.542	10152.22
520.909	10197.64
521.276	10254.36
521.643	10307.47
522.009	10396.96
522.376	10470.18
522.743	10595.15
523.11	10678.31
523.477	10760.79
523.843	10794.69
524.21	10944.74
524.577	11055.7
524.943	11080.56
525.31	11137.28
525.676	11209.14
526.043	11286.65
526.409	11269.7
526.776	11527.1
527.142	11531.62
527.508	11667.43
527.874	11753.31
528.241	11744.27
528.607	11763.02
528.973	11926.86
529.339	11886.64
529.705	12054.77
530.071	12142.22
530.437	12188.1
530.803	12276.23
531.169	12347.64
531.535	12351.94
531.901	12408.2
532.267	12405.94
532.632	12546.96
532.998	12568.2
533.364	12672.38
533.73	12710.57
534.095	12829.21
534.461	12837.35
534.826	12978.59
535.192	12961.18
535.557	12977.46
535.923	13039.15
536.288	13119.15
536.653	13052.71
537.019	13213.38
537.384	13322.31
537.749	13349.2
538.114	13384.45
538.479	13405.01
538.845	13420.83
539.21	13507.84
539.575	13595.52
539.94	13573.6
540.305	13729.53
540.67	13626.7
541.034	13700.6
541.399	13901.05
541.764	13824.89
542.129	13917.32
542.494	13973.14
542.858	14074.38
543.223	14039.57
543.587	14110.98
543.952	14147.59
544.316	14099.01
544.681	14148.72
545.045	14291.55
545.41	14349.85
545.774	14317.08
546.138	14403.63
546.503	14442.28
546.867	14424.42
547.231	14657.86
547.595	14657.64
547.959	14665.55
548.324	14695.6
548.688	14869.38
549.052	14773.11
549.416	14865.99
549.779	14857.41
550.143	14856.05
550.507	15017.4
550.871	15147.79
551.235	15058.08
551.599	15247.68
551.962	15256.27
552.326	15216.27
552.689	15409.71
553.053	15289.94
553.417	15390.95
553.78	15554.34
554.143	15515.24
554.507	15667.33
554.87	15787.55
555.234	15855.8
555.597	15801.56
555.96	15877.04
556.323	15937.15
556.686	15962.01
557.05	16171.04
557.413	16123.59
557.776	16198.39
558.139	16309.57
558.502	16308.44
558.865	16414.43
559.228	16523.12
559.59	16627.3
559.953	16554.76
560.316	16771.25
560.679	16818.03
561.041	16906.17
561.404	17053.96
561.767	17118.36
562.129	17105.93
562.492	17241.52
562.854	17179.83
563.217	17312.93
563.579	17338.92
563.941	17469.09
564.304	17545.47
564.666	17681.51
565.028	17610.33
565.39	17821.4
565.753	17891.22
566.115	17882.86
566.477	18029.53
566.839	18052.58
567.201	18172.57
567.563	18163.53
567.925	18321.27
568.287	18317.88
568.648	18405.11
569.01	18535.05
569.372	18583.86
569.734	18615.5
570.095	18605.33
570.457	18768.04
570.819	18842.16
571.18	18846.23
571.542	18916.96
571.903	19016.62
572.265	19125.77
572.626	19090.74
572.987	19210.29
573.349	19261.36
573.71	19321.7
574.071	19356.04
574.432	19494.12
574.794	19507.91
575.155	19538.19
575.516	19521.69
575.877	19588.58
576.238	19635.13
576.599	19655.92
576.96	19722.14
577.32	19799.2
577.681	19903.6
578.042	19770.72
578.403	19824.96
578.763	19891.4
579.124	20010.49
579.485	20131.84
579.845	20071.51
580.206	20056.37
580.566	20033.77
580.927	20170.71
581.287	20158.74
581.648	20081.45
582.008	20146.31
582.368	20159.19
582.728	20266.76
583.089	20190.83
583.449	20132.07
583.809	20241.22
584.169	20270.6
584.529	20149.24
584.889	20317.15
585.249	20295.23
585.609	20181.79
585.969	20358.28
586.329	20170.94
586.688	20269.02
587.048	20441.89
587.408	20253.2
587.768	20223.14
588.127	20308.11
588.487	20327.32
588.846	20367.32
589.206	20250.71
589.565	20255.23
589.925	20381.1
590.284	20302.01
590.643	20407.77
591.003	20384.04
591.362	20448.45
591.721	20268.34
592.08	20379.07
592.44	20390.59
592.799	20461.55
593.158	20373.65
593.517	20287.55
593.876	20529.35
594.235	20447.54
594.593	20511.27
594.952	20495.45
595.311	20434.89
595.67	20436.47
596.029	20556.01
596.387	20469.69
596.746	20626.97
597.104	20501.78
597.463	20533.19
597.822	20655.67
598.18	20516.92
598.538	20606.86
598.897	20635.33
599.255	20483.7
599.613	20752.39
599.972	20640.08
600.33	20664.48
600.688	20638.5
601.046	20638.27
601.404	20817.7
601.762	20624.71
602.12	20727.08
602.478	20716.91
602.836	20872.39
603.194	20612.51
603.552	20752.39
603.91	20630.59
604.268	20747.65
604.625	20757.36
604.983	20829.9
605.341	20809.34
605.698	20881.2
606.056	20808.89
606.413	20854.31
606.771	20937.02
607.128	20959.84
607.485	20831.26
607.843	20806.63
608.2	20929.79
608.557	21070.8
608.914	20896.8
609.272	21059.05
609.629	21123.91
609.986	21188.54
610.343	21158.48
610.7	21193.28
611.057	21174.53
611.414	21107.19
611.771	21179.27
612.127	21217.69
612.484	21178.82
612.841	21247.52
613.198	21276.67
613.554	21251.59
613.911	21336.78
614.267	21408.19
614.624	21338.14
614.98	21409.78
615.337	21417.91
615.693	21377.91
616.05	21442.09
616.406	21594.18
616.762	21396.44
617.118	21443.67
617.475	21537.91
617.831	21537.91
618.187	21524.58
618.543	21563.67
618.899	21625.82
619.255	21551.02
619.611	21542.65
619.967	21664.91
620.323	21675.31
620.678	21628.98
621.034	21543.78
621.39	21695.42
621.746	21442.09
622.101	21895.64
622.457	21652.26
622.812	21685.7
623.168	21724.57
623.523	21698.58
623.879	21644.12
624.234	21514.63
624.589	21657
624.945	21627.4
625.3	21674.85
625.655	21619.94
626.01	21598.7
626.365	21602.77
626.72	21631.01
627.075	21619.71
627.43	21665.81
627.785	21528.87
628.14	21659.26
628.495	21649.32
628.85	21566.61
629.205	21535.2
629.559	21619.26
629.914	21507.17
630.269	21480.51
630.623	21385.82
630.978	21386.95
631.332	21531.13
631.687	21482.99
632.041	21406.84
632.396	21515.99
632.75	21285.94
633.104	21332.72
633.459	21252.94
633.813	21292.49
634.167	21245.49
634.521	21276.67
634.875	21200.74
635.229	21257.24
635.583	21064.02
635.937	21128.43
636.291	21078.26
636.645	21061.08
636.999	21016.34
637.352	21057.92
637.706	20834.2
638.06	20960.07
638.413	20819.74
638.767	20776.12
639.121	20894.54
639.474	20758.04
639.828	20728.21
640.181	20791.71
640.534	20851.15
640.888	20650.02
641.241	20644.15
641.594	20699.06
641.947	20717.36
642.301	20671.04
642.654	20602.11
643.007	20535.22
643.36	20503.36
643.713	20563.7
644.066	20580.87
644.419	20522.34
644.771	20272.18
645.124	19990.15
645.477	19930.94
645.83	19854.79
646.182	19884.39
646.535	19769.82
646.888	19869.93
647.24	19754.9
647.593	19955.8
647.945	19886.88
648.298	19728.92
648.65	19718.07
649.002	19594.91
649.355	19637.85
649.707	19561.69
650.059	19640.56
650.411	19810.04
650.763	19816.15
651.115	20050.72
651.467	19896.14
651.819	19966.2
652.171	19848.24
652.523	19966.65
652.875	19860.44
653.227	19754.9
653.578	19874.68
653.93	19801.23
654.282	19632.42
654.633	19588.58
654.985	19749.48
655.337	19782.02
655.688	19706.54
656.039	19745.86
656.391	19611.86
656.742	19694.11
657.094	19664.51
657.445	19712.65
657.796	19625.87
658.147	19632.65
658.498	19513.33
658.849	19592.2
659.2	19613.89
659.551	19546.32
659.902	19590.16
660.253	19549.03
660.604	19502.48
660.955	19475.59
661.306	19498.19
661.656	19497.51
662.007	19486.21
662.358	19420.22
662.708	19393.78
663.059	19363.73
663.409	19302.71
663.76	19511.07
664.11	19389.26
664.461	19417.29
664.811	19305.42
665.161	19366.44
665.511	19274.69
665.862	19277.18
666.212	19291.87
666.562	19356.27
666.912	19249.15
667.262	19298.65
667.612	19276.27
667.962	19289.38
668.312	19230.85
668.662	19358.08
669.011	19247.8
669.361	19234.92
669.711	19234.24
670.06	19176.84
670.41	19132.1
670.76	19073.11
671.109	19099.33
671.459	19131.64
671.808	19140.23
672.157	19081.93
672.507	19006.22
672.856	19022.27
673.205	19060.23
673.554	19114.92
673.904	18994.92
674.253	19005.09
674.602	18969.16
674.951	18807.81
675.3	18674.93
675.649	19011.2
675.998	18925.77
676.346	18951.08
676.695	18962.38
677.044	18892.33
677.393	18963.29
677.741	18908.6
678.09	18828.83
678.438	18804.87
678.787	18760.58
679.135	18830.86
679.484	18704.08
679.832	18760.58
680.181	18673.8
680.529	18687.59
680.877	18594.48
681.225	18554.03
681.573	18743.41
681.922	18592.67
682.27	18451.89
682.618	18617.53
682.966	18411.21
683.314	18457.54
683.661	18406.47
684.009	18280.37
684.357	18314.72
684.705	18317.88
685.053	18270.42
685.4	18298.9
685.748	18199.24
686.095	18166.25
686.443	18060.03
686.79	18013.93
687.138	18150.65
687.485	18040.83
687.832	18088.06
688.18	17943.43
688.527	17889.64
688.874	17771.45
689.221	17891.9
689.568	17797.67
689.915	17657.11
690.262	17729.65
690.609	17653.26
690.956	17608.07
691.303	17615.98
691.65	17584.57
691.997	17540.5
692.344	17405.36
692.69	17376.44
693.037	17423.89
693.383	17279.49
693.73	17359.49
694.077	17160.62
694.423	17197.46
694.769	17124.46
695.116	17074.75
695.462	17078.59
695.808	17027.29
696.155	16980.74
696.501	16980.29
696.847	16905.04
697.193	16738.94
697.539	16762.21
697.885	16696.68
698.231	16685.61
698.577	16634.08
698.923	16611.48
699.269	16592.73
699.614	16479.96
699.96	16443.13
700.306	16462.79
700.651	16384.37
700.997	16296.92
701.342	16359.29
701.688	16248.56
702.033	16167.2
702.379	16171.04
702.724	16176.92
703.069	16110.48
703.415	15989.35
703.76	16087.88
704.105	15898.28
704.45	15891.05
704.795	15752.98
705.14	15804.73
705.485	15723.15
705.83	15719.53
706.175	15678.63
706.52	15642.47
706.865	15616.26
707.209	15677.05
707.554	15486.99
707.899	15610.38
708.243	15423.72
708.588	15419.65
708.932	15352.99
709.277	15403.83
709.621	15383.27
709.966	15236.61
710.31	15284.51
710.654	15220.33
710.998	15212.88
711.342	15178.98
711.687	15098.3
712.031	15079.77
712.375	15034.35
712.719	15000
713.063	14978.98
713.407	15042.94
713.75	14961.58
714.094	14955.93
714.438	14879.55
714.782	14891.76
715.125	14850.4
715.469	14780.35
715.812	14718.65
716.156	14666
716.499	14737.64
716.843	14701.25
717.186	14617.41
717.53	14697.86
717.873	14622.16
718.216	14614.7
718.559	14498.09
718.902	14417.64
719.246	14473.46
719.589	14357.08
719.932	14386.68
720.275	14331.77
720.617	14299.45
720.96	14278.66
721.303	14352.79
721.646	14239.8
721.989	14214.71
722.331	14160.93
722.674	14200.7
723.016	14196.18
723.359	14181.04
723.701	14108.27
724.044	14043.87
724.386	14031.66
724.729	14043.42
725.071	13992.12
725.413	14061.27
725.755	14015.62
726.097	13955.51
726.439	13861.73
726.782	13912.8
727.124	13952.8
727.465	13883.42
727.807	13872.12
728.149	13807.49
728.491	13770.65
728.833	13808.85
729.175	13664.44
729.516	13730.2
729.858	13649.3
730.199	13688.62
730.541	13688.4
730.882	13594.61
731.224	13706.7
731.565	13544.22
731.906	13588.29
732.248	13608.17
732.589	13544.45
732.93	13501.06
733.271	13492.92
733.612	13405.47
733.953	13557.1
734.294	13392.13
734.635	13344.45
734.976	13408.63
735.317	13336.32
735.658	13331.57
735.999	13316.66
736.339	13276.2
736.68	13350.1
737.021	13258.35
737.361	13234.17
737.702	13255.19
738.042	13177
738.383	13245.47
738.723	13209.77
739.063	13134.29
739.404	13104.91
739.744	13128.86
740.084	13079.83
740.424	13064.68
740.764	13018.58
741.104	13100.16
741.444	12957.57
741.784	12928.64
742.124	12942.65
742.464	12957.34
742.804	12963.22
743.143	12897.23
743.483	12896.78
743.823	12784.01
744.162	12794.41
744.502	12886.61
744.841	12737.91
745.181	12755.99
745.52	12755.09
745.86	12743.34
746.199	12804.58
746.538	12686.16
746.877	12751.92
747.216	12648.42
747.556	12621.53
747.895	12630.8
748.234	12537.24
748.573	12564.81
748.911	12553.51
749.25	12535.89
749.589	12494.98
749.928	12433.51
750.267	12499.95
750.605	12350.35
750.944	12333.4
751.283	12333.18
751.621	12356.23
751.96	12355.32
752.298	12358.26
752.636	12290.02
752.975	12230.81
753.313	12164.82
753.651	12193.97
753.989	12213.86
754.327	12172.05
754.666	12098.16
755.004	12108.78
755.342	12031.04
755.679	12093.86
