Data from foam2_polystyrene_foam_FLMS001491_00045.txt Node
Date: Wed Feb 08 10:58:01 GMT 2017
User: dcchb
Spectrometer: FLMS00149
Trigger mode: 0
Integration Time (sec): 2.000000E-2
Scans to average: 10
Electric dark correction enabled: true
Nonlinearity correction enabled: false
Boxcar width: 0
XAxis mode: Wavelengths
Number of Pixels in Spectrum: 2048
>>>>>Begin Spectral Data<<<<<
341.393	-5.96
341.776	-5.96
342.16	-5.96
342.543	-54.77
342.927	-65.39
343.31	-60.42
343.693	-69.01
344.077	-68.78
344.46	-63.59
344.843	-41.21
345.226	-45.28
345.61	-24.94
345.993	-30.14
346.376	3.08
346.759	5.56
347.142	37.65
347.525	37.65
347.908	62.96
348.291	67.03
348.674	101.38
349.057	88.05
349.44	129.18
349.823	150.19
350.206	161.72
350.588	226.8
350.971	210.76
351.354	240.81
351.737	256.86
352.119	293.69
352.502	275.16
352.884	289.4
353.267	306.35
353.65	297.53
354.032	313.58
354.414	318.1
354.797	338.66
355.179	352.45
355.562	347.25
355.944	347.48
356.326	333.69
356.709	326.01
357.091	360.81
357.473	353.35
357.855	341.6
358.238	373.01
358.62	341.83
359.002	369.4
359.384	362.62
359.766	370.75
360.148	366.91
360.53	361.94
360.912	366.23
361.294	354.03
361.676	348.15
362.057	375.05
362.439	352
362.821	368.49
363.203	344.09
363.584	354.03
363.966	369.17
364.348	367.36
364.729	364.2
365.111	349.51
365.493	347.02
365.874	363.75
366.256	356.06
366.637	352.67
367.019	336.18
367.4	342.51
367.781	364.43
368.163	343.64
368.544	364.2
368.925	364.65
369.306	352.22
369.688	343.41
370.069	369.62
370.45	362.84
370.831	391.32
371.212	371.2
371.593	360.58
371.974	381.37
372.355	352
372.736	367.36
373.117	393.13
373.498	401.71
373.879	363.97
374.26	358.1
374.641	373.24
375.021	375.05
375.402	382.96
375.783	383.86
376.163	406.91
376.544	404.88
376.925	400.58
377.305	403.07
377.686	410.07
378.066	386.12
378.447	425.44
378.827	422.5
379.208	404.2
379.588	389.51
379.968	404.2
380.349	429.06
380.729	413.01
381.109	426.34
381.489	442.62
381.87	443.52
382.25	440.13
382.63	451.88
383.01	440.36
383.39	431.09
383.77	445.33
384.15	462.28
384.53	427.47
384.91	479
385.29	440.81
385.67	471.32
386.049	487.59
386.429	485.1
386.809	480.35
387.189	487.59
387.568	497.76
387.948	504.31
388.328	496.63
388.707	492.33
389.087	499.11
389.466	522.61
389.846	508.15
390.225	518.77
390.605	530.52
390.984	503.4
391.363	535.72
391.743	547.47
392.122	536.85
392.501	537.75
392.881	549.28
393.26	537.3
393.639	585.66
394.018	582.72
394.397	560.13
394.776	571.88
395.155	557.41
395.534	585.44
395.913	583.18
396.292	594.02
396.671	617.07
397.05	609.39
397.429	620.46
397.808	607.81
398.186	622.95
398.565	627.24
398.944	613.68
399.323	648.03
399.701	623.63
400.08	623.63
400.458	639.22
400.837	643.06
401.215	664.98
401.594	687.13
401.972	693.91
402.351	679.45
402.729	685.09
403.107	680.12
403.486	700.24
403.864	711.08
404.242	704.76
404.62	722.83
404.999	714.7
405.377	728.71
405.755	743.85
406.133	758.77
406.511	740.46
406.889	781.59
407.267	758.54
407.645	770.06
408.023	780.23
408.401	818.2
408.779	805.32
409.156	809.16
409.534	844.64
409.912	824.98
410.29	850.97
410.667	842.6
411.045	852.77
411.422	886.22
411.8	881.47
412.178	886.67
412.555	904.3
412.933	921.7
413.31	927.57
413.687	953.79
414.065	954.47
414.442	966.22
414.819	951.08
415.197	988.36
415.574	987.01
415.951	1018.65
416.328	1032.43
416.705	1015.71
417.082	1019.78
417.46	1038.31
417.837	1025.88
418.214	1059.32
418.591	1071.07
418.967	1084.18
419.344	1094.58
419.721	1104.29
420.098	1114.24
420.475	1134.12
420.852	1134.57
421.228	1139.09
421.605	1147.46
421.982	1166.89
422.358	1181.81
422.735	1167.34
423.111	1183.84
423.488	1204.18
423.864	1229.49
424.241	1249.6
424.617	1278.07
424.994	1257.74
425.37	1271.29
425.746	1297.28
426.123	1308.36
426.499	1318.75
426.875	1335.02
427.251	1340.67
427.627	1378.64
428.003	1377.05
428.379	1419.09
428.756	1408.69
429.132	1428.8
429.507	1441.91
429.883	1500.44
430.259	1519.88
430.635	1511.29
431.011	1517.39
431.387	1545.19
431.763	1612.08
432.138	1606.65
432.514	1605.75
432.89	1624.28
433.265	1665.86
433.641	1673.32
434.016	1728.68
434.392	1743.37
434.767	1764.61
435.143	1771.17
435.518	1782.92
435.894	1803.26
436.269	1818.4
436.644	1874.22
437.02	1888.68
437.395	1874.67
437.77	1912.63
438.145	1893.88
438.52	1917.15
438.895	1982.24
439.271	1970.48
439.646	2030.82
440.021	2048
440.395	2069.47
440.77	2052.97
441.145	2064.27
441.52	2096.36
441.895	2097.94
442.27	2119.41
442.645	2167.99
443.019	2177.71
443.394	2201.21
443.769	2196.02
444.143	2187.43
444.518	2256.13
444.892	2226.98
445.267	2307.43
445.641	2271.04
446.016	2308.78
446.39	2353.3
446.764	2353.07
447.139	2317.37
447.513	2381.77
447.887	2363.24
448.262	2396.69
448.636	2409.12
449.01	2454.31
449.384	2496.8
449.758	2483.47
450.132	2510.58
450.506	2552.84
450.88	2571.6
451.254	2549.45
451.628	2573.63
452.002	2651.82
452.376	2666.96
452.75	2658.83
453.123	2707.64
453.497	2781.76
453.871	2800.07
454.244	2838.03
454.618	2854.53
454.992	2890.69
455.365	2855.66
455.739	2989.89
456.112	2969.33
456.486	3028.08
456.859	3037.12
457.232	3130.68
457.606	3080.96
457.979	3139.27
458.352	3168.19
458.725	3248.87
459.099	3244.8
459.472	3329.77
459.845	3347.85
460.218	3339.04
460.591	3434.63
460.964	3438.47
461.337	3510.78
461.71	3564.34
462.083	3592.14
462.456	3598.01
462.829	3619.93
463.201	3707.39
463.574	3683.21
463.947	3750.33
464.32	3849.53
464.692	3885.91
465.065	3932.92
465.438	3983.31
465.81	4014.5
466.183	4059.24
466.555	4102.18
466.928	4142.18
467.3	4143.99
467.672	4244.78
468.045	4341.27
468.417	4305.34
468.789	4348.05
469.161	4473.47
469.534	4508.05
469.906	4640.47
470.278	4668.95
470.65	4756.17
471.022	4809.51
471.394	4919.79
471.766	4972.44
472.138	4997.75
472.51	5108.93
472.882	5159.55
473.253	5209.04
473.625	5349.61
473.997	5427.12
474.369	5439.32
474.74	5539.88
475.112	5645.87
475.484	5684.74
475.855	5801.34
476.227	5805.41
476.598	5994.11
476.97	6057.61
477.341	6185.52
477.713	6279.98
478.084	6375.11
478.455	6498.73
478.827	6563.58
479.198	6733.98
479.569	6780.98
479.94	6922.67
480.311	7026.17
480.682	7136
481.053	7379.83
481.424	7493.96
481.795	7447.86
482.166	7653.73
482.537	7804.91
482.908	7961.51
483.279	8061.4
483.65	8156.76
484.021	8310.21
484.391	8422.07
484.762	8476.53
485.133	8612.8
485.503	8725.34
485.874	8899.12
486.244	8953.35
486.615	9251.42
486.985	9248.03
487.356	9481.47
487.726	9564.86
488.097	9688.7
488.467	9782.26
488.837	9994.23
489.207	10109.93
489.578	10215.92
489.948	10346.08
490.318	10475.8
490.688	10533.65
491.058	10745.85
491.428	10819.74
491.798	10965.05
492.168	11185.16
492.538	11233.74
492.908	11306.28
493.278	11511.48
493.648	11556
494.017	11734.07
494.387	11888.42
494.757	11882.31
495.126	11970
495.496	12095.87
495.866	12144.68
496.235	12347.84
496.605	12457.89
496.974	12599.13
497.344	12715.74
497.713	12768.39
498.082	12875.06
498.452	13027.37
498.821	13059.23
499.19	13148.5
499.559	13309.17
499.928	13478.43
500.298	13437.08
500.667	13567.24
501.036	13610.18
501.405	13794.58
501.774	13754.36
502.143	13913.67
502.512	14024.63
502.88	14146.21
503.249	14101.92
503.618	14229.82
503.987	14357.05
504.356	14430.04
504.724	14459.87
505.093	14564.05
505.462	14754.1
505.83	14825.97
506.199	15026.41
506.567	15165.62
506.936	15140.76
507.304	15413.97
507.672	15417.81
508.041	15530.35
508.409	15656.45
508.777	15812.15
509.145	15921.3
509.514	15926.95
509.882	16073.39
510.25	16207.4
510.618	16295.76
510.986	16323.78
511.354	16539.14
511.722	16730.1
512.09	16828.4
512.458	16890.54
512.826	17027.94
513.193	17160.82
513.561	17243.98
513.929	17398.55
514.297	17567.59
514.664	17735.95
515.032	17760.35
515.4	17939.33
515.767	18018.65
516.135	18219.78
516.502	18125.54
516.869	18385.87
517.237	18494.57
517.604	18470.39
517.972	18834.45
518.339	18944.73
518.706	18880.1
519.073	18965.97
519.44	19210.48
519.808	19435.56
520.175	19452.51
520.542	19673.07
520.909	19858.6
521.276	19950.13
521.643	20104.92
522.009	20173.62
522.376	20507.62
522.743	20599.15
523.11	20726.6
523.477	20976.09
523.843	21120.72
524.21	21346.25
524.577	21501.5
524.943	21607.03
525.31	21779
525.676	22041.14
526.043	22032.78
526.409	22191.2
526.776	22456.73
527.142	22406.33
527.508	22734.91
527.874	22850.61
528.241	23014
528.607	23106.2
528.973	23416.93
529.339	23306.2
529.705	23689.69
530.071	23836.8
530.437	23949.12
530.803	24025.05
531.169	24178.26
531.535	24143.01
531.901	24363.79
532.267	24479.95
532.632	24685.37
532.998	24799.49
533.364	25058.69
533.73	25020.05
534.095	25251
534.461	25404.67
534.826	25441.51
535.192	25521.5
535.557	25715.17
535.923	25815.73
536.288	25908.84
536.653	25982.06
537.019	25933.92
537.384	26058.44
537.749	26233.12
538.114	26258.89
538.479	26336.4
538.845	26506.56
539.21	26450.29
539.575	26621.36
539.94	26799.66
540.305	26924.86
540.67	26946.78
541.034	27008.7
541.399	27205.08
541.764	27210.05
542.129	27358.07
542.494	27477.61
542.858	27638.96
543.223	27674.22
543.587	27884.15
543.952	27813.65
544.316	27833.08
544.681	27920.99
545.045	28127.09
545.41	28229.91
545.774	28411.37
546.138	28388.1
546.503	28473.52
546.867	28601.88
547.231	28900.85
547.595	28843.9
547.959	28968.65
548.324	29120.73
548.688	29254.97
549.052	29248.41
549.416	29261.74
549.779	29324.79
550.143	29450.21
550.507	29761.62
550.871	29814.5
551.235	29727.04
551.599	29859.02
551.962	29991.9
552.326	30043.87
552.689	30176.3
553.053	30199.8
553.417	30384.43
553.78	30827.81
554.143	30570.41
554.507	30741.03
554.87	30775.15
555.234	31101.47
555.597	30908.93
555.96	31142.6
556.323	31352.76
556.686	31429.6
557.05	31656.26
557.413	31704.17
557.776	31778.06
558.139	32051.05
558.502	32044.04
558.865	32123.36
559.228	32333.53
559.59	32550.92
559.953	32731.26
560.316	32869.79
560.679	33179.38
561.041	33154.52
561.404	33199.95
561.767	33517.23
562.129	33492.14
562.492	33755.19
562.854	33930.32
563.217	33903.88
563.579	34185.68
563.941	34358.11
564.304	34333.7
564.666	34791.09
565.028	34665.67
565.39	34772.33
565.753	34953.8
566.115	35067.47
566.477	35210.51
566.839	35334.81
567.201	35590.17
567.563	35593.1
567.925	35917.84
568.287	35894.56
568.648	36144.95
569.01	36248.45
569.372	36453.65
569.734	36233.09
570.095	36682.57
570.457	36806.63
570.819	36904.48
571.18	36998.94
571.542	37075.55
571.903	37268.09
572.265	37284.13
572.626	37393.73
572.987	37405.49
573.349	37626.95
573.71	37748.3
574.071	37893.83
574.432	38008.41
574.794	38263.54
575.155	38203.2
575.516	38078.91
575.877	38287.04
576.238	38422.86
576.599	38463.76
576.96	38376.76
577.32	38597.09
577.681	38784.66
578.042	38812.91
578.403	38774.26
578.763	38896.97
579.124	38893.58
579.485	39115.5
579.845	39057.87
580.206	38923.41
580.566	39073.46
580.927	39164.76
581.287	39222.84
581.648	38976.52
582.008	39339.45
582.368	39237.98
582.728	39495.15
583.089	39334.02
583.449	39251.54
583.809	39340.58
584.169	39508.71
584.529	39305.1
584.889	39656.73
585.249	39431.19
585.609	39479.78
585.969	39629.83
586.329	39429.16
586.688	39600.68
587.048	39596.16
587.408	39599.1
587.768	39516.84
588.127	39553.45
588.487	39494.24
588.846	39713.67
589.206	39477.3
589.565	39616.5
589.925	39845.65
590.284	39589.38
590.643	39661.7
591.003	39766.33
591.362	39935.36
591.721	39759.1
592.08	39734.92
592.44	39964.06
592.799	39701.02
593.158	39842.03
593.517	39705.99
593.876	39790.96
594.235	39816.72
594.593	39896.27
594.952	39900.34
595.311	39740.57
595.67	39856.95
596.029	39872.31
596.387	40016.72
596.746	39999.32
597.104	39783.28
597.463	39814.01
597.822	40086.32
598.18	39809.72
598.538	39848.13
598.897	40051.29
599.255	39825.76
599.613	40457.61
599.972	40256.94
600.33	40425.07
600.688	40113.66
601.046	40331.28
601.404	40417.61
601.762	40350.72
602.12	40421.68
602.478	40574.89
602.836	40630.94
603.194	40350.04
603.552	40387.33
603.91	40259.42
604.268	40571.73
604.625	40486.76
604.983	40481.34
605.341	40400.21
605.698	40668.68
606.056	40759.52
606.413	40493.77
606.771	40811.5
607.128	40933.53
607.485	40717.04
607.843	40893.98
608.2	40942.79
608.557	41169.23
608.914	41056.91
609.272	41309.11
609.629	41234.09
609.986	41399.73
610.343	41314.31
610.7	41327.42
611.057	41324.93
611.414	41290.81
611.771	41350.92
612.127	41545.49
612.484	41554.3
612.841	41623.45
613.198	41455.1
613.554	41568.99
613.911	41723.11
614.267	41731.02
614.624	41463.91
614.98	41695.77
615.337	41784.35
615.693	41834.3
616.05	41787.29
616.406	42069.32
616.762	41840.17
617.118	41919.27
617.475	41985.25
617.831	42186.38
618.187	41952.26
618.543	42007.4
618.899	42344.11
619.255	42182.99
619.611	42243.55
619.967	42374.62
620.323	42428.4
620.678	42368.29
621.034	42041.07
621.39	42221.63
621.746	42234.74
622.101	42569.19
622.457	42198.13
622.812	42233.38
623.168	42365.58
623.523	42261.4
623.879	42443.55
624.234	42160.61
624.589	42420.72
624.945	42381.4
625.3	42515.63
625.655	42390.89
626.01	42379.59
626.365	42477.22
626.72	42237.22
627.075	42291.68
627.43	42334.62
627.785	42223.89
628.14	42390.89
628.495	42389.99
628.85	42359.71
629.205	42124.01
629.559	42443.55
629.914	42114.51
630.269	42283.78
630.623	42116.55
630.978	41967.63
631.332	42245.36
631.687	42267.96
632.041	41968.53
632.396	42077
632.75	41946.38
633.104	41970.79
633.459	41728.31
633.813	41944.8
634.167	41847.18
634.521	41768.99
634.875	41840.62
635.229	41848.76
635.583	41551.37
635.937	41525.15
636.291	41474.08
636.645	41503.46
636.999	41355.66
637.352	41555.88
637.706	41311.82
638.06	41270.69
638.413	41443.8
638.767	41247.42
639.121	41250.13
639.474	41185.5
639.828	41043.13
640.181	41009.46
640.534	41045.62
640.888	40966.75
641.241	40638.39
641.594	40901.44
641.947	40877.94
642.301	40745.28
642.654	40896.02
643.007	40838.16
643.36	40624.84
643.713	40556.81
644.066	40631.39
644.419	40446.54
644.771	40122.93
645.124	39953.89
645.477	39767.68
645.83	39493.34
646.182	39384.87
646.535	39275.27
646.888	39220.58
647.24	39048.83
647.593	39331.99
647.945	39078.21
648.298	38823.75
648.65	38910.3
649.002	38714.15
649.355	38851.1
649.707	38854.49
650.059	38901.94
650.411	39309.39
650.763	39376.28
651.115	39858.75
651.467	39770.17
651.819	39719.1
652.171	39721.36
652.523	39544.41
652.875	39598.65
653.227	39381.25
653.578	39536.28
653.93	39414.25
654.282	39233.23
654.633	39049.74
654.985	39155.5
655.337	39175.38
655.688	39129.51
656.039	39346.9
656.391	38981.72
656.742	39042.96
657.094	39019
657.445	39158.21
657.796	39141.03
658.147	38975.39
658.498	39061.94
658.849	39074.37
659.2	38950.76
659.551	38854.49
659.902	38933.35
660.253	38990.08
660.604	39086.8
660.955	38758.22
661.306	39059.45
661.656	38846.58
662.007	39020.81
662.358	38903.75
662.708	38959.79
663.059	38864.66
663.409	38550.31
663.76	38852.68
664.11	38553.93
664.461	38716.19
664.811	38628.05
665.161	38626.24
665.511	38530.2
665.862	38493.82
666.212	38639.58
666.562	38655.17
666.912	38528.62
667.262	38616.98
667.612	38461.95
667.962	38537.88
668.312	38491.33
668.662	38497.43
669.011	38465.8
669.361	38341.96
669.711	38369.3
670.06	38434.61
670.41	38332.01
670.76	38411.11
671.109	38464.21
671.459	38362.97
671.808	38375.86
672.157	38369.3
672.507	38206.14
672.856	38303.77
673.205	38301.73
673.554	38407.27
673.904	38193.26
674.253	38373.6
674.602	38181.74
674.951	37652.94
675.3	37415.88
675.649	38131.79
675.998	37954.4
676.346	38040.5
676.695	38152.13
677.044	37905.36
677.393	38032.36
677.741	38011.8
678.09	37871.69
678.438	37784.23
678.787	37958.69
679.135	37662.65
679.484	37482.09
679.832	37718.47
680.181	37521.41
680.529	37601.64
680.877	37546.5
681.225	37586.05
681.573	37708.3
681.922	37327.52
682.27	37368.65
682.618	37431.7
682.966	37239.84
683.314	37334.07
683.661	37177.02
684.009	37052.73
684.357	36935.22
684.705	36826.52
685.053	36870.13
685.4	36739.74
685.748	36618.61
686.095	36569.58
686.443	36525.96
686.79	36438.28
687.138	36523.25
687.485	36403.48
687.832	36296.36
688.18	36347.43
688.527	36191.51
688.874	36091.85
689.221	36001.45
689.568	35889.14
689.915	35728.47
690.262	35779.09
690.609	35695.02
690.956	35669.49
691.303	35498.19
691.65	35471.75
691.997	35407.8
692.344	35243.28
692.69	35037.41
693.037	35093.23
693.383	34970.52
693.73	35011.2
694.077	34842.61
694.423	34764.88
694.769	34582.96
695.116	34627.48
695.462	34596.75
695.808	34298.9
696.155	34457.09
696.501	34169.41
696.847	34121.05
697.193	34072.92
697.539	34191.33
697.885	33942.3
698.231	33664.57
698.577	33793.38
698.923	33630.67
699.269	33740.72
699.614	33413.5
699.96	33389.09
700.306	33389.55
700.651	33225.48
700.997	33151.59
701.342	33136.45
701.688	33096.45
702.033	32971.93
702.379	32867.75
702.724	32712.5
703.069	32845.83
703.415	32570.81
703.76	32561.54
704.105	32569
704.45	32536.91
704.795	32322.46
705.14	32202.91
705.485	32142.35
705.83	32083.59
706.175	32110.71
706.52	31928.57
706.865	31828.23
707.209	31671.4
707.554	31710.72
707.899	31725.41
708.243	31499.88
708.588	31531.29
708.932	31187.57
709.277	31248.36
709.621	31313.44
709.966	31056.73
710.31	31160.68
710.654	30929.95
710.998	30870.74
711.342	30868.93
711.687	30794.59
712.031	30620.81
712.375	30575.61
712.719	30691.31
713.063	30604.08
713.407	30687.47
713.75	30508.72
714.094	30399.34
714.438	30269.63
714.782	30378.1
715.125	30072.57
715.469	30246.8
715.812	30080.93
716.156	29898.11
716.499	29879.58
716.843	29847.72
717.186	29724.11
717.53	29833.71
717.873	29813.59
718.216	29793.03
718.559	29598.69
718.902	29458.58
719.246	29485.69
719.589	29435.75
719.932	29282.54
720.275	29322.08
720.617	29141.52
720.96	29215.87
721.303	29109.43
721.646	29149.21
721.989	28983.56
722.331	29134.29
722.674	28829.67
723.016	28889.1
723.359	28821.76
723.701	28962.54
724.044	28690.69
724.386	28596.45
724.729	28760.97
725.071	28641.42
725.413	28598.03
725.755	28377.02
726.097	28307.19
726.439	28281.21
726.782	28322.11
727.124	28362.56
727.465	28267.19
727.807	28311.26
728.149	28106.07
728.491	28050.25
728.833	28064.71
729.175	27938.39
729.516	27849.35
729.858	27868.34
730.199	27861.56
730.541	27756.7
730.882	27678.28
731.224	27877.83
731.565	27678.51
731.906	27531.85
732.248	27667.66
732.589	27357.16
732.93	27430.61
733.271	27523.71
733.612	27420.66
733.953	27444.39
734.294	27412.98
734.635	27309.93
734.976	27294.34
735.317	27149.71
735.658	27235.36
735.999	27170.5
736.339	27100.22
736.68	27114.46
737.021	27005.31
737.361	26975.48
737.702	27008.7
738.042	26969.38
738.383	26854.35
738.723	26804.86
739.063	26714.47
739.404	26721.25
739.744	26759.21
740.084	26575.71
740.424	26655.71
740.764	26513.57
741.104	26577.75
741.444	26476.51
741.784	26368.71
742.124	26413.91
742.464	26347.47
742.804	26292.11
743.143	26309.96
743.483	26205.1
743.823	26203.52
744.162	26088.27
744.502	26180.92
744.841	26021.15
745.181	26073.58
745.52	25897.09
745.86	25956.97
746.199	25836.75
746.538	25769.86
746.877	25939.12
747.216	25894.6
747.556	25869.74
747.895	25770.31
748.234	25661.16
748.573	25574.38
748.911	25662.07
749.25	25599.24
749.589	25446.48
749.928	25481.28
750.267	25514.27
750.605	25375.29
750.944	25383.88
751.283	25197.22
751.621	25356.54
751.96	25133.72
752.298	25074.51
752.636	25105.7
752.975	25008.3
753.313	24951.35
753.651	24952.71
753.989	24787.51
