Data from foam2_polystyrene_foam_FLMS001491_00016.txt Node
Date: Wed Feb 08 10:57:35 GMT 2017
User: dcchb
Spectrometer: FLMS00149
Trigger mode: 0
Integration Time (sec): 2.000000E-2
Scans to average: 10
Electric dark correction enabled: true
Nonlinearity correction enabled: false
Boxcar width: 0
XAxis mode: Wavelengths
Number of Pixels in Spectrum: 2048
>>>>>Begin Spectral Data<<<<<
341.393	-6.44
341.776	-6.44
342.16	-6.44
342.543	-54.12
342.927	-75.37
343.31	-62.03
343.693	-63.16
344.077	-76.27
344.46	-58.42
344.843	-43.95
345.226	-39.89
345.61	-25.2
345.993	-25.88
346.376	-11.41
346.759	0.56
347.142	16.61
347.525	26.33
347.908	65.2
348.291	87.12
348.674	91.41
349.057	118.98
349.44	109.94
349.823	147.45
350.206	169.37
350.588	174.57
350.971	221.35
351.354	223.84
351.737	250.28
352.119	240.56
352.502	277.17
352.884	274.91
353.267	283.72
353.65	297.28
354.032	306.32
354.414	302.93
354.797	319.65
355.179	335.47
355.562	347.67
355.944	341.57
356.326	350.39
356.709	346.77
357.091	332.31
357.473	346.77
357.855	371.4
358.238	364.4
358.62	338.86
359.002	366.21
359.384	341.57
359.766	347.9
360.148	363.72
360.53	334.34
360.912	355.81
361.294	362.82
361.676	363.27
362.057	352.42
362.439	351.97
362.821	333.89
363.203	351.06
363.584	361.46
363.966	350.39
364.348	351.52
364.729	344.06
365.111	327.34
365.493	337.51
365.874	339.09
366.256	351.52
366.637	337.73
367.019	346.09
367.4	351.06
367.781	346.54
368.163	335.02
368.544	339.77
368.925	337.73
369.306	373.21
369.688	342.7
370.069	368.92
370.45	367.33
370.831	367.56
371.212	377.05
371.593	358.97
371.974	363.49
372.355	351.97
372.736	336.38
373.117	357.84
373.498	353.1
373.879	349.03
374.26	334.12
374.641	346.09
375.021	350.61
375.402	369.14
375.783	382.93
376.163	389.03
376.544	383.15
376.925	360.78
377.305	374.11
377.686	394
378.066	379.54
378.447	395.13
378.827	392.42
379.208	387
379.588	390.16
379.968	405.3
380.349	407.33
380.729	402.14
381.109	432.64
381.489	385.41
381.87	408.92
382.25	417.28
382.63	422.02
383.01	427.9
383.39	446.43
383.77	417.96
384.15	410.27
384.53	428.12
384.91	445.75
385.29	448.46
385.67	449.37
386.049	455.24
386.429	449.14
386.809	470.38
387.189	454.11
387.568	486.65
387.948	462.47
388.328	463.6
388.707	454.34
389.087	474
389.466	495.24
389.846	480.33
390.225	500.44
390.605	493.66
390.984	510.83
391.363	490.5
391.743	486.2
392.122	505.86
392.501	511.29
392.881	545.86
393.26	510.61
393.639	529.59
394.018	537.5
394.397	541.12
394.776	554.45
395.155	545.86
395.534	539.08
395.913	542.92
396.292	541.79
396.671	556.48
397.05	542.7
397.429	592.41
397.808	559.19
398.186	564.39
398.565	571.17
398.944	572.98
399.323	619.98
399.701	598.06
400.08	604.16
400.458	595.35
400.837	591.74
401.215	628.35
401.594	625.86
401.972	624.96
402.351	621.34
402.729	626.31
403.107	642.36
403.486	620.44
403.864	662.92
404.242	663.37
404.62	680.32
404.999	658.4
405.377	683.26
405.755	708.79
406.133	701.56
406.511	664.05
406.889	721.9
407.267	746.99
407.645	714.22
408.023	732.52
408.401	749.02
408.779	752.41
409.156	752.64
409.534	737.49
409.912	772.3
410.29	777.27
410.667	796.25
411.045	797.38
411.422	822.92
411.8	786.53
412.178	795.12
412.555	870.82
412.933	832.86
413.31	856.59
413.687	883.71
414.065	889.13
414.442	910.6
414.819	885.74
415.197	908.56
415.574	917.83
415.951	927.55
416.328	925.06
416.705	937.72
417.082	953.53
417.46	977.49
417.837	969.81
418.214	979.52
418.591	1006.41
418.967	975
419.344	1010.03
419.721	1019.3
420.098	1000.99
420.475	1007.54
420.852	1040.09
421.228	1056.13
421.605	1038.73
421.982	1080.54
422.358	1076.02
422.735	1113.98
423.111	1085.51
423.488	1117.37
423.864	1126.41
424.241	1145.62
424.617	1131.16
424.994	1160.31
425.37	1161.89
425.746	1165.28
426.123	1196.01
426.499	1200.31
426.875	1223.13
427.251	1238.27
427.627	1266.29
428.003	1240.98
428.379	1291.15
428.756	1330.93
429.132	1328.44
429.507	1323.47
429.883	1324.82
430.259	1380.64
430.635	1376.8
431.011	1350.81
431.387	1453.63
431.763	1456.57
432.138	1442.11
432.514	1492.5
432.89	1501.77
433.265	1520.52
433.641	1520.07
434.016	1570.92
434.392	1563.01
434.767	1616.34
435.143	1594.2
435.518	1594.87
435.894	1654.31
436.269	1682.1
436.644	1653.4
437.02	1694.53
437.395	1718.26
437.77	1716.45
438.145	1766.62
438.52	1725.49
438.895	1782.66
439.271	1774.3
439.646	1841.19
440.021	1867.86
440.395	1823.34
440.77	1843.23
441.145	1920.97
441.52	1922.1
441.895	1919.61
442.27	1927.75
442.645	1939.95
443.019	1991.93
443.394	1965.49
443.769	2008.42
444.143	1987.41
444.518	2042.32
444.892	2030.57
445.267	2040.74
445.641	2053.39
446.016	2070.79
446.39	2095.65
446.764	2108.98
447.139	2089.78
447.513	2163.67
447.887	2172.71
448.262	2184.69
448.636	2180.62
449.01	2219.94
449.384	2220.85
449.758	2279.6
450.132	2292.93
450.506	2308.75
450.88	2316.21
451.254	2358.92
451.628	2343.78
452.002	2373.16
452.376	2409.99
452.75	2452.48
453.123	2467.84
453.497	2469.65
453.871	2509.65
454.244	2545.13
454.618	2564.79
454.992	2584.9
455.365	2643.21
455.739	2704
456.112	2687.05
456.486	2692.02
456.859	2759.14
457.232	2784.45
457.606	2749.87
457.979	2819.93
458.352	2896.53
458.725	2915.06
459.099	2918.45
459.472	2984.44
459.845	2992.35
460.218	3023.31
460.591	3046.36
460.964	3049.75
461.337	3151.89
461.71	3176.98
462.083	3223.31
462.456	3238.9
462.829	3230.54
463.201	3324.55
463.574	3340.14
463.947	3377.2
464.32	3453.58
464.692	3482.06
465.065	3530.87
465.438	3584.43
465.81	3604.09
466.183	3660.36
466.555	3709.39
466.928	3715.5
467.3	3704.87
467.672	3783.74
468.045	3878.43
468.417	3916.39
468.789	3925.89
469.161	3995.49
469.534	4031.42
469.906	4135.15
470.278	4151.42
470.65	4189.16
471.022	4291.75
471.394	4357.51
471.766	4381.47
472.138	4439.09
472.51	4519.99
472.882	4606.55
473.253	4684.74
473.625	4740.55
473.997	4834.34
474.369	4832.3
474.74	4903.26
475.112	5041.11
475.484	5085.85
475.855	5186.19
476.227	5239.98
476.598	5366.3
476.97	5399.07
477.341	5562.9
477.713	5576.24
478.084	5621.66
478.455	5755.89
478.827	5848.09
479.198	5991.14
479.569	6032.95
479.94	6147.52
480.311	6206.05
480.682	6369.44
481.053	6501.18
481.424	6645.59
481.795	6663.44
482.166	6782.76
482.537	6924
482.908	7040.83
483.279	7070.44
483.65	7251.9
484.021	7344.1
484.391	7457.09
484.762	7559.01
485.133	7632.45
485.503	7761.94
485.874	7897.08
486.244	7930.98
486.615	8097.53
486.985	8196.28
487.356	8328.71
487.726	8422.04
488.097	8589.04
488.467	8627.46
488.837	8769.37
489.207	8894.12
489.578	9062.25
489.948	9112.87
490.318	9241
490.688	9289.81
491.058	9376.59
491.428	9550.82
491.798	9631.27
492.168	9846.63
492.538	9809.35
492.908	9936.35
493.278	10132.28
493.648	10176.34
494.017	10349.22
494.387	10442.1
494.757	10511.7
495.126	10535.88
495.496	10625.82
495.866	10676.44
496.235	10841.41
496.605	10927.28
496.974	10982.2
497.344	11164.11
497.713	11210.67
498.082	11307.84
498.452	11371.34
498.821	11416.99
499.19	11533.6
499.559	11606.81
499.928	11683.65
500.298	11829.86
500.667	11919.35
501.036	11977.2
501.405	12111.88
501.774	12133.13
502.143	12304.65
502.512	12391.88
502.88	12441.37
503.249	12467.13
503.618	12548.71
503.987	12646.79
504.356	12745.54
504.724	12760.91
505.093	12864.18
505.462	12931.3
505.83	13037.06
506.199	13237.51
506.567	13348.24
506.936	13400.21
507.304	13496.93
507.672	13567.21
508.041	13642.69
508.409	13684.05
508.777	13936.24
509.145	13984.15
509.514	14040.87
509.882	14143.47
510.25	14211.94
510.618	14314.54
510.986	14382.56
511.354	14531.93
511.722	14660.52
512.09	14796.33
512.458	14801.53
512.826	14951.36
513.193	15033.39
513.561	15136.89
513.929	15263.44
514.297	15358.35
514.664	15489.2
515.032	15512.25
515.4	15636.31
515.767	15796.08
516.135	15867.04
516.502	15814.39
516.869	16161.27
517.237	16166.24
517.604	16159.01
517.972	16468.15
518.339	16504.09
518.706	16547.7
519.073	16707.92
519.44	16799.22
519.808	17026.78
520.175	17044.86
520.542	17219.32
520.909	17365.76
521.276	17376.61
521.643	17587
522.009	17777.05
522.376	17815.69
522.743	17947.89
523.11	18128.68
523.477	18251.84
523.843	18397.37
524.21	18539.29
524.577	18659.96
524.943	18845.27
525.31	18972.72
525.676	19113.51
526.043	19260.17
526.409	19361.19
526.776	19487.96
527.142	19648.18
527.508	19872.13
527.874	20038.91
528.241	20046.37
528.607	20173.82
528.973	20342.63
529.339	20409.97
529.705	20599.57
530.071	20857.87
530.437	20870.3
530.803	20931.77
531.169	21071.65
531.535	21127.24
531.901	21233.23
532.267	21377.86
532.632	21561.58
532.998	21612.65
533.364	21669.15
533.73	21801.8
534.095	22032.53
534.461	21972.64
534.826	22147.1
535.192	22191.85
535.557	22463.93
535.923	22473.65
536.288	22545.51
536.653	22611.27
537.019	22658.5
537.384	22792.06
537.749	22897.14
538.114	22980.75
538.479	23028.43
538.845	23142.1
539.21	23067.98
539.575	23289.67
539.94	23294.42
540.305	23495.31
540.67	23528.53
541.034	23751.58
541.399	23819.37
541.764	23817.57
542.129	24016.2
542.494	24006.94
542.858	24065.92
543.223	24142.98
543.587	24332.13
543.952	24232.02
544.316	24477.44
544.681	24538.68
545.045	24570.77
545.41	24735.06
545.774	24789.29
546.138	24804.43
546.503	24846.01
546.867	24907.48
547.231	25207.59
547.595	25130.3
547.959	25276.74
548.324	25373.68
548.688	25445.55
549.052	25605.09
549.416	25676.27
549.779	25632.21
550.143	25774.58
550.507	26033.33
550.871	26027.68
551.235	26055.7
551.599	26271.74
551.962	26323.71
552.326	26459.98
552.689	26642.58
553.053	26595.35
553.417	26637.6
553.78	26940.2
554.143	26822.46
554.507	26907.65
554.87	27073.07
555.234	27423.12
555.597	27277.59
555.96	27441.65
556.323	27525.49
556.686	27570.69
557.05	27754.19
557.413	27893.84
557.776	28068.53
558.139	28167.06
558.502	28224
558.865	28301.74
559.228	28567.05
559.59	28616.08
559.953	28620.83
560.316	28957.32
560.679	28989.86
561.041	29148.73
561.404	29301.49
561.767	29466.23
562.129	29444.99
562.492	29846.33
562.854	29831.64
563.217	29898.54
563.579	29886.11
563.941	30135.14
564.304	30311.86
564.666	30443.83
565.028	30503.49
565.39	30716.14
565.753	30821.22
566.115	30942.8
566.477	31134.44
566.839	31051.5
567.201	31290.59
567.563	31480.64
567.925	31491.26
568.287	31646.51
568.648	31626.85
569.01	31756.57
569.372	32104.35
569.734	31912.49
570.095	32107.07
570.457	32240.85
570.819	32145.48
571.18	32281.98
571.542	32659.59
571.903	32586.6
572.265	32708.18
572.626	32709.76
572.987	32964.22
573.349	32855.97
573.71	33260.71
574.071	33206.47
574.432	33362.17
574.794	33643.3
575.155	33491.89
575.516	33486.69
575.877	33522.4
576.238	33706.57
576.599	33854.36
576.96	33742.95
577.32	33961.25
577.681	33965.32
578.042	34060.01
578.403	34081.02
578.763	34052.32
579.124	34141.14
579.485	34287.8
579.845	34352.2
580.206	34331.87
580.566	34267.69
580.927	34457.29
581.287	34454.8
581.648	34400.56
582.008	34712.42
582.368	34413.22
582.728	34589.26
583.089	34679.65
583.449	34573.89
583.809	34663.83
584.169	34727.79
584.529	34537.28
584.889	34924.39
585.249	34676.04
585.609	34634
585.969	34891.17
586.329	34763.49
586.688	34790.38
587.048	34730.27
587.408	34787.67
587.768	34829.71
588.127	34764.4
588.487	34728.92
588.846	34922.36
589.206	34704.74
589.565	34773.44
589.925	35043.94
590.284	34852.98
590.643	34917.39
591.003	34987.44
591.362	35112.64
591.721	34954.67
592.08	35043.49
592.44	35069.93
592.799	35159.64
593.158	34986.54
593.517	35059.98
593.876	35069.7
594.235	35086.42
594.593	35142.24
594.952	35052.3
595.311	35003.26
595.67	35159.87
596.029	35319.64
596.387	35282.35
596.746	35286.42
597.104	35149.47
597.463	35072.86
597.822	35443.25
598.18	35260.65
598.538	35279.41
598.897	35363.7
599.255	35237.83
599.613	35599.4
599.972	35488.9
600.33	35692.06
600.688	35407.77
601.046	35633.53
601.404	35768.21
601.762	35671.49
602.12	35865.84
602.478	35858.15
602.836	35900.86
603.194	35813.86
603.552	35790.81
603.91	35604.83
604.268	35997.13
604.625	35718.95
604.983	35935.67
605.341	35780.64
605.698	35911.03
606.056	36056.57
606.413	35896.12
606.771	36089.56
607.128	36088.43
607.485	36040.75
607.843	36023.57
608.2	36175.88
608.557	36293.4
608.914	36174.08
609.272	36461.3
609.629	36544.91
609.986	36572.71
610.343	36291.14
610.7	36547.17
611.057	36524.8
611.414	36441.19
611.771	36578.59
612.127	36750.56
612.484	36555.99
612.841	36905.81
613.198	36701.97
613.554	36734.51
613.911	36977.45
614.267	36896.54
614.624	36789.2
614.98	36945.81
615.337	36949.2
615.693	36991.23
616.05	36904.23
616.406	37179.25
616.762	37083.88
617.118	36970.67
617.475	37104.45
617.831	37232.13
618.187	37063.77
618.543	37302.63
618.899	37531.33
619.255	37398.45
619.611	37317.78
619.967	37399.58
620.323	37406.59
620.678	37417.43
621.034	37309.64
621.39	37214.05
621.746	37206.59
622.101	37643.64
622.457	37412.01
622.812	37350.09
623.168	37459.69
623.523	37421.95
623.879	37450.43
624.234	37313.48
624.589	37383.08
624.945	37369.98
625.3	37428.06
625.655	37338.79
626.01	37487.04
626.365	37390.54
626.72	37368.62
627.075	37362.07
627.43	37397.77
627.785	37417.21
628.14	37421.05
628.495	37376.53
628.85	37219.93
629.205	37238
629.559	37408.62
629.914	37250.66
630.269	37325.69
630.623	37079.59
630.978	36974.06
631.332	37216.31
631.687	37215.41
632.041	37040.27
632.396	37091.57
632.75	36866.94
633.104	36876.21
633.459	36617.46
633.813	36858.8
634.167	36648.64
634.521	36607.96
634.875	36605.03
635.229	36503.11
635.583	36414.75
635.937	36442.32
636.291	36382.43
636.645	36476.22
636.999	36361.19
637.352	36378.37
637.706	36071.93
638.06	36252.72
638.413	36201.65
638.767	35949.9
639.121	36090.01
639.474	35955.1
639.828	35930.69
640.181	35894.31
640.534	35798.95
640.888	35856.8
641.241	35737.93
641.594	35637.59
641.947	35781.09
642.301	35556.69
642.654	35534.77
643.007	35611.38
643.36	35601.21
643.713	35391.72
644.066	35521.44
644.419	35261.56
644.771	35072.41
645.124	34852.08
645.477	34742.02
645.83	34483.73
646.182	34300.68
646.535	34125.32
646.888	34133
647.24	33857.08
647.593	34151.76
647.945	34137.97
648.298	33810.98
648.65	33732.33
649.002	33718.1
649.355	33772.78
649.707	33857.98
650.059	33999.67
650.411	34296.84
650.763	34354.24
651.115	34680.56
651.467	34520.56
651.819	34421.81
652.171	34406.21
652.523	34349.27
652.875	34307.01
653.227	34162.6
653.578	34354.24
653.93	34335.93
654.282	34172.1
654.633	34039.44
654.985	34146.33
655.337	34017.98
655.688	34136.62
656.039	34176.84
656.391	33902.05
656.742	33877.64
657.094	33888.26
657.445	33991.54
657.796	33941.82
658.147	33897.3
658.498	33688.27
658.849	33800.58
659.2	33758.32
659.551	33548.84
659.902	33682.39
660.253	33443.75
660.604	33576.63
660.955	33451.89
661.306	33634.48
661.656	33444.66
662.007	33573.02
662.358	33517.65
662.708	33429.06
663.059	33365.11
663.409	33158.56
663.76	33547.93
664.11	33289.86
664.461	33432
664.811	33396.97
665.161	33383.64
665.511	33286.92
665.862	33116.08
666.212	33347.94
666.562	33246.47
666.912	33195.4
667.262	33146.13
667.612	33227.04
667.962	33292.34
668.312	33051.22
668.662	33268.39
669.011	33187.04
669.361	33042.86
669.711	33001.28
670.06	32987.04
670.41	33049.87
670.76	32809.65
671.109	32996.99
671.459	32923.09
671.808	32907.5
672.157	32935.29
672.507	32722.42
672.856	32681.51
673.205	32833.15
673.554	32866.37
673.904	32600.39
674.253	32993.82
674.602	32704.11
674.951	32136.9
675.3	32182.77
675.649	32553.16
675.998	32464.8
676.346	32611.91
676.695	32649.2
677.044	32315.42
677.393	32485.59
677.741	32511.12
678.09	32404.46
678.438	32351.35
678.787	32218.93
679.135	32329.43
679.484	32129.21
679.832	32183
680.181	32152.04
680.529	32071.59
680.877	32106.84
681.225	31981.42
681.573	32162.66
681.922	31872.04
682.27	31798.6
682.618	31910.91
682.966	31703.01
683.314	31855.55
683.661	31636.57
684.009	31426.86
684.357	31412.85
684.705	31472.96
685.053	31478.83
685.4	31252.4
685.748	31187.54
686.095	31215.56
686.443	31039.07
686.79	30802.92
687.138	30991.61
687.485	30956.81
687.832	30810.83
688.18	30747.55
688.527	30507.11
688.874	30564.51
689.221	30500.33
689.568	30425.3
689.915	30399.99
690.262	30309.37
690.609	30322.03
690.956	30052.66
691.303	30135.37
691.65	29995.26
691.997	29975.14
692.344	29833
692.69	29792.78
693.037	29753
693.383	29717.98
693.73	29730.63
694.077	29487.7
694.423	29499.9
694.769	29335.16
695.116	29340.81
695.462	29258.78
695.808	29130.65
696.155	29332.22
696.501	28982.85
696.847	29086.35
697.193	28729.3
697.539	28937.21
697.885	28607.5
698.231	28706.48
698.577	28604.33
698.923	28525.01
699.269	28471.68
699.614	28177.23
699.96	28254.74
700.306	28217.22
700.651	28165.93
700.997	28069.21
701.342	28011.81
701.688	27960.06
702.033	27880.74
702.379	27742.66
702.724	27748.08
703.069	27750.12
703.415	27450.92
703.76	27481.42
704.105	27498.37
704.45	27490.01
704.795	27202.11
705.14	27200.75
705.485	27153.07
705.83	27189.68
706.175	27087.54
706.52	27021.1
706.865	26963.25
707.209	26954.88
707.554	26825.62
707.899	26850.03
708.243	26654.78
708.588	26658.62
708.932	26486.42
709.277	26483.26
709.621	26511.05
709.966	26410.49
710.31	26522.81
710.654	26128.69
710.998	26280.33
711.342	26181.12
711.687	26094.34
712.031	25984.74
712.375	25970.96
712.719	25990.16
713.063	25913.33
713.407	25976.15
713.75	25720.34
714.094	25723.28
714.438	25749.49
714.782	25663.39
715.125	25571.64
715.469	25606.45
715.812	25410.52
716.156	25326.68
716.499	25292.33
716.843	25396.28
717.186	25124.2
717.53	25261.82
717.873	25332.55
718.216	25278.54
718.559	25152.9
718.902	24916.07
719.246	25100.47
719.589	24987.03
719.932	24870.87
720.275	24755.85
720.617	24883.53
720.96	24749.07
721.303	24784.55
721.646	24834.49
721.989	24565.12
722.331	24732.12
722.674	24653.7
723.016	24645.11
723.359	24550.2
723.701	24566.25
724.044	24401.28
724.386	24297.1
724.729	24404.9
725.071	24366.7
725.413	24311.79
725.755	24133.04
726.097	24160.38
726.439	24044.9
726.782	24014.85
727.124	24116.99
727.465	23944.79
727.807	23992.48
728.149	23899.15
728.491	23775.08
728.833	24008.75
729.175	23871.35
729.516	23886.04
729.858	23707.06
730.199	23773.95
730.541	23652.37
730.882	23712.26
731.224	23689.66
731.565	23547.74
731.906	23656.89
732.248	23505.48
732.589	23500.29
732.93	23271.59
733.271	23423
733.612	23464.58
733.953	23361.98
734.294	23202.89
734.635	23203.57
734.976	23293.74
735.317	23195.66
735.658	23139.84
735.999	23199.73
736.339	23172.39
736.68	23098.04
737.021	23002.22
737.361	22915.89
737.702	23084.48
738.042	22848.33
738.383	22866.18
738.723	22885.16
739.063	22863.01
739.404	22920.41
739.744	22804.71
740.084	22652.62
740.424	22707.54
740.764	22675.9
741.104	22790.93
741.444	22633.19
741.784	22508.9
742.124	22619.41
742.464	22534.66
742.804	22459.64
743.143	22300.09
743.483	22369.69
743.823	22199.53
744.162	22346.42
744.502	22360.65
744.841	22223.48
745.181	22214.67
745.52	22163.82
745.86	22194.78
746.199	22075.01
746.538	22180.55
746.877	22099.42
747.216	22054.22
747.556	22000.21
747.895	21934
748.234	21939.88
748.573	21940.78
748.911	21873.66
749.25	21757.51
749.589	21742.59
749.928	21631.63
750.267	21712.54
750.605	21529.72
750.944	21633.44
751.283	21512.99
751.621	21566.33
751.96	21394.8
752.298	21419.66
752.636	21255.83
752.975	21202.95
753.313	21103.96
753.651	21342.83
753.989	21032.78
754.327	21023.74
