Data from foam2_polystyrene_foam_FLMS001491_00024.txt Node
Date: Wed Feb 08 10:57:43 GMT 2017
User: dcchb
Spectrometer: FLMS00149
Trigger mode: 0
Integration Time (sec): 2.000000E-2
Scans to average: 10
Electric dark correction enabled: true
Nonlinearity correction enabled: false
Boxcar width: 0
XAxis mode: Wavelengths
Number of Pixels in Spectrum: 2048
>>>>>Begin Spectral Data<<<<<
341.393	-9.59
341.776	-9.59
342.16	-9.59
342.543	-52.3
342.927	-67.89
343.31	-65.86
343.693	-77.84
344.077	-65.86
344.46	-55.24
344.843	-49.14
345.226	-52.07
345.61	-40.55
345.993	-14.79
346.376	-23.6
346.759	19.34
347.142	38.09
347.525	41.93
347.908	68.83
348.291	85.32
348.674	79.67
349.057	111.76
349.44	154.93
349.823	137.75
350.206	167.35
350.588	219.56
350.971	209.84
351.354	242.15
351.737	256.84
352.119	267.69
352.502	286.22
352.884	289.84
353.267	302.94
353.65	316.05
354.032	313.79
354.414	313.57
354.797	309.95
355.179	345.43
355.562	356.05
355.944	349.27
356.326	340.91
356.709	347.69
357.091	344.98
357.473	374.13
357.855	365.99
358.238	357.18
358.62	347.01
359.002	378.65
359.384	365.77
359.766	364.41
360.148	343.62
360.53	360.57
360.912	365.32
361.294	362.38
361.676	354.69
362.057	359.67
362.439	352.43
362.821	363.06
363.203	358.99
363.584	355.15
363.966	353.34
364.348	364.19
364.729	353.79
365.111	343.17
365.493	376.16
365.874	359.44
366.256	372.09
366.637	347.01
367.019	340.23
367.4	328.48
367.781	352.43
368.163	352.21
368.544	349.04
368.925	365.77
369.306	367.8
369.688	352.21
370.069	361.47
370.45	363.06
370.831	359.67
371.212	359.89
371.593	387.01
371.974	358.76
372.355	351.76
372.736	379.33
373.117	377.29
373.498	375.26
373.879	355.82
374.26	375.71
374.641	379.55
375.021	363.51
375.402	374.35
375.783	387.91
376.163	408.93
376.544	391.08
376.925	394.24
377.305	386.11
377.686	396.5
378.066	401.25
378.447	409.16
378.827	398.31
379.208	410.51
379.588	421.36
379.968	407.57
380.349	409.38
380.729	419.33
381.109	425.65
381.489	418.42
381.87	434.69
382.25	443.28
382.63	432.66
383.01	439.89
383.39	440.57
383.77	427.01
384.15	439.44
384.53	434.01
384.91	458.19
385.29	451.41
385.67	468.36
386.049	448.7
386.429	484.63
386.809	464.52
387.189	484.86
387.568	490.06
387.948	487.12
388.328	492.32
388.707	499.55
389.087	494.58
389.466	512.88
389.846	521.47
390.225	516.05
390.605	502.94
390.984	540.23
391.363	506.78
391.743	526.44
392.122	529.38
392.501	519.66
392.881	525.31
393.26	557.63
393.639	570.51
394.018	549.94
394.397	573.45
394.776	559.66
395.155	548.81
395.534	553.11
395.913	580.22
396.292	590.17
396.671	583.16
397.05	585.2
397.429	582.71
397.808	600.79
398.186	589.04
398.565	578.19
398.944	610.51
399.323	618.42
399.701	638.75
400.08	623.61
400.458	624.52
400.837	642.82
401.215	653.22
401.594	646.44
401.972	651.41
402.351	676.72
402.729	662.03
403.107	684.63
403.486	651.86
403.864	666.55
404.242	683.05
404.62	708.36
404.999	680.34
405.377	706.78
405.755	715.14
406.133	742.03
406.511	719.2
406.889	758.3
407.267	743.61
407.645	740.67
408.023	775.02
408.401	764.63
408.779	771.63
409.156	807.56
409.534	800.11
409.912	802.82
410.29	811.63
410.667	814.79
411.045	817.73
411.422	849.82
411.8	864.06
412.178	865.42
412.555	862.03
412.933	889.82
413.31	904.51
413.687	899.99
414.065	934.11
414.442	936.15
414.819	931.63
415.197	941.12
415.574	947.9
415.951	983.15
416.328	958.52
416.705	974.11
417.082	1003.04
417.46	1007.78
417.837	1026.99
418.214	1019.08
418.591	1029.93
418.967	1031.06
419.344	1047.11
419.721	1051.85
420.098	1043.94
420.475	1064.05
420.852	1061.12
421.228	1060.21
421.605	1099.76
421.982	1113.54
422.358	1099.99
422.735	1132.98
423.111	1142.92
423.488	1169.36
423.864	1161
424.241	1162.81
424.617	1189.25
424.994	1170.94
425.37	1222.47
425.746	1193.54
426.123	1244.16
426.499	1230.83
426.875	1241
427.251	1278.51
427.627	1292.97
428.003	1325.74
428.379	1316.25
428.756	1337.95
429.132	1344.72
429.507	1369.36
429.883	1393.76
430.259	1430.82
430.635	1414.1
431.011	1444.16
431.387	1476.92
431.763	1456.81
432.138	1486.87
432.514	1522.12
432.89	1524.83
433.265	1565.06
433.641	1602.12
434.016	1594.66
434.392	1639.18
434.767	1643.47
435.143	1651.38
435.518	1645.06
435.894	1674.66
436.269	1651.16
436.644	1701.33
437.02	1735.67
437.395	1722.79
437.77	1784.04
438.145	1760.53
438.52	1807.09
438.895	1855.22
439.271	1816.58
439.646	1885.95
440.021	1887.99
440.395	1917.82
440.77	1898.16
441.145	1904.26
441.52	1962.34
441.895	1935.22
442.27	1925.5
442.645	1972.73
443.019	1980.19
443.394	1993.75
443.769	2028.32
444.143	2051.82
444.518	2051.6
444.892	2037.59
445.267	2068.55
445.641	2131.14
446.016	2149
446.39	2112.84
446.764	2148.32
447.139	2150.13
447.513	2163.01
447.887	2154.19
448.262	2209.33
448.636	2205.49
449.01	2268.77
449.384	2268.32
449.758	2298.82
450.132	2297.24
450.506	2303.57
450.88	2371.82
451.254	2363
451.628	2394.41
452.002	2414.75
452.376	2425.37
452.75	2492.94
453.123	2459.72
453.497	2488.88
453.871	2525.03
454.244	2595.31
454.618	2586.95
454.992	2610
455.365	2641.87
455.739	2706.72
456.112	2678.7
456.486	2679.6
456.859	2759.15
457.232	2800.96
457.606	2765.7
457.979	2845.7
458.352	2901.07
458.725	2890.22
459.099	2926.15
459.472	2989.43
459.845	2993.72
460.218	3021.74
460.591	3033.49
460.964	3091.8
461.337	3132.7
461.71	3163.43
462.083	3225.13
462.456	3223.32
462.829	3224.68
463.201	3300.61
463.574	3319.59
463.947	3397.33
464.32	3433.48
464.692	3487.49
465.065	3480.94
465.438	3525.91
465.81	3576.98
466.183	3634.83
466.555	3722.52
466.928	3718.9
467.3	3737.66
467.672	3763.19
468.045	3869.63
468.417	3835.51
468.789	3965.67
469.161	3950.08
469.534	4036.63
469.906	4083.64
470.278	4118.21
470.65	4171.77
471.022	4277.53
471.394	4315.27
471.766	4363.18
472.138	4450.41
472.51	4510.07
472.882	4538.76
473.253	4638.42
473.625	4669.38
473.997	4774.46
474.369	4827.12
474.74	4851.3
475.112	4976.49
475.484	5041.8
475.855	5110.73
476.227	5166.09
476.598	5350.04
476.97	5386.88
477.341	5520.66
477.713	5545.07
478.084	5625.06
478.455	5733.08
478.827	5800.88
479.198	5905.28
479.569	5937.82
479.94	6060.08
480.311	6159.51
480.682	6308.89
481.053	6413.97
481.424	6521.31
481.795	6596.11
482.166	6738.93
482.537	6850.12
482.908	6973.96
483.279	6962.43
483.65	7119.71
484.021	7256.66
484.391	7357.22
484.762	7456.43
485.133	7408.52
485.503	7607.61
485.874	7773.03
486.244	7867.72
486.615	7969.41
486.985	8076.98
487.356	8173.25
487.726	8310.19
488.097	8511.54
488.467	8539.11
488.837	8717.41
489.207	8775.26
489.578	8972.09
489.948	9025.88
490.318	9152.2
490.688	9145.2
491.058	9303.16
491.428	9387
491.798	9511.74
492.168	9782.02
492.538	9741.79
492.908	9862.24
493.278	9894.78
493.648	9972.07
494.017	10187.43
494.387	10282.12
494.757	10401.66
495.126	10418.38
495.496	10452.06
495.866	10546.97
496.235	10658.83
496.605	10775.89
496.974	10874.64
497.344	10945.83
497.713	10996.67
498.082	11082.32
498.452	11241.64
498.821	11302.65
499.19	11351.24
499.559	11440.73
499.928	11533.16
500.298	11601.63
500.667	11710.78
501.036	11692.48
501.405	11850.66
501.774	11848.4
502.143	11940.15
502.512	12048.85
502.88	12160.71
503.249	12140.15
503.618	12264.44
503.987	12464.43
504.356	12396.41
504.724	12427.82
505.093	12548.72
505.462	12676.18
505.83	12720.24
506.199	12821.48
506.567	13047.92
506.936	12974.93
507.304	13208.14
507.672	13247.69
508.041	13300.79
508.409	13420.11
508.777	13535.59
509.145	13612.88
509.514	13623.05
509.882	13807.67
510.25	13834.57
510.618	13998.86
510.986	14000.89
511.354	14158.85
511.722	14296.93
512.09	14332.63
512.458	14434.32
512.826	14526.75
513.193	14681.77
513.561	14712.28
513.929	14817.59
514.297	15003.57
514.664	15069.56
515.032	15102.1
515.4	15337.58
515.767	15312.04
516.135	15424.13
516.502	15406.95
516.869	15685.36
517.237	15789.09
517.604	15714.74
517.972	15922.65
518.339	16113.6
518.706	16181.4
519.073	16241.51
519.44	16484.67
519.808	16669.07
520.175	16640.37
520.542	16834.49
520.909	16843.53
521.276	16928.95
521.643	17157.42
522.009	17242.16
522.376	17471.53
522.743	17486.67
523.11	17707.23
523.477	17815.03
523.843	18005.08
524.21	18179.08
524.577	18298.86
524.943	18432.86
525.31	18421.34
525.676	18705.85
526.043	18882.12
526.409	18849.57
526.776	19008.89
527.142	19069.46
527.508	19255.89
527.874	19492.72
528.241	19563.91
528.607	19622.44
528.973	19836.67
529.339	19748.76
529.705	20066.94
530.071	20221.74
530.437	20296.54
530.803	20480.49
531.169	20505.58
531.535	20560.26
531.901	20714.38
532.267	20761.39
532.632	20982.63
532.998	20906.7
533.364	21049.74
533.73	21231.21
534.095	21329.96
534.461	21366.34
534.826	21494.7
535.192	21658.77
535.557	21787.35
535.923	21731.99
536.288	21889.95
536.653	21953.22
537.019	21930.62
537.384	22121.35
537.749	22272.08
538.114	22379.43
538.479	22400.22
538.845	22494.22
539.21	22385.3
539.575	22509.37
539.94	22686.54
540.305	22815.12
540.67	22832.97
541.034	23024.15
541.399	23042.91
541.764	23175.79
542.129	23179.63
542.494	23319.74
542.858	23385.05
543.223	23461.21
543.587	23665.95
543.952	23549.56
544.316	23718.37
544.681	23680.63
545.045	23870.69
545.41	23978.03
545.774	24069.55
546.138	24025.94
546.503	24128.08
546.867	24245.82
547.231	24564.68
547.595	24595.64
547.959	24728.52
548.324	24759.93
548.688	24803.32
549.052	24777.55
549.416	24838.12
549.779	25036.3
550.143	25100.71
550.507	25123.99
550.871	25187.94
551.235	25294.6
551.599	25413.02
551.962	25524.2
552.326	25470.87
552.689	25851.2
553.053	25655.95
553.417	25787.92
553.78	26336.61
554.143	26109.27
554.507	26291.19
554.87	26321.02
555.234	26570.5
555.597	26511.97
555.96	26541.12
556.323	26654.12
556.686	26746.09
557.05	27031.28
557.413	27047.33
557.776	27039.87
558.139	27373.64
558.502	27481.89
558.865	27536.13
559.228	27751.94
559.59	27782.45
559.953	27871.26
560.316	28095.43
560.679	28298.59
561.041	28208.2
561.404	28503.78
561.767	28676.66
562.129	28538.36
562.492	28876.66
562.854	28885.24
563.217	28950.33
563.579	29164.11
563.941	29352.35
564.304	29383.54
564.666	29633.47
565.028	29691.1
565.39	29823.75
565.753	29935.84
566.115	30012.45
566.477	30094.7
566.839	30277.07
567.201	30445.2
567.563	30467.8
567.925	30736.95
568.287	30653.56
568.648	30727.23
569.01	30971.06
569.372	31249.93
569.734	31059.2
570.095	31270.72
570.457	31473.42
570.819	31559.52
571.18	31432.52
571.542	31777.14
571.903	31808.56
572.265	31884.94
572.626	31869.12
572.987	31980.3
573.349	32125.16
573.71	32186.63
574.071	32230.92
574.432	32346.4
574.794	32669.32
575.155	32571.02
575.516	32524.02
575.877	32691.24
576.238	32773.28
576.599	32920.17
576.96	32855.99
577.32	32893.73
577.681	32991.8
578.042	33222.53
578.403	33183.44
578.763	33244.22
579.124	33327.39
579.485	33323.77
579.845	33291.68
580.206	33354.05
580.566	33324.45
580.927	33382.07
581.287	33529.19
581.648	33436.54
582.008	33458.23
582.368	33540.04
582.728	33624.78
583.089	33563.99
583.449	33579.13
583.809	33613.71
584.169	33675.63
584.529	33569.87
584.889	33925.56
585.249	33716.3
585.609	33746.58
585.969	33891.89
586.329	33693.03
586.688	33952.68
587.048	33781.16
587.408	33798.11
587.768	33806.92
588.127	33680.37
588.487	33808.5
588.846	33924.43
589.206	33639.92
589.565	33887.82
589.925	33971.21
590.284	33897.31
590.643	33958.1
591.003	33866.58
591.362	34007.82
591.721	33842.85
592.08	33805.57
592.44	33867.71
592.799	34012.57
593.158	33824.1
593.517	33934.83
593.876	33999.23
594.235	33981.61
594.593	33920.82
594.952	34073.13
595.311	34027.26
595.67	34001.04
596.029	34235.39
596.387	34246.68
596.746	34437.87
597.104	34190.87
597.463	34133.92
597.822	34368.49
598.18	34214.82
598.538	34312.9
598.897	34338.66
599.255	34132.56
599.613	34561.7
599.972	34414.36
600.33	34525.1
600.688	34359.9
601.046	34445.1
601.404	34499.56
601.762	34455.27
602.12	34565.55
602.478	34594.25
602.836	34681.25
603.194	34410.75
603.552	34476.06
603.91	34405.78
604.268	34714.69
604.625	34617.07
604.983	34725.99
605.341	34513.57
605.698	34913.56
606.056	34891.64
606.413	34872.2
606.771	34977.96
607.128	34983.84
607.485	34867.46
607.843	34905.42
608.2	35105.64
608.557	35229.94
608.914	35040.79
609.272	35069.94
609.629	35236.49
609.986	35261.12
610.343	35130.5
610.7	35391.51
611.057	35267.45
611.414	35275.13
611.771	35381.8
612.127	35415.69
612.484	35472.41
612.841	35605.07
613.198	35377.05
613.554	35332.31
613.911	35718.51
614.267	35652.52
614.624	35620.89
614.98	35743.14
615.337	35847.77
615.693	35679.64
616.05	35682.8
616.406	35939.3
616.762	35770.03
617.118	35811.84
617.475	35915.11
617.831	35923.25
618.187	36086.64
618.543	36101.1
618.899	36219.51
619.255	36208.21
619.611	36184.49
619.967	36185.62
620.323	36371.15
620.678	36147.2
621.034	36027.65
621.39	36159.85
621.746	36025.62
622.101	36464.71
622.457	36175.9
622.812	36315.1
623.168	36542.22
623.523	36318.49
623.879	36388.77
624.234	36226.07
624.589	36363.69
624.945	36316.01
625.3	36332.73
625.655	36379.51
626.01	36399.85
626.365	36472.84
626.72	36385.16
627.075	36354.2
627.43	36285.73
627.785	36358.27
628.14	36325.95
628.495	36359.85
628.85	36289.34
629.205	36281.21
629.559	36450.92
629.914	36397.59
630.269	36243.24
630.623	36184.03
630.978	36054.32
631.332	36256.35
631.687	36379.96
632.041	35864.49
632.396	36107.88
632.75	35881.9
633.104	35913.53
633.459	35760.77
633.813	35745.18
634.167	35717.38
634.521	35793.54
634.875	35828.56
635.229	35682.58
635.583	35557.16
635.937	35492.53
636.291	35653.65
636.645	35528.23
636.999	35433.55
637.352	35506.99
637.706	35441
638.06	35403.72
638.413	35391.74
638.767	35269.26
639.121	35302.02
639.474	34961.02
639.828	35164.17
640.181	35056.83
640.534	35137.96
640.888	34932.54
641.241	34747.46
641.594	34848.48
641.947	34829.27
642.301	34735.48
642.654	34807.35
643.007	34695.49
643.36	34798.08
643.713	34569.61
644.066	34853.22
644.419	34691.87
644.771	34320.58
645.124	33893.02
645.477	33812.8
645.83	33684.44
646.182	33540.26
646.535	33495.52
646.888	33609.86
647.24	33445.8
647.593	33740.71
647.945	33569.41
648.298	33380.49
648.65	33440.15
649.002	33291.46
649.355	33375.97
649.707	33330.32
650.059	33323.54
650.411	33709.75
650.763	33703.42
651.115	34188.61
651.467	33852.57
651.819	33914.04
652.171	33956.52
652.523	33935.28
652.875	33939.57
653.227	33599.92
653.578	33786.81
653.93	33803.53
654.282	33615.29
654.633	33517.21
654.985	33635.17
655.337	33583.88
655.688	33586.59
656.039	33698.68
656.391	33409.64
656.742	33450.77
657.094	33467.95
657.445	33611.67
657.796	33458
658.147	33540.49
658.498	33297.78
658.849	33346.82
659.2	33331.45
659.551	33353.15
659.902	33446.03
660.253	33377.55
660.604	33377.33
660.955	33039.03
661.306	33400.83
661.656	33265.92
662.007	33179.59
662.358	33110.67
662.708	33236.77
663.059	33052.37
663.409	32939.37
663.76	33065.47
664.11	33134.17
664.461	33057.79
664.811	33040.16
665.161	32971.24
665.511	32989.77
665.862	32897.34
666.212	33064.57
666.562	33109.54
666.912	32942.09
667.262	32844.46
667.612	33009.88
667.962	32757.01
668.312	32816.89
668.662	32967.85
669.011	32872.48
669.361	32790.68
669.711	32827.96
670.06	32797.68
670.41	32717.91
670.76	32717.46
671.109	32816.67
671.459	32719.94
671.808	32656.22
672.157	32842.43
672.507	32473.17
672.856	32445.83
673.205	32556.56
673.554	32601.98
673.904	32391.14
674.253	32694.18
674.602	32458.71
674.951	31888.33
675.3	31803.13
675.649	32277.24
675.998	32208.32
676.346	32283.35
676.695	32357.24
677.044	32025.27
677.393	32266.85
677.741	32179.62
678.09	32017.59
678.438	31963.58
678.787	32061.88
679.135	31967.65
679.484	31709.58
679.832	31985.5
680.181	31752.29
680.529	31898.05
680.877	31789.57
681.225	31887.42
681.573	32028.89
681.922	31712.29
682.27	31690.82
682.618	31829.8
682.966	31657.15
683.314	31673.87
683.661	31675.9
684.009	31469.13
684.357	31468
684.705	31364.05
685.053	31458.73
685.4	31319.3
685.748	31168.8
686.095	31263.71
686.443	31023.94
686.79	30954.79
687.138	31049.48
687.485	30973.1
687.832	30764.52
688.18	30806.77
688.527	30597.29
688.874	30675.7
689.221	30547.12
689.568	30460.57
689.915	30409.05
690.262	30447.69
690.609	30324.08
690.956	30062.16
691.303	30203.63
691.65	30118.88
691.997	29965.89
692.344	30015.84
692.69	29753.24
693.037	29876.18
693.383	29573.81
693.73	29702.85
694.077	29503.98
694.423	29605.22
694.769	29546.69
695.116	29476.41
695.462	29295.85
695.808	29301.73
696.155	29410.43
696.501	29033.04
696.847	29125.69
697.193	28973.83
697.539	29155.74
697.885	28743.1
698.231	28715.98
698.577	28710.78
698.923	28686.15
699.269	28554.18
699.614	28476.89
699.96	28352.83
700.306	28360.29
700.651	28224.02
700.997	28107.64
701.342	28121.42
701.688	28024.7
702.033	27843.91
702.379	27849.79
702.724	27800.3
703.069	27818.15
703.415	27555.33
703.76	27527.31
704.105	27491.83
704.45	27443.93
704.795	27166.64
705.14	27207.1
705.485	27200.32
705.83	27099.08
706.175	27065.18
706.52	26948.8
706.865	26880.1
707.209	26891.62
707.554	26836.03
707.899	26706.09
708.243	26699.99
708.588	26709.48
708.932	26485.31
709.277	26420.9
709.621	26465.42
709.966	26252.77
710.31	26352.43
710.654	26107.24
710.998	26197.4
711.342	26197.18
711.687	26113.56
712.031	25990.86
712.375	25962.16
712.719	26037.18
713.063	25805.32
713.407	25927.58
713.75	25838.32
714.094	25850.29
714.438	25605.78
714.782	25643.52
715.125	25609.85
715.469	25546.35
715.812	25327.14
716.156	25311.33
716.499	25187.71
716.843	25311.1
717.186	25161.27
717.53	25378.89
717.873	25140.71
718.216	25165.12
718.559	24979.36
718.902	24846.48
719.246	25048.73
719.589	24816.88
719.932	24655.52
720.275	24777.55
720.617	24739.36
720.96	24784.56
721.303	24623.89
721.646	24780.94
721.989	24547.05
722.331	24605.36
722.674	24544.34
723.016	24545.02
723.359	24630.21
723.701	24586.6
724.044	24393.16
724.386	24274.74
724.729	24456.21
725.071	24295.31
725.413	24381.63
725.755	24337.57
726.097	24181.86
726.439	23994.75
726.782	24089.44
727.124	24111.58
727.465	23867.97
727.807	24054.86
728.149	23898.26
728.491	23856.22
728.833	23959.95
729.175	23761.99
729.516	23812.83
729.858	23630.92
730.199	23693.06
730.541	23632.95
730.882	23658.94
731.224	23703.01
731.565	23402.22
731.906	23457.59
732.248	23609.9
732.589	23421.43
732.93	23350.93
733.271	23345.5
733.612	23333.52
733.953	23350.25
734.294	23182.12
734.635	23257.82
734.976	23254.2
735.317	23098.28
735.658	23057.37
735.999	23164.04
736.339	23012.18
736.68	23105.06
737.021	23106.19
737.361	22906.42
737.702	22911.62
738.042	22895.57
738.383	22815.57
738.723	22896.47
739.063	22884.05
739.404	22920.2
739.744	22807.44
740.084	22786.42
740.424	22656.03
740.764	22678.63
741.104	22642.24
741.444	22552.3
741.784	22527.44
742.124	22576.71
742.464	22603.83
742.804	22506.65
743.143	22460.55
743.483	22482.25
743.823	22216.94
744.162	22424.4
744.502	22388.46
744.841	22285.87
745.181	22333.33
745.52	22261.46
745.86	22322.03
746.199	22258.07
746.538	22134.23
746.877	22181.69
747.216	22176.49
747.556	22033.22
747.895	22068.25
748.234	22009.27
748.573	22011.98
748.911	21865.77
749.25	21853.11
749.589	21724.08
749.928	21697.41
750.267	21725.88
750.605	21610.18
750.944	21555.94
751.283	21510.3
751.621	21579.9
751.96	21378.1
752.298	21495.16
752.636	21355.05
752.975	21383.75
753.313	21145.11
753.651	21302.62
