Data from foam1_polythene_foam_FLMS001491_00034.txt Node
Date: Wed Feb 08 10:54:44 GMT 2017
User: dcchb
Spectrometer: FLMS00149
Trigger mode: 0
Integration Time (sec): 2.000000E-2
Scans to average: 10
Electric dark correction enabled: true
Nonlinearity correction enabled: false
Boxcar width: 0
XAxis mode: Wavelengths
Number of Pixels in Spectrum: 2048
>>>>>Begin Spectral Data<<<<<
341.393	-16.98
341.776	-16.98
342.16	-16.98
342.543	-74.15
342.927	-66.69
343.31	-64.21
343.693	-74.83
344.077	-68.73
344.46	-69.18
344.843	-59.91
345.226	-41.38
345.61	-25.11
345.993	-26.47
346.376	-19.91
346.759	9.01
347.142	23.7
347.525	36.13
347.908	67.99
348.291	83.59
348.674	110.25
349.057	119.06
349.44	112.29
349.823	121.78
350.206	153.87
350.588	191.61
350.971	184.15
351.354	207.2
351.737	194.77
352.119	228.89
352.502	221.66
352.884	249
353.267	256.69
353.65	269.12
354.032	259.17
354.414	282.45
354.797	281.77
355.179	307.08
355.562	291.94
355.944	307.76
356.326	315.67
356.709	302.11
357.091	319.06
357.473	318.16
357.855	318.38
358.238	306.18
358.62	309.12
359.002	309.79
359.384	322.68
359.766	302.34
360.148	310.02
360.53	310.47
360.912	289.23
361.294	296.01
361.676	317.93
362.057	303.24
362.439	291.72
362.821	315.44
363.203	296.01
363.584	307.31
363.966	304.6
364.348	305.27
364.729	301.43
365.111	290.36
365.493	293.3
365.874	298.95
366.256	301.88
366.637	281.32
367.019	294.65
367.4	304.6
367.781	287.65
368.163	294.2
368.544	288.55
368.925	303.24
369.306	293.75
369.688	285.61
370.069	285.84
370.45	296.46
370.831	294.43
371.212	302.56
371.593	281.09
371.974	279.51
372.355	311.38
372.736	277.7
373.117	286.52
373.498	268.67
373.879	292.17
374.26	306.18
374.641	287.2
375.021	279.06
375.402	312.96
375.783	303.24
376.163	297.82
376.544	314.99
376.925	299.85
377.305	309.34
377.686	317.25
378.066	288.55
378.447	313.86
378.827	313.18
379.208	317.03
379.588	289.23
379.968	315.9
380.349	311.38
380.729	306.63
381.109	312.51
381.489	322.45
381.87	309.34
382.25	324.93
382.63	307.53
383.01	311.83
383.39	302.79
383.77	343.92
384.15	296.69
384.53	325.61
384.91	308.44
385.29	333.75
385.67	333.3
386.049	311.38
386.429	337.14
386.809	332.17
387.189	320.87
387.568	340.3
387.948	312.96
388.328	342.56
388.707	317.93
389.087	328.78
389.466	338.27
389.846	358.15
390.225	346.63
390.605	337.82
390.984	338.49
391.363	337.82
391.743	349.34
392.122	341.43
392.501	338.72
392.881	348.21
393.26	338.27
393.639	347.99
394.018	345.27
394.397	326.52
394.776	349.12
395.155	341.88
395.534	344.82
395.913	351.6
396.292	359.51
396.671	355.22
397.05	378.49
397.429	367.42
397.808	372.62
398.186	347.99
398.565	361.77
398.944	392.73
399.323	354.99
399.701	352.28
400.08	375.33
400.458	362.67
400.837	367.87
401.215	369
401.594	390.02
401.972	388.44
402.351	377.14
402.729	364.26
403.107	373.07
403.486	373.97
403.864	376.69
404.242	383.01
404.62	396.35
404.999	375.56
405.377	376.23
405.755	373.97
406.133	372.17
406.511	375.78
406.889	342.34
407.267	389.34
407.645	368.55
408.023	386.4
408.401	407.42
408.779	393.18
409.156	420.07
409.534	401.32
409.912	397.48
410.29	393.86
410.667	407.19
411.045	411.26
411.422	418.04
411.8	405.84
412.178	398.38
412.555	410.81
412.933	408.32
413.31	411.49
413.687	446.97
414.065	413.75
414.442	439.51
414.819	415.78
415.197	451.49
415.574	441.99
415.951	427.98
416.328	430.47
416.705	443.8
417.082	420.07
417.46	400.19
417.837	447.19
418.214	443.58
418.591	449.68
418.967	452.39
419.344	456.68
419.721	443.58
420.098	469.56
420.475	470.69
420.852	442.9
421.228	447.64
421.605	454.2
421.982	467.3
422.358	478.6
422.735	482.22
423.111	472.28
423.488	449.45
423.864	471.6
424.241	476.8
424.617	473.86
424.994	481.77
425.37	493.29
425.746	479.96
426.123	488.77
426.499	494.42
426.875	478.83
427.251	500.52
427.627	480.41
428.003	505.04
428.379	506.17
428.756	508.88
429.132	529
429.507	511.37
429.883	515.44
430.259	517.47
430.635	535.32
431.011	536
431.387	533.74
431.763	538.04
432.138	551.6
432.514	548.66
432.89	524.7
433.265	546.62
433.641	547.53
434.016	588.66
434.392	574.65
434.767	569.67
435.143	554.31
435.518	595.66
435.894	595.66
436.269	596.57
436.644	588.2
437.02	611.48
437.395	605.61
437.77	621.2
438.145	607.64
438.52	619.39
438.895	613.74
439.271	614.42
439.646	616
440.021	640.41
440.395	651.48
440.77	630.46
441.145	648.32
441.52	652.16
441.895	638.83
442.27	667.75
442.645	653.51
443.019	663.46
443.394	658.94
443.769	696.68
444.143	671.37
444.518	665.49
444.892	704.36
445.267	689.22
445.641	671.59
446.016	693.74
446.39	706.62
446.764	706.17
447.139	717.47
447.513	735.77
447.887	701.65
448.262	746.62
448.636	734.42
449.01	752.49
449.384	729.22
449.758	756.34
450.132	764.47
450.506	752.04
450.88	779.61
451.254	778.03
451.628	767.64
452.002	778.03
452.376	782.55
452.75	813.28
453.123	809.44
453.497	788.88
453.871	825.49
454.244	789.33
454.618	806.96
454.992	791.59
455.365	798.37
455.739	812.83
456.112	823.45
456.486	844.92
456.859	840.63
457.232	860.74
457.606	814.19
457.979	818.71
458.352	850.34
458.725	848.09
459.099	857.12
459.472	847.41
459.845	885.15
460.218	867.97
460.591	878.59
460.964	873.17
461.337	885.15
461.71	893.51
462.083	921.53
462.456	899.61
462.829	894.86
463.201	910.23
463.574	935.09
463.947	907.97
464.32	935.77
464.692	920.63
465.065	962.43
465.438	939.38
465.81	951.81
466.183	946.16
466.555	977.57
466.928	980.74
467.3	991.58
467.672	1003.11
468.045	1000.17
468.417	992.04
468.789	997.01
469.161	1037.01
469.534	1041.3
469.906	1046.72
470.278	1031.36
470.65	1037.23
471.022	1059.38
471.394	1077.91
471.766	1079.49
472.138	1085.59
472.51	1105.25
472.882	1119.49
473.253	1128.76
473.625	1120.85
473.997	1122.2
474.369	1124.46
474.74	1152.26
475.112	1188.19
475.484	1175.76
475.855	1174.4
476.227	1201.75
476.598	1226.15
476.97	1232.26
477.341	1251.69
477.713	1284.46
478.084	1273.61
478.455	1298.69
478.827	1315.19
479.198	1342.76
479.569	1349.54
479.94	1367.85
480.311	1387.96
480.682	1408.97
481.053	1402.19
481.424	1456.88
481.795	1390.44
482.166	1481.06
482.537	1495.3
482.908	1512.02
483.279	1509.08
483.65	1532.81
484.021	1525.81
484.391	1534.85
484.762	1586.14
485.133	1579.59
485.503	1597.9
485.874	1616.65
486.244	1656.2
486.615	1665.01
486.985	1687.61
487.356	1731.9
487.726	1725.35
488.097	1739.36
488.467	1753.6
488.837	1756.08
489.207	1787.5
489.578	1811.68
489.948	1825.91
490.318	1810.32
490.688	1833.6
491.058	1869.75
491.428	1906.81
491.798	1913.14
492.168	1956.3
492.538	1967.38
492.908	1980.48
493.278	2003.08
493.648	1987.94
494.017	2054.38
494.387	2069.3
494.757	2081.5
495.126	2085.79
495.496	2098.22
495.866	2096.41
496.235	2122.63
496.605	2152.68
496.974	2165.34
497.344	2187.26
497.713	2190.42
498.082	2208.5
498.452	2217.54
498.821	2215.28
499.19	2233.59
499.559	2237.43
499.928	2246.69
500.298	2264.54
500.667	2313.13
501.036	2281.04
501.405	2294.37
501.774	2343.19
502.143	2317.88
502.512	2354.03
502.88	2384.54
503.249	2345.45
503.618	2429.29
503.987	2415.28
504.356	2408.27
504.724	2437.65
505.093	2467.03
505.462	2472.68
505.83	2471.09
506.199	2509.96
506.567	2506.57
506.936	2531.43
507.304	2539.79
507.672	2540.47
508.041	2532.11
508.409	2581.82
508.777	2622.05
509.145	2630.86
509.514	2623.63
509.882	2671.77
510.25	2660.92
510.618	2646.68
510.986	2710.63
511.354	2704.99
511.722	2753.57
512.09	2753.8
512.458	2721.26
512.826	2783.4
513.193	2777.53
513.561	2790.63
513.929	2799.9
514.297	2859.11
514.664	2838.77
515.032	2883.74
515.4	2895.71
515.767	2893.45
516.135	2899.56
516.502	2920.57
516.869	2934.36
517.237	2956.05
517.604	2944.3
517.972	3026.78
518.339	3013.9
518.706	3020.91
519.073	3014.58
519.44	3082.6
519.808	3052.32
520.175	3111.08
520.542	3128.48
520.909	3141.13
521.276	3205.99
521.643	3184.75
522.009	3225.88
522.376	3217.74
522.743	3253.45
523.11	3277.4
523.477	3315.14
523.843	3318.3
524.21	3379.77
524.577	3335.03
524.943	3391.75
525.31	3407.34
525.676	3458.64
526.043	3489.37
526.409	3475.59
526.776	3512.42
527.142	3480.56
527.508	3570.5
527.874	3552.65
528.241	3615.92
528.607	3546.77
528.973	3622.25
529.339	3629.71
529.705	3634.45
530.071	3672.42
530.437	3690.27
530.803	3724.62
531.169	3745.86
531.535	3746.09
531.901	3804.39
532.267	3779.08
532.632	3814.11
532.998	3785.41
533.364	3814.56
533.73	3843.71
534.095	3877.38
534.461	3895.91
534.826	3866.54
535.192	3909.25
535.557	3946.99
535.923	3916.7
536.288	3950.38
536.653	3939.08
537.019	3914.9
537.384	3974.78
537.749	4013.43
538.114	4012.52
538.479	4013.88
538.845	3992.86
539.21	4023.59
539.575	4104.5
539.94	4045.29
540.305	4087.32
540.67	4091.84
541.034	4110.6
541.399	4092.75
541.764	4108.11
542.129	4129.35
542.494	4135
542.858	4148.79
543.223	4180.88
543.587	4225.85
543.952	4209.58
544.316	4204.61
544.681	4235.57
545.045	4256.13
545.41	4284.6
545.774	4272.18
546.138	4241.22
546.503	4294.77
546.867	4325.51
547.231	4372.06
547.595	4363.02
547.959	4356.92
548.324	4387.2
548.688	4384.94
549.052	4393.3
549.416	4423.81
549.779	4430.14
550.143	4438.95
550.507	4441.66
550.871	4473.07
551.235	4485.73
551.599	4522.34
551.962	4510.81
552.326	4570.02
552.689	4560.53
553.053	4529.57
553.417	4545.84
553.78	4616.35
554.143	4569.8
554.507	4612.96
554.87	4661.09
555.234	4706.51
555.597	4663.35
555.96	4672.17
556.323	4680.3
556.686	4705.61
557.05	4725.5
557.413	4730.24
557.776	4791.71
558.139	4800.3
558.502	4798.26
558.865	4821.99
559.228	4863.8
559.59	4830.81
559.953	4878.71
560.316	4970.46
560.679	4948.77
561.041	4977.24
561.404	5019.73
561.767	5039.16
562.129	5026.73
562.492	5059.05
562.854	5038.94
563.217	5054.53
563.579	5070.8
563.941	5151.7
564.304	5119.84
564.666	5172.94
565.028	5181.3
565.39	5189.67
565.753	5275.54
566.115	5271.02
566.477	5265.6
566.839	5264.47
567.201	5255.65
567.563	5284.8
567.925	5390.79
568.287	5367.97
568.648	5309.21
569.01	5477.79
569.372	5461.52
569.734	5447.06
570.095	5488.87
570.457	5475.99
570.819	5491.58
571.18	5489.32
571.542	5494.52
571.903	5524.12
572.265	5515.53
572.626	5556.44
572.987	5578.36
573.349	5567.96
573.71	5631.01
574.071	5636.66
574.432	5672.14
574.794	5649.31
575.155	5674.85
575.516	5682.76
575.877	5722.53
576.238	5741.97
576.599	5720.05
576.96	5692.25
577.32	5740.39
577.681	5768.41
578.042	5763.66
578.403	5783.32
578.763	5781.29
579.124	5813.15
579.485	5815.86
579.845	5885.47
580.206	5804.56
580.566	5805.47
580.927	5841.63
581.287	5866.94
581.648	5804.11
582.008	5806.37
582.368	5824.23
582.728	5844.56
583.089	5865.81
583.449	5859.93
583.809	5842.08
584.169	5849.08
584.529	5798.92
584.889	5884.56
585.249	5852.7
585.609	5877.78
585.969	5855.19
586.329	5814.96
586.688	5846.82
587.048	5849.99
587.408	5861.51
587.768	5862.19
588.127	5835.75
588.487	5851.12
588.846	5885.01
589.206	5850.21
589.565	5871
589.925	5878.69
590.284	5907.39
590.643	5917.78
591.003	5898.8
591.362	5881.4
591.721	5914.62
592.08	5875.98
592.44	5872.36
592.799	5890.89
593.158	5905.35
593.517	5841.4
593.876	5908.06
594.235	5878.46
594.593	5931.79
594.952	5878.46
595.311	5875.52
595.67	5875.52
596.029	5918.69
596.387	5942.41
596.746	5926.37
597.104	5919.82
597.463	5915.3
597.822	5939.7
598.18	5843.66
598.538	5902.87
598.897	5928.63
599.255	5882.08
599.613	5934.28
599.972	5920.49
600.33	5988.51
600.688	5912.36
601.046	5898.57
601.404	5933.15
601.762	5950.1
602.12	5956.2
602.478	5966.37
602.836	5976.99
603.194	5941.74
603.552	5889.76
603.91	5913.94
604.268	5969.98
604.625	5932.7
604.983	5901.06
605.341	5897.67
605.698	5957.1
606.056	5998.68
606.413	5961.62
606.771	5990.55
607.128	6030.1
607.485	5958.91
607.843	5953.71
608.2	5975.63
608.557	5974.28
608.914	6020.83
609.272	5982.87
609.629	6006.37
609.986	6024.45
610.343	6035.75
610.7	6072.35
611.057	6007.05
611.414	6025.35
611.771	6004.56
612.127	6088.17
612.484	6040.94
612.841	6015.41
613.198	5998.01
613.554	6027.84
613.911	6098.79
614.267	6068.29
614.624	6052.69
614.98	6104.44
615.337	6086.14
615.693	6055.63
616.05	6007.27
616.406	6048.63
616.762	6052.47
617.118	6093.37
617.475	6092.01
617.831	6122.3
618.187	6068.96
618.543	6052.69
618.899	6128.4
619.255	6114.16
619.611	6075.74
619.967	6090.43
620.323	6091.79
620.678	6135.4
621.034	6066.03
621.39	6078.46
621.746	6033.94
622.101	6096.76
622.457	6097.89
622.812	6080.49
623.168	6030.32
623.523	6088.17
623.879	6105.12
624.234	6043.2
624.589	6068.96
624.945	6116.65
625.3	6059.47
625.655	6051.11
626.01	6087.5
626.365	6100.6
626.72	6055.63
627.075	6086.14
627.43	6047.72
627.785	6005.24
628.14	6028.51
628.495	6045.01
628.85	5993.03
629.205	6041.17
629.559	6029.87
629.914	6024.22
630.269	6007.95
630.623	6001.17
630.978	5976.76
631.332	5996.42
631.687	5981.96
632.041	6004.56
632.396	5954.84
632.75	5969.31
633.104	5993.03
633.459	5957.56
633.813	5979.25
634.167	5894.51
634.521	5890.89
634.875	5924.34
635.229	5939.7
635.583	5888.86
635.937	5859.48
636.291	5876.43
636.645	5872.36
636.999	5843.89
637.352	5859.93
637.706	5842.08
638.06	5838.24
638.413	5819.71
638.767	5750.33
639.121	5775.87
639.474	5761.85
639.828	5777.67
640.181	5780.16
640.534	5783.32
640.888	5739.26
641.241	5764.34
641.594	5727.73
641.947	5734.51
642.301	5749.2
642.654	5738.8
643.007	5725.47
643.36	5710.78
643.713	5674.17
644.066	5701.97
644.419	5629.43
644.771	5558.02
645.124	5495.65
645.477	5484.12
645.83	5475.31
646.182	5470.56
646.535	5448.42
646.888	5484.57
647.24	5486.38
647.593	5512.37
647.945	5511.01
648.298	5440.96
648.65	5479.6
649.002	5450.68
649.355	5475.99
649.707	5397.57
650.059	5426.95
650.411	5440.51
650.763	5481.41
651.115	5536.55
651.467	5530.67
651.819	5507.62
652.171	5514.4
652.523	5482.77
652.875	5480.28
653.227	5502.43
653.578	5541.97
653.93	5485.25
654.282	5504.46
654.633	5437.79
654.985	5434.41
655.337	5446.83
655.688	5393.05
656.039	5432.82
656.391	5376.33
656.742	5375.88
657.094	5381.75
657.445	5460.85
657.796	5473.5
658.147	5419.72
658.498	5402.54
658.849	5379.94
659.2	5402.09
659.551	5355.76
659.902	5437.12
660.253	5398.25
660.604	5360.06
660.955	5355.99
661.306	5365.25
661.656	5380.17
662.007	5379.49
662.358	5364.12
662.708	5347.85
663.059	5398.02
663.409	5289.78
663.76	5314.86
664.11	5344.46
664.461	5332.26
664.811	5342.66
665.161	5309.21
665.511	5271.25
665.862	5289.32
666.212	5311.47
666.562	5353.05
666.912	5329.1
667.262	5252.04
667.612	5286.39
667.962	5311.7
668.312	5292.71
668.662	5320.28
669.011	5263.11
669.361	5295.43
669.711	5291.13
670.06	5221.76
670.41	5196.9
670.76	5252.71
671.109	5278.7
671.459	5167.75
671.808	5178.37
672.157	5252.71
672.507	5192.38
672.856	5240.96
673.205	5196.67
673.554	5221.08
673.904	5194.41
674.253	5220.17
674.602	5205.71
674.951	5121.42
675.3	5131.36
675.649	5202.32
675.998	5172.72
676.346	5146.05
676.695	5185.6
677.044	5116.67
677.393	5125.94
677.741	5200.51
678.09	5177.69
678.438	5142.44
678.787	5146.96
679.135	5142.21
679.484	5098.37
679.832	5124.58
680.181	5061.31
680.529	5067.64
680.877	5051.59
681.225	5048.2
681.573	5106.73
681.922	5070.12
682.27	5072.38
682.618	5059.05
682.966	5050.01
683.314	5043.23
683.661	5009.78
684.009	4974.53
684.357	5003.23
684.705	4974.76
685.053	4988.54
685.4	4982.89
685.748	4920.52
686.095	4988.99
686.443	4955.55
686.79	4967.75
687.138	4968.2
687.485	4966.39
687.832	4911.03
688.18	4962.55
688.527	4891.37
688.874	4912.38
689.221	4864.25
689.568	4840.97
689.915	4853.86
690.262	4872.39
690.609	4878.26
690.956	4835.78
691.303	4857.7
691.65	4798.49
691.997	4753.07
692.344	4748.1
692.69	4772.73
693.037	4747.87
693.383	4728.89
693.73	4765.5
694.077	4714.2
694.423	4696.57
694.769	4707.19
695.116	4635.33
695.462	4683.46
695.808	4636.46
696.155	4633.97
696.501	4608.21
696.847	4608.89
697.193	4561.89
697.539	4602.56
697.885	4567.08
698.231	4521.66
698.577	4526.86
698.923	4532.51
699.269	4585.39
699.614	4516.01
699.96	4479.18
700.306	4497.03
700.651	4475.56
700.997	4464.71
701.342	4462.23
701.688	4509.46
702.033	4426.3
702.379	4481.21
702.724	4452.96
703.069	4446.41
703.415	4366.64
703.76	4340.65
704.105	4335.9
704.45	4305.85
704.795	4330.48
705.14	4356.69
705.485	4312.85
705.83	4299.97
706.175	4296.58
706.52	4314.66
706.865	4332.97
707.209	4224.04
707.554	4305.85
707.899	4282.57
708.243	4274.44
708.588	4254.78
708.932	4269.24
709.277	4254.78
709.621	4244.83
709.966	4189.24
710.31	4210.48
710.654	4183.59
710.998	4156.02
711.342	4129.81
711.687	4130.26
712.031	4136.59
712.375	4117.6
712.719	4092.07
713.063	4125.74
713.407	4125.74
713.75	4101.11
714.094	4087.1
714.438	4101.11
714.782	4086.87
715.125	4052.07
715.469	4062.46
715.812	4094.55
716.156	4014.78
716.499	4000.09
716.843	4044.39
717.186	4037.83
717.53	4016.59
717.873	4008
718.216	4020.43
718.559	3982.92
718.902	3985.63
719.246	3996.7
719.589	3954.22
719.932	3926.65
720.275	4024.05
720.617	3925.74
720.96	3940.21
721.303	3957.38
721.646	3933.2
721.989	3921.9
722.331	3938.17
722.674	3896.59
723.016	3945.4
723.359	3893.65
723.701	3936.82
724.044	3879.19
724.386	3848.46
724.729	3865.63
725.071	3818.85
725.413	3834.67
725.755	3858.63
726.097	3857.27
726.439	3822.92
726.782	3815.24
727.124	3857.27
727.465	3785.41
727.807	3779.53
728.149	3826.76
728.491	3785.63
728.833	3781.79
729.175	3789.93
729.516	3747.44
729.858	3775.47
730.199	3750.38
730.541	3758.97
730.882	3781.34
731.224	3761.23
731.565	3768.23
731.906	3725.98
732.248	3695.02
732.589	3725.75
732.93	3704.06
733.271	3707.22
733.612	3695.24
733.953	3716.94
734.294	3709.7
734.635	3671.29
734.976	3686.65
735.317	3701.57
735.658	3683.26
735.999	3631.29
736.339	3658.18
736.68	3616.37
737.021	3626.32
737.361	3663.15
737.702	3643.94
738.042	3641.23
738.383	3645.07
738.723	3643.27
739.063	3624.51
739.404	3604.17
739.744	3594.23
740.084	3588.58
740.424	3597.39
740.764	3621.57
741.104	3610.95
741.444	3603.27
741.784	3590.61
742.124	3575.47
742.464	3563.72
742.804	3526.66
743.143	3560.78
743.483	3562.14
743.823	3534.34
744.162	3519.43
744.502	3551.06
744.841	3499.09
745.181	3576.83
745.52	3535.25
745.86	3546.09
746.199	3523.72
746.538	3504.51
746.877	3509.71
747.216	3488.02
747.556	3473.1
747.895	3495.93
748.234	3439.2
748.573	3461.35
748.911	3441.24
749.25	3468.58
749.589	3445.08
749.928	3431.97
750.267	3465.87
750.605	3444.63
750.944	3423.84
751.283	3414.57
751.621	3446.89
751.96	3407.11
752.298	3443.05
752.636	3408.24
752.975	3374.35
753.313	3350.84
753.651	3376.38
753.989	3385.65
754.327	3399.43
754.666	3332.77
755.004	3347.45
755.342	3350.17
755.679	3376.15
756.017	3311.07
756.355	3288.02
756.693	3305.65
757.031	3302.48
757.368	3273.78
757.706	3295.25
758.044	3300.68
758.381	3312.43
758.719	3251.64
759.056	3288.02
759.394	3213.9
759.731	3227.46
760.068	3236.72
760.405	3248.02
760.743	3237.85
761.08	3225.88
761.417	3186.33
761.754	3193.33
762.091	3168.02
762.428	3163.96
762.765	3153.34
763.102	3178.19
763.438	3139.55
763.775	3140.91
764.112	3127.57
764.449	3107.69
764.785	3133.22
765.122	3128.48
765.458	3072.89
765.795	3098.42
766.131	3104.3
766.467	3095.48
766.804	3068.82
767.14	3078.08
767.476	3070.4
767.812	3009.84
768.148	3059.33
768.485	3024.07
768.821	3012.1
769.157	2946.11
769.492	3010.51
769.828	3002.6
770.164	2964.64
770.5	2995.83
770.836	2950.4
771.171	2948.37
