Data from foam1_polythene_foam_FLMS001491_00100.txt Node
Date: Wed Feb 08 10:55:40 GMT 2017
User: dcchb
Spectrometer: FLMS00149
Trigger mode: 0
Integration Time (sec): 2.000000E-2
Scans to average: 10
Electric dark correction enabled: true
Nonlinearity correction enabled: false
Boxcar width: 0
XAxis mode: Wavelengths
Number of Pixels in Spectrum: 2048
>>>>>Begin Spectral Data<<<<<
341.393	-29.79
341.776	-29.79
342.16	-29.79
342.543	-55.55
342.927	-56.91
343.31	-71.37
343.693	-50.8
344.077	-53.52
344.46	-51.93
344.843	-65.49
345.226	-27.75
345.61	-43.35
345.993	1.4
346.376	-14.65
346.759	0.04
347.142	30.1
347.525	47.27
347.908	58.35
348.291	60.38
348.674	72.81
349.057	108.51
349.44	116.42
349.823	133.82
350.206	185.12
350.588	188.74
350.971	175.18
351.354	191.68
351.737	248.17
352.119	230.09
352.502	232.8
352.884	232.13
353.267	256.76
353.65	273.71
354.032	273.26
354.414	291.33
354.797	285.01
355.179	291.33
355.562	301.5
355.944	302.63
356.326	287.72
356.709	311.67
357.091	315.06
357.473	306.25
357.855	308.06
358.238	305.8
358.62	313.25
359.002	330.66
359.384	325.91
359.766	308.73
360.148	319.58
360.53	298.34
360.912	299.02
361.294	315.97
361.676	286.36
362.057	317.32
362.439	322.52
362.821	315.97
363.203	314.84
363.584	282.29
363.966	302.86
364.348	296.76
364.729	301.28
365.111	290.66
365.493	293.82
365.874	298.11
366.256	283.65
366.637	296.08
367.019	306.47
367.4	297.21
367.781	305.12
368.163	284.1
368.544	287.49
368.925	291.33
369.306	282.07
369.688	280.49
370.069	286.14
370.45	278.91
370.831	283.42
371.212	322.29
371.593	296.08
371.974	301.28
372.355	285.91
372.736	290.88
373.117	299.92
373.498	275.06
373.879	307.83
374.26	293.59
374.641	301.05
375.021	281.84
375.402	282.52
375.783	290.88
376.163	284.1
376.544	320.03
376.925	324.55
377.305	313.71
377.686	323.2
378.066	301.5
378.447	320.03
378.827	292.69
379.208	313.25
379.588	302.18
379.968	309.41
380.349	296.98
380.729	315.97
381.109	320.49
381.489	313.03
381.87	315.29
382.25	323.2
382.63	322.52
383.01	312.35
383.39	344.44
383.77	317.32
384.15	324.55
384.53	329.75
384.91	335.63
385.29	349.41
385.67	320.49
386.049	341.5
386.429	346.93
386.809	331.11
387.189	302.41
387.568	331.56
387.948	339.92
388.328	346.93
388.707	350.09
389.087	340.37
389.466	330.88
389.846	326.36
390.225	349.86
390.605	338.34
390.984	327.04
391.363	351.67
391.743	347.38
392.122	343.54
392.501	338.34
392.881	368.85
393.26	352.58
393.639	363.65
394.018	366.13
394.397	383.08
394.776	353.48
395.155	368.85
395.534	345.34
395.913	375.85
396.292	375.17
396.671	371.56
397.05	364.1
397.429	370.88
397.808	358.9
398.186	375.17
398.565	352.8
398.944	358
399.323	360.71
399.701	367.72
400.08	387.15
400.458	380.6
400.837	376.98
401.215	378.79
401.594	385.34
401.972	384.89
402.351	383.08
402.729	386.47
403.107	405
403.486	381.28
403.864	396.42
404.242	408.17
404.62	406.13
404.999	407.49
405.377	398
405.755	410.88
406.133	389.86
406.511	392.8
406.889	425.12
407.267	421.05
407.645	416.08
408.023	427.38
408.401	431.67
408.779	430.54
409.156	431.22
409.534	437.09
409.912	444.78
410.29	447.49
410.667	436.19
411.045	475.51
411.422	476.41
411.8	456.3
412.178	472.12
412.555	459.92
412.933	471.22
413.31	489.52
413.687	451.56
414.065	474.15
414.442	470.76
414.819	459.69
415.197	485.91
415.574	483.42
415.951	479.58
416.328	492.46
416.705	479.13
417.082	505.11
417.46	498.56
417.837	481.61
418.214	486.81
418.591	506.02
418.967	517.32
419.344	513.25
419.721	508.73
420.098	503.53
420.475	532.01
420.852	526.13
421.228	522.29
421.605	546.92
421.982	535.62
422.358	531.55
422.735	514.38
423.111	517.77
423.488	564.77
423.864	575.62
424.241	566.13
424.617	554.6
424.994	556.86
425.37	566.81
425.746	583.98
426.123	568.16
426.499	569.97
426.875	579.46
427.251	601.38
427.627	591.21
428.003	575.62
428.379	597.54
428.756	585.79
429.132	597.09
429.507	592.57
429.883	633.02
430.259	630.76
430.635	641.83
431.011	632.57
431.387	643.64
431.763	650.42
432.138	659.01
432.514	675.05
432.89	679.8
433.265	675.28
433.641	687.93
434.016	685.45
434.392	695.84
434.767	683.64
435.143	713.47
435.518	722.74
435.894	718.44
436.269	724.09
436.644	720.48
437.02	734.71
437.395	738.1
437.77	741.94
438.145	755.73
438.52	739.46
438.895	752.79
439.271	763.19
439.646	799.12
440.021	783.52
440.395	799.57
440.77	790.53
441.145	802.06
441.52	835.5
441.895	817.2
442.27	839.34
442.645	824.43
443.019	856.97
443.394	825.11
443.769	855.16
444.143	840.02
444.518	862.84
444.892	852.68
445.267	892
445.641	874.82
446.016	871.43
446.39	895.84
446.764	888.38
447.139	907.36
447.513	926.57
447.887	934.48
448.262	910.07
448.636	919.34
449.01	940.36
449.384	930.87
449.758	937.42
450.132	960.24
450.506	945.55
450.88	967.7
451.254	970.64
451.628	976.74
452.002	979.68
452.376	1010.19
452.75	1020.13
453.123	1013.35
453.497	1019.45
453.871	1025.1
454.244	1053.12
454.618	1045.89
454.992	1052.44
455.365	1066.23
455.739	1060.13
456.112	1077.75
456.486	1089.96
456.859	1071.88
457.232	1096.74
457.606	1111.65
457.979	1093.57
458.352	1133.8
458.725	1151.2
459.099	1153.23
459.472	1157.75
459.845	1154.59
460.218	1176.06
460.591	1179.22
460.964	1161.37
461.337	1207.69
461.71	1219.9
462.083	1234.13
462.456	1219.67
462.829	1221.25
463.201	1265.55
463.574	1252.21
463.947	1247.92
464.32	1283.85
464.692	1286.79
465.065	1308.26
465.438	1278.43
465.81	1338.09
466.183	1336.28
466.555	1346.22
466.928	1346.45
467.3	1354.81
467.672	1398.65
468.045	1384.86
468.417	1395.26
468.789	1402.04
469.161	1456.95
469.534	1428.93
469.906	1463.28
470.278	1465.09
470.65	1499.66
471.022	1510.29
471.394	1562.04
471.766	1538.31
472.138	1575.37
472.51	1597.74
472.882	1621.69
473.253	1620.79
473.625	1640.45
473.997	1666.44
474.369	1700.56
474.74	1724.06
475.112	1749.6
475.484	1757.51
475.855	1754.8
476.227	1791.41
476.598	1826.44
476.97	1857.62
477.341	1860.78
477.713	1881.57
478.084	1911.86
478.455	1957.28
478.827	1955.25
479.198	2007
479.569	2027.56
479.94	2060.1
480.311	2112.76
480.682	2100.1
481.053	2149.14
481.424	2192.98
481.795	2200.21
482.166	2251.51
482.537	2263.03
482.908	2310.72
483.279	2345.07
483.65	2349.59
484.021	2428.68
484.391	2445.63
484.762	2458.73
485.133	2497.6
485.503	2518.39
485.874	2577.83
486.244	2560.2
486.615	2612.86
486.985	2637.49
487.356	2691.95
487.726	2729.01
488.097	2763.13
488.467	2752.74
488.837	2816.24
489.207	2841.78
489.578	2869.57
489.948	2905.28
490.318	2967.65
490.688	2990.47
491.058	2993.41
491.428	3072.73
491.798	3077.02
492.168	3135.1
492.538	3145.72
492.908	3157.02
493.278	3246.51
493.648	3245.83
494.017	3247.41
494.387	3307.98
494.757	3345.27
495.126	3394.98
495.496	3386.62
495.866	3393.17
496.235	3460.52
496.605	3481.08
496.974	3490.35
497.344	3518.37
497.713	3547.07
498.082	3591.13
498.452	3641.98
498.821	3641.98
499.19	3650.34
499.559	3668.65
499.928	3689.44
500.298	3727.85
500.667	3768.53
501.036	3771.92
501.405	3792.94
501.774	3785.25
502.143	3820.28
502.512	3879.49
502.88	3940.05
503.249	3914.52
503.618	3922.88
503.987	3969.88
504.356	3967.62
504.724	4021.86
505.093	4041.74
505.462	4060.73
505.83	4105.47
506.199	4091.91
506.567	4153.61
506.936	4167.84
507.304	4204
507.672	4251.46
508.041	4282.19
508.409	4307.27
508.777	4330.55
509.145	4370.1
509.514	4388.4
509.882	4425.91
510.25	4469.76
510.618	4439.25
510.986	4486.7
511.354	4493.94
511.722	4562.86
512.09	4609.86
512.458	4621.39
512.826	4623.42
513.193	4687.15
513.561	4698.45
513.929	4755.85
514.297	4796.07
514.664	4790.88
515.032	4827.71
515.4	4894.6
515.767	4911.1
516.135	4895.51
516.502	4966.24
516.869	5078.1
517.237	5015.05
517.604	5056.18
517.972	5094.37
518.339	5120.81
518.706	5132.11
519.073	5235.61
519.44	5263.63
519.808	5281.26
520.175	5303.86
520.542	5352.44
520.909	5377.75
521.276	5414.36
521.643	5431.76
522.009	5431.54
522.376	5574.36
522.743	5543.85
523.11	5621.36
523.477	5624.08
523.843	5661.14
524.21	5762.38
524.577	5771.19
524.943	5848.02
525.31	5862.04
525.676	5935.03
526.043	5960.34
526.409	5998.75
526.776	6067.45
527.142	6055.48
527.508	6104.97
527.874	6173.21
528.241	6205.75
528.607	6170.73
528.973	6230.39
529.339	6301.35
529.705	6360.55
530.071	6443.49
530.437	6398.74
530.803	6453.88
531.169	6484.62
531.535	6453.43
531.901	6547.67
532.267	6593.99
532.632	6650.71
532.998	6596.48
533.364	6639.42
533.73	6743.37
534.095	6760.09
534.461	6745.18
534.826	6825.4
535.192	6854.55
535.557	6909.92
535.923	6914.89
536.288	6898.84
536.653	6943.14
537.019	6961.67
537.384	6952.18
537.749	7063.13
538.114	7043.92
538.479	7089.57
538.845	7111.27
539.21	7185.16
539.575	7187.88
539.94	7235.56
540.305	7256.12
540.67	7231.04
541.034	7248.44
541.399	7258.61
541.764	7320.75
542.129	7415.21
542.494	7347.87
542.858	7394.65
543.223	7453.18
543.587	7371.15
543.952	7445.5
544.316	7431.49
544.681	7500.86
545.045	7578.6
545.41	7600.52
545.774	7605.72
546.138	7628.99
546.503	7539.05
546.867	7603.46
547.231	7704.7
547.595	7725.94
547.959	7753.28
548.324	7756.9
548.688	7864.69
549.052	7808.2
549.416	7846.16
549.779	7807.75
550.143	7887.97
550.507	7924.81
550.871	8006.16
551.235	7972.94
551.599	8051.36
551.962	8107.4
552.326	8049.77
552.689	8101.75
553.053	8097
553.417	8137.46
553.78	8301.97
554.143	8240.73
554.507	8360.73
554.87	8332.7
555.234	8379.94
555.597	8331.57
555.96	8368.18
556.323	8432.81
556.686	8423.1
557.05	8513.26
557.413	8613.6
557.776	8568.18
558.139	8600.49
558.502	8569.99
558.865	8636.88
559.228	8689.76
559.59	8745.8
559.953	8829.41
560.316	8887.27
560.679	8883.42
561.041	8911.67
561.404	8944.67
561.767	9021.05
562.129	8959.58
562.492	9153.93
562.854	9113.7
563.217	9088.84
563.579	9195.73
563.941	9283.87
564.304	9243.42
564.666	9330.87
565.028	9263.75
565.39	9291.32
565.753	9330.19
566.115	9508.72
566.477	9574.03
566.839	9575.61
567.201	9580.81
567.563	9666.45
567.925	9633.46
568.287	9600.02
568.648	9660.81
569.01	9668.71
569.372	9761.82
569.734	9796.85
570.095	9867.58
570.457	9871.65
570.819	9948.03
571.18	9898.77
571.542	9974.92
571.903	9969.5
572.265	10015.37
572.626	10029.38
572.987	10044.52
573.349	10164.07
573.71	10134.47
574.071	10180.79
574.432	10176.5
574.794	10263.5
575.155	10248.36
575.516	10281.35
575.877	10299.21
576.238	10323.39
576.599	10311.18
576.96	10391.86
577.32	10464.17
577.681	10403.61
578.042	10400.9
578.403	10414.91
578.763	10375.36
579.124	10378.75
579.485	10474.8
579.845	10475.25
580.206	10448.81
580.566	10518.18
580.927	10583.94
581.287	10572.19
581.648	10446.32
582.008	10630.27
582.368	10529.03
582.728	10547.56
583.089	10607.67
583.449	10659.42
583.809	10677.95
584.169	10642.25
584.529	10677.05
584.889	10613.77
585.249	10557.05
585.609	10536.71
585.969	10634.11
586.329	10603.83
586.688	10618.52
587.048	10644.06
587.408	10606.32
587.768	10645.41
588.127	10627.33
588.487	10521.57
588.846	10635.69
589.206	10597.96
589.565	10602.93
589.925	10669.59
590.284	10633.89
590.643	10628.24
591.003	10755.24
591.362	10712.53
591.721	10707.11
592.08	10706.2
592.44	10687.44
592.799	10684.28
593.158	10710.27
593.517	10695.81
593.876	10676.15
594.235	10698.07
594.593	10740.32
594.952	10761.12
595.311	10644.28
595.67	10732.42
596.029	10711.85
596.387	10772.64
596.746	10773.54
597.104	10732.19
597.463	10654.45
597.822	10717.27
598.18	10730.16
598.538	10736.71
598.897	10821
599.255	10727.22
599.613	10907.33
599.972	10717.05
600.33	10809.25
600.688	10742.81
601.046	10812.64
601.404	10887.44
601.762	10899.87
602.12	10926.53
602.478	10933.54
602.836	10804.96
603.194	10841.57
603.552	10812.87
603.91	10795.46
604.268	10892.64
604.625	10788.69
604.983	10846.08
605.341	10827.78
605.698	10973.31
606.056	10955.69
606.413	10935.12
606.771	10956.14
607.128	11038.85
607.485	10906.87
607.843	10847.44
608.2	11006.76
608.557	11013.76
608.914	11002.24
609.272	11039.07
609.629	11085.85
609.986	11093.76
610.343	10984.84
610.7	11097.38
611.057	11055.34
611.414	11020.54
611.771	11089.69
612.127	11133.08
612.484	11186.19
612.841	11187.32
613.198	11131.05
613.554	11203.36
613.911	11196.58
614.267	11217.83
614.624	11151.61
614.98	11131.73
615.337	11198.39
615.693	11197.04
616.05	11136.25
616.406	11257.6
616.762	11257.15
617.118	11184.83
617.475	11255.34
617.831	11212.4
618.187	11250.14
618.543	11260.76
618.899	11345.96
619.255	11306.64
619.611	11190.03
619.967	11289.01
620.323	11307.32
620.678	11283.14
621.034	11349.8
621.39	11290.82
621.746	11267.09
622.101	11366.75
622.457	11282.46
622.812	11277.49
623.168	11315.23
623.523	11333.08
623.879	11333.3
624.234	11283.14
624.589	11348.67
624.945	11308.22
625.3	11421.44
625.655	11357.71
626.01	11424.37
626.365	11331.04
626.72	11257.15
627.075	11314.77
627.43	11277.49
627.785	11246.98
628.14	11303.25
628.495	11284.04
628.85	11338.5
629.205	11288.33
629.559	11279.75
629.914	11217.37
630.269	11315
630.623	11178.73
630.978	11148.9
631.332	11181.44
631.687	11174.89
632.041	11142.12
632.396	11209.24
632.75	11124.72
633.104	11177.38
633.459	11062.12
633.813	11094.21
634.167	11066.64
634.521	10976.02
634.875	11077.72
635.229	11054.21
635.583	10956.59
635.937	11065.06
636.291	11013.99
636.645	11018.06
636.999	10978.51
637.352	11051.5
637.706	10959.08
638.06	11053.54
638.413	10968.79
638.767	10908.23
639.121	10936.25
639.474	10814.67
639.828	10848.8
640.181	10853.99
640.534	10887.67
640.888	10788.23
641.241	10767.67
641.594	10815.13
641.947	10800.89
642.301	10743.26
642.654	10765.86
643.007	10729.25
643.36	10731.29
643.713	10724.05
644.066	10763.83
644.419	10687.9
644.771	10655.13
645.124	10626.43
645.477	10547.11
645.83	10458.3
646.182	10432.08
646.535	10331.07
646.888	10374.46
647.24	10337.17
647.593	10332.88
647.945	10351.18
648.298	10235.71
648.65	10273.44
649.002	10222.82
649.355	10329.71
649.707	10308.7
650.059	10339.88
650.411	10406.32
650.763	10417.4
651.115	10468.47
651.467	10452.65
651.819	10486.55
652.171	10442.03
652.523	10393.44
652.875	10376.94
653.227	10424.18
653.578	10429.15
653.93	10352.09
654.282	10362.03
654.633	10322.03
654.985	10352.54
655.337	10447.45
655.688	10416.94
656.039	10401.58
656.391	10262.82
656.742	10323.16
657.094	10291.98
657.445	10337.62
657.796	10390.05
658.147	10232.54
658.498	10299.43
658.849	10304.4
659.2	10235.25
659.551	10254.01
659.902	10284.52
660.253	10299.21
660.604	10253.33
660.955	10151.19
661.306	10214.69
661.656	10177.63
662.007	10196.84
662.358	10207.91
662.708	10239.55
663.059	10143.28
663.409	10098.08
663.76	10205.42
664.11	10129.95
664.461	10104.64
664.811	10095.6
665.161	10122.71
665.511	10056.05
665.862	10100.12
666.212	10145.31
666.562	10105.09
666.912	10061.47
667.262	10079.33
667.612	10092.21
667.962	10096.05
668.312	10115.03
668.662	10132.43
669.011	10110.29
669.361	10073.45
669.711	10080.46
670.06	10051.53
670.41	10014.47
670.76	9980.34
671.109	9984.19
671.459	10005.65
671.808	10057.18
672.157	10077.07
672.507	10026.67
672.856	9953.9
673.205	9987.58
673.554	9983.73
673.904	9920.46
674.253	10031.87
674.602	9959.1
674.951	9804.76
675.3	9705.55
675.649	9941.02
675.998	9959.78
676.346	9953.45
676.695	9998.88
677.044	9864.87
677.393	9931.76
677.741	9900.57
678.09	9898.99
678.438	9836.62
678.787	9821.93
679.135	9831.2
679.484	9800.24
679.832	9790.97
680.181	9743.51
680.529	9789.16
680.877	9742.39
681.225	9686.79
681.573	9845.43
681.922	9724.76
682.27	9720.46
682.618	9771.76
682.966	9717.08
683.314	9717.53
683.661	9678.66
684.009	9634.59
684.357	9588.72
684.705	9580.58
685.053	9588.26
685.4	9557.31
685.748	9578.1
686.095	9543.29
686.443	9499.68
686.79	9552.11
687.138	9509.4
687.485	9468.72
687.832	9471.66
688.18	9464.65
688.527	9445.22
688.874	9423.52
689.221	9387.82
689.568	9312.11
689.915	9392.34
690.262	9307.59
690.609	9296.3
690.956	9273.47
691.303	9219.01
691.65	9233.25
691.997	9168.84
692.344	9223.53
692.69	9132.91
693.037	9110.76
693.383	9057.43
693.73	9116.64
694.077	9019.47
694.423	9018.56
694.769	9016.98
695.116	8956.19
695.462	8998
695.808	8981.73
696.155	8941.95
696.501	8958.45
696.847	8913.93
697.193	8849.98
697.539	8905.34
697.885	8754.61
698.231	8815.4
698.577	8698.8
698.923	8710.1
699.269	8698.57
699.614	8704.45
699.96	8613.83
700.306	8652.7
700.651	8615.41
700.997	8602.3
701.342	8624.67
701.688	8571.34
702.033	8536.99
702.379	8528.18
702.724	8517.11
703.069	8489.76
703.415	8431.69
703.76	8403.89
704.105	8345.13
704.45	8393.27
704.795	8338.81
705.14	8308.98
705.485	8337.9
705.83	8292.25
706.175	8279.82
706.52	8271.92
706.865	8217.68
707.209	8238.02
707.554	8174.97
707.899	8200.96
708.243	8159.15
708.588	8159.38
708.932	8041.64
709.277	8140.85
709.621	8094.29
709.966	8066.72
710.31	8012.71
710.654	7976.33
710.998	8027.85
711.342	8053.62
711.687	7973.39
712.031	7930.46
712.375	7911.02
712.719	7974.75
713.063	7938.82
713.407	7915.99
713.75	7900.4
714.094	7840.06
714.438	7787.63
714.782	7816.33
715.125	7788.31
715.469	7804.81
715.812	7785.6
716.156	7800.52
716.499	7776.56
716.843	7814.53
717.186	7705.83
717.53	7725.04
717.873	7785.6
718.216	7705.83
718.559	7721.2
718.902	7662.67
719.246	7652.27
719.589	7590.8
719.932	7596.68
720.275	7526.85
720.617	7548.32
720.96	7530.92
721.303	7552.39
721.646	7550.13
721.989	7511.03
722.331	7610.46
722.674	7534.76
723.016	7495.66
723.359	7494.31
723.701	7519.17
724.044	7453.41
724.386	7374.54
724.729	7476
725.071	7443.69
725.413	7471.26
725.755	7398.94
726.097	7351.71
726.439	7365.05
726.782	7343.13
727.124	7380.64
727.465	7333.86
727.807	7349
728.149	7305.39
728.491	7218.84
728.833	7343.58
729.175	7257.03
729.516	7180.64
729.858	7191.72
730.199	7238.5
730.541	7233.98
730.882	7231.72
731.224	7196.24
731.565	7214.77
731.906	7171.15
732.248	7195.79
732.589	7125.28
732.93	7104.26
733.271	7112.17
733.612	7150.14
733.953	7126.41
734.294	7104.94
734.635	7089.8
734.976	7088.44
735.317	7065.39
735.658	7087.77
735.999	7029.91
736.339	7042.34
736.68	6993.08
737.021	7038.5
737.361	6987.66
737.702	7034.21
738.042	7047.31
738.383	6980.65
738.723	6979.29
739.063	6937.26
739.404	6977.26
739.744	6933.42
740.084	6895
740.424	6940.65
740.764	6885.51
741.104	6901.78
741.444	6901.78
741.784	6849.81
742.124	6877.15
742.464	6890.48
742.804	6830.15
743.143	6798.96
743.483	6782.24
743.823	6797.38
744.162	6747.89
744.502	6756.7
744.841	6728.23
745.181	6760.32
745.52	6770.49
745.86	6760.99
746.199	6755.12
746.538	6727.55
746.877	6764.16
747.216	6658.4
747.556	6736.14
747.895	6695.69
748.234	6648.68
748.573	6669.92
748.911	6692.97
749.25	6606.2
749.589	6588.34
749.928	6584.5
750.267	6610.49
750.605	6535.24
750.944	6543.6
751.283	6537.72
751.621	6570.04
751.96	6499.31
752.298	6538.4
752.636	6574.33
752.975	6568.46
753.313	6472.64
753.651	6467.22
753.989	6446.65
754.327	6429.03
754.666	6408.69
755.004	6414.11
755.342	6385.41
755.679	6452.75
756.017	6324.4
756.355	6322.36
756.693	6365.3
757.031	6355.58
757.368	6282.14
757.706	6295.47
758.044	6341.12
758.381	6289.14
758.719	6310.61
759.056	6282.14
759.394	6266.32
759.731	6194.68
760.068	6226.77
760.405	6153.33
760.743	6149.94
761.08	6159.65
761.417	6095.7
761.754	6061.35
762.091	6045.53
762.428	6015.48
762.765	6104.29
763.102	6064.06
763.438	5973.22
763.775	6014.8
764.112	6028.81
764.449	6070.62
764.785	5973.44
