Data from foam2_polystyrene_foam_FLMS001491_00087.txt Node
Date: Wed Feb 08 10:58:38 GMT 2017
User: dcchb
Spectrometer: FLMS00149
Trigger mode: 0
Integration Time (sec): 2.000000E-2
Scans to average: 10
Electric dark correction enabled: true
Nonlinearity correction enabled: false
Boxcar width: 0
XAxis mode: Wavelengths
Number of Pixels in Spectrum: 2048
>>>>>Begin Spectral Data<<<<<
341.393	4.65
341.776	4.65
342.16	4.65
342.543	-71.96
342.927	-69.7
343.31	-63.37
343.693	-65.86
344.077	-66.31
344.46	-54.11
344.843	-57.72
345.226	-46.2
345.61	-31.51
345.993	-7.78
346.376	-4.84
346.759	17.75
347.142	17.3
347.525	37.87
347.908	26.34
348.291	90.29
348.674	108.15
349.057	100.01
349.44	102.95
349.823	137.98
350.206	167.13
350.588	211.42
350.971	234.92
351.354	230.4
351.737	249.61
352.119	249.39
352.502	297.29
352.884	295.03
353.267	292.1
353.65	290.06
354.032	308.37
354.414	328.93
354.797	319.89
355.179	323.28
355.562	314.02
355.944	340.68
356.326	345.43
356.709	332.55
357.091	353.79
357.473	365.32
357.855	355.37
358.238	373
358.62	359.21
359.002	367.58
359.384	360.57
359.766	372.09
360.148	371.42
360.53	373.45
360.912	354.02
361.294	354.24
361.676	344.3
362.057	374.81
362.439	344.3
362.821	361.93
363.203	358.99
363.584	344.07
363.966	356.28
364.348	370.29
364.729	341.36
365.111	347.69
365.493	349.95
365.874	341.81
366.256	351.53
366.637	360.57
367.019	361.47
367.4	356.28
367.781	352.43
368.163	351.53
368.544	348.37
368.925	354.69
369.306	363.06
369.688	367.58
370.069	355.6
370.45	349.04
370.831	369.38
371.212	374.35
371.593	370.74
371.974	377.29
372.355	361.47
372.736	354.47
373.117	364.41
373.498	380.68
373.879	381.13
374.26	380.23
374.641	360.12
375.021	359.21
375.402	367.35
375.783	378.65
376.163	398.31
376.544	412.77
376.925	400.34
377.305	422.71
377.686	395.82
378.066	408.03
378.447	379.78
378.827	405.09
379.208	395.6
379.588	392.66
379.968	397.4
380.349	405.31
380.729	425.2
381.109	423.17
381.489	436.05
381.87	429.72
382.25	426.78
382.63	452.09
383.01	438.76
383.39	422.04
383.77	443.73
384.15	447.57
384.53	433.79
384.91	452.77
385.29	434.47
385.67	460.23
386.049	471.75
386.429	455.71
386.809	492.77
387.189	458.19
387.568	464.07
387.948	491.64
388.328	480.11
388.707	491.64
389.087	487.35
389.466	503.62
389.846	511.3
390.225	490.06
390.605	495.03
390.984	503.84
391.363	524.86
391.743	522.83
392.122	521.47
392.501	509.27
392.881	543.39
393.26	535.71
393.639	538.87
394.018	537.74
394.397	562.82
394.776	544.75
395.155	556.95
395.534	542.03
395.913	575.25
396.292	572.09
396.671	585.65
397.05	591.3
397.429	584.29
397.808	590.85
398.186	602.82
398.565	589.49
398.944	589.04
399.323	627.23
399.701	614.8
400.08	617.29
400.458	636.49
400.837	635.82
401.215	633.1
401.594	649.38
401.972	635.36
402.351	638.98
402.729	647.79
403.107	658.64
403.486	668.36
403.864	692.99
404.242	665.65
404.62	703.16
404.999	679.21
405.377	693.22
405.755	702.93
406.133	700.9
406.511	696.38
406.889	718.98
407.267	732.31
407.645	747.23
408.023	754.91
408.401	759.66
408.779	770.05
409.156	784.51
409.534	758.07
409.912	804.85
410.29	827.22
410.667	826.32
411.045	841.91
411.422	846.43
411.8	843.49
412.178	870.16
412.555	857.73
412.933	874.68
413.31	890.73
413.687	895.02
414.065	897.5
414.442	914
414.819	918.07
415.197	943.15
415.574	976.15
415.951	925.53
416.328	979.76
416.705	975.24
417.082	964.85
417.46	991.06
417.837	993.32
418.214	1012.98
418.591	1039.42
418.967	1013.89
419.344	1022.02
419.721	1050.27
420.098	1034.68
420.475	1080.1
420.852	1041.91
421.228	1068.12
421.605	1103.15
421.982	1108.57
422.358	1108.12
422.735	1118.52
423.111	1106.09
423.488	1139.53
423.864	1146.99
424.241	1175.92
424.617	1182.47
424.994	1186.08
425.37	1191.06
425.746	1187.44
426.123	1232.19
426.499	1232.41
426.875	1258.85
427.251	1281.68
427.627	1292.75
428.003	1288.68
428.379	1288.68
428.756	1316.93
429.132	1355.8
429.507	1370.94
429.883	1360.09
430.259	1433.08
430.635	1388.34
431.011	1403.03
431.387	1441.22
431.763	1473.76
432.138	1464.95
432.514	1503.59
432.89	1508.79
433.265	1548.33
433.641	1564.15
434.016	1563.93
434.392	1608.67
434.767	1633.3
435.143	1590.14
435.518	1640.54
435.894	1676.24
436.269	1709.01
436.644	1702.46
437.02	1738.16
437.395	1689.35
437.77	1762.34
438.145	1784.26
438.52	1817.93
438.895	1817.25
439.271	1825.16
439.646	1860.42
440.021	1879.85
440.395	1888.89
440.77	1892.96
441.145	1888.67
441.52	1932.05
441.895	1958.49
442.27	1973.41
442.645	1961.43
443.019	2001.88
443.394	1986.97
443.769	1974.99
444.143	2021.32
444.518	2042.11
444.892	2037.59
445.267	2090.02
445.641	2072.16
446.016	2096.12
446.39	2119.39
446.764	2130.92
447.139	2158.94
447.513	2188.32
447.887	2208.43
448.262	2192.39
448.636	2225.15
449.01	2224.7
449.384	2303.12
449.758	2284.59
450.132	2313.74
450.506	2335.21
450.88	2336.34
451.254	2357.58
451.628	2358.03
452.002	2410.46
452.376	2425.83
452.75	2440.74
453.123	2471.7
453.497	2518.93
453.871	2475.77
454.244	2572.49
454.618	2573.62
454.992	2591.25
455.365	2587.63
455.739	2697.68
456.112	2689.1
456.486	2699.72
456.859	2759.6
457.232	2796.89
457.606	2791.92
457.979	2839.6
458.352	2851.13
458.725	2932.03
459.099	2929.54
459.472	3008.86
459.845	3046.6
460.218	3034.62
460.591	3048.18
460.964	3065.36
461.337	3190.33
461.71	3203.66
462.083	3236.88
462.456	3234.39
462.829	3247.95
463.201	3306.93
463.574	3335.41
463.947	3341.73
464.32	3450.21
464.692	3457.21
465.065	3492.01
465.438	3535.63
465.81	3578.79
466.183	3614.04
466.555	3690.43
466.928	3699.92
467.3	3714.38
467.672	3772.23
468.045	3901.27
468.417	3891.78
468.789	3901.95
469.161	3971.77
469.534	4049.06
469.906	4119.79
470.278	4170.64
470.65	4223.07
471.022	4268.49
471.394	4316.4
471.766	4387.58
472.138	4439.56
472.51	4510.74
472.882	4598.65
473.253	4634.81
473.625	4725.43
473.997	4770.17
474.369	4883.16
474.74	4882.48
475.112	4972.2
475.484	5001.58
475.855	5092.87
476.227	5145.53
476.598	5316.82
476.97	5353.21
477.341	5493.77
477.713	5525.86
478.084	5558.85
478.455	5737.83
478.827	5809.24
479.198	6027.99
479.569	5973.53
479.94	6173.98
480.311	6170.59
480.682	6311.83
481.053	6484.48
481.424	6557.69
481.795	6655.77
482.166	6683.12
482.537	6797.01
482.908	6909.55
483.279	7033.61
483.65	7152.93
484.021	7305.47
484.391	7338.47
484.762	7466.82
485.133	7512.25
485.503	7630.89
485.874	7874.5
486.244	7893.7
486.615	8025.68
486.985	8094.83
487.356	8300.47
487.726	8382.51
488.097	8489.85
488.467	8525.78
488.837	8715.6
489.207	8831.53
489.578	8927.58
489.948	9026.33
490.318	9227.23
490.688	9219.09
491.058	9298.19
491.428	9498.86
491.798	9639.87
492.168	9724.17
492.538	9751.96
492.908	9842.81
493.278	10011.39
493.648	10043.7
494.017	10185.17
494.387	10219.52
494.757	10338.61
495.126	10492.73
495.496	10516.46
495.866	10600.75
496.235	10633.07
496.605	10735.89
496.974	10859.95
497.344	11092.26
497.713	10990.12
498.082	11157.12
498.452	11294.97
498.821	11266.27
499.19	11414.29
499.559	11515.3
499.928	11522.99
500.298	11633.95
500.667	11720.95
501.036	11715.07
501.405	11926.82
501.774	11952.58
502.143	12120.71
502.512	12080.04
502.88	12106.25
503.249	12239.13
503.618	12394.38
503.987	12474.83
504.356	12466.92
504.724	12575.39
505.093	12683.86
505.462	12728.83
505.83	12896.74
506.199	12961.82
506.567	13048.6
506.936	13101.7
507.304	13276.61
507.672	13295.37
508.041	13487.68
508.409	13524.29
508.777	13641.35
509.145	13701.01
509.514	13810.84
509.882	13847.67
510.25	13947.56
510.618	14048.57
510.986	14095.58
511.354	14249.7
511.722	14328.56
512.09	14479.52
512.458	14501.89
512.826	14616.92
513.193	14660.76
513.561	14729.01
513.929	14943.91
514.297	15008.55
514.664	15062.56
515.032	15256.45
515.4	15315.66
515.767	15445.14
516.135	15496.67
516.502	15528.31
516.869	15809.65
517.237	15870.44
517.604	15835.64
517.972	16015.75
518.339	16130.55
518.706	16211.68
519.073	16343.43
519.44	16422.52
519.808	16667.49
520.175	16663.87
520.542	16816.41
520.909	17046.46
521.276	17056.85
521.643	17264.53
522.009	17402.38
522.376	17540.23
522.743	17612.77
523.11	17829.04
523.477	17944.29
523.843	18007.11
524.21	18207.33
524.577	18431.51
524.943	18525.97
525.31	18625.17
525.676	18780.2
526.043	18844.83
526.409	19107.65
526.776	19271.48
527.142	19274.2
527.508	19382.22
527.874	19595.32
528.241	19733.85
528.607	19834.41
528.973	20019.26
529.339	20020.62
529.705	20369.99
530.071	20453.6
530.437	20477.55
530.803	20622.64
531.169	20767.04
531.535	20659.02
531.901	20770.88
532.267	20997.99
532.632	21129.52
532.998	21168.84
533.364	21379.68
533.73	21432.56
534.095	21607.02
534.461	21671.2
534.826	21830.51
535.192	21886.11
535.557	21943.28
535.923	22016.05
536.288	22099.43
536.653	22254.68
537.019	22151.86
537.384	22355.92
537.749	22419.88
538.114	22561.79
538.479	22621
538.845	22674.79
539.21	22737.38
539.575	22845.85
539.94	22878.62
540.305	23039.52
540.67	23110.48
541.034	23082.23
541.399	23257.14
541.764	23354.32
542.129	23460.53
542.494	23456.69
542.858	23676.11
543.223	23679.28
543.587	23698.49
543.952	23782.78
544.316	23867.07
544.681	23909.1
545.045	24080.62
545.41	24175.99
545.774	24276.32
546.138	24439.26
546.503	24448.07
546.867	24370.56
547.231	24730.1
547.595	24787.95
547.959	24869.08
548.324	24766.26
548.688	24944.33
549.052	24998.11
549.416	24960.15
549.779	25078.11
550.143	25224.32
550.507	25337.99
550.871	25466.12
551.235	25426.35
551.599	25632.45
551.962	25705.67
552.326	25833.35
552.689	26116.5
553.053	25886.45
553.417	25985.21
553.78	26390.62
554.143	26236.05
554.507	26376.83
554.87	26514.91
555.234	26711.06
555.597	26666.54
555.96	26835.58
556.323	26914.22
556.686	26862.7
557.05	27149.02
557.413	27268.56
557.776	27114.89
558.139	27494.77
558.502	27560.53
558.865	27689.57
559.228	27909.45
559.59	27884.37
559.953	28085.26
560.316	28338.14
560.679	28354.18
561.041	28581.07
561.404	28611.35
561.767	28809.09
562.129	28741.74
562.492	29123.2
562.854	29077.78
563.217	29127.5
563.579	29311.9
563.941	29428.28
564.304	29534.49
564.666	29734.03
565.028	29821.94
565.39	29884.54
565.753	30121.82
566.115	30252.89
566.477	30283.62
566.839	30300.57
567.201	30547.8
567.563	30589.83
567.925	30812.65
568.287	30719.55
568.648	30945.53
569.01	31051.51
569.372	31261.9
569.734	31159.31
570.095	31369.02
570.457	31538.51
570.819	31549.81
571.18	31684.04
571.542	31829.57
571.903	31878.38
572.265	32045.61
572.626	31996.12
572.987	32067.08
573.349	32291.48
573.71	32344.14
574.071	32387.3
574.432	32377.13
574.794	32612.38
575.155	32597.01
575.516	32570.8
575.877	32654.18
576.238	32850.34
576.599	32835.42
576.96	32927.85
577.32	33077.22
577.681	33177.56
578.042	33227.05
578.403	33167.62
578.763	33193.38
579.124	33298.23
579.485	33517.89
579.845	33444.67
580.206	33424.33
580.566	33582.75
580.927	33420.49
581.287	33593.82
581.648	33549.53
582.008	33699.81
582.368	33572.35
582.728	33807.83
583.089	33685.12
583.449	33573.26
583.809	33590.88
584.169	33695.74
584.529	33693.03
584.889	33878.78
585.249	33760.6
585.609	33541.39
585.969	33852.8
586.329	33712.69
586.688	33791.78
587.048	33749.07
587.408	33610.99
587.768	33728.05
588.127	33723.08
588.487	33721.95
588.846	33865.23
589.206	33661.61
589.565	33594.5
589.925	33798.56
590.284	33745
590.643	33775.74
591.003	33870.2
591.362	33945
591.721	33827.03
592.08	33947.48
592.44	33950.87
592.799	33881.72
593.158	34018.44
593.517	33923.08
593.876	34103.41
594.235	33879.01
594.593	33984.32
594.952	34137.76
595.311	33958.1
595.67	33893.02
596.029	34170.3
596.387	34172.56
596.746	34158.1
597.104	33964.43
597.463	34077.88
597.822	34155.84
598.18	33975.5
598.538	33978.89
598.897	34215.05
599.255	34009.85
599.613	34568.03
599.972	34071.55
600.33	34459.79
600.688	34340.47
601.046	34339.11
601.404	34435.61
601.762	34415.27
602.12	34559.9
602.478	34570.74
602.836	34703.85
603.194	34462.5
603.552	34566.45
603.91	34605.32
604.268	34611.42
604.625	34629.5
604.983	34883.96
605.341	34605.09
605.698	34853.45
606.056	34952.2
606.413	34849.38
606.771	35008.02
607.128	35047.79
607.485	34743.39
607.843	34759.67
608.2	35105.87
608.557	35020
608.914	34998.98
609.272	35179.99
609.629	35207.56
609.986	35235.13
610.343	35149.03
610.7	35237.84
611.057	35246.43
611.414	35341.34
611.771	35274.23
612.127	35403.72
612.484	35401
612.841	35585.86
613.198	35482.58
613.554	35440.78
613.911	35637.61
614.267	35648.23
614.624	35498.4
614.98	35769.81
615.337	35711.96
615.693	35807.32
616.05	35758.06
616.406	35953.53
616.762	35664.95
617.118	35827.89
617.475	35935.91
617.831	36012.06
618.187	35920.76
618.543	35945.4
618.899	36059.74
619.255	36065.39
619.611	36105.17
619.967	36305.16
620.323	36325.95
620.678	36232.62
621.034	36017.03
621.39	36179.97
621.746	36135.45
622.101	36495.66
622.457	36225.39
622.812	36243.92
623.168	36339.96
623.523	36376.8
623.879	36476
624.234	36290.92
624.589	36291.15
624.945	36484.82
625.3	36234.2
625.655	36397.36
626.01	36405.27
626.365	36273.07
626.72	36334.76
627.075	36233.3
627.43	36296.35
627.785	36186.75
628.14	36286.4
628.495	36303.35
628.85	36295.44
629.205	36215.22
629.559	36382.45
629.914	36236.01
630.269	36063.13
630.623	36042.12
630.978	36083.47
631.332	36104.04
631.687	36136.8
632.041	36018.84
632.396	36024.72
632.75	35891.39
633.104	36013.87
633.459	35776.36
633.813	35665.18
634.167	35791.28
634.521	35626.08
634.875	35731.84
635.229	35565.07
635.583	35464.73
635.937	35513.09
636.291	35479.65
636.645	35571.85
636.999	35491.85
637.352	35558.06
637.706	35285.75
638.06	35409.14
638.413	35312.19
638.767	35168.24
639.121	35386.99
639.474	35138.41
639.828	34977.29
640.181	35021.81
640.534	35007.57
640.888	34816.39
641.241	34824.75
641.594	34954.46
641.947	34929.15
642.301	34765.54
642.654	34763.28
643.007	34743.85
643.36	34738.65
643.713	34639.67
644.066	34803.73
644.419	34490.52
644.771	34445.32
645.124	34033.81
645.477	33923.3
645.83	33736.19
646.182	33511.11
646.535	33410.77
646.888	33596.08
647.24	33388.85
647.593	33523.99
647.945	33453.26
648.298	33265.92
648.65	33173.94
649.002	33209.2
649.355	33240.16
649.707	33218.91
650.059	33319.93
650.411	33665.68
650.763	33723.99
651.115	33990.87
651.467	33915.85
651.819	33887.37
652.171	33957.65
652.523	33670.2
652.875	33620.26
653.227	33533.26
653.578	33740.71
653.93	33715.17
654.282	33518.79
654.633	33416.2
654.985	33498.68
655.337	33471.11
655.688	33556.31
656.039	33600.15
656.391	33314.28
656.742	33415.75
657.094	33377.33
657.445	33448.06
657.796	33362.87
658.147	33310.21
658.498	33208.97
658.849	33268.63
659.2	33191.34
659.551	33113.15
659.902	33232.02
660.253	33166.49
660.604	33168.97
660.955	33045.59
661.306	33145.92
661.656	33115.19
662.007	33026.15
662.358	33072.7
662.708	32854.4
663.059	32986.6
663.409	32787.97
663.76	32991.12
664.11	33060.05
664.461	32838.13
664.811	32922.65
665.161	32882.88
665.511	32690.79
665.862	32704.58
666.212	32782.99
666.562	32685.14
666.912	32716.1
667.262	32719.72
667.612	32687.18
667.962	32754.52
668.312	32627.29
668.662	32790.9
669.011	32625.94
669.361	32628.42
669.711	32561.53
670.06	32635.65
670.41	32498.71
670.76	32376
671.109	32552.49
671.459	32459.61
671.808	32406.28
672.157	32583.23
672.507	32270.69
672.856	32298.49
673.205	32214.42
673.554	32410.8
673.904	32289.9
674.253	32417.58
674.602	32205.16
674.951	31738.95
675.3	31651.95
675.649	32155.67
675.998	32070.02
676.346	31938.5
676.695	32065.5
677.044	31863.02
677.393	32045.16
677.741	31944.37
678.09	31849.23
678.438	31862.11
678.787	31845.62
679.135	31792.96
679.484	31612.86
679.832	31608.34
680.181	31629.13
680.529	31635.23
680.877	31644.04
681.225	31465.06
681.573	31611.5
681.922	31421.45
682.27	31367.44
682.618	31276.59
682.966	31164.05
683.314	31293.09
683.661	31230.27
684.009	31062.36
684.357	30978.52
684.705	30915.92
685.053	31002.25
685.4	30893.78
685.748	30870.5
686.095	30812.42
686.443	30585.76
686.79	30478.65
687.138	30603.84
687.485	30461.25
687.832	30571.3
688.18	30488.14
688.527	30240.69
688.874	30216.28
689.221	30123.85
689.568	30112.56
689.915	30030.07
690.262	30057.19
690.609	29939.45
690.956	29814.71
691.303	29787.14
691.65	29635.96
691.997	29760.7
692.344	29475.74
692.69	29488.17
693.037	29379.02
693.383	29243.88
693.73	29245.46
694.077	29153.94
694.423	29101.28
694.769	28982.19
695.116	29021.06
695.462	28911.46
695.808	28736.09
696.155	28861.29
696.501	28590.79
696.847	28563.9
697.193	28363.9
697.539	28419.72
697.885	28292.04
698.231	28095.21
698.577	28207.97
698.923	28163.68
699.269	28100.41
699.614	27808.89
699.96	27813.18
700.306	27861.99
700.651	27850.92
700.997	27636.91
701.342	27723.69
701.688	27555.11
702.033	27484.83
702.379	27335.23
702.724	27396.47
703.069	27440.31
703.415	27121.45
703.76	27178.85
704.105	27214.1
704.45	27080.09
704.795	26932.07
705.14	26919.87
705.485	26899.53
705.83	26679.43
706.175	26745.86
706.52	26640.33
706.865	26536.15
707.209	26559.88
707.554	26453.44
707.899	26532.08
708.243	26305.88
708.588	26236.27
708.932	26165.31
709.277	26059.78
709.621	26087.35
709.966	25931.42
710.31	25976.85
710.654	25799.9
710.998	25890.97
711.342	25798.54
711.687	25818.43
712.031	25650.3
712.375	25609.85
712.719	25550.19
713.063	25589.74
713.407	25617.98
713.75	25514.94
714.094	25384.54
714.438	25302.96
714.782	25273.36
715.125	25253.93
715.469	25218
715.812	25149.3
716.156	24846.71
716.499	24859.36
716.843	24960.6
717.186	24877.89
717.53	24976.87
717.873	24915.4
718.216	24842.86
718.559	24814.16
718.902	24524.91
719.246	24714.96
719.589	24577.79
719.932	24472.03
720.275	24412.82
720.617	24342.99
720.96	24401.29
721.303	24338.92
721.646	24250.34
721.989	24146.38
722.331	24283.56
722.674	24127.85
723.016	24115.2
723.359	24087.86
723.701	24185.71
724.044	23941.87
724.386	23919.27
724.729	23937.12
725.071	23994.52
725.413	23885.6
725.755	23831.59
726.097	23822.33
726.439	23706.17
726.782	23699.39
727.124	23720.63
727.465	23539.85
727.807	23579.39
728.149	23535.1
728.491	23522.45
728.833	23441.54
729.175	23397.03
729.516	23470.7
729.858	23327.2
730.199	23343.24
730.541	23351.38
730.882	23204.04
731.224	23259.18
731.565	23182.12
731.906	23110.48
732.248	23089.69
732.589	23045.62
732.93	23014.44
733.271	23026.19
733.612	23018.73
733.953	22998.39
734.294	22923.59
734.635	22863.71
734.976	22841.11
735.317	22848.57
735.658	22808.79
735.999	22907.77
736.339	22709.59
736.68	22839.98
737.021	22657.84
737.361	22629.14
737.702	22776.03
738.042	22626.88
738.383	22561.12
738.723	22502.13
739.063	22524.96
739.404	22498.07
739.744	22404.06
740.084	22360.22
740.424	22303.04
740.764	22330.16
741.104	22326.55
741.444	22183.27
741.784	22090.39
742.124	22242.71
742.464	22187.11
742.804	22070.06
743.143	22088.81
743.483	21960
743.823	21970.4
744.162	21873
744.502	21850.85
744.841	21844.52
745.181	21853.34
745.52	21751.19
745.86	21700.57
746.199	21754.13
746.538	21690.63
746.877	21748.03
747.216	21722.04
747.556	21686.11
747.895	21618.77
748.234	21503.06
748.573	21446.57
748.911	21415.61
749.25	21423.07
749.589	21372.9
749.928	21316.85
750.267	21336.97
750.605	21347.14
750.944	21283.86
751.283	21231.89
751.621	21206.58
751.96	21148.72
752.298	21201.6
752.636	21193.02
752.975	21043.87
753.313	20964.32
753.651	21102.62
753.989	20856.98
