Data from foam2_polystyrene_foam_FLMS001491_00096.txt Node
Date: Wed Feb 08 10:58:47 GMT 2017
User: dcchb
Spectrometer: FLMS00149
Trigger mode: 0
Integration Time (sec): 2.000000E-2
Scans to average: 10
Electric dark correction enabled: true
Nonlinearity correction enabled: false
Boxcar width: 0
XAxis mode: Wavelengths
Number of Pixels in Spectrum: 2048
>>>>>Begin Spectral Data<<<<<
341.393	-1.81
341.776	-1.81
342.16	-1.81
342.543	-69.15
342.927	-61.02
343.31	-71.64
343.693	-73.22
344.077	-69.38
344.46	-57.85
344.843	-58.98
345.226	-34.58
345.61	-21.02
345.993	0.45
346.376	-28.93
346.759	7.23
347.142	32.99
347.525	49.72
347.908	51.52
348.291	79.32
348.674	93.56
349.057	100.79
349.44	123.61
349.823	140.79
350.206	137.62
350.588	199.32
350.971	226.43
351.354	229.6
351.737	245.19
352.119	257.62
352.502	276.38
352.884	271.41
353.267	291.29
353.65	320.44
354.032	308.47
354.414	334.68
354.797	327
355.179	317.51
355.562	325.42
355.944	352.99
356.326	364.28
356.709	341.46
357.091	342.14
357.473	342.14
357.855	329.03
358.238	352.76
358.62	347.34
359.002	370.39
359.384	351.4
359.766	344.62
360.148	329.26
360.53	361.57
360.912	327
361.294	362.48
361.676	337.84
362.057	322.48
362.439	343.49
362.821	350.27
363.203	340.56
363.584	332.65
363.966	328.35
364.348	350.95
364.729	332.42
365.111	333.78
365.493	346.21
365.874	324.96
366.256	340.1
366.637	321.12
367.019	355.47
367.4	313.89
367.781	327.22
368.163	335.36
368.544	318.64
368.925	328.35
369.306	343.04
369.688	321.57
370.069	336.04
370.45	316.83
370.831	325.42
371.212	326.09
371.593	348.47
371.974	350.73
372.355	330.16
372.736	331.74
373.117	352.76
373.498	346.66
373.879	330.61
374.26	341.46
374.641	356.15
375.021	337.39
375.402	334.68
375.783	359.31
376.163	349.14
376.544	365.41
376.925	355.92
377.305	358.63
377.686	347.11
378.066	389.82
378.447	385.53
378.827	376.04
379.208	389.37
379.588	380.55
379.968	370.61
380.349	368.35
380.729	387.33
381.109	408.58
381.489	392.08
381.87	382.14
382.25	390.27
382.63	390.05
383.01	403.61
383.39	415.81
383.77	371.06
384.15	398.63
384.53	406.77
384.91	414.9
385.29	432.76
385.67	424.85
386.049	421.46
386.429	405.87
386.809	421.91
387.189	414.45
387.568	407.22
387.948	413.55
388.328	414.9
388.707	444.96
389.087	423.94
389.466	428.01
389.846	460.33
390.225	452.19
390.605	445.41
390.984	446.32
391.363	462.13
391.743	447.67
392.122	452.87
392.501	461.91
392.881	453.32
393.26	476.37
393.639	484.28
394.018	488.12
394.397	498.29
394.776	480.67
395.155	497.84
395.534	496.03
395.913	489.93
396.292	511.85
396.671	497.61
397.05	491.06
397.429	503.94
397.808	502.59
398.186	519.76
398.565	500.55
398.944	510.95
399.323	539.65
399.701	495.35
400.08	500.33
400.458	517.27
400.837	555.24
401.215	558.86
401.594	545.52
401.972	569.7
402.351	526.09
402.729	555.69
403.107	583.49
403.486	564.28
403.864	557.73
404.242	590.04
404.62	574
404.999	596.82
405.377	591.4
405.755	593.66
406.133	606.99
406.511	613.09
406.889	607.67
407.267	625.29
407.645	622.81
408.023	626.65
408.401	621.68
408.779	645.18
409.156	660.1
409.534	661.9
409.912	662.36
410.29	682.92
410.667	666.88
411.045	698.06
411.422	699.42
411.8	680.89
412.178	693.99
412.555	695.35
412.933	732.86
413.31	726.99
413.687	732.18
414.065	743.71
414.442	732.86
414.819	734.44
415.197	753.43
415.574	766.76
415.951	772.64
416.328	784.16
416.705	795.01
417.082	781.67
417.46	838.85
417.837	801.33
418.214	797.72
418.591	806.98
418.967	833.42
419.344	824.39
419.721	824.16
420.098	845.18
420.475	847.89
420.852	832.97
421.228	888.56
421.605	861.45
421.982	872.97
422.358	903.93
422.735	878.62
423.111	894.89
423.488	920.88
423.864	917.04
424.241	921.78
424.617	926.98
424.994	944.38
425.37	928.79
425.746	966.3
426.123	973.08
426.499	977.38
426.875	1003.59
427.251	997.94
427.627	1014.66
428.003	1052.18
428.379	1026.87
428.756	1036.36
429.132	1047.88
429.507	1067.54
429.883	1081.55
430.259	1093.98
430.635	1080.2
431.011	1117.26
431.387	1126.98
431.763	1161.78
432.138	1164.26
432.514	1167.65
432.89	1182.12
433.265	1203.81
433.641	1238.16
434.016	1227.09
434.392	1233.64
434.767	1264.83
435.143	1250.81
435.518	1309.8
435.894	1296.01
436.269	1299.17
436.644	1334.65
437.02	1326.07
437.395	1332.62
437.77	1371.26
438.145	1404.71
438.52	1404.26
438.895	1411.94
439.271	1419.17
439.646	1433.63
440.021	1450.58
440.395	1459.85
440.77	1453.97
441.145	1480.19
441.52	1501.2
441.895	1506.85
442.27	1499.85
442.645	1530.81
443.019	1539.85
443.394	1556.34
443.769	1586.17
444.143	1529.45
444.518	1580.07
444.892	1569.68
445.267	1620.52
445.641	1618.49
446.016	1620.75
446.39	1638.83
446.764	1650.35
447.139	1648.32
447.513	1720.18
447.887	1687.64
448.262	1702.78
448.636	1699.84
449.01	1744.13
449.384	1716.34
449.758	1766.06
450.132	1798.37
450.506	1776.9
450.88	1804.47
451.254	1800.18
451.628	1832.27
452.002	1858.71
452.376	1856.67
452.75	1868.2
453.123	1875.43
453.497	1919.72
453.871	1918.59
454.244	1964.24
454.618	1976.22
454.992	1996.56
455.365	1990.91
455.739	2056.44
456.112	2067.52
456.486	2055.77
456.859	2093.96
457.232	2152.26
457.606	2113.39
457.979	2164.24
458.352	2201.52
458.725	2194.74
459.099	2247.62
459.472	2271.13
459.845	2266.38
460.218	2316.32
460.591	2295.98
460.964	2303.89
461.337	2385.47
461.71	2415.98
462.083	2452.59
462.456	2421.86
462.829	2449.2
463.201	2494.62
463.574	2477.22
463.947	2548.41
464.32	2575.75
464.692	2585.02
465.065	2640.38
465.438	2696.65
465.81	2674.51
466.183	2700.72
466.555	2770.55
466.928	2781.4
467.3	2772.13
467.672	2814.84
468.045	2896.42
468.417	2932.35
468.789	2900.26
469.161	2943.65
469.534	3011.45
469.906	3057.77
470.278	3081.05
470.65	3075.85
471.022	3163.53
471.394	3239.69
471.766	3265.22
472.138	3287.82
472.51	3340.25
472.882	3385
473.253	3425.22
473.625	3473.13
473.997	3531.66
474.369	3533.24
474.74	3615.95
475.112	3665.21
475.484	3726
475.855	3745.44
476.227	3812.56
476.598	3893
476.97	3933.91
477.341	4019.1
477.713	4097.52
478.084	4098.65
478.455	4186.1
478.827	4218.87
479.198	4303.62
479.569	4330.28
479.94	4509.26
480.311	4493.89
480.682	4618.41
481.053	4736.6
481.424	4750.61
481.795	4746.54
482.166	4914.9
482.537	4945.86
482.908	5062.47
483.279	5073.09
483.65	5161.22
484.021	5248.45
484.391	5334.1
484.762	5364.15
485.133	5442.12
485.503	5564.15
485.874	5630.81
486.244	5651.15
486.615	5816.12
486.985	5822.9
487.356	5945.83
487.726	6016.56
488.097	6159.16
488.467	6120.97
488.837	6279.83
489.207	6320.29
489.578	6383.11
489.948	6522.09
490.318	6618.81
490.688	6620.39
491.058	6738.35
491.428	6803.44
491.798	6854.74
492.168	6942.87
492.538	7002.98
492.908	7126.14
493.278	7228.51
493.648	7170.43
494.017	7311.9
494.387	7381.73
494.757	7493.36
495.126	7553.25
495.496	7550.08
495.866	7647.03
496.235	7713.24
496.605	7769.51
496.974	7841.83
497.344	7953.46
497.713	7940.58
498.082	8042.27
498.452	8071.88
498.821	8126.79
499.19	8210.18
499.559	8334.02
499.928	8355.26
500.298	8388.71
500.667	8499.89
501.036	8472.32
501.405	8595.48
501.774	8554.13
502.143	8651.07
502.512	8717.96
502.88	8873.21
503.249	8881.12
503.618	8923.83
503.987	8917.28
504.356	9065.07
504.724	9033.21
505.093	9163.15
505.462	9149.36
505.83	9252.41
506.199	9305.74
506.567	9477.72
506.936	9456.93
507.304	9592.74
507.672	9581.67
508.041	9680.88
508.409	9707.32
508.777	9862.34
509.145	9912.06
509.514	9942.11
509.882	9965.84
510.25	10035.67
510.618	10102.33
510.986	10152.05
511.354	10258.71
511.722	10278.37
512.09	10405.38
512.458	10437.69
512.826	10545.71
513.193	10612.15
513.561	10670.23
513.929	10740.06
514.297	10788.64
514.664	10888.98
515.032	11030.9
515.4	11076.77
515.767	11051.01
516.135	11199.48
516.502	11115.41
516.869	11280.61
517.237	11439.93
517.604	11339.59
517.972	11509.75
518.339	11600.82
518.706	11668.62
519.073	11678.34
519.44	11696.64
519.808	11936.18
520.175	11959.23
520.542	12069.74
520.909	12099.34
521.276	12207.36
521.643	12335.72
522.009	12426.34
522.376	12560.8
522.743	12537.07
523.11	12678.31
523.477	12768.7
523.843	12879.89
524.21	13004.86
524.577	13131.63
524.943	13170.73
525.31	13279.2
525.676	13326.66
526.043	13374.56
526.409	13536.37
526.776	13642.13
527.142	13665.63
527.508	13822.91
527.874	13942.68
528.241	13963.7
528.607	14017.48
528.973	14181.77
529.339	14264.48
529.705	14325.73
530.071	14418.83
530.437	14506.74
530.803	14581.54
531.169	14689.11
531.535	14690.24
531.901	14711.25
532.267	14864.92
532.632	14857.01
532.998	15012.26
533.364	15078.47
533.73	15145.14
534.095	15189.21
534.461	15316.66
534.826	15339.26
535.192	15351.01
535.557	15482.08
535.923	15571.12
536.288	15624.22
536.653	15711
537.019	15661.06
537.384	15644.11
537.749	15878.45
538.114	15868.74
538.479	15914.61
538.845	15937.66
539.21	15919.13
539.575	16095.85
539.94	16108.05
540.305	16183.08
540.67	16245
541.034	16366.12
541.399	16346.46
541.764	16467.14
542.129	16432.34
542.494	16559.56
542.858	16721.14
543.223	16649.51
543.587	16839.33
543.952	16700.58
544.316	16767.69
544.681	16835.04
545.045	16911.19
545.41	17064.86
545.774	17035.26
546.138	17037.07
546.503	17105.76
546.867	17091.98
547.231	17249.94
547.595	17403.84
547.959	17315.7
548.324	17422.37
548.688	17503.27
549.052	17512.31
549.416	17492.65
549.779	17669.37
550.143	17710.95
550.507	17863.71
550.871	18001.33
551.235	17918.4
551.599	18060.99
551.962	18061.22
552.326	18217.6
552.689	18187.32
553.053	18137.38
553.417	18244.72
553.78	18578.95
554.143	18508.67
554.507	18738.72
554.87	18693.97
555.234	18891.25
555.597	18744.14
555.96	18857.36
556.323	18917.24
556.686	18889.45
557.05	19088.31
557.413	19131.47
557.776	19339.38
558.139	19356.1
558.502	19326.5
558.865	19559.94
559.228	19676.77
559.59	19747.05
559.953	19653.04
560.316	19925.35
560.679	19907.05
561.041	20093.71
561.404	20202.41
561.767	20326.92
562.129	20206.25
562.492	20410.31
562.854	20462.51
563.217	20412.34
563.579	20704.54
563.941	20720.59
564.304	20873.35
564.666	20972.78
565.028	21030.86
565.39	21148.37
565.753	21327.57
566.115	21431.07
566.477	21456.38
566.839	21545.65
567.201	21646.21
567.563	21618.19
567.925	21833.1
568.287	21837.62
568.648	21956.48
569.01	22011.17
569.372	22212.75
569.734	22093.43
570.095	22314.89
570.457	22322.12
570.819	22419.3
571.18	22351.95
571.542	22546.3
571.903	22657.03
572.265	22758.27
572.626	22743.58
572.987	22893.64
573.349	22911.26
573.71	23046.63
574.071	23100.18
574.432	23179.73
574.794	23224.47
575.155	23266.28
575.516	23253.63
575.877	23362.1
576.238	23473.06
576.599	23563
576.96	23573.17
577.32	23518.03
577.681	23574.97
578.042	23697.46
578.403	23601.19
578.763	23671.69
579.124	23755.76
579.485	23894.51
579.845	23887.28
580.206	23871.91
580.566	23895.64
580.927	23864.91
581.287	23950.78
581.648	23886.6
582.008	24029.2
582.368	23944.68
582.728	24045.7
583.089	24040.72
583.449	24105.81
583.809	24128.41
584.169	24229.65
584.529	24271.23
584.889	24304.9
585.249	24210.21
585.609	24135.18
585.969	24188.74
586.329	24185.58
586.688	24253.37
587.048	24318.91
587.408	24238.91
587.768	24230.78
588.127	24206.82
588.487	24208.4
588.846	24330.43
589.206	24184.9
589.565	24279.59
589.925	24452.46
590.284	24406.36
590.643	24430.09
591.003	24327.27
591.362	24450.2
591.721	24433.26
592.08	24317.55
592.44	24499.24
592.799	24409.98
593.158	24427.38
593.517	24497.43
593.876	24498.79
594.235	24364.78
594.593	24532.01
594.952	24621.73
595.311	24428.74
595.67	24550.77
596.029	24699.46
596.387	24671.67
596.746	24571.78
597.104	24554.61
597.463	24542.86
597.822	24675.06
598.18	24545.8
598.538	24554.38
598.897	24772.23
599.255	24487.49
599.613	24871.66
599.972	24690.2
600.33	24805
600.688	24638.22
601.046	24724.77
601.404	24901.04
601.762	24779.69
602.12	24970.42
602.478	24966.35
602.836	24820.59
603.194	24825.79
603.552	24892.68
603.91	24791.21
604.268	24897.2
604.625	24913.47
604.983	25019.68
605.341	24900.59
605.698	24907.59
606.056	24944.65
606.413	24917.99
606.771	25014.48
607.128	25056.52
607.485	24839.57
607.843	24961.38
608.2	25234.36
608.557	25263.29
608.914	25274.14
609.272	25252.44
609.629	25287.92
609.986	25341.48
610.343	25349.16
610.7	25366.79
611.057	25348.94
611.414	25380.58
611.771	25385.55
612.127	25413.57
612.484	25478.2
612.841	25456.28
613.198	25463.96
613.554	25354.81
613.911	25651.3
614.267	25598.2
614.624	25659.21
614.98	25702.6
615.337	25718.87
615.693	25669.16
616.05	25631.64
616.406	25804.75
616.762	25752.09
617.118	25595.26
617.475	25641.13
617.831	25673
618.187	25780.57
618.543	25683.62
618.899	25827.34
619.255	25828.25
619.611	25856.27
619.967	25810.39
620.323	26008.36
620.678	25720.23
621.034	25759.55
621.39	25779.21
621.746	25759.1
622.101	26024.17
622.457	25877.06
622.812	25891.52
623.168	25905.76
623.523	25929.26
623.879	26032.76
624.234	25858.76
624.589	25882.48
624.945	25851.3
625.3	25873.22
625.655	25765.2
626.01	25919.77
626.365	25868.25
626.72	25828.25
627.075	25755.93
627.43	25832.99
627.785	25699.89
628.14	25689.49
628.495	25850.62
628.85	25581.47
629.205	25606.56
629.559	25844.29
629.914	25577.41
630.269	25550.74
630.623	25602.04
630.978	25566.33
631.332	25642.49
631.687	25653.79
632.041	25560.46
632.396	25511.87
632.75	25409.28
633.104	25383.29
633.459	25367.69
633.813	25302.16
634.167	25237.75
634.521	25263.74
634.875	25244.76
635.229	25296.06
635.583	25074.59
635.937	25131.54
636.291	25105.33
636.645	25161.37
636.999	25098.32
637.352	25194.37
637.706	24960.25
638.06	25020.13
638.413	24950.3
638.767	24847.93
639.121	24805.22
639.474	24683.42
639.828	24803.42
640.181	24825.11
640.534	24801.16
640.888	24705.79
641.241	24558
641.594	24545.8
641.947	24642.97
642.301	24562.97
642.654	24482.52
643.007	24402.07
643.36	24545.12
643.713	24449.3
644.066	24567.94
644.419	24285.92
644.771	24131.12
645.124	23920.28
645.477	23860.16
645.83	23762.09
646.182	23694.29
646.535	23537.69
646.888	23611.81
647.24	23418.37
647.593	23602.32
647.945	23486.39
648.298	23389.44
648.65	23420.85
649.002	23356.67
649.355	23371.59
649.707	23361.65
650.059	23541.08
650.411	23741.75
650.763	23737.68
651.115	23996.88
651.467	23892.48
651.819	23843.89
652.171	23778.58
652.523	23808.64
652.875	23695.2
653.227	23644.58
653.578	23869.88
653.93	23562.77
654.282	23648.42
654.633	23477.12
654.985	23501.98
655.337	23532.49
655.688	23523.68
656.039	23560.06
656.391	23311.25
656.742	23470.12
657.094	23409.33
657.445	23357.13
657.796	23444.81
658.147	23456.11
658.498	23409.55
658.849	23456.33
659.2	23297.24
659.551	23374.3
659.902	23292.49
660.253	23375.43
660.604	23214.3
660.955	23177.02
661.306	23380.85
661.656	23229.22
662.007	23355.54
662.358	23269.44
662.708	23297.69
663.059	23233.51
663.409	23089.56
663.76	23170.24
664.11	23214.53
664.461	23131.37
664.811	23101.99
665.161	23181.54
665.511	23106.29
665.862	23151.71
666.212	23202.55
666.562	23087.98
666.912	23130.47
667.262	22965.72
667.612	23124.59
667.962	23199.84
668.312	23113.06
668.662	23171.14
669.011	23177.24
669.361	23044.37
669.711	23021.77
670.06	23050.47
670.41	23032.39
670.76	22900.64
671.109	23064.7
671.459	23017.7
671.808	22862.22
672.157	23041.43
672.507	22809.8
672.856	22860.42
673.205	22914.43
673.554	22895.67
673.904	22885.5
674.253	22903.58
674.602	22884.82
674.951	22504.27
675.3	22379.52
675.649	22880.98
675.998	22843.24
676.346	22784.49
676.695	22779.06
677.044	22659.29
677.393	22755.79
677.741	22736.35
678.09	22743.13
678.438	22596.02
678.787	22652.29
679.135	22684.83
679.484	22436.02
679.832	22559.63
680.181	22487.09
680.529	22525.51
680.877	22528.67
681.225	22469.92
681.573	22495
681.922	22418.85
682.27	22352.86
682.618	22372.07
682.966	22238.74
683.314	22308.79
683.661	22255.69
684.009	22115.12
684.357	22203.03
684.705	22038.29
685.053	22037.61
685.4	22065.63
685.748	21882.14
686.095	21941.34
686.443	21937.95
686.79	21901.35
687.138	21837.17
687.485	21942.47
687.832	21822.48
688.18	21768.92
688.527	21753.78
688.874	21690.28
689.221	21698.19
689.568	21715.59
689.915	21509.94
690.262	21583.16
690.609	21375.48
690.956	21370.96
691.303	21430.17
691.65	21206
691.997	21307.46
692.344	21084.19
692.69	21078.99
693.037	21060.69
693.383	20900.02
693.73	20991.54
694.077	20881.48
694.423	20776.18
694.769	20867.47
695.116	20653.02
695.462	20774.37
695.808	20679.68
696.155	20708.83
696.501	20490.99
696.847	20586.8
697.193	20413.25
697.539	20479.46
697.885	20407.82
698.231	20152.92
698.577	20343.65
698.923	20274.04
699.269	20204.21
699.614	19956.31
699.96	20002.86
700.306	19952.02
700.651	19995.86
700.997	19935.52
701.342	19847.84
701.688	19844.22
702.033	19778.01
702.379	19804
702.724	19609.65
703.069	19759.93
703.415	19509.77
703.76	19485.82
704.105	19477
704.45	19339.83
704.795	19345.48
705.14	19218.25
705.485	19233.84
705.83	19081.98
706.175	19179.38
706.52	19042.21
706.865	19001.76
707.209	18892.16
707.554	18902.55
707.899	18978.48
708.243	18800.18
708.588	18827.98
708.932	18762.22
709.277	18768.55
709.621	18859.84
709.966	18527.42
710.31	18671.6
710.654	18485.39
710.998	18628.66
711.342	18526.52
711.687	18412.62
712.031	18350.7
712.375	18302.57
712.719	18326.07
713.063	18337.37
713.407	18316.81
713.75	18337.6
714.094	18273.87
714.438	18152.52
714.782	18187.77
715.125	18149.13
715.469	18105.51
715.812	18002.01
716.156	17968.79
716.499	17955.46
716.843	17938.06
717.186	17780.55
717.53	17868.68
717.873	17785.52
718.216	17801.34
718.559	17708.46
718.902	17584.62
719.246	17553.44
719.589	17564.28
719.932	17447.9
720.275	17565.87
720.617	17541.91
720.96	17521.57
721.303	17571.74
721.646	17491.74
721.989	17308.7
722.331	17326.78
722.674	17391.63
723.016	17369.03
723.359	17312.99
723.701	17317.06
724.044	17231.19
724.386	17160.9
724.729	17197.51
725.071	17065.77
725.413	17049.72
725.755	17116.84
726.097	16971.53
726.439	16859.9
726.782	16892.89
727.124	16934.24
727.465	16922.72
727.807	17001.81
728.149	16837.75
728.491	16819.9
728.833	16861.93
729.175	16691.54
729.516	16756.17
729.858	16740.35
730.199	16651.09
730.541	16646.57
730.882	16619.45
731.224	16690.18
731.565	16522.96
731.906	16547.14
732.248	16508.72
732.589	16455.16
732.93	16302.85
733.271	16383.52
733.612	16419.23
733.953	16426.69
734.294	16314.37
734.635	16232.57
734.976	16334.49
735.317	16208.84
735.658	16265.56
735.999	16124.55
736.339	16163.42
736.68	16171.1
737.021	16177.65
737.361	16096.3
737.702	16129.52
738.042	16117.77
738.383	16022.86
738.723	15931.11
739.063	15954.61
739.404	16014.49
739.744	15824.89
740.084	15863.09
740.424	15879.13
740.764	15860.37
741.104	15872.8
741.444	15813.82
741.784	15683.2
742.124	15746.93
742.464	15673.71
742.804	15661.74
743.143	15680.04
743.483	15551
743.823	15469.65
744.162	15527.73
744.502	15518.91
744.841	15524.34
745.181	15620.83
745.52	15421.74
745.86	15436.2
746.199	15397.56
746.538	15404.34
746.877	15360.27
747.216	15380.84
747.556	15350.33
747.895	15276.21
748.234	15172.26
748.573	15235.98
748.911	15148.75
749.25	15086.16
749.589	15037.57
749.928	15041.41
750.267	15151.92
750.605	15054.07
750.944	15001.41
751.283	14974.52
751.621	14837.12
751.96	14878.7
752.298	14896.78
752.636	14839.84
752.975	14786.5
753.313	14755.32
753.651	14838.03
753.989	14673.29
754.327	14613.85
754.666	14565.49
755.004	14554.87
755.342	14680.74
