Data from foam_black_FLMS001491_00063.txt Node
Date: Wed Feb 08 10:44:24 GMT 2017
User: dcchb
Spectrometer: FLMS00149
Trigger mode: 0
Integration Time (sec): 2.000000E-2
Scans to average: 10
Electric dark correction enabled: true
Nonlinearity correction enabled: false
Boxcar width: 0
XAxis mode: Wavelengths
Number of Pixels in Spectrum: 2048
>>>>>Begin Spectral Data<<<<<
341.393	-12.98
341.776	-12.98
342.16	-12.98
342.543	-74.22
342.927	-60.21
343.31	-72.87
343.693	-64.73
344.077	-70.38
344.46	-57.05
344.843	-32.64
345.226	-38.97
345.61	-48.69
345.993	-13.43
346.376	-4.84
346.759	-0.55
347.142	29.05
347.525	58.43
347.908	55.94
348.291	74.02
348.674	96.85
349.057	89.84
349.44	118.32
349.823	162.61
350.206	159.22
350.588	189.95
350.971	190.63
351.354	191.76
351.737	223.4
352.119	221.59
352.502	240.35
352.884	279.89
353.267	260.91
353.65	265.66
354.032	282.83
354.414	298.2
354.797	322.15
355.179	296.39
355.562	301.14
355.944	315.15
356.326	315.15
356.709	326.22
357.091	301.59
357.473	314.7
357.855	336.84
358.238	306.33
358.62	329.38
359.002	313.57
359.384	313.34
359.766	321.93
360.148	320.12
360.53	328.93
360.912	325.32
361.294	307.01
361.676	297.52
362.057	313.79
362.439	294.58
362.821	300.46
363.203	311.98
363.584	307.01
363.966	304.98
364.348	312.21
364.729	316.73
365.111	294.13
365.493	314.7
365.874	287.58
366.256	309.5
366.637	295.94
367.019	292.32
367.4	276.05
367.781	293.68
368.163	305.43
368.544	283.74
368.925	292.32
369.306	295.49
369.688	298.42
370.069	303.17
370.45	292.32
370.831	296.39
371.212	305.43
371.593	286.67
371.974	299.55
372.355	299.78
372.736	290.06
373.117	281.93
373.498	294.81
373.879	281.93
374.26	287.8
374.641	286.67
375.021	270.18
375.402	311.76
375.783	302.49
376.163	288.48
376.544	314.7
376.925	311.98
377.305	300.23
377.686	293
378.066	309.05
378.447	292.55
378.827	309.27
379.208	307.69
379.588	320.57
379.968	314.92
380.349	291.64
380.729	288.26
381.109	303.17
381.489	325.99
381.87	335.03
382.25	309.72
382.63	321.47
383.01	309.72
383.39	324.64
383.77	318.76
384.15	325.99
384.53	328.93
384.91	306.79
385.29	306.56
385.67	331.42
386.049	334.13
386.429	350.17
386.809	321.02
387.189	334.58
387.568	336.84
387.948	338.65
388.328	335.26
388.707	326.22
389.087	353.34
389.466	353.11
389.846	348.14
390.225	324.41
390.605	343.39
390.984	328.71
391.363	361.25
391.743	325.09
392.122	339.55
392.501	338.2
392.881	328.93
393.26	350.17
393.639	363.51
394.018	363.28
394.397	355.6
394.776	374.58
395.155	365.77
395.534	356.28
395.913	358.76
396.292	337.75
396.671	356.05
397.05	367.35
397.429	342.94
397.808	363.28
398.186	382.26
398.565	370.74
398.944	359.21
399.323	340.91
399.701	358.31
400.08	354.69
400.458	369.38
400.837	379.78
401.215	369.16
401.594	367.35
401.972	348.14
402.351	398.31
402.729	389.27
403.107	370.51
403.486	381.81
403.864	377.74
404.242	387.91
404.62	387.01
404.999	380
405.377	390.63
405.755	394.92
406.133	387.01
406.511	386.11
406.889	400.79
407.267	400.12
407.645	405.31
408.023	388.14
408.401	411.87
408.779	410.06
409.156	406.67
409.534	405.09
409.912	436.5
410.29	417.29
410.667	394.92
411.045	416.61
411.422	424.3
411.8	416.16
412.178	426.1
412.555	416.61
412.933	418.42
413.31	419.1
413.687	440.34
414.065	433.34
414.442	429.72
414.819	441.7
415.197	463.39
415.574	453.9
415.951	428.82
416.328	437.18
416.705	451.19
417.082	460.45
417.46	455.71
417.837	462.49
418.214	432.88
418.591	465.88
418.967	460.91
419.344	466.56
419.721	464.07
420.098	453.45
420.475	466.56
420.852	447.12
421.228	448.93
421.605	453.67
421.982	480.34
422.358	469.27
422.735	478.98
423.111	459.78
423.488	505.65
423.864	482.6
424.241	501.58
424.617	480.11
424.994	497.29
425.37	499.1
425.746	500.9
426.123	509.49
426.499	494.58
426.875	506.55
427.251	502.03
427.627	520.57
428.003	533.45
428.379	547.23
428.756	518.08
429.132	524.63
429.507	542.94
429.883	549.04
430.259	523.28
430.635	551.98
431.011	547.91
431.387	560.34
431.763	549.49
432.138	563.73
432.514	562.15
432.89	546.33
433.265	579.32
433.641	554.91
434.016	577.74
434.392	590.39
434.767	587.68
435.143	573.45
435.518	591.52
435.894	573.45
436.269	601.47
436.644	610.73
437.02	613.22
437.395	633.1
437.77	628.13
438.145	619.55
438.52	631.97
438.895	631.97
439.271	627.23
439.646	644.63
440.021	643.5
440.395	627.46
440.77	627
441.145	630.17
441.52	622.71
441.895	655.03
442.27	662.48
442.645	657.96
443.019	633.1
443.394	648.47
443.769	665.65
444.143	645.76
444.518	669.49
444.892	667
445.267	652.31
445.641	676.27
446.016	678.3
446.39	678.08
446.764	689.6
447.139	702.26
447.513	667.23
447.887	680.79
448.262	700.45
448.636	697.74
449.01	678.98
449.384	693.22
449.758	694.57
450.132	700.22
450.506	702.26
450.88	691.18
451.254	707.68
451.628	697.51
452.002	731.86
452.376	753.1
452.75	746.1
453.123	739.09
453.497	756.94
453.871	733.67
454.244	763.95
454.618	762.14
454.992	765.08
455.365	767.11
455.739	773.89
456.112	784.97
456.486	798.3
456.859	790.84
457.232	795.13
457.606	801.91
457.979	813.67
458.352	820.44
458.725	835.36
459.099	808.47
459.472	823.38
459.845	856.83
460.218	852.53
460.591	862.7
460.964	861.8
461.337	870.61
461.71	866.32
462.083	887.11
462.456	885.08
462.829	896.6
463.201	904.74
463.574	904.51
463.947	929.37
464.32	927.11
464.692	922.14
465.065	937.73
465.438	957.62
465.81	978.63
466.183	969.37
466.555	977.73
466.928	974.56
467.3	1009.14
467.672	996.94
468.045	997.39
468.417	1020.89
468.789	1030.61
469.161	1056.82
469.534	1063.15
469.906	1048.69
470.278	1066.77
470.65	1074.9
471.022	1082.13
471.394	1097.05
471.766	1090.72
472.138	1102.25
472.51	1124.84
472.882	1161.68
473.253	1143.37
473.625	1168.68
473.997	1192.86
474.369	1214.11
474.74	1197.61
475.112	1210.94
475.484	1226.76
475.855	1253.65
476.227	1283.48
476.598	1292.75
476.97	1281.68
477.341	1319.64
477.713	1322.8
478.084	1321.22
478.455	1353.31
478.827	1370.94
479.198	1400.77
479.569	1392.63
479.94	1442.35
480.311	1414.1
480.682	1459.3
481.053	1479.86
481.424	1483.03
481.795	1502.46
482.166	1558.05
482.537	1549.24
482.908	1580.65
483.279	1603.25
483.65	1631.27
484.021	1617.71
484.391	1680.31
484.762	1665.17
485.133	1681.89
485.503	1691.38
485.874	1693.87
486.244	1741.78
486.615	1774.32
486.985	1756.69
487.356	1782.23
487.726	1801.21
488.097	1829.68
488.467	1859.29
488.837	1853.41
489.207	1907.87
489.578	1928.44
489.948	1951.04
490.318	1963.47
490.688	1963.69
491.058	2005.95
491.428	1996.91
491.798	2011.15
492.168	2019.51
492.538	2056.8
492.908	2083.24
493.278	2090.47
493.648	2101.09
494.017	2145.38
494.387	2168.88
494.757	2163.91
495.126	2221.09
495.496	2150.35
495.866	2229
496.235	2237.58
496.605	2205.49
496.974	2262.44
497.344	2255.44
497.713	2306.51
498.082	2291.59
498.452	2322.33
498.821	2322.33
499.19	2323.91
499.559	2365.26
499.928	2363
500.298	2366.62
500.667	2422.89
501.036	2404.81
501.405	2380.63
501.774	2399.61
502.143	2422.89
502.512	2432.83
502.88	2490.91
503.249	2489.78
503.618	2500.85
503.987	2513.51
504.356	2534.07
504.724	2548.31
505.093	2536.11
505.462	2550.34
505.83	2552.6
506.199	2596.89
506.567	2615.2
506.936	2631.02
507.304	2657.91
507.672	2643.22
508.041	2659.94
508.409	2671.47
508.777	2664.24
509.145	2716.67
509.514	2732.26
509.882	2729.77
510.25	2749.89
510.618	2793.95
510.986	2794.63
511.354	2813.61
511.722	2800.73
512.09	2862.42
512.458	2828.98
512.826	2880.96
513.193	2915.3
513.561	2901.29
513.929	2894.74
514.297	2945.81
514.664	2968.41
515.032	2990.56
515.4	3017.45
515.767	3048.18
516.135	3027.84
516.502	3047.28
516.869	3090.44
517.237	3080.5
517.604	3082.76
517.972	3092.93
518.339	3146.03
518.706	3087.73
519.073	3166.37
519.44	3192.36
519.808	3191.46
520.175	3202.3
520.542	3235.75
520.909	3284.33
521.276	3261.06
521.643	3313.94
522.009	3309.64
522.376	3342.19
522.743	3396.42
523.11	3386.25
523.477	3428.96
523.843	3446.14
524.21	3503.54
524.577	3516.87
524.943	3541.95
525.31	3548.73
525.676	3584.44
526.043	3593.93
526.409	3618.56
526.776	3670.09
527.142	3699.69
527.508	3702.85
527.874	3707.37
528.241	3719.13
528.607	3715.74
528.973	3808.61
529.339	3760.03
529.705	3849.52
530.071	3824.66
530.437	3796.41
530.803	3822.17
531.169	3837.54
531.535	3892.45
531.901	3897.43
532.267	3894.04
532.632	3899.91
532.998	3931.32
533.364	3950.76
533.73	3983.07
534.095	4028.95
534.461	3989.85
534.826	4026.46
535.192	4026.24
535.557	4093.35
535.923	4115.95
536.288	4094.93
536.653	4160.7
537.019	4118.89
537.384	4182.84
537.749	4165.44
538.114	4205.89
538.479	4172.45
538.845	4227.59
539.21	4237.53
539.575	4256.96
539.94	4263.74
540.305	4273.01
540.67	4268.26
541.034	4305.1
541.399	4339.22
541.764	4312.33
542.129	4353.01
542.494	4329.28
542.858	4366.11
543.223	4343.06
543.587	4381.48
543.952	4347.58
544.316	4374.7
544.681	4363.85
545.045	4381.71
545.41	4421.03
545.774	4443.17
546.138	4468.03
546.503	4485.43
546.867	4481.59
547.231	4558.65
547.595	4531.08
547.959	4532.89
548.324	4600.91
548.688	4595.26
549.052	4663.28
549.416	4638.88
549.779	4671.42
550.143	4690.63
550.507	4729.04
550.871	4738.53
551.235	4700.12
551.599	4725.65
551.962	4818.98
552.326	4824.41
552.689	4845.65
553.053	4811.53
553.417	4765.88
553.78	4847.23
554.143	4875.48
554.507	4880.68
554.87	4893.11
555.234	4957.51
555.597	4925.2
555.96	4947.12
556.323	4993.22
556.686	4915.25
557.05	5031.63
557.413	5016.94
557.776	5049.26
558.139	5065.98
558.502	5023.5
558.865	5073.67
559.228	5082.03
559.59	5117.51
559.953	5132.65
560.316	5163.83
560.679	5176.71
561.041	5211.97
561.404	5216.94
561.767	5270.27
562.129	5261.68
562.492	5334.22
562.854	5324.05
563.217	5327.67
563.579	5360.66
563.941	5429.81
564.304	5413.32
564.666	5490.15
565.028	5427.33
565.39	5483.6
565.753	5497.61
566.115	5507.78
566.477	5580.32
566.839	5574.67
567.201	5630.49
567.563	5674.55
567.925	5705.51
568.287	5695.34
568.648	5745.96
569.01	5769.24
569.372	5821.67
569.734	5783.93
570.095	5823.7
570.457	5832.06
570.819	5863.93
571.18	5859.41
571.542	5848.79
571.903	5892.4
572.265	5901.21
572.626	5877.26
572.987	5959.07
573.349	5962.23
573.71	5940.08
574.071	5940.76
574.432	5961.1
574.794	6066.63
575.155	6011.95
575.516	5973.98
575.877	6038.16
576.238	6006.07
576.599	6085.39
576.96	6064.15
577.32	6062.57
577.681	6090.36
578.042	6059.4
578.403	6137.82
578.763	6102.57
579.124	6136.91
579.485	6217.82
579.845	6238.16
580.206	6180.98
580.566	6168.55
580.927	6242.45
581.287	6215.1
581.648	6201.55
582.008	6264.14
582.368	6303.46
582.728	6257.14
583.089	6220.3
583.449	6248.32
583.809	6249.45
584.169	6281.09
584.529	6256.46
584.889	6317.48
585.249	6300.07
585.609	6202
585.969	6307.08
586.329	6289.91
586.688	6338.49
587.048	6278.61
587.408	6276.57
587.768	6249
588.127	6290.36
588.487	6218.27
588.846	6230.25
589.206	6233.41
589.565	6218.72
589.925	6268.44
590.284	6278.61
590.643	6228.21
591.003	6263.47
591.362	6279.28
591.721	6246.74
592.08	6226.18
592.44	6306.85
592.799	6236.12
593.158	6241.32
593.517	6256.46
593.876	6274.76
594.235	6280.87
594.593	6288.78
594.952	6272.5
595.311	6239.74
595.67	6313.63
596.029	6321.77
596.387	6319.96
596.746	6348.21
597.104	6294.2
597.463	6324.03
597.822	6337.36
598.18	6343.46
598.538	6318.15
598.897	6393.18
599.255	6319.73
599.613	6333.07
599.972	6367.19
600.33	6411.71
600.688	6352.28
601.046	6357.7
601.404	6434.08
601.762	6441.31
602.12	6364.93
602.478	6394.31
602.836	6431.6
603.194	6324.48
603.552	6392.28
603.91	6348.43
604.268	6392.95
604.625	6421.88
604.983	6393.63
605.341	6362.45
605.698	6399.05
606.056	6387.3
606.413	6344.82
606.771	6450.35
607.128	6425.49
607.485	6345.72
607.843	6411.48
608.2	6432.73
608.557	6478.37
608.914	6449.22
609.272	6498.71
609.629	6488.54
609.986	6525.15
610.343	6458.26
610.7	6500.52
611.057	6489.22
611.414	6466.17
611.771	6540.07
612.127	6520.41
612.484	6553.4
612.841	6503.01
613.198	6557.92
613.554	6505.94
613.911	6574.87
614.267	6589.33
614.624	6604.47
614.98	6650.57
615.337	6609.22
615.693	6555.43
616.05	6592.04
616.406	6622.55
616.762	6601.31
617.118	6601.99
617.475	6620.29
617.831	6638.14
618.187	6633.85
618.543	6649.67
618.899	6628.43
619.255	6673.62
619.611	6652.38
619.967	6651.7
620.323	6670.23
620.678	6635.43
621.034	6638.6
621.39	6625.49
621.746	6609.67
622.101	6654.19
622.457	6641.76
622.812	6641.99
623.168	6624.13
623.523	6634.3
623.879	6738.26
624.234	6574.19
624.589	6671.82
624.945	6658.48
625.3	6607.86
625.655	6684.92
626.01	6683.57
626.365	6720.85
626.72	6651.93
627.075	6663.91
627.43	6692.38
627.785	6682.66
628.14	6686.73
628.495	6667.3
628.85	6669.78
629.205	6672.95
629.559	6689.22
629.914	6641.99
630.269	6649.9
630.623	6654.64
630.978	6680.4
631.332	6638.37
631.687	6696.45
632.041	6663.23
632.396	6730.8
632.75	6653.29
633.104	6653.29
633.459	6624.13
633.813	6632.95
634.167	6611.93
634.521	6619.16
634.875	6590.01
635.229	6582.1
635.583	6614.19
635.937	6536.68
636.291	6551.59
636.645	6547.07
636.999	6550.69
637.352	6533.97
637.706	6472.05
638.06	6464.14
638.413	6457.13
638.767	6460.52
639.121	6451.71
639.474	6459.84
639.828	6429.79
640.181	6449.45
640.534	6430.92
640.888	6377.36
641.241	6451.03
641.594	6410.81
641.947	6374.87
642.301	6382.33
642.654	6374.65
643.007	6394.54
643.36	6370.58
643.713	6380.52
644.066	6364.03
644.419	6291.71
644.771	6253.52
645.124	6220.53
645.477	6212.85
645.83	6153.41
646.182	6109.8
646.535	6163.35
646.888	6172.39
647.24	6154.54
647.593	6173.52
647.945	6210.13
648.298	6189.34
648.65	6120.19
649.002	6106.86
649.355	6132.17
649.707	6101.44
650.059	6144.6
650.411	6226.4
650.763	6134.43
651.115	6264.37
651.467	6262.56
651.819	6199.51
652.171	6201.32
652.523	6188.89
652.875	6237.48
653.227	6235.22
653.578	6203.13
653.93	6185.73
654.282	6224.82
654.633	6239.51
654.985	6192.05
655.337	6179.63
655.688	6119.51
656.039	6189.34
656.391	6115.22
656.742	6213.07
657.094	6153.86
657.445	6186.41
657.796	6094.2
658.147	6157.48
658.498	6154.09
658.849	6106.63
659.2	6094.43
659.551	6029.35
659.902	6095.56
660.253	6033.87
660.604	6082.68
660.955	6041.55
661.306	6051.72
661.656	6007.43
662.007	6060.53
662.358	6041.78
662.708	6069.57
663.059	6066.86
663.409	6056.69
663.76	6090.36
664.11	6049.46
664.461	6130.14
664.811	6133.07
665.161	6097.37
665.511	6053.75
665.862	6134.2
666.212	6095.11
666.562	6050.82
666.912	6076.13
667.262	6076.35
667.612	6089.23
667.962	6064.15
668.312	6099.85
668.662	6061.66
669.011	6043.58
669.361	6010.14
669.711	6058.27
670.06	6029.35
670.41	6062.11
670.76	6047.88
671.109	6069.12
671.459	6032.96
671.808	5981.66
672.157	6038.16
672.507	5981.66
672.856	5957.03
673.205	5979.18
673.554	5976.69
673.904	5982.79
674.253	5984.38
674.602	5944.6
674.951	5870.48
675.3	5833.19
675.649	5923.81
675.998	5882.46
676.346	5961.1
676.695	5934.66
677.044	5894.89
677.393	5883.14
677.741	5872.29
678.09	5850.82
678.438	5841.78
678.787	5935.79
679.135	5874.55
679.484	5850.59
679.832	5884.04
680.181	5735.34
680.529	5839.75
680.877	5830.26
681.225	5821.89
681.573	5839.97
681.922	5808.11
682.27	5783.48
682.618	5834.32
682.966	5762.01
683.314	5794.33
683.661	5766.53
684.009	5733.31
684.357	5731.95
684.705	5717.26
685.053	5776.47
685.4	5742.8
685.748	5744.38
686.095	5713.2
686.443	5712.75
686.79	5701.45
687.138	5730.37
687.485	5782.35
687.832	5723.37
688.18	5759.98
688.527	5707.1
688.874	5702.35
689.221	5669.81
689.568	5655.57
689.915	5693.99
690.262	5649.02
690.609	5656.02
690.956	5608.12
691.303	5570.6
691.65	5583.94
691.997	5562.92
692.344	5542.58
692.69	5508.91
693.037	5566.53
693.383	5538.96
693.73	5569.7
694.077	5489.47
694.423	5459.87
694.769	5460.32
695.116	5419.19
695.462	5407.22
695.808	5395.92
696.155	5357.5
696.501	5324.05
696.847	5324.96
697.193	5247.45
697.539	5353.88
697.885	5247.45
698.231	5222.14
698.577	5215.36
698.923	5168.58
699.269	5145.53
699.614	5186.88
699.96	5101.91
700.306	5186.88
700.651	5145.75
700.997	5155.25
701.342	5089.94
701.688	5070.05
702.033	5053.55
702.379	5082.93
702.724	5039.77
703.069	5121.57
703.415	4960.67
703.76	5033.44
704.105	5031.86
704.45	5001.58
704.795	5016.27
705.14	4981.69
705.485	4994.57
705.83	4963.16
706.175	4938.08
706.52	4952.54
706.865	4969.71
707.209	4928.36
707.554	4945.76
707.899	4926.33
708.243	4902.15
708.588	4879.55
708.932	4892.88
709.277	4859.43
709.621	4908.02
709.966	4808.81
710.31	4844.75
710.654	4867.12
710.998	4877.51
711.342	4909.83
711.687	4852.65
712.031	4900.56
712.375	4846.1
712.719	4817.63
713.063	4847.23
713.407	4814.69
713.75	4771.75
714.094	4788.7
714.438	4786.22
714.782	4762.71
715.125	4703.28
715.469	4753
715.812	4687.46
716.156	4718.42
716.499	4669.83
716.843	4688.59
717.186	4690.17
717.53	4689.27
717.873	4649.27
718.216	4632.55
718.559	4593
718.902	4572.21
719.246	4587.13
719.589	4552.78
719.932	4533.79
720.275	4511.87
720.617	4530.18
720.96	4511.42
721.303	4518.65
721.646	4534.92
721.989	4500.35
722.331	4509.39
722.674	4483.63
723.016	4456.28
723.359	4450.86
723.701	4485.21
724.044	4457.86
724.386	4465.77
724.729	4415.6
725.071	4432.1
725.413	4390.52
725.755	4414.7
726.097	4400.01
726.439	4380.35
726.782	4400.69
727.124	4424.42
727.465	4411.76
727.807	4439.56
728.149	4366.11
728.491	4356.4
728.833	4362.05
729.175	4361.82
729.516	4392.1
729.858	4379.9
730.199	4330.63
730.541	4333.8
730.882	4334.7
731.224	4360.01
731.565	4368.6
731.906	4319.11
732.248	4341.71
732.589	4353.91
732.93	4345.1
733.271	4355.27
733.612	4289.73
733.953	4338.77
734.294	4322.27
734.635	4298.32
734.976	4287.7
735.317	4295.61
735.658	4296.51
735.999	4298.55
736.339	4284.08
736.68	4290.41
737.021	4231.88
737.361	4232.56
737.702	4223.29
738.042	4216.97
738.383	4248.6
738.723	4235.04
739.063	4190.3
739.404	4227.59
739.744	4214.48
740.084	4190.53
740.424	4226.23
740.764	4205.67
741.104	4175.84
741.444	4164.54
741.784	4146.01
742.124	4210.19
742.464	4142.84
742.804	4146.01
743.143	4117.53
743.483	4152.33
743.823	4177.87
744.162	4087.03
744.502	4097.87
744.841	4064.2
745.181	4099.23
745.52	4055.61
745.86	4103.75
746.199	4058.33
746.538	4040.25
746.877	4107.82
747.216	4096.52
747.556	4021.49
747.895	4048.38
748.234	4025.11
748.573	4038.66
748.911	4030.53
749.25	4020.36
749.589	4005.9
749.928	3992.79
750.267	3973.81
750.605	3943.98
750.944	3965.67
751.283	3985.79
751.621	3953.7
751.96	3936.07
752.298	3902.17
752.636	3919.57
752.975	3877.31
753.313	3872.79
753.651	3876.41
753.989	3851.78
754.327	3888.39
754.666	3850.65
755.004	3862.85
755.342	3873.25
755.679	3899.69
756.017	3842.74
756.355	3869.63
756.693	3850.65
757.031	3840.25
757.368	3875.51
757.706	3906.01
758.044	3830.53
758.381	3865.34
758.719	3844.32
759.056	3848.39
759.394	3848.39
759.731	3797.09
760.068	3775.62
760.405	3764.1
760.743	3772.23
761.08	3800.93
761.417	3754.83
761.754	3767.49
762.091	3745.57
762.428	3758.45
762.765	3743.98
763.102	3723.19
763.438	3738.11
763.775	3678.67
764.112	3678.45
764.449	3692.91
764.785	3723.87
765.122	3671.22
765.458	3655.85
765.795	3623.76
766.131	3633.7
766.467	3632.8
766.804	3616.53
767.14	3595.29
767.476	3609.98
767.812	3565.46
768.148	3561.62
768.485	3533.59
768.821	3542.41
769.157	3466.93
769.492	3507.15
769.828	3481.17
770.164	3445.01
770.5	3449.75
770.836	3459.02
771.171	3400.49
