Data from foam2_polystyrene_foam_FLMS001491_00014.txt Node
Date: Wed Feb 08 10:57:35 GMT 2017
User: dcchb
Spectrometer: FLMS00149
Trigger mode: 0
Integration Time (sec): 2.000000E-2
Scans to average: 10
Electric dark correction enabled: true
Nonlinearity correction enabled: false
Boxcar width: 0
XAxis mode: Wavelengths
Number of Pixels in Spectrum: 2048
>>>>>Begin Spectral Data<<<<<
341.393	-7.58
341.776	-7.58
342.16	-7.58
342.543	-54.59
342.927	-75.83
343.31	-58.88
343.693	-88.49
344.077	-58.43
344.46	-53.01
344.843	-54.81
345.226	-41.93
345.61	-25.89
345.993	-24.08
346.376	-14.82
346.759	26.99
347.142	10.27
347.525	45.75
347.908	62.92
348.291	81.45
348.674	78.06
349.057	114.9
349.44	138.85
349.823	137.5
350.206	169.81
350.588	211.62
350.971	237.15
351.354	235.35
351.737	236.25
352.119	264.72
352.502	252.75
352.884	259.3
353.267	296.14
353.65	305.63
354.032	299.53
354.414	328
354.797	337.49
355.179	340.65
355.562	332.07
355.944	334.78
356.326	366.19
356.709	351.73
357.091	343.59
357.473	360.54
357.855	356.02
358.238	345.4
358.62	366.19
359.002	347.43
359.384	370.26
359.766	350.6
360.148	346.3
360.53	367.77
360.912	363.03
361.294	335.68
361.676	352.63
362.057	329.36
362.439	344.27
362.821	353.08
363.203	356.7
363.584	363.25
363.966	365.51
364.348	349.69
364.729	348.56
365.111	359.86
365.493	366.64
365.874	364.38
366.256	345.85
366.637	350.15
367.019	351.28
367.4	357.38
367.781	325.74
368.163	363.03
368.544	344.04
368.925	359.41
369.306	360.32
369.688	358.96
370.069	370.71
370.45	347.66
370.831	351.5
371.212	347.43
371.593	350.37
371.974	352.86
372.355	347.21
372.736	362.12
373.117	350.82
373.498	359.86
373.879	370.71
374.26	376.81
374.641	357.83
375.021	367.09
375.402	377.72
375.783	382.91
376.163	388.56
376.544	388.11
376.925	365.74
377.305	377.49
377.686	392.63
378.066	387.21
378.447	385.85
378.827	398.51
379.208	383.37
379.588	407.77
379.968	415.68
380.349	393.53
380.729	414.55
381.109	416.13
381.489	399.18
381.87	416.59
382.25	411.16
382.63	439.86
383.01	428.56
383.39	418.84
383.77	431.05
384.15	433.08
384.53	444.38
384.91	419.3
385.29	446.87
385.67	428.11
386.049	454.1
386.429	450.71
386.809	476.92
387.189	476.7
387.568	457.94
387.948	481.89
388.328	460.88
388.707	462.46
389.087	488.9
389.466	501.1
389.846	494.55
390.225	478.28
390.605	501.55
390.984	509.69
391.363	504.49
391.743	489.8
392.122	520.76
392.501	519.18
392.881	524.38
393.26	511.5
393.639	525.28
394.018	508.79
394.397	529.58
394.776	514.44
395.155	541.33
395.534	562.12
395.913	521.89
396.292	558.05
396.671	563.47
397.05	581.55
397.429	564.15
397.808	550.37
398.186	593.76
398.565	570.03
398.944	603.7
399.323	597.6
399.701	580.65
400.08	586.98
400.458	615.68
400.837	606.18
401.215	609.8
401.594	610.7
401.972	624.72
402.351	630.14
402.729	634.88
403.107	655.22
403.486	652.96
403.864	671.04
404.242	680.31
404.62	667.88
404.999	673.75
405.377	694.09
405.755	680.76
406.133	673.3
406.511	708.55
406.889	703.58
407.267	710.81
407.645	758.95
408.023	731.38
408.401	752.4
408.779	756.01
409.156	787.42
409.534	760.76
409.912	751.04
410.29	782.23
410.667	802.11
411.045	786.07
411.422	795.11
411.8	818.16
412.178	812.96
412.555	832.62
412.933	849.12
413.31	901.54
413.687	872.84
414.065	876.01
414.442	889.79
414.819	909.23
415.197	914.43
415.574	922.33
415.951	909
416.328	907.65
416.705	932.28
417.082	956.91
417.46	972.05
417.837	943.8
418.214	992.39
418.591	979.51
418.967	983.12
419.344	1025.61
419.721	1023.35
420.098	1020.19
420.475	1033.29
420.852	1020.86
421.228	1040.52
421.605	1064.25
421.982	1073.74
422.358	1093.86
422.735	1127.53
423.111	1095.21
423.488	1110.8
423.864	1131.59
424.241	1134.98
424.617	1153.74
424.994	1151.93
425.37	1160.97
425.746	1164.81
426.123	1211.82
426.499	1175.21
426.875	1224.47
427.251	1236.45
427.627	1275.55
428.003	1266.73
428.379	1304.7
428.756	1298.82
429.132	1324.36
429.507	1358.48
429.883	1370.91
430.259	1374.3
430.635	1376.56
431.011	1392.38
431.387	1421.98
431.763	1455.43
432.138	1416.33
432.514	1468.31
432.89	1487.74
433.265	1524.8
433.641	1539.95
434.016	1537.23
434.392	1574.29
434.767	1618.59
435.143	1604.8
435.518	1617.23
435.894	1644.58
436.269	1646.16
436.644	1685.25
437.02	1707.17
437.395	1727.06
437.77	1744.01
438.145	1759.15
438.52	1753.27
438.895	1754.4
439.271	1773.61
439.646	1849.09
440.021	1859.49
440.395	1864.68
440.77	1859.03
441.145	1893.38
441.52	1941.97
441.895	1929.54
442.27	1939.48
442.645	1934.51
443.019	1991.23
443.394	1988.75
443.769	2005.24
444.143	1988.3
444.518	2028.97
444.892	2024.45
445.267	2021.29
445.641	2082.98
446.016	2068.07
446.39	2083.43
446.764	2137.22
447.139	2142.64
447.513	2164.34
447.887	2157.56
448.262	2151
448.636	2218.8
449.01	2210.89
449.384	2224
449.758	2252.47
450.132	2307.61
450.506	2303.99
450.88	2321.39
451.254	2314.16
451.628	2417.89
452.002	2403.2
452.376	2431.22
452.75	2438.23
453.123	2440.71
453.497	2495.63
453.871	2551.44
454.244	2556.87
454.618	2569.07
454.992	2594.61
455.365	2617.66
455.739	2682.74
456.112	2690.88
456.486	2689.29
456.859	2727.26
457.232	2785.34
457.606	2785.11
457.979	2822.62
458.352	2863.53
458.725	2902.85
459.099	2902.17
459.472	2967.25
459.845	3007.25
460.218	3012.22
460.591	3043.41
460.964	3043.86
461.337	3137.42
461.71	3162.95
462.083	3208.15
462.456	3231.88
462.829	3277.75
463.201	3337.86
463.574	3307.13
463.947	3370.41
464.32	3431.2
464.692	3469.84
465.065	3508.26
465.438	3567.24
465.81	3609.27
466.183	3625.99
466.555	3691.98
466.928	3738.76
467.3	3731.3
467.672	3806.55
468.045	3895.82
468.417	3911.41
468.789	3947.11
469.161	4005.64
469.534	4045.87
469.906	4155.02
470.278	4212.42
470.65	4192.31
471.022	4258.29
471.394	4404.28
471.766	4381
472.138	4439.98
472.51	4567.21
472.882	4642.46
473.253	4649.69
473.625	4767.21
473.997	4825.28
474.369	4837.94
474.74	4913.64
475.112	5020.08
475.484	5104.82
475.855	5194.99
476.227	5235.22
476.598	5354.53
476.97	5403.12
477.341	5564.02
477.713	5578.26
478.084	5646.73
478.455	5771.7
478.827	5843.79
479.198	6026.61
479.569	6022.99
479.94	6173.04
480.311	6266.37
480.682	6382.3
481.053	6527.38
481.424	6622.98
481.795	6678.34
482.166	6758.79
482.537	6877.21
482.908	7028.39
483.279	7092.12
483.65	7230.64
484.021	7270.87
484.391	7431.54
484.762	7513.12
485.133	7531.65
485.503	7712.44
485.874	7921.02
486.244	7954.01
486.615	8075.82
486.985	8154.91
487.356	8370.5
487.726	8387
488.097	8662.47
488.467	8620.44
488.837	8831.73
489.207	8919.41
489.578	9074.44
489.948	9121.44
490.318	9244.83
490.688	9296.13
491.058	9414.99
491.428	9490.02
491.798	9685.04
492.168	9833.51
492.538	9859.5
492.908	9985.6
493.278	10132.49
493.648	10182.43
494.017	10315.31
494.387	10361.41
494.757	10471.91
495.126	10630.78
495.496	10586.49
495.866	10706.71
496.235	10878.23
496.605	10972.69
496.974	11034.16
497.344	11187.15
497.713	11181.27
498.082	11272.34
498.452	11456.29
498.821	11474.6
499.19	11470.98
499.559	11698.32
499.928	11760.24
500.298	11805.21
500.667	11888.15
501.036	11991.42
501.405	12078.88
501.774	12102.38
502.143	12249.72
502.512	12337.85
502.88	12443.16
503.249	12478.64
503.618	12563.61
503.987	12675.47
504.356	12723.83
504.724	12799.31
505.093	12898.74
505.462	12947.56
505.83	13084.5
506.199	13101.45
506.567	13259.41
506.936	13365.85
507.304	13557.26
507.672	13599.29
508.041	13653.3
508.409	13778.72
508.777	13879.73
509.145	13922.9
509.514	13968.09
509.882	14156.79
510.25	14243.79
510.618	14422.54
510.986	14362.89
511.354	14544.8
511.722	14690.33
512.09	14731.69
512.458	14799.71
512.826	14935.3
513.193	15084.22
513.561	15101.4
513.929	15243.31
514.297	15374.16
514.664	15445.34
515.032	15509.75
515.4	15606.47
515.767	15782.51
516.135	15860.25
516.502	15822.73
516.869	16137.53
517.237	16202.61
517.604	16152.67
517.972	16365.09
518.339	16447.8
518.706	16558.76
519.073	16712.65
519.44	16783.16
519.808	17019.76
520.175	17018.63
520.542	17267.67
520.909	17438.06
521.276	17462.46
521.643	17569.81
522.009	17759.63
522.376	17917.82
522.743	18041.43
523.11	18184.03
523.477	18246.62
523.843	18390.35
524.21	18583.11
524.577	18708.76
524.943	18853.39
525.31	18948.75
525.676	19158.69
526.043	19265.58
526.409	19295.86
526.776	19505.12
527.142	19604.33
527.508	19858.33
527.874	19881.84
528.241	20096.97
528.607	20161.6
528.973	20398.21
529.339	20341.48
529.705	20529.73
530.071	20673.45
530.437	20837.07
530.803	20960.45
531.169	21184.4
531.535	21158.41
531.901	21235.47
532.267	21369.71
532.632	21488.35
532.998	21628.46
533.364	21727.21
533.73	21705.29
534.095	21900.77
534.461	22024.15
534.826	22308.66
535.192	22221.44
535.557	22536
535.923	22465.5
536.288	22556.12
536.653	22670.01
537.019	22548.66
537.384	22688.99
537.749	23019.61
538.114	22873.85
538.479	22972.15
538.845	23137.8
539.21	23085.14
539.575	23248.08
539.94	23396.55
540.305	23465.92
540.67	23497.56
541.034	23667.73
541.399	23662.98
541.764	23863.2
542.129	23915.85
542.494	23989.75
542.858	24209.41
543.223	24234.04
543.587	24356.52
543.952	24313.36
544.316	24424.32
544.681	24382.28
545.045	24564.2
545.41	24713.35
545.774	24750.63
546.138	24812.1
546.503	24783.18
546.867	25015.49
547.231	25225.2
547.595	25155.14
547.959	25421.8
548.324	25409.6
548.688	25369.6
549.052	25529.6
549.416	25618.18
549.779	25660.67
550.143	25858.63
550.507	25903.82
550.871	26149.69
551.235	26005.06
551.599	26168.45
551.962	26404.6
552.326	26449.35
552.689	26584.03
553.053	26560.53
553.417	26679.62
553.78	26930.69
554.143	26877.58
554.507	27021.31
554.87	27089.78
555.234	27335.2
555.597	27194.64
555.96	27325.26
556.323	27544.46
556.686	27619.71
557.05	27777.45
557.413	27852.93
557.776	28031.68
558.139	28071.45
558.502	28192.13
558.865	28335.4
559.228	28574.04
559.59	28529.07
559.953	28610.19
560.316	28976.74
560.679	28930.86
561.041	29098.32
561.404	29213.34
561.767	29522.26
562.129	29512.09
562.492	29656.49
562.854	29696.72
563.217	29735.81
563.579	29980.33
563.941	30209.25
564.304	30228.68
564.666	30502.8
565.028	30538.05
565.39	30652.85
565.753	30850.36
566.115	30905.05
566.477	31120.18
566.839	31180.52
567.201	31317.02
567.563	31348.43
567.925	31596.78
568.287	31504.58
568.648	31650.57
569.01	31770.34
569.372	32063.44
569.734	31826.15
570.095	31977.56
570.457	32215.3
570.819	32215.97
571.18	32342.53
571.542	32560.6
571.903	32591.56
572.265	32625.68
572.626	32783.19
572.987	32933.02
573.349	33100.7
573.71	33148.38
574.071	33213.01
574.432	33424.98
574.794	33461.37
575.155	33525.09
575.516	33463.4
575.877	33548.82
576.238	33627.92
576.599	33883.5
576.96	33633.79
577.32	33837.4
577.681	34021.35
578.042	34049.37
578.403	34152.65
578.763	34078.3
579.124	34195.81
579.485	34299.08
579.845	34400.32
580.206	34368.46
580.566	34381.57
580.927	34307.9
581.287	34483.03
581.648	34394.45
582.008	34531.17
582.368	34485.07
582.728	34639.64
583.089	34512.19
583.449	34670.6
583.809	34542.02
584.169	34664.95
584.529	34663.14
584.889	34841.89
585.249	34744.95
585.609	34698.62
585.969	34906.75
586.329	34692.97
586.688	34835.12
587.048	34826.08
587.408	34838.28
587.768	34811.39
588.127	34792.63
588.487	34764.83
588.846	34990.82
589.206	34704.72
589.565	34941.1
589.925	35008.22
590.284	34861.56
590.643	35011.61
591.003	34963.02
591.362	35218.61
591.721	35004.15
592.08	35096.35
592.44	35141.32
592.799	35009.8
593.158	35101.77
593.517	35069.01
593.876	35089.8
594.235	34910.14
594.593	35050.25
594.952	35171.15
595.311	35077.59
595.67	35126.86
596.029	35354.42
596.387	35264.26
596.746	35375.67
597.104	35293.63
597.463	35256.8
597.822	35444.59
598.18	35102.23
598.538	35199.4
598.897	35512.61
599.255	35160.08
599.613	35666.05
599.972	35653.62
600.33	35591.25
600.688	35431.03
601.046	35714.64
601.404	35836.67
601.762	35712.38
602.12	35699.27
602.478	35752.38
602.836	35832.15
603.194	35702.21
603.552	35861.3
603.91	35696.79
604.268	35966.38
604.625	35843.68
604.983	35873.05
605.341	35809.78
605.698	36011.81
606.056	36066.95
606.413	36030.56
606.771	36223.33
607.128	36254.74
607.485	35903.34
607.843	36098.81
608.2	36152.14
608.557	36385.81
608.914	36330.22
609.272	36371.8
609.629	36322.76
609.986	36565.24
610.343	36242.76
610.7	36685.01
611.057	36551
611.414	36496.54
611.771	36668.51
612.127	36751.67
612.484	36701.28
612.841	36731.56
613.198	36814.5
613.554	36749.64
613.911	36929.07
614.267	37004.32
614.624	36766.82
614.98	36879.13
615.337	36980.82
615.693	37028.28
616.05	36939.01
616.406	37208.16
616.762	37124.77
617.118	37063.31
617.475	37062.18
617.831	37278.44
618.187	37236.18
618.543	37370.42
618.899	37424.2
619.255	37360.02
619.611	37487.93
619.967	37391.43
620.323	37420.81
620.678	37414.71
621.034	37279.34
621.39	37258.55
621.746	37320.93
622.101	37800.91
622.457	37458.77
622.812	37392.11
623.168	37421.71
623.523	37481.15
623.879	37460.36
624.234	37327.7
624.589	37447.7
624.945	37473.69
625.3	37461.03
625.655	37392.34
626.01	37491.54
626.365	37381.94
626.72	37348.27
627.075	37387.82
627.43	37260.81
627.785	37307.59
628.14	37306.69
628.495	37397.31
628.85	37276.63
629.205	37244.54
629.559	37425.1
629.914	37198.44
630.269	37242.28
630.623	37252.9
630.978	37089.07
631.332	37113.7
631.687	37213.36
632.041	37061.5
632.396	37112.12
632.75	36834.38
633.104	36931.33
633.459	36748.96
633.813	36778.79
634.167	36746.03
634.521	36668.51
634.875	36695.18
635.229	36623.99
635.583	36317.11
635.937	36556.88
636.291	36360.05
636.645	36362.53
636.999	36242.76
637.352	36469.2
637.706	36153.05
638.06	36287.28
638.413	36177
638.767	36069.43
639.121	36093.61
639.474	35826.05
639.828	35896.33
640.181	35974.29
640.534	35859.49
640.888	35833.05
641.241	35765.94
641.594	35708.31
641.947	35690.69
642.301	35522.1
642.654	35618.37
643.007	35462.44
643.36	35558.94
643.713	35432.61
644.066	35510.35
644.419	35294.99
644.771	35172.73
645.124	34707.89
645.477	34635.57
645.83	34384.73
646.182	34306.99
646.535	34081.69
646.888	34194.45
647.24	33953.56
647.593	34186.54
647.945	34031.97
648.298	33913.11
648.65	33660.91
649.002	33580.91
649.355	33888.47
649.707	33773.45
650.059	33885.31
650.411	34337.95
650.763	34326.2
651.115	34668.57
651.467	34444.62
651.819	34550.83
652.171	34378.18
652.523	34384.05
652.875	34253.21
653.227	34060.45
653.578	34321
653.93	34218.18
654.282	34088.69
654.633	34020.22
654.985	34116.94
655.337	34151.74
655.688	34110.39
656.039	34280.78
656.391	33849.38
656.742	33848.47
657.094	33913.33
657.445	33911.75
657.796	33950.39
658.147	33851.41
658.498	33713.34
658.849	33842.6
659.2	33708.37
659.551	33522.61
659.902	33638.99
660.253	33613.45
660.604	33566.67
660.955	33382.5
661.306	33618.65
661.656	33640.34
662.007	33470.86
662.358	33576.17
662.708	33590.4
663.059	33441.48
663.409	33165.78
663.76	33462.72
664.11	33492.33
664.461	33507.47
664.811	33453.46
665.161	33426.34
665.511	33267.02
665.862	33333.23
666.212	33380.69
666.562	33368.26
666.912	33215.5
667.262	33133.46
667.612	33231.77
667.962	33218.43
668.312	33132.79
668.662	33291.43
669.011	33100.25
669.361	33026.8
669.711	32950.19
670.06	32991.1
670.41	32880.14
670.76	32888.05
671.109	32881.72
671.459	32866.13
671.808	32806.47
672.157	32935.96
672.507	32462.52
672.856	32722.63
673.205	32738.9
673.554	32742.06
673.904	32757.43
674.253	32855.96
674.602	32772.12
674.951	32276.09
675.3	32015.3
675.649	32682.63
675.998	32683.53
676.346	32609.18
676.695	32620.71
677.044	32349.53
677.393	32397.67
677.741	32531.67
678.09	32361.28
678.438	32241.06
678.787	32321.73
679.135	32282.87
679.484	32012.36
679.832	32261.62
680.181	32137.33
680.529	32229.31
680.877	32071.35
681.225	31960.84
681.573	32181.17
681.922	31969.65
682.27	31857.34
682.618	31875.64
682.966	31789.32
683.314	31772.14
683.661	31702.77
684.009	31305.72
684.357	31575.99
684.705	31437.69
685.053	31501.42
685.4	31370.35
685.748	31120.86
686.095	31197.47
686.443	30933.07
686.79	30996.35
687.138	30997.93
687.485	30952.28
687.832	30883.13
688.18	30809.46
688.527	30626.86
688.874	30548.45
689.221	30598.16
689.568	30437.49
689.915	30457.38
690.262	30258.51
690.609	30175.35
690.956	30126.31
691.303	30069.82
691.65	29945.75
691.997	30000.44
692.344	29815.36
692.69	29694.91
693.037	29839.09
693.383	29509.15
693.73	29786.43
694.077	29516.61
694.423	29592.99
694.769	29455.6
695.116	29388.25
695.462	29333.11
695.808	29146.68
696.155	29264.19
696.501	28933.58
696.847	29007.7
697.193	28705.56
697.539	28807.93
697.885	28723.41
698.231	28554.15
698.577	28647.93
698.923	28507.82
699.269	28422.18
699.614	28285.91
699.96	28196.19
700.306	28310.54
700.651	28087.72
700.997	28010.66
701.342	28031.45
701.688	28005.24
702.033	27871.91
702.379	27812.47
702.724	27733.38
703.069	27824.23
703.415	27501.75
703.76	27546.95
704.105	27410.68
704.45	27438.02
704.795	27174.3
705.14	27247.07
705.485	27185.15
705.83	27053.17
706.175	27172.94
706.52	27043.23
706.865	26932.95
707.209	26939.73
707.554	26863.57
707.899	26855.21
708.243	26650.7
708.588	26539.51
708.932	26491.15
709.277	26437.82
709.621	26457.48
709.966	26407.09
710.31	26367.77
710.654	26173.42
710.998	26340.2
711.342	26028.34
711.687	26085.06
712.031	26007.32
712.375	25825.86
712.719	25914.67
713.063	25905.41
713.407	25892.53
713.75	25809.36
714.094	25821.57
714.438	25650.72
714.782	25690.95
715.125	25581.8
715.469	25531.4
715.812	25433.55
716.156	25336.61
716.499	25338.19
716.843	25461.8
717.186	25162.38
717.53	25299.09
717.873	25252.54
718.216	25175.03
718.559	25159.89
718.902	24972.32
719.246	25003.74
719.589	24986.56
719.932	24781.59
720.275	24845.32
720.617	24776.85
720.96	24800.35
721.303	24799.22
721.646	24766.91
721.989	24561.49
722.331	24680.81
722.674	24608.27
723.016	24654.59
723.359	24540.92
723.701	24572.56
724.044	24386.8
724.386	24299.57
724.729	24362.4
725.071	24264.32
725.413	24288.5
725.755	24164.21
726.097	24227.48
726.439	24107.26
726.782	24068.39
727.124	24156.3
727.465	23978.45
727.807	24039.24
728.149	23866.36
728.491	23954.72
728.833	24033.14
729.175	23847.38
729.516	23889.19
729.858	23675.18
730.199	23761.51
730.541	23708.18
730.882	23648.29
731.224	23625.47
731.565	23583.66
731.906	23610.55
732.248	23604.68
732.589	23321.29
732.93	23359.03
733.271	23346.38
733.612	23415.98
733.953	23446.04
734.294	23300.96
734.635	23205.36
734.976	23289.66
735.317	23271.8
735.658	23117.23
735.999	23181.41
736.339	23103.67
736.68	23143.22
737.021	22987.74
737.361	22909.1
737.702	23070.45
738.042	22926.5
738.383	22876.79
738.723	22953.85
739.063	22815.32
739.404	22785.49
739.744	22740.97
740.084	22630.92
740.424	22733.96
740.764	22694.19
741.104	22799.95
741.444	22656.68
741.784	22554.99
742.124	22577.36
742.464	22591.82
742.804	22506.63
743.143	22531.26
743.483	22250.81
743.823	22243.81
744.162	22285.16
744.502	22156.8
744.841	22131.95
745.181	22345.95
745.52	22110.25
745.86	22191.15
746.199	22126.75
746.538	22081.1
746.877	22190.02
747.216	22077.94
747.556	22011.05
747.895	21935.12
748.234	21834.55
748.573	21862.8
748.911	21809.47
749.25	21800.43
749.589	21651.06
749.928	21560.21
750.267	21707.32
750.605	21548.23
750.944	21517.27
751.283	21562.92
751.621	21457.16
751.96	21376.03
752.298	21467.11
752.636	21343.27
752.975	21280.22
753.313	21221.01
753.651	21408.58
753.989	21259.65
