Data from foam1_polythene_foam_FLMS001491_00098.txt Node
Date: Wed Feb 08 10:55:40 GMT 2017
User: dcchb
Spectrometer: FLMS00149
Trigger mode: 0
Integration Time (sec): 2.000000E-2
Scans to average: 10
Electric dark correction enabled: true
Nonlinearity correction enabled: false
Boxcar width: 0
XAxis mode: Wavelengths
Number of Pixels in Spectrum: 2048
>>>>>Begin Spectral Data<<<<<
341.393	-16.74
341.776	-16.74
342.16	-16.74
342.543	-69.62
342.927	-73.68
343.31	-61.93
343.693	-85.21
344.077	-77.75
344.46	-59.9
344.843	-49.5
345.226	-50.63
345.61	-16.51
345.993	-16.51
346.376	8.8
346.759	3.6
347.142	14.22
347.525	44.05
347.908	55.35
348.291	98.97
348.674	82.47
349.057	110.49
349.44	125.63
349.823	159.98
350.206	145.29
350.588	171.05
350.971	197.95
351.354	218.74
351.737	226.19
352.119	245.18
352.502	249.47
352.884	244.73
353.267	266.65
353.65	278.4
354.032	288.79
354.414	304.61
354.797	281.33
355.179	299.86
355.562	295.57
355.944	339.41
356.326	294.89
356.709	317.49
357.091	296.02
357.473	325.4
357.855	329.92
358.238	309.36
358.62	333.99
359.002	309.81
359.384	321.79
359.766	317.94
360.148	314.1
360.53	336.47
360.912	325.85
361.294	329.92
361.676	306.19
362.057	302.8
362.439	328.34
362.821	318.62
363.203	313.88
363.584	318.85
363.966	305.97
364.348	298.06
364.729	310.49
365.111	306.64
365.493	317.27
365.874	296.7
366.256	304.38
366.637	299.86
367.019	289.24
367.4	308.45
367.781	305.29
368.163	306.19
368.544	289.92
368.925	288.11
369.306	288.11
369.688	275.23
370.069	304.16
370.45	305.51
370.831	296.25
371.212	306.19
371.593	294.89
371.974	310.03
372.355	307.32
372.736	303.71
373.117	314.33
373.498	308.9
373.879	312.52
374.26	308.45
374.641	293.31
375.021	298.96
375.402	314.78
375.783	320.88
376.163	315.01
376.544	306.19
376.925	292.41
377.305	310.94
377.686	310.49
378.066	322.01
378.447	314.33
378.827	297.15
379.208	341.9
379.588	323.82
379.968	295.8
380.349	341.45
380.729	323.37
381.109	321.11
381.489	329.24
381.87	342.35
382.25	317.49
382.63	306.87
383.01	331.95
383.39	320.88
383.77	333.99
384.15	316.81
384.53	326.08
384.91	320.88
385.29	357.49
385.67	327.21
386.049	323.37
386.429	325.18
386.809	356.81
387.189	347.32
387.568	329.92
387.948	343.93
388.328	354.33
388.707	335.8
389.087	352.97
389.466	347.55
389.846	348
390.225	342.12
390.605	357.49
390.984	356.81
391.363	352.07
391.743	369.02
392.122	369.24
392.501	352.74
392.881	374.44
393.26	387.32
393.639	377.38
394.018	373.08
394.397	374.89
394.776	354.1
395.155	383.03
395.534	363.82
395.913	363.59
396.292	379.86
396.671	384.38
397.05	387.77
397.429	371.05
397.808	375.12
398.186	389.13
398.565	389.58
398.944	381.9
399.323	366.76
399.701	399.07
400.08	389.81
400.458	392.07
400.837	403.82
401.215	401.33
401.594	414.44
401.972	389.35
402.351	372.86
402.729	418.73
403.107	395.23
403.486	417.15
403.864	404.72
404.242	412.18
404.62	412.63
404.999	420.54
405.377	418.28
405.755	412.4
406.133	425.51
406.511	423.93
406.889	420.31
407.267	424.38
407.645	425.51
408.023	431.16
408.401	421.9
408.779	443.82
409.156	438.62
409.534	453.08
409.912	448.56
410.29	456.92
410.667	428.45
411.045	446.3
411.422	459.63
411.8	443.36
412.178	447.43
412.555	452.63
412.933	475.91
413.31	469.58
413.687	491.05
414.065	495.57
414.442	490.37
414.819	487.43
415.197	499.18
415.574	467.54
415.951	486.98
416.328	483.14
416.705	519.07
417.082	512.29
417.46	523.59
417.837	504.83
418.214	530.82
418.591	496.92
418.967	511.84
419.344	504.38
419.721	535.11
420.098	505.74
420.475	529.01
420.852	513.19
421.228	533.31
421.605	524.72
421.982	547.32
422.358	552.51
422.735	532.85
423.111	576.69
423.488	548.22
423.864	565.62
424.241	569.91
424.617	549.8
424.994	538.28
425.37	574.43
425.746	585.51
426.123	580.08
426.499	579.41
426.875	580.31
427.251	601.33
427.627	584.15
428.003	620.31
428.379	627.09
428.756	618.95
429.132	602.68
429.507	613.3
429.883	620.76
430.259	633.87
430.635	643.36
431.011	646.3
431.387	629.12
431.763	639.74
432.138	672.28
432.514	676.13
432.89	675.45
433.265	686.3
433.641	672.96
434.016	686.52
434.392	709.8
434.767	697.37
435.143	703.02
435.518	714.09
435.894	742.34
436.269	723.81
436.644	745.73
437.02	736.24
437.395	741.66
437.77	738.27
438.145	768.78
438.52	770.59
438.895	780.3
439.271	772.17
439.646	818.27
440.021	783.69
440.395	790.25
440.77	813.98
441.145	804.03
441.52	809.46
441.895	818.04
442.27	827.76
442.645	804.03
443.019	860.53
443.394	845.39
443.769	853.52
444.143	852.62
444.518	872.73
444.892	840.19
445.267	886.97
445.641	894.2
446.016	882
446.39	904.82
446.764	909.34
447.139	897.14
447.513	915.44
447.887	898.72
448.262	902.79
448.636	945.5
449.01	946.63
449.384	921.09
449.758	963.35
450.132	956.34
450.506	967.42
450.88	983.46
451.254	1002.45
451.628	985.72
452.002	1010.35
452.376	1012.61
452.75	1010.81
453.123	1023.01
453.497	1017.81
453.871	1024.37
454.244	1024.37
454.618	1053.74
454.992	1051.03
455.365	1079.96
455.739	1065.49
456.112	1082.67
456.486	1103.01
456.859	1120.63
457.232	1112.27
457.606	1113.4
457.979	1129.22
458.352	1134.65
458.725	1135.55
459.099	1181.2
459.472	1176
459.845	1210.58
460.218	1178.94
460.591	1171.25
460.964	1182.55
461.337	1197.69
461.71	1210.58
462.083	1236.56
462.456	1219.39
462.829	1219.16
463.201	1238.82
463.574	1270.91
463.947	1291.7
464.32	1276.79
464.692	1271.36
465.065	1310.23
465.438	1313.17
465.81	1336
466.183	1342.78
466.555	1368.31
466.928	1353.62
467.3	1359.95
467.672	1397.69
468.045	1408.31
468.417	1431.81
468.789	1438.37
469.161	1431.36
469.534	1473.17
469.906	1479.27
470.278	1502.55
470.65	1509.55
471.022	1518.14
471.394	1551.58
471.766	1569.21
472.138	1585.71
472.51	1595.88
472.882	1612.6
473.253	1652.37
473.625	1674.74
473.997	1651.47
474.369	1674.52
474.74	1693.5
475.112	1712.94
475.484	1736.44
475.855	1783.44
476.227	1820.95
476.598	1825.93
476.97	1841.29
477.341	1874.74
477.713	1930.1
478.084	1912.03
478.455	1945.47
478.827	1992.48
479.198	2072.25
479.569	2030.44
479.94	2074.96
480.311	2072.02
480.682	2149.53
481.053	2145.47
481.424	2203.54
481.795	2230.21
482.166	2229.08
482.537	2270.66
482.908	2337.33
483.279	2340.26
483.65	2358.79
484.021	2455.97
484.391	2437.44
484.762	2438.79
485.133	2478.11
485.503	2523.31
485.874	2565.57
486.244	2601.73
486.615	2627.94
486.985	2648.05
487.356	2658.67
487.726	2695.96
488.097	2760.37
488.467	2781.61
488.837	2849.4
489.207	2840.14
489.578	2886.69
489.948	2919.01
490.318	2968.95
490.688	2967.82
491.058	3026.35
491.428	3084.2
491.798	3093.69
492.168	3175.27
492.538	3152.45
492.908	3222.05
493.278	3255.95
493.648	3264.53
494.017	3274.7
494.387	3339.79
494.757	3332.1
495.126	3384.98
495.496	3380.69
495.866	3422.95
496.235	3459.56
496.605	3434.92
496.974	3522.38
497.344	3551.76
497.713	3564.41
498.082	3589.04
498.452	3639.66
498.821	3647.57
499.19	3695.03
499.559	3702.94
499.928	3689.15
500.298	3715.82
500.667	3808.7
501.036	3781.13
501.405	3806.21
501.774	3844.86
502.143	3824.74
502.512	3903.84
502.88	3925.53
503.249	3924.4
503.618	3977.06
503.987	3982.71
504.356	4022.03
504.724	4017.06
505.093	4069.94
505.462	4068.58
505.83	4123.04
506.199	4175.02
506.567	4169.14
506.936	4205.98
507.304	4210.72
507.672	4242.13
508.041	4290.04
508.409	4314.9
508.777	4347.44
509.145	4351.28
509.514	4382.7
509.882	4422.47
510.25	4433.99
510.618	4496.59
510.986	4504.5
511.354	4568.23
511.722	4626.3
512.09	4632.86
512.458	4618.62
512.826	4657.72
513.193	4742.46
513.561	4732.52
513.929	4753.08
514.297	4867.88
514.664	4823.14
515.032	4843.02
515.4	4910.59
515.767	4916.69
516.135	4970.7
516.502	4935.22
516.869	5052.06
517.237	5044.6
517.604	5002.79
517.972	5054.32
518.339	5170.92
518.706	5163.69
519.073	5198.27
519.44	5274.88
519.808	5319.62
520.175	5249.11
520.542	5354.65
520.909	5416.11
521.276	5393.97
521.643	5416.79
522.009	5525.72
522.376	5504.7
522.743	5591.93
523.11	5616.11
523.477	5666.05
523.843	5644.13
524.21	5814.3
524.577	5831.92
524.943	5864.92
525.31	5854.07
525.676	5953.05
526.043	6011.58
526.409	6000.96
526.776	6071.24
527.142	6114.4
527.508	6134.06
527.874	6141.29
528.241	6219.71
528.607	6229.2
528.973	6297
529.339	6300.61
529.705	6345.81
530.071	6437.1
530.437	6458.12
530.803	6456.54
531.169	6542.19
531.535	6527.72
531.901	6547.38
532.267	6615.18
532.632	6674.16
532.998	6662.18
533.364	6755.97
533.73	6726.59
534.095	6791.9
534.461	6830.54
534.826	6824.89
535.192	6899.92
535.557	6881.39
535.923	6951.22
536.288	6977.43
536.653	6997.54
537.019	6988.5
537.384	6970.65
537.749	7030.76
538.114	7082.74
538.479	7119.12
538.845	7140.59
539.21	7139.01
539.575	7200.25
539.94	7182.17
540.305	7280.47
540.67	7222.39
541.034	7255.84
541.399	7291.77
541.764	7306.01
542.129	7392.33
542.494	7424.42
542.858	7388.94
543.223	7419.45
543.587	7470.3
543.952	7439.11
544.316	7518.21
544.681	7537.87
545.045	7633.91
545.41	7626.45
545.774	7633.01
546.138	7659.67
546.503	7675.49
546.867	7668.03
547.231	7759.56
547.595	7759.1
547.959	7726.34
548.324	7817.63
548.688	7911.64
549.052	7847.46
549.416	7894.92
549.779	7852.43
550.143	7850.17
550.507	7965.2
550.871	7959.32
551.235	8010.17
551.599	8096.72
551.962	8136.27
552.326	8129.26
552.689	8162.71
553.053	8068.02
553.417	8172.65
553.78	8294.23
554.143	8307.56
554.507	8416.26
554.87	8278.86
555.234	8395.25
555.597	8360.44
555.96	8390.73
556.323	8470.05
556.686	8463.27
557.05	8563.38
557.413	8644.73
557.776	8620.78
558.139	8630.27
558.502	8678.4
558.865	8692.86
559.228	8709.81
559.59	8807.89
559.953	8746.65
560.316	8909.81
560.679	8972.86
561.041	8905.97
561.404	9013.53
561.767	8929.47
562.129	8991.84
562.492	9075
562.854	9130.14
563.217	9142.8
563.579	9180.08
563.941	9265.96
564.304	9298.05
564.666	9370.81
565.028	9303.24
565.39	9361.32
565.753	9412.85
566.115	9465.95
566.477	9541.2
566.839	9553.86
567.201	9660.75
567.563	9628.89
567.925	9649
568.287	9719.73
568.648	9646.74
569.01	9772.16
569.372	9793.85
569.734	9811.71
570.095	9883.12
570.457	9912.95
570.819	9876.79
571.18	9950.01
571.542	9919.05
571.903	9888.31
572.265	10049.21
572.626	10088.31
572.987	10134.63
573.349	10111.36
573.71	10225.71
574.071	10213.05
574.432	10258.25
574.794	10314.74
575.155	10222.99
575.516	10224.8
575.877	10307.29
576.238	10306.38
576.599	10370.56
576.96	10408.07
577.32	10406.04
577.681	10439.03
578.042	10413.05
578.403	10451.01
578.763	10402.42
579.124	10472.48
579.485	10449.65
579.845	10538.69
580.206	10533.27
580.566	10588.86
580.927	10560.16
581.287	10586.15
581.648	10558.8
582.008	10554.96
582.368	10516.32
582.728	10595.41
583.089	10669.99
583.449	10583.66
583.809	10629.54
584.169	10650.78
584.529	10639.48
584.889	10653.27
585.249	10625.92
585.609	10563.55
585.969	10685.81
586.329	10676.09
586.688	10656.43
587.048	10614.62
587.408	10638.35
587.768	10631.8
588.127	10639.48
588.487	10653.72
588.846	10639.03
589.206	10604
589.565	10676.54
589.925	10691
590.284	10657.11
590.643	10702.08
591.003	10746.14
591.362	10747.73
591.721	10706.82
592.08	10667.05
592.44	10729.42
592.799	10695.52
593.158	10730.55
593.517	10702.53
593.876	10728.29
594.235	10697.11
594.593	10710.89
594.952	10711.79
595.311	10765.58
595.67	10715.86
596.029	10800.15
596.387	10753.6
596.746	10803.32
597.104	10768.29
597.463	10708.18
597.822	10846.25
598.18	10779.14
598.538	10752.92
598.897	10820.94
599.255	10763.77
599.613	10901.62
599.972	10782.98
600.33	10850.1
600.688	10868.4
601.046	10889.42
601.404	10885.8
601.762	10873.6
602.12	10923.54
602.478	10889.87
602.836	10921.51
603.194	10898
603.552	10867.95
603.91	10869.98
604.268	10918.79
604.625	10865.91
604.983	10948.17
605.341	10854.62
605.698	10974.16
606.056	10918.12
606.413	10992.69
606.771	10956.99
607.128	10981.39
607.485	10900.49
607.843	10908.63
608.2	11045.12
608.557	11062.97
608.914	11022.75
609.272	11081.73
609.629	11107.72
609.986	11154.27
610.343	11030.66
610.7	11139.58
611.057	11085.57
611.414	11082.41
611.771	11098.45
612.127	11150.88
612.484	11225.23
612.841	11239.46
613.198	11165.34
613.554	11241.5
613.911	11255.06
614.267	11229.3
614.624	11129.64
614.98	11158.56
615.337	11277.88
615.693	11226.36
616.05	11222.29
616.406	11277.66
616.762	11253.25
617.118	11219.13
617.475	11283.31
617.831	11309.97
618.187	11254.83
618.543	11259.58
618.899	11394.04
619.255	11340.48
619.611	11302.74
619.967	11367.6
620.323	11401.72
620.678	11343.87
621.034	11381.83
621.39	11281.05
621.746	11352.23
622.101	11430.87
622.457	11322.85
622.812	11244.21
623.168	11398.33
623.523	11376.41
623.879	11361.04
624.234	11238.79
624.589	11354.94
624.945	11400.82
625.3	11415.96
625.655	11395.17
626.01	11404.88
626.365	11291.21
626.72	11359.24
627.075	11322.4
627.43	11274.94
627.785	11301.61
628.14	11363.98
628.495	11340.25
628.85	11402.4
629.205	11312.68
629.559	11375.28
629.914	11307.03
630.269	11266.36
630.623	11275.62
630.978	11231.78
631.332	11231.1
631.687	11194.95
632.041	11229.07
632.396	11191.33
632.75	11172.57
633.104	11232.68
633.459	11247.6
633.813	11146.81
634.167	11049.64
634.521	11118.56
634.875	11133.03
635.229	11058.23
635.583	11090.99
635.937	11035.18
636.291	11062.97
636.645	11098
636.999	11007.83
637.352	11039.47
637.706	10979.13
638.06	11062.52
638.413	11012.8
638.767	10901.62
639.121	10918.12
639.474	10872.69
639.828	10900.04
640.181	10956.99
640.534	10869.08
640.888	10950.66
641.241	10852.81
641.594	10907.72
641.947	10915.41
642.301	10774.17
642.654	10825.24
643.007	10782.98
643.36	10804.67
643.713	10793.6
644.066	10810.32
644.419	10771.91
644.771	10691
645.124	10626.15
645.477	10569.65
645.83	10525.36
646.182	10456.21
646.535	10397.23
646.888	10357
647.24	10398.36
647.593	10437
647.945	10420.05
648.298	10329.21
648.65	10255.08
649.002	10278.81
649.355	10314.97
649.707	10312.94
650.059	10308.42
650.411	10494.85
650.763	10504.57
651.115	10602.42
651.467	10489.65
651.819	10455.08
652.171	10549.54
652.523	10378.47
652.875	10441.07
653.227	10371.01
653.578	10485.36
653.93	10473.83
654.282	10390.9
654.633	10383.67
654.985	10391.58
655.337	10419.15
655.688	10346.61
656.039	10286.72
656.391	10292.82
656.742	10258.02
657.094	10356.1
657.445	10424.57
657.796	10334.86
658.147	10356.78
658.498	10351.35
658.849	10253.05
659.2	10317.68
659.551	10256.67
659.902	10337.79
660.253	10239.26
660.604	10293.05
660.955	10177.8
661.306	10204.24
661.656	10253.95
662.007	10227.97
662.358	10274.97
662.708	10251.47
663.059	10251.24
663.409	10187.29
663.76	10237.46
664.11	10207.85
664.461	10215.31
664.811	10205.59
665.161	10147.29
665.511	10147.06
665.862	10120.17
666.212	10117.23
666.562	10156.1
666.912	10173.96
667.262	10150
667.612	10143.67
667.962	10125.14
668.312	10093.05
668.662	10186.38
669.011	10164.46
669.361	10139.15
669.711	10045.82
670.06	10074.07
670.41	10049.21
670.76	10048.76
671.109	10123.56
671.459	10068.42
671.808	10077.01
672.157	10066.16
672.507	10027.52
672.856	10077.01
673.205	10062.55
673.554	10110
673.904	9995.43
674.253	10075.65
674.602	10010.12
674.951	9886.05
675.3	9762.67
675.649	9949.55
675.998	10008.31
676.346	9940.74
676.695	9994.3
677.044	9914.3
677.393	9939.16
677.741	9890.8
678.09	9945.49
678.438	9877.92
678.787	9889.22
679.135	9806.06
679.484	9843.57
679.832	9806.28
680.181	9792.5
680.529	9791.37
680.877	9821.2
681.225	9719.28
681.573	9834.53
681.922	9830.24
682.27	9780.97
682.618	9773.74
682.966	9665.04
683.314	9732.61
683.661	9674.99
684.009	9661.2
684.357	9591.15
684.705	9591.6
685.053	9640.18
685.4	9577.59
685.748	9573.07
686.095	9566.97
686.443	9551.15
686.79	9496.91
687.138	9515.22
687.485	9475.67
687.832	9581.65
688.18	9527.64
688.527	9430.25
688.874	9455.1
689.221	9393.86
689.568	9340.31
689.915	9331.49
690.262	9339.18
690.609	9280.42
690.956	9300.53
691.303	9290.82
691.65	9216.24
691.997	9241.78
692.344	9226.64
692.69	9195.9
693.037	9147.77
693.383	9061.44
693.73	9136.92
694.077	9094.66
694.423	9020.09
694.769	9062.12
695.116	9021.22
695.462	8972.18
695.808	9019.18
696.155	8995.68
696.501	8928.11
696.847	8907.77
697.193	8928.56
697.539	8893.54
697.885	8792.98
698.231	8774.67
698.577	8796.36
698.923	8707.55
699.269	8669.14
699.614	8643.37
699.96	8673.2
700.306	8710.72
700.651	8685.41
700.997	8591.62
701.342	8631.4
701.688	8608.35
702.033	8593.88
702.379	8604.28
702.724	8537.39
703.069	8492.87
703.415	8455.81
703.76	8435.7
704.105	8400.44
704.45	8461.91
704.795	8362.93
705.14	8316.83
705.485	8372.65
705.83	8325.42
706.175	8362.7
706.52	8326.55
706.865	8296.94
707.209	8288.81
707.554	8247.45
707.899	8292.65
708.243	8212.2
708.588	8203.84
708.932	8102.15
709.277	8144.18
709.621	8134.46
709.966	8083.39
710.31	8086.55
710.654	8066.89
710.998	8058.31
711.342	8070.28
711.687	8067.34
712.031	7967.46
712.375	7953.68
712.719	7995.26
713.063	7927.69
713.407	7922.94
713.75	7865.77
714.094	7890.4
714.438	7870.51
714.782	7905.99
715.125	7836.16
715.469	7833.68
715.812	7785.77
716.156	7786.22
716.499	7832.32
716.843	7832.32
717.186	7718.43
717.53	7815.15
717.873	7791.65
718.216	7741.03
718.559	7678.65
718.902	7668.03
719.246	7739.44
719.589	7676.62
719.932	7525.21
720.275	7593.23
720.617	7621.03
720.96	7626.45
721.303	7580.58
721.646	7621.25
721.989	7524.76
722.331	7609.28
722.674	7587.13
723.016	7528.15
723.359	7529.73
723.701	7571.99
724.044	7485.44
724.386	7471.43
724.729	7471.43
725.071	7473.69
725.413	7402.28
725.755	7423.97
726.097	7426.68
726.439	7419.68
726.782	7460.35
727.124	7377.64
727.465	7365.22
727.807	7348.27
728.149	7348.04
728.491	7308.27
728.833	7315.05
729.175	7296.74
729.516	7257.2
729.858	7281.83
730.199	7260.13
730.541	7231.21
730.882	7204.77
731.224	7242.96
731.565	7216.29
731.906	7193.47
732.248	7206.8
732.589	7154.15
732.93	7157.31
733.271	7158.67
733.612	7191.66
733.953	7131.78
734.294	7150.76
734.635	7129.52
734.976	7122.74
735.317	7099.46
735.658	7109.63
735.999	7069.63
736.339	7160.25
736.68	7030.08
737.021	7064.21
737.361	6998.45
737.702	7056.98
738.042	6982.18
738.383	6958.22
738.723	7011.33
739.063	6978.33
739.404	7047.48
739.744	6949.86
740.084	6928.39
740.424	6980.14
740.764	6928.84
741.104	6962.97
741.444	6879.58
741.784	6881.84
742.124	6901.27
742.464	6872.12
742.804	6843.87
743.143	6828.28
743.483	6809.52
743.823	6803.65
744.162	6779.47
744.502	6858.56
744.841	6793.48
745.181	6829.86
745.52	6730.88
745.86	6827.83
746.199	6775.4
746.538	6722.75
746.877	6799.58
747.216	6779.47
747.556	6720.04
747.895	6678.23
748.234	6713.26
748.573	6649.53
748.911	6710.09
749.25	6609.08
749.589	6690.66
749.928	6612.92
750.267	6627.16
750.605	6628.74
750.944	6591.68
751.283	6560.27
751.621	6609.98
751.96	6587.61
752.298	6579.02
752.636	6580.83
752.975	6538.8
753.313	6504.22
753.651	6511.68
753.989	6512.36
754.327	6447.05
754.666	6379.48
755.004	6447.27
755.342	6397.33
755.679	6399.59
756.017	6318.46
756.355	6321.4
756.693	6338.12
757.031	6343.77
757.368	6280.05
757.706	6331.57
758.044	6355.52
758.381	6322.08
758.719	6282.31
759.056	6292.93
759.394	6200.5
759.731	6248.64
760.068	6195.76
760.405	6147.62
760.743	6148.75
761.08	6168.86
761.417	6105.81
761.754	6061.52
762.091	6075.53
762.428	6078.02
762.765	6062.2
763.102	6059.71
763.438	6054.52
763.775	6042.76
764.112	6078.92
764.449	6106.49
764.785	6029.43
