Data from foam1_polythene_foam_FLMS001491_00051.txt Node
Date: Wed Feb 08 10:55:02 GMT 2017
User: dcchb
Spectrometer: FLMS00149
Trigger mode: 0
Integration Time (sec): 2.000000E-2
Scans to average: 10
Electric dark correction enabled: true
Nonlinearity correction enabled: false
Boxcar width: 0
XAxis mode: Wavelengths
Number of Pixels in Spectrum: 2048
>>>>>Begin Spectral Data<<<<<
341.393	-16.89
341.776	-16.89
342.16	-16.89
342.543	-56.44
342.927	-70.68
343.31	-72.03
343.693	-69.09
344.077	-71.58
344.46	-46.04
344.843	-53.95
345.226	-53.95
345.61	-48.3
345.993	-18.25
346.376	-10.34
346.759	8.64
347.142	36.89
347.525	46.38
347.908	45.03
348.291	86.61
348.674	96.33
349.057	123.67
349.44	132.71
349.823	155.76
350.206	151.46
350.588	175.42
350.971	209.09
351.354	204.34
351.737	220.84
352.119	245.47
352.502	228.3
352.884	253.84
353.267	264.68
353.65	290.67
354.032	289.31
354.414	290.22
354.797	320.73
355.179	304.68
355.562	282.99
355.944	334.74
356.326	319.37
356.709	323.21
357.091	318.01
357.473	326.38
357.855	322.76
358.238	336.54
358.62	320.27
359.002	324.79
359.384	329.09
359.766	311.91
360.148	311.23
360.53	315.3
360.912	321.4
361.294	332.7
361.676	324.79
362.057	315.53
362.439	310.78
362.821	302.2
363.203	323.89
363.584	322.31
363.966	317.79
364.348	308.3
364.729	294.06
365.111	287.96
365.493	301.07
365.874	318.01
366.256	297
366.637	286.6
367.019	318.92
367.4	311.69
367.781	310.78
368.163	309.88
368.544	305.59
368.925	301.74
369.306	311.91
369.688	303.55
370.069	294.74
370.45	306.04
370.831	306.26
371.212	301.07
371.593	283.66
371.974	297.68
372.355	304
372.736	284.12
373.117	309.88
373.498	288.41
373.879	305.59
374.26	303.78
374.641	302.87
375.021	296.55
375.402	305.59
375.783	305.81
376.163	313.49
376.544	303.78
376.925	321.63
377.305	307.39
377.686	302.2
378.066	331.12
378.447	321.18
378.827	329.99
379.208	320.5
379.588	339.48
379.968	314.4
380.349	329.54
380.729	324.34
381.109	313.72
381.489	317.34
381.87	335.64
382.25	334.74
382.63	354.62
383.01	327.28
383.39	339.48
383.77	330.44
384.15	319.82
384.53	333.83
384.91	345.36
385.29	354.85
385.67	351.46
386.049	355.53
386.429	348.97
386.809	342.87
387.189	333.38
387.568	359.14
387.948	354.17
388.328	352.36
388.707	349.88
389.087	342.42
389.466	355.98
389.846	348.97
390.225	341.29
390.605	364.11
390.984	370.89
391.363	354.17
391.743	362.31
392.122	356.88
392.501	354.62
392.881	373.61
393.26	372.93
393.639	365.92
394.018	366.15
394.397	385.36
394.776	386.94
395.155	367.96
395.534	364.34
395.913	356.43
396.292	390.1
396.671	396.88
397.05	402.98
397.429	391.46
397.808	368.41
398.186	374.74
398.565	393.94
398.944	384.23
399.323	396.2
399.701	394.4
400.08	384.68
400.458	396.43
400.837	410.89
401.215	387.84
401.594	395.75
401.972	417.22
402.351	402.98
402.729	410.67
403.107	431.91
403.486	423.55
403.864	422.87
404.242	432.81
404.62	413.6
404.999	416.32
405.377	429.42
405.755	433.94
406.133	405.47
406.511	428.29
406.889	462.64
407.267	433.94
407.645	437.33
408.023	457.45
408.401	440.72
408.779	455.86
409.156	445.92
409.534	466.48
409.912	443.21
410.29	479.59
410.667	466.26
411.045	481.85
411.422	481.17
411.8	485.24
412.178	490.89
412.555	457.9
412.933	501.29
413.31	483.43
413.687	476.65
414.065	507.16
414.442	499.03
414.819	509.2
415.197	498.35
415.574	489.99
415.951	515.3
416.328	505.13
416.705	509.87
417.082	517.11
417.46	527.73
417.837	504.45
418.214	539.25
418.591	551.68
418.967	545.35
419.344	546.71
419.721	548.97
420.098	533.38
420.475	556.88
420.852	566.6
421.228	557.1
421.605	562.08
421.982	564.34
422.358	583.54
422.735	551.68
423.111	572.7
423.488	588.29
423.864	572.7
424.241	609.98
424.617	581.28
424.994	604.79
425.37	605.69
425.746	603.43
426.123	620.15
426.499	594.84
426.875	609.31
427.251	601.85
427.627	634.39
428.003	641.85
428.379	647.5
428.756	627.16
429.132	656.31
429.507	665.12
429.883	661.06
430.259	697.89
430.635	668.74
431.011	678
431.387	677.78
431.763	696.76
432.138	688.17
432.514	713.94
432.89	706.25
433.265	735.86
433.641	723.43
434.016	744.9
434.392	746.25
434.767	761.62
435.143	760.26
435.518	754.16
435.894	754.16
436.269	763.88
436.644	799.13
437.02	789.19
437.395	801.39
437.77	810.88
438.145	820.83
438.52	800.04
438.895	824.89
439.271	825.12
439.646	861.73
440.021	859.69
440.395	832.8
440.77	855.63
441.145	848.4
441.52	873.03
441.895	860.15
442.27	907.83
442.645	891.78
443.019	936.76
443.394	875.97
443.769	927.72
444.143	932.24
444.518	922.07
444.892	916.87
445.267	951.22
445.641	918
446.016	941.05
446.39	941.5
446.764	977.66
447.139	972.69
447.513	986.92
447.887	983.76
448.262	1007.94
448.636	1007.04
449.01	1032.12
449.384	1022.4
449.758	1033.25
450.132	1040.48
450.506	1053.36
450.88	1050.2
451.254	1042.97
451.628	1075.51
452.002	1099.91
452.376	1095.62
452.75	1101.95
453.123	1114.15
453.497	1151.66
453.871	1135.39
454.244	1136.07
454.618	1141.95
454.992	1153.47
455.365	1153.47
455.739	1167.71
456.112	1182.62
456.486	1221.72
456.859	1192.57
457.232	1239.8
457.606	1219.01
457.979	1232.57
458.352	1247.26
458.725	1260.81
459.099	1273.02
459.472	1275.28
459.845	1303.98
460.218	1296.75
460.591	1311.89
460.964	1329.97
461.337	1314.15
461.71	1333.81
462.083	1378.55
462.456	1362.05
462.829	1365.22
463.201	1372.68
463.574	1385.1
463.947	1376.74
464.32	1429.85
464.692	1440.02
465.065	1459.45
465.438	1449.28
465.81	1463.97
466.183	1488.15
466.555	1519.34
466.928	1521.6
467.3	1526.12
467.672	1541.71
468.045	1564.54
468.417	1598.88
468.789	1613.12
469.161	1600.69
469.534	1626.91
469.906	1655.38
470.278	1680.24
470.65	1695.38
471.022	1696.51
471.394	1766.79
471.766	1767.69
472.138	1760.24
472.51	1822.16
472.882	1812.21
473.253	1846.79
473.625	1890.18
473.997	1888.37
474.369	1886.33
474.74	1932.66
475.112	1950.06
475.484	1957.97
475.855	2000.68
476.227	2013.56
476.598	2031.19
476.97	2122.49
477.341	2108.93
477.713	2169.04
478.084	2167.91
478.455	2214.24
478.827	2256.49
479.198	2278.87
479.569	2263.73
479.94	2362.48
480.311	2358.41
480.682	2441.8
481.053	2489.71
481.424	2487.9
481.795	2530.84
482.166	2559.76
482.537	2556.6
482.908	2660.78
483.279	2654.68
483.65	2696.71
484.021	2768.12
484.391	2824.61
484.762	2857.38
485.133	2835.46
485.503	2840.66
485.874	2948.68
486.244	2943.48
486.615	3013.31
486.985	3063.7
487.356	3108.45
487.726	3126.53
488.097	3187.09
488.467	3213.98
488.837	3232.97
489.207	3282
489.578	3347.99
489.948	3369.46
490.318	3430.02
490.688	3397.48
491.058	3504.82
491.428	3527.65
491.798	3543.01
492.168	3619.62
492.538	3603.13
492.908	3663.46
493.278	3728.32
493.648	3717.7
494.017	3763.12
494.387	3819.17
494.757	3843.57
495.126	3887.64
495.496	3919.95
495.866	3953.62
496.235	3954.3
496.605	4008.76
496.974	4013.28
497.344	4061.87
497.713	4076.11
498.082	4173.05
498.452	4207.63
498.821	4221.19
499.19	4200.4
499.559	4273.84
499.928	4286.5
500.298	4321.3
500.667	4371.02
501.036	4383.44
501.405	4409.66
501.774	4425.02
502.143	4500.5
502.512	4508.86
502.88	4555.19
503.249	4501.41
503.618	4596.09
503.987	4567.85
504.356	4613.49
504.724	4627.96
505.093	4712.7
505.462	4733.94
505.83	4812.59
506.199	4834.05
506.567	4865.69
506.936	4844.22
507.304	4879.25
507.672	4950.66
508.041	4970.55
508.409	4958.8
508.777	5090.09
509.145	5115.63
509.514	5079.47
509.882	5137.77
510.25	5158.34
510.618	5196.08
510.986	5179.58
511.354	5220.71
511.722	5288.51
512.09	5387.94
512.458	5370.31
512.826	5451.44
513.193	5478.1
513.561	5514.71
513.929	5544.09
514.297	5557.2
514.664	5608.27
515.032	5628.38
515.4	5707.93
515.767	5711.54
516.135	5778.66
516.502	5782.05
516.869	5832.9
517.237	5898.66
517.604	5915.38
517.972	5985.66
518.339	6003.74
518.706	6021.14
519.073	5989.28
519.44	6164.41
519.808	6167.8
520.175	6212.77
520.542	6280.12
520.909	6308.37
521.276	6319.21
521.643	6331.87
522.009	6387.69
522.376	6475.82
522.743	6549.94
523.11	6574.12
523.477	6619.77
523.843	6670.84
524.21	6688.47
524.577	6822.93
524.943	6808.24
525.31	6807.79
525.676	6914.68
526.043	6944.51
526.409	6977.73
526.776	7104.95
527.142	7063.37
527.508	7164.84
527.874	7258.4
528.241	7243.48
528.607	7278.51
528.973	7389.24
529.339	7372.74
529.705	7460.43
530.071	7474.44
530.437	7547.2
530.803	7552.63
531.169	7584.72
531.535	7599.63
531.901	7697.71
532.267	7723.7
532.632	7764.15
532.998	7821.32
533.364	7830.81
533.73	7830.81
534.095	7938.6
534.461	7963.24
534.826	7915.33
535.192	8038.72
535.557	8102.44
535.923	8072.39
536.288	8132.5
536.653	8167.3
537.019	8177.69
537.384	8189.22
537.749	8290.69
538.114	8337.24
538.479	8291.82
538.845	8366.39
539.21	8394.41
539.575	8380.85
539.94	8419.72
540.305	8439.38
540.67	8474.41
541.034	8555.99
541.399	8539.49
541.764	8581.3
542.129	8632.82
542.494	8595.54
542.858	8600.51
543.223	8746.27
543.587	8737.45
543.952	8706.95
544.316	8712.82
544.681	8829.88
545.045	8874.85
545.41	8845.7
545.774	8955.3
546.138	8931.35
546.503	8969.31
546.867	8949.65
547.231	9056.32
547.595	9072.81
547.959	9030.33
548.324	9115.52
548.688	9089.08
549.052	9158.01
549.416	9098.35
549.779	9217.67
550.143	9302.86
550.507	9345.8
550.871	9293.15
551.235	9348.51
551.599	9413.59
551.962	9419.7
552.326	9538.34
552.689	9487.49
553.053	9473.93
553.417	9505.34
553.78	9646.13
554.143	9642.29
554.507	9683.64
554.87	9787.14
555.234	9765.9
555.597	9773.81
555.96	9845.45
556.323	9889.06
556.686	9897.65
557.05	9961.6
557.413	9999.79
557.776	10067.36
558.139	10010.41
558.502	10164.99
558.865	10204.08
559.228	10233.46
559.59	10192.33
559.953	10222.16
560.316	10373.12
560.679	10374.7
561.041	10416.05
561.404	10485.2
561.767	10587.8
562.129	10553.68
562.492	10625.54
562.854	10702.6
563.217	10619.21
563.579	10701.02
563.941	10753.67
564.304	10795.03
564.666	10859.88
565.028	10830.05
565.39	10941.69
565.753	10973.1
566.115	11116.6
566.477	11119.54
566.839	11145.75
567.201	11261.46
567.563	11255.58
567.925	11327.67
568.287	11220.1
568.648	11312.08
569.01	11350.72
569.372	11355.24
569.734	11467.1
570.095	11574.22
570.457	11582.8
570.819	11554.55
571.18	11612.86
571.542	11708.22
571.903	11705.96
572.265	11726.3
572.626	11742.8
572.987	11809.01
573.349	11835.9
573.71	11883.36
574.071	11887.2
574.432	11886.52
574.794	11994.77
575.155	12013.98
575.516	11961.32
575.877	12089.91
576.238	12099.85
576.599	12164.26
576.96	12174.2
577.32	12108.66
577.681	12233.41
578.042	12290.58
578.403	12212.39
578.763	12248.1
579.124	12213.29
579.485	12311.82
579.845	12293.07
580.206	12327.87
580.566	12338.04
580.927	12369.45
581.287	12454.64
581.648	12475.66
582.008	12404.7
582.368	12394.76
582.728	12430.69
583.089	12408.54
583.449	12386.85
583.809	12425.27
584.169	12423.23
584.529	12422.33
584.889	12550.91
585.249	12476.34
585.609	12392.95
585.969	12440.63
586.329	12556.34
586.688	12452.38
587.048	12478.37
587.408	12490.58
587.768	12506.62
588.127	12436.57
588.487	12425.04
588.846	12484.25
589.206	12481.76
589.565	12531.93
589.925	12528.99
590.284	12455.55
590.643	12536.9
591.003	12547.3
591.362	12645.83
591.721	12594.08
592.08	12540.97
592.44	12577.13
592.799	12588.2
593.158	12527.41
593.517	12666.84
593.876	12626.62
594.235	12558.82
594.593	12550.01
594.952	12654.41
595.311	12491.25
595.67	12615.32
596.029	12731.7
596.387	12797.91
596.746	12785.03
597.104	12661.42
597.463	12704.13
597.822	12750
598.18	12691.7
598.538	12627.52
598.897	12712.26
599.255	12526.28
599.613	12728.54
599.972	12723.79
600.33	12724.69
600.688	12707.97
601.046	12778.93
601.404	12869.1
601.762	12797.01
602.12	12873.16
602.478	12866.38
602.836	12875.88
603.194	12784.58
603.552	12782.32
603.91	12790.68
604.268	12763.79
604.625	12760.62
604.983	12836.56
605.341	12815.76
605.698	12965.37
606.056	13008.53
606.413	12970.79
606.771	12946.83
607.128	13057.79
607.485	12935.99
607.843	12876.78
608.2	13000.84
608.557	13018.25
608.914	12908.64
609.272	12945.93
609.629	13054.63
609.986	13058.47
610.343	12972.82
610.7	13093.27
611.057	13118.81
611.414	13073.61
611.771	13136.21
612.127	13154.06
612.484	13074.97
612.841	13186.83
613.198	13144.57
613.554	13202.87
613.911	13252.36
614.267	13243.1
614.624	13170.33
614.98	13271.12
615.337	13233.61
615.693	13220.95
616.05	13330.33
616.406	13313.15
616.762	13284.9
617.118	13280.84
617.475	13330.55
617.831	13344.11
618.187	13324.23
618.543	13458.91
618.899	13429.99
619.255	13378.24
619.611	13393.6
619.967	13435.64
620.323	13447.84
620.678	13351.12
621.034	13417.1
621.39	13368.74
621.746	13320.84
622.101	13517.89
622.457	13384.56
622.812	13547.04
623.168	13457.33
623.523	13512.92
623.879	13507.95
624.234	13410.78
624.589	13400.16
624.945	13429.53
625.3	13400.16
625.655	13385.02
626.01	13497.1
626.365	13370.55
626.72	13403.55
627.075	13414.17
627.43	13338.69
627.785	13403.77
628.14	13375.52
628.495	13402.64
628.85	13463.21
629.205	13359.71
629.559	13432.92
629.914	13324.45
630.269	13341.17
630.623	13276.32
630.978	13249.43
631.332	13246.71
631.687	13328.29
632.041	13341.63
632.396	13300.72
632.75	13233.38
633.104	13255.08
633.459	13151.12
633.813	13192.7
634.167	13134.85
634.521	13234.51
634.875	13314.28
635.229	13178.69
635.583	13159.71
635.937	13176.43
636.291	13167.85
636.645	13089.66
636.999	13012.14
637.352	13200.16
637.706	12998.13
638.06	13024.8
638.413	13053.5
638.767	12998.58
639.121	12990.9
639.474	12980.51
639.828	12947.51
640.181	12933.28
640.534	13008.98
640.888	12958.59
641.241	12841.3
641.594	12877.01
641.947	12944.35
642.301	12900.28
642.654	12907.74
643.007	12861.64
643.36	12815.76
643.713	12736.44
644.066	12790.68
644.419	12738.7
644.771	12733.06
645.124	12628.2
645.477	12634.98
645.83	12562.89
646.182	12460.52
646.535	12448.99
646.888	12394.76
647.24	12350.69
647.593	12399.73
647.945	12346.62
648.298	12258.72
648.65	12198.38
649.002	12243.58
649.355	12273.63
649.707	12258.49
650.059	12324.03
650.411	12382.1
650.763	12412.84
651.115	12501.42
651.467	12482.44
651.819	12492.38
652.171	12539.61
652.523	12382.78
652.875	12463.23
653.227	12430.69
653.578	12442.89
653.93	12462.1
654.282	12388.66
654.633	12367.64
654.985	12360.41
655.337	12359.96
655.688	12333.52
656.039	12398.6
656.391	12219.62
656.742	12321.54
657.094	12334.65
657.445	12274.99
657.796	12301.65
658.147	12264.59
658.498	12242.22
658.849	12248.55
659.2	12344.14
659.551	12227.08
659.902	12293.74
660.253	12283.35
660.604	12316.79
660.955	12207.19
661.306	12258.27
661.656	12262.56
662.007	12303.01
662.358	12202
662.708	12222.56
663.059	12208.32
663.409	12059.63
663.76	12183.46
664.11	12141.88
664.461	12195.22
664.811	12172.62
665.161	12234.54
665.511	12132.62
665.862	12195.89
666.212	12249
666.562	12159.51
666.912	12133.97
667.262	12135.1
667.612	12140.3
667.962	12207.42
668.312	12191.15
668.662	12249
669.011	12206.52
669.361	12073.41
669.711	12022.79
670.06	12053.3
670.41	12037.03
670.76	12065.5
671.109	12147.08
671.459	12095.78
671.808	11963.58
672.157	12067.99
672.507	12012.85
672.856	12016.92
673.205	12019.85
673.554	12018.05
673.904	12016.46
674.253	12073.64
674.602	12008.78
674.951	11843.81
675.3	11758.17
675.649	11982.34
675.998	11993.87
676.346	11951.61
676.695	12010.59
677.044	11835.9
677.393	11998.61
677.741	11867.77
678.09	11837.71
678.438	11774.89
678.787	11839.52
679.135	11863.7
679.484	11717.49
679.832	11813.08
680.181	11786.19
680.529	11862.34
680.877	11816.47
681.225	11782.12
681.573	11859.63
681.922	11809.46
682.27	11675.46
682.618	11749.8
682.966	11666.19
683.314	11725.17
683.661	11610.6
684.009	11548.68
684.357	11488.34
684.705	11571.05
685.053	11536.48
685.4	11408.57
685.748	11544.16
686.095	11460.55
686.443	11364.05
686.79	11378.97
687.138	11374.22
687.485	11450.83
687.832	11370.83
688.18	11416.93
688.527	11361.34
688.874	11350.72
689.221	11332.19
689.568	11265.52
689.915	11304.62
690.262	11201.12
690.609	11202.93
690.956	11143.27
691.303	11118.86
691.65	11032.53
691.997	11054.68
692.344	10992.08
692.69	10986.43
693.037	10963.61
693.383	10950.95
693.73	10975.59
694.077	10839.77
694.423	10961.8
694.769	10895.14
695.116	10893.78
695.462	10842.26
695.808	10852.43
696.155	10830.51
696.501	10738.98
696.847	10790.06
697.193	10665.09
697.539	10621.25
697.885	10560.23
698.231	10591.64
698.577	10466.22
698.923	10525.43
699.269	10499.22
699.614	10496.96
699.96	10451.08
700.306	10374.47
700.651	10300.58
700.997	10330.18
701.342	10375.83
701.688	10421.48
702.033	10306.68
702.379	10289.05
702.724	10266.23
703.069	10305.1
703.415	10089.96
703.76	10246.57
704.105	10202.95
704.45	10141.71
704.795	10112.33
705.14	10036.63
705.485	9994.14
705.83	9974.26
706.175	10005.22
706.52	9980.36
706.865	9922.28
707.209	9893.58
707.554	9923.19
707.899	9943.75
708.243	9947.14
708.588	9913.24
708.932	9807.71
709.277	9895.16
709.621	9831.21
709.966	9751.21
710.31	9781.27
710.654	9720.25
710.998	9654.27
711.342	9705.79
711.687	9609.75
712.031	9592.35
712.375	9530.2
712.719	9480.03
713.063	9470.77
713.407	9564.78
713.75	9506.47
714.094	9469.86
714.438	9456.53
714.782	9497.66
715.125	9474.38
715.469	9462.63
715.812	9401.17
716.156	9380.6
716.499	9355.29
716.843	9374.27
717.186	9398.45
717.53	9394.61
717.873	9319.59
718.216	9362.75
718.559	9311.22
718.902	9234.16
719.246	9217.67
719.589	9253.6
719.932	9172.92
720.275	9221.06
720.617	9123.88
720.96	9150.78
721.303	9134.05
721.646	9117.1
721.989	9128.18
722.331	9066.26
722.674	9187.61
723.016	9091.12
723.359	9038.24
723.701	9088.41
724.044	9082.98
724.386	8984
724.729	9058.12
725.071	9028.52
725.413	8967.05
725.755	8960.72
726.097	9065.35
726.439	8918.69
726.782	8911.91
727.124	8960.05
727.465	8834.85
727.807	8852.93
728.149	8774.97
728.491	8723.89
728.833	8864.23
729.175	8751.92
729.516	8755.08
729.858	8751.01
730.199	8771.8
730.541	8806.6
730.882	8751.92
731.224	8796.89
731.565	8688.64
731.906	8789.88
732.248	8755.08
732.589	8678.47
732.93	8701.52
733.271	8658.13
733.612	8700.62
733.953	8698.58
734.294	8641.64
734.635	8608.64
734.976	8567.74
735.317	8596.67
735.658	8558.7
735.999	8551.02
736.339	8586.95
736.68	8499.72
737.021	8506.5
737.361	8486.39
737.702	8515.54
738.042	8461.75
738.383	8495.2
738.723	8457.91
739.063	8442.32
739.404	8449.1
739.744	8506.73
740.084	8507.63
740.424	8498.14
740.764	8411.36
741.104	8394.41
741.444	8404.58
741.784	8359.84
742.124	8401.42
742.464	8354.87
742.804	8348.99
743.143	8312.83
743.483	8263.34
743.823	8230.57
744.162	8172.72
744.502	8252.72
744.841	8197.58
745.181	8210.91
745.52	8113.29
745.86	8264.47
746.199	8139.28
746.538	8231.25
746.877	8164.36
747.216	8197.81
747.556	8169.11
747.895	8157.36
748.234	8162.1
748.573	8127.53
748.911	8084.82
749.25	8139.5
749.589	8111.71
749.928	8103.35
750.267	8112.84
750.605	8048.21
750.944	8036.23
751.283	7975.89
751.621	8028.32
751.96	7959.4
752.298	7955.55
752.636	7893.41
752.975	7868.55
753.313	7839.4
753.651	7907.42
753.989	7794.2
754.327	7793.98
754.666	7831.04
755.004	7829.68
755.342	7850.92
755.679	7826.74
756.017	7736.35
756.355	7869.91
756.693	7766.63
757.031	7812.73
757.368	7717.37
757.706	7669.91
758.044	7710.36
758.381	7748.33
758.719	7677.14
759.056	7713.75
759.394	7585.39
759.731	7537.03
760.068	7511.05
760.405	7507.2
760.743	7492.29
761.08	7468.33
761.417	7400.77
761.754	7392.18
762.091	7434.44
