Data from foam1_polythene_foam_FLMS001491_00059.txt Node
Date: Wed Feb 08 10:55:04 GMT 2017
User: dcchb
Spectrometer: FLMS00149
Trigger mode: 0
Integration Time (sec): 2.000000E-2
Scans to average: 10
Electric dark correction enabled: true
Nonlinearity correction enabled: false
Boxcar width: 0
XAxis mode: Wavelengths
Number of Pixels in Spectrum: 2048
>>>>>Begin Spectral Data<<<<<
341.393	-5.69
341.776	-5.69
342.16	-5.69
342.543	-67.61
342.927	-69.42
343.31	-54.96
343.693	-89.53
344.077	-81.4
344.46	-50.21
344.843	-64
345.226	-37.33
345.61	-42.98
345.993	-9.53
346.376	2.44
346.759	17.58
347.142	30.69
347.525	56.45
347.908	58.04
348.291	57.36
348.674	85.61
349.057	121.76
349.44	133.97
349.823	139.84
350.206	148.65
350.588	179.84
350.971	168.31
351.354	202.21
351.737	210.35
352.119	226.39
352.502	237.69
352.884	252.61
353.267	271.14
353.65	307.75
354.032	280.85
354.414	309.55
354.797	271.81
355.179	302.1
355.562	321.08
355.944	292.83
356.326	314.53
356.709	293.06
357.091	313.17
357.473	315.66
357.855	300.06
358.238	319.72
358.62	323.11
359.002	334.41
359.384	298.93
359.766	319.95
360.148	312.72
360.53	322.21
360.912	328.99
361.294	309.1
361.676	308.88
362.057	320.63
362.439	319.95
362.821	317.01
363.203	298.71
363.584	307.07
363.966	268.88
364.348	287.41
364.729	300.51
365.111	313.85
365.493	306.62
365.874	291.48
366.256	300.51
366.637	298.25
367.019	311.36
367.4	298.03
367.781	302.55
368.163	296.22
368.544	307.07
368.925	294.19
369.306	308.42
369.688	299.38
370.069	302.77
370.45	300.06
370.831	296.22
371.212	310.68
371.593	296.45
371.974	317.24
372.355	289.22
372.736	299.38
373.117	293.74
373.498	286.05
373.879	312.72
374.26	315.66
374.641	319.05
375.021	326.28
375.402	322.44
375.783	320.4
376.163	330.34
376.544	311.36
376.925	301.19
377.305	299.61
377.686	310.68
378.066	318.37
378.447	287.63
378.827	308.65
379.208	319.27
379.588	310.46
379.968	301.64
380.349	319.95
380.729	332.6
381.109	306.39
381.489	332.38
381.87	325.6
382.25	314.07
382.63	325.37
383.01	325.6
383.39	315.2
383.77	334.64
384.15	308.42
384.53	332.38
384.91	338.03
385.29	337.12
385.67	337.8
386.049	332.6
386.429	336.45
386.809	336.67
387.189	338.93
387.568	363.56
387.948	346.62
388.328	357.01
388.707	357.91
389.087	345.03
389.466	357.91
389.846	350.23
390.225	371.02
390.605	363.56
390.984	341.19
391.363	371.7
391.743	359.72
392.122	350.68
392.501	376.67
392.881	360.4
393.26	374.64
393.639	369.21
394.018	364.02
394.397	363.56
394.776	371.47
395.155	363.34
395.534	370.34
395.913	378.03
396.292	381.64
396.671	388.87
397.05	378.25
397.429	375.54
397.808	368.99
398.186	393.39
398.565	381.87
398.944	399.95
399.323	395.2
399.701	381.87
400.08	362.89
400.458	423.68
400.837	396.56
401.215	422.09
401.594	392.04
401.972	442.88
402.351	402.43
402.729	402.66
403.107	399.72
403.486	408.53
403.864	410.12
404.242	422.55
404.62	416.67
404.999	412.83
405.377	415.77
405.755	420.29
406.133	416.9
406.511	438.82
406.889	442.66
407.267	451.02
407.645	415.54
408.023	467.52
408.401	440.4
408.779	432.26
409.156	455.54
409.534	455.31
409.912	461.19
410.29	470.91
410.667	443.79
411.045	468.65
411.422	448.76
411.8	460.06
412.178	469.1
412.555	476.78
412.933	487.85
413.31	491.92
413.687	486.05
414.065	510
414.442	492.37
414.819	495.54
415.197	512.94
415.574	493.5
415.951	517.91
416.328	510.45
416.705	508.42
417.082	529.89
417.46	529.21
417.837	529.44
418.214	517.68
418.591	524.01
418.967	530.11
419.344	520.62
419.721	543.9
420.098	532.6
420.475	565.59
420.852	572.37
421.228	540.51
421.605	550
421.982	538.25
422.358	559.72
422.735	572.37
423.111	581.41
423.488	578.02
423.864	577.12
424.241	581.64
424.617	590.68
424.994	600.85
425.37	572.6
425.746	587.51
426.123	606.04
426.499	604.01
426.875	613.27
427.251	624.12
427.627	624.12
428.003	637.91
428.379	634.07
428.756	634.52
429.132	663.22
429.507	670.67
429.883	636.78
430.259	660.28
430.635	687.85
431.011	673.84
431.387	690.11
431.763	688.75
432.138	711.8
432.514	698.7
432.89	699.37
433.265	708.64
433.641	746.83
434.016	735.98
434.392	741.63
434.767	744.34
435.143	780.73
435.518	766.27
435.894	772.82
436.269	782.31
436.644	796.55
437.02	806.49
437.395	800.16
437.77	805.13
438.145	809.2
438.52	825.7
438.895	849.43
439.271	818.24
439.646	852.59
440.021	830.9
440.395	820.95
440.77	842.65
441.145	873.16
441.52	882.42
441.895	869.54
442.27	863.89
442.645	882.42
443.019	889.88
443.394	890.56
443.769	924.23
444.143	918.58
444.518	930.1
444.892	933.04
445.267	946.83
445.641	982.98
446.016	944.79
446.39	948.41
446.764	961.29
447.139	976.43
447.513	977.79
447.887	1001.51
448.262	1001.29
448.636	1008.52
449.01	1022.53
449.384	1013.26
449.758	1054.17
450.132	1050.33
450.506	1049.42
450.88	1026.6
451.254	1062.3
451.628	1075.41
452.002	1065.69
452.376	1083.32
452.75	1076.54
453.123	1107.27
453.497	1127.16
453.871	1114.28
454.244	1139.14
454.618	1130.32
454.992	1152.7
455.365	1151.79
455.739	1171.68
456.112	1167.16
456.486	1201.06
456.859	1197.44
457.232	1211.23
457.606	1186.82
457.979	1202.86
458.352	1245.57
458.725	1233.6
459.099	1276.53
459.472	1270.88
459.845	1289.42
460.218	1298
460.591	1312.47
460.964	1295.29
461.337	1332.13
461.71	1327.15
462.083	1363.09
462.456	1377.55
462.829	1374.16
463.201	1355.18
463.574	1398.11
463.947	1392.92
464.32	1421.62
464.692	1400.37
465.065	1425.23
465.438	1458.45
465.81	1467.49
466.183	1483.53
466.555	1515.17
466.928	1517.66
467.3	1522.4
467.672	1564.44
468.045	1545.68
468.417	1589.07
468.789	1559.92
469.161	1595.17
469.534	1658.22
469.906	1674.49
470.278	1667.48
470.65	1701.61
471.022	1725.34
471.394	1727.37
471.766	1736.86
472.138	1769.85
472.51	1773.7
472.882	1795.39
473.253	1831.77
473.625	1832.68
473.997	1869.29
474.369	1930.08
474.74	1902.28
475.112	1929.17
475.484	1960.36
475.855	1970.75
476.227	1998.32
476.598	2071.32
476.97	2058.43
477.341	2116.96
477.713	2156.51
478.084	2149.51
478.455	2206.68
478.827	2224.76
479.198	2281.93
479.569	2336.62
479.94	2325.55
480.311	2387.69
480.682	2402.61
481.053	2493
481.424	2512.66
481.795	2509.72
482.166	2548.14
482.537	2570.29
482.908	2620.23
483.279	2672.88
483.65	2718.3
484.021	2748.36
484.391	2770.73
484.762	2804.86
485.133	2830.39
485.503	2861.8
485.874	2935.47
486.244	2937.28
486.615	3005.53
486.985	3062.25
487.356	3116.49
487.726	3092.76
488.097	3191.06
488.467	3208.23
488.837	3256.14
489.207	3271.74
489.578	3335.01
489.948	3331.17
490.318	3422.92
490.688	3417.27
491.058	3469.7
491.428	3496.59
491.798	3565.06
492.168	3601.67
492.538	3625.63
492.908	3655
493.278	3733.19
493.648	3731.84
494.017	3835.56
494.387	3805.06
494.757	3831.5
495.126	3894.54
495.496	3906.75
495.866	3934.09
496.235	3984.71
496.605	3997.37
496.974	3999.85
497.344	4073.97
497.713	4097.48
498.082	4158.27
498.452	4175.22
498.821	4204.37
499.19	4228.55
499.559	4230.13
499.928	4303.35
500.298	4320.52
500.667	4350.13
501.036	4400.52
501.405	4411.37
501.774	4417.24
502.143	4468.09
502.512	4485.04
502.88	4579.72
503.249	4541.76
503.618	4532.49
503.987	4579.95
504.356	4656.56
504.724	4643.45
505.093	4752.83
505.462	4752.38
505.83	4732.49
506.199	4817.01
506.567	4885.03
506.936	4845.93
507.304	4897.91
507.672	4926.38
508.041	4960.05
508.409	5045.25
508.777	5010.9
509.145	5091.12
509.514	5114.17
509.882	5147.84
510.25	5139.26
510.618	5214.51
510.986	5217
511.354	5271.46
511.722	5299.93
512.09	5360.27
512.458	5430.55
512.826	5416.31
513.193	5456.54
513.561	5512.36
513.929	5525.91
514.297	5532.69
514.664	5628.28
515.032	5629.87
515.4	5680.94
515.767	5763.42
516.135	5776.08
516.502	5752.8
516.869	5880.25
517.237	5896.98
517.604	5861.05
517.972	5936.3
518.339	5961.38
518.706	6032.57
519.073	6096.29
519.44	6152.56
519.808	6184.43
520.175	6196.63
520.542	6240.47
520.909	6310.75
521.276	6314.59
521.643	6358.89
522.009	6410.18
522.376	6456.74
522.743	6488.83
523.11	6607.47
523.477	6602.5
523.843	6611.54
524.21	6711.19
524.577	6832.09
524.943	6828.25
525.31	6891.98
525.676	6929.94
526.043	6925.2
526.409	6995.03
526.776	7084.07
527.142	7123.16
527.508	7099.21
527.874	7245.19
528.241	7220.78
528.607	7288.35
528.973	7362.48
529.339	7355.92
529.705	7408.8
530.071	7453.09
530.437	7503.49
530.803	7524.28
531.169	7624.62
531.535	7625.52
531.901	7667.1
532.267	7690.6
532.632	7751.39
532.998	7794.1
533.364	7788
533.73	7849.24
534.095	7949.58
534.461	7966.08
534.826	7989.58
535.192	8108.9
535.557	8129.46
535.923	8116.81
536.288	8079.52
536.653	8178.73
537.019	8104.15
537.384	8188.89
537.749	8239.74
538.114	8298.95
538.479	8312.51
538.845	8351.38
539.21	8417.36
539.575	8393.64
539.94	8382.34
540.305	8470.47
540.67	8481.54
541.034	8484.03
541.399	8538.49
541.764	8645.15
542.129	8658.94
542.494	8615.55
542.858	8726.06
543.223	8702.1
543.587	8707.07
543.952	8773.51
544.316	8734.87
544.681	8801.31
545.045	8814.87
545.41	8927.86
545.774	8940.97
546.138	8911.14
546.503	8984.58
546.867	9010.57
547.231	9003.79
547.595	9023.45
547.959	9108.42
548.324	9089.44
548.688	9096.67
549.052	9200.85
549.416	9170.79
549.779	9175.99
550.143	9260.05
550.507	9277
550.871	9365.81
551.235	9341.18
551.599	9454.17
551.962	9467.51
552.326	9471.35
552.689	9517
553.053	9480.39
553.417	9489.65
553.78	9671.34
554.143	9626.15
554.507	9706.82
554.87	9711.11
555.234	9812.35
555.597	9729.19
555.96	9736.65
556.323	9855.97
556.686	9923.54
557.05	9947.27
557.413	9992.24
557.776	10062.07
558.139	10127.83
558.502	10133.7
558.865	10074.49
559.228	10232.91
559.59	10177.54
559.953	10243.98
560.316	10327.14
560.679	10319.46
561.041	10409.63
561.404	10473.81
561.767	10547.93
562.129	10587.25
562.492	10557.42
562.854	10633.58
563.217	10704.99
563.579	10669.51
563.941	10782.05
564.304	10812.78
564.666	10850.52
565.028	10919.67
565.39	10951.53
565.753	10977.75
566.115	11038.76
566.477	11048.03
566.839	11163.51
567.201	11192.88
567.563	11239.21
567.925	11255.48
568.287	11351.52
568.648	11241.02
569.01	11410.28
569.372	11428.36
569.734	11427.91
570.095	11523.95
570.457	11526.21
570.819	11677.39
571.18	11640.78
571.542	11667.67
571.903	11776.82
572.265	11713.1
572.626	11728.46
572.987	11762.81
573.349	11782.02
573.71	11879.87
574.071	11810.72
574.432	11915.12
574.794	12069.92
575.155	12004.84
575.516	11906.31
575.877	12035.8
576.238	12130.03
576.599	12233.53
576.96	12155.57
577.32	12135.46
577.681	12181.33
578.042	12263.59
578.403	12161.9
578.763	12215.91
579.124	12197.15
579.485	12305.85
579.845	12285.06
580.206	12356.02
580.566	12361.21
580.927	12322.57
581.287	12389.24
581.648	12409.8
582.008	12475.79
582.368	12415
582.728	12440.31
583.089	12452.51
583.449	12306.53
583.809	12419.07
584.169	12397.6
584.529	12367.32
584.889	12520.98
585.249	12440.99
585.609	12463.81
585.969	12527.31
586.329	12478.27
586.688	12603.47
587.048	12469.01
587.408	12460.19
587.768	12424.26
588.127	12410.93
588.487	12423.59
588.846	12447.77
589.206	12366.64
589.565	12406.86
589.925	12516.92
590.284	12570.25
590.643	12519.4
591.003	12548.78
591.362	12656.57
591.721	12593.3
592.08	12594.43
592.44	12597.14
592.799	12541.55
593.158	12527.31
593.517	12546.97
593.876	12517.37
594.235	12514.88
594.593	12567.08
594.952	12645.27
595.311	12563.92
595.67	12625.16
596.029	12631.04
596.387	12710.81
596.746	12797.14
597.104	12626.74
597.463	12694.99
597.822	12668.78
598.18	12629.68
598.538	12622.68
598.897	12730.92
599.255	12593.3
599.613	12765.72
599.972	12662.9
600.33	12681.21
600.688	12668.55
601.046	12832.61
601.404	12772.73
601.762	12822.67
602.12	12834.42
602.478	12884.59
602.836	12900.64
603.194	12787.87
603.552	12797.36
603.91	12739.06
604.268	12751.49
604.625	12756.23
604.983	12845.72
605.341	12746.97
605.698	12954.87
606.056	12900.86
606.413	12962.55
606.771	13012.04
607.128	13036
607.485	12911.26
607.843	12965.94
608.2	13004.81
608.557	13065.15
608.914	12918.94
609.272	12977.7
609.629	12963.91
609.986	13035.77
610.343	12977.7
610.7	13105.15
611.057	13125.71
611.414	13115.32
611.771	13069.9
612.127	13142.66
612.484	13143.34
612.841	13197.58
613.198	13150.57
613.554	13175.2
613.911	13279.38
614.267	13199.38
614.624	13203.23
614.98	13194.86
615.337	13253.85
615.693	13283.9
616.05	13240.97
616.406	13309.89
616.762	13247.29
617.118	13305.14
617.475	13282.55
617.831	13319.38
618.187	13389.21
618.543	13357.35
618.899	13409.1
619.255	13356.44
619.611	13254.98
619.967	13313.51
620.323	13393.73
620.678	13280.51
621.034	13326.16
621.39	13331.13
621.746	13424.46
622.101	13504.91
622.457	13383.79
622.812	13480.96
623.168	13378.59
623.523	13400.74
623.879	13451.58
624.234	13325.48
624.589	13311.92
624.945	13459.72
625.3	13461.75
625.655	13422.88
626.01	13404.12
626.365	13319.38
626.72	13365.48
627.075	13477.57
627.43	13345.14
627.785	13436.44
628.14	13352.37
628.495	13323
628.85	13367.06
629.205	13309.89
629.559	13369.55
629.914	13299.95
630.269	13306.27
630.623	13347.63
630.978	13319.83
631.332	13272.83
631.687	13315.99
632.041	13247.97
632.396	13275.09
632.75	13178.14
633.104	13270.57
633.459	13160.74
633.813	13182.21
634.167	13149.22
634.521	13220.63
634.875	13211.81
635.229	13179.95
635.583	13162.78
635.937	13170.01
636.291	13226.05
636.645	13060.86
636.999	13080.97
637.352	13099.05
637.706	12958.71
638.06	13024.93
638.413	13023.34
638.767	13019.05
639.121	13005.04
639.474	12921.88
639.828	12980.18
640.181	12982.44
640.534	12898.83
640.888	12901.09
641.241	12888.43
641.594	12959.84
641.947	12913.97
642.301	12852.05
642.654	12847.98
643.007	12816.57
643.36	12845.95
643.713	12754.88
644.066	12842.78
644.419	12685.73
644.771	12670.13
645.124	12639.85
645.477	12591.49
645.83	12473.08
646.182	12438.5
646.535	12316.02
646.888	12382.68
647.24	12300.65
647.593	12307.2
647.945	12286.41
648.298	12198.73
648.65	12259.75
649.002	12187.43
649.355	12298.17
649.707	12269.01
650.059	12275.79
650.411	12430.37
650.763	12444.83
651.115	12508.56
651.467	12526.41
651.819	12437.82
652.171	12424.49
652.523	12446.64
652.875	12402.57
653.227	12379.75
653.578	12469.91
653.93	12433.53
654.282	12316.92
654.633	12278.73
654.985	12347.43
655.337	12345.85
655.688	12350.59
656.039	12398.28
656.391	12281.44
656.742	12278.73
657.094	12378.62
657.445	12327.32
657.796	12279.41
658.147	12315.57
658.498	12232.63
658.849	12318.5
659.2	12259.97
659.551	12194.44
659.902	12272.4
660.253	12250.48
660.604	12241.22
660.955	12224.95
661.306	12275.79
661.656	12186.76
662.007	12215
662.358	12254.78
662.708	12146.53
663.059	12217.26
663.409	12031.51
663.76	12253.65
664.11	12153.76
664.461	12192.86
664.811	12212.07
665.161	12114.89
665.511	12112.63
665.862	12084.16
666.212	12184.95
666.562	12212.97
666.912	12130.49
667.262	12148.79
667.612	12116.48
667.962	12103.82
668.312	12078.28
668.662	12167.1
669.011	12066.76
669.361	12122.12
669.711	12015.69
670.06	12044.39
670.41	12045.52
670.76	12051.39
671.109	11998.96
671.459	12038.74
671.808	11952.64
672.157	12003.94
672.507	11946.99
672.856	11931.17
673.205	12029.92
673.554	12089.81
673.904	11992.64
674.253	12041.45
674.602	12002.35
674.951	11816.82
675.3	11739.76
675.649	11967.78
675.998	11991.73
676.346	11978.17
676.695	11950.6
677.044	11879.65
677.393	11867.89
677.741	11949.47
678.09	11923.71
678.438	11745.86
678.787	11758.74
679.135	11800.1
679.484	11781.79
679.832	11831.74
680.181	11754.45
680.529	11828.35
680.877	11746.09
681.225	11768.91
681.573	11872.41
681.922	11787.67
682.27	11665.19
682.618	11734.11
682.966	11663.83
683.314	11640.78
683.661	11608.01
684.009	11588.35
684.357	11503.16
684.705	11552.42
685.053	11512.65
685.4	11578.86
685.748	11449.15
686.095	11444.4
686.443	11431.3
686.79	11371.41
687.138	11361.92
687.485	11459.09
687.832	11375.7
688.18	11449.37
688.527	11330.73
688.874	11296.61
689.221	11307.23
689.568	11301.13
689.915	11234.46
690.262	11260
690.609	11204.41
690.956	11193.56
691.303	11112.66
691.65	11016.84
691.997	11007.13
692.344	10928.26
692.69	10955.6
693.037	11076.28
693.383	10921.7
693.73	10938.65
694.077	10859.33
694.423	10878.99
694.769	10886.9
695.116	10837.19
695.462	10843.06
695.808	10808.26
696.155	10801.26
696.501	10709.05
696.847	10698.89
697.193	10706.57
697.539	10634.71
697.885	10579.11
698.231	10522.39
698.577	10526.69
698.923	10527.82
699.269	10476.74
699.614	10429.06
699.96	10355.17
700.306	10438.1
700.651	10358.33
700.997	10327.82
701.342	10350.87
701.688	10346.58
702.033	10366.69
702.379	10225.23
702.724	10253.93
703.069	10309.29
703.415	10170.76
703.76	10181.84
704.105	10185.45
704.45	10069.07
704.795	10091.44
705.14	9980.71
705.485	10046.02
705.83	9967.61
706.175	10015.29
706.52	9953.59
706.865	9933.03
707.209	9961.05
707.554	9857.1
707.899	9997.43
708.243	9882.18
708.588	9908.4
708.932	9836.31
709.277	9834.95
709.621	9809.19
709.966	9727.39
710.31	9746.82
710.654	9589.99
710.998	9705.01
711.342	9691.45
711.687	9578.69
712.031	9549.76
712.375	9524.45
712.719	9568.75
713.063	9523.1
713.407	9566.94
713.75	9500.27
714.094	9488.52
714.438	9494.85
714.782	9507.73
715.125	9389.54
715.469	9479.93
715.812	9409.43
716.156	9350.22
716.499	9353.84
716.843	9357.45
717.186	9347.51
717.53	9359.94
717.873	9389.32
718.216	9346.83
718.559	9227.29
718.902	9192.94
719.246	9280.39
719.589	9210.11
719.932	9189.32
720.275	9141.19
720.617	9184.57
720.96	9124.01
721.303	9137.34
721.646	9134.18
721.989	9098.93
722.331	9087.18
722.674	9016.44
723.016	9082.88
723.359	9086.27
723.701	9051.25
724.044	9061.19
724.386	8978.48
724.729	9032.71
725.071	9020.29
725.413	9041.53
725.755	8941.19
726.097	8901.42
726.439	8867.07
726.782	8880.85
727.124	8862.78
727.465	8861.87
727.807	8848.76
728.149	8813.29
728.491	8779.84
728.833	8802.44
729.175	8755.89
729.516	8741.42
729.858	8759.73
730.199	8765.38
730.541	8739.16
730.882	8679.28
731.224	8777.35
731.565	8724.02
731.906	8720.63
732.248	8769.22
732.589	8708.43
732.93	8666.85
733.271	8699.39
733.612	8757.47
733.953	8722.67
734.294	8616.68
734.635	8546.17
734.976	8632.5
735.317	8559.51
735.658	8558.83
735.999	8516.34
736.339	8477.02
736.68	8483.12
737.021	8479.06
737.361	8493.75
737.702	8486.74
738.042	8473.18
738.383	8420.75
738.723	8478.38
739.063	8416.46
739.404	8440.41
739.744	8459.62
740.084	8426.85
740.424	8466.4
740.764	8370.36
741.104	8416.01
741.444	8367.2
741.784	8361.55
742.124	8339.63
742.464	8305.28
742.804	8250.14
743.143	8271.15
743.483	8236.8
743.823	8232.06
744.162	8242.45
744.502	8196.35
744.841	8205.17
745.181	8191.15
745.52	8182.12
745.86	8179.18
746.199	8201.32
746.538	8194.09
746.877	8212.17
747.216	8188.67
747.556	8189.8
747.895	8119.52
748.234	8123.13
748.573	8154.55
748.911	8120.42
749.25	8130.37
749.589	8104.38
749.928	8093.53
750.267	8036.36
750.605	8047.66
750.944	8011.5
751.283	8005.4
751.621	8011.5
751.96	7965.4
752.298	7946.42
752.636	7884.5
752.975	7820.32
753.313	7840.66
753.651	7861.9
753.989	7890.37
754.327	7866.19
754.666	7783.03
755.004	7778.74
755.342	7802.01
755.679	7813.76
756.017	7759.08
756.355	7738.29
756.693	7755.01
757.031	7760.88
757.368	7741.22
757.706	7701.68
758.044	7683.37
758.381	7693.77
758.719	7696.48
759.056	7685.86
759.394	7661.45
759.731	7558.18
760.068	7522.25
760.405	7512.75
760.743	7491.96
761.08	7482.92
761.417	7419.65
761.754	7357.5
762.091	7400.89
