Data from foam_black_FLMS001491_00088.txt Node
Date: Wed Feb 08 10:44:51 GMT 2017
User: dcchb
Spectrometer: FLMS00149
Trigger mode: 0
Integration Time (sec): 2.000000E-2
Scans to average: 10
Electric dark correction enabled: true
Nonlinearity correction enabled: false
Boxcar width: 0
XAxis mode: Wavelengths
Number of Pixels in Spectrum: 2048
>>>>>Begin Spectral Data<<<<<
341.393	-12.92
341.776	-12.92
342.16	-12.92
342.543	-69.87
342.927	-59.93
343.31	-68.97
343.693	-68.52
344.077	-51.79
344.46	-51.79
344.843	-56.09
345.226	-43.88
345.61	-36.2
345.993	-8.86
346.376	1.54
346.759	0.86
347.142	14.65
347.525	63.23
347.908	56.45
348.291	77.47
348.674	77.24
349.057	94.64
349.44	118.82
349.823	150.69
350.206	150.69
350.588	168.77
350.971	213.96
351.354	203.12
351.737	239.27
352.119	230.69
352.502	272.72
352.884	276.33
353.267	266.62
353.65	272.04
354.032	282.89
354.414	298.25
354.797	297.8
355.179	305.71
355.562	299.38
355.944	291.02
356.326	315.66
356.709	331.02
357.091	301.19
357.473	340.74
357.855	324.02
358.238	338.48
358.62	342.77
359.002	323.56
359.384	335.54
359.766	335.09
360.148	335.99
360.53	331.02
360.912	329.21
361.294	331.93
361.676	328.54
362.057	330.8
362.439	321.76
362.821	325.15
363.203	324.69
363.584	313.62
363.966	308.65
364.348	307.52
364.729	320.63
365.111	315.66
365.493	332.15
365.874	297.8
366.256	326.73
366.637	327.63
367.019	314.53
367.4	311.14
367.781	316.79
368.163	317.92
368.544	316.79
368.925	310.23
369.306	328.76
369.688	302.55
370.069	299.16
370.45	313.62
370.831	330.34
371.212	328.08
371.593	300.51
371.974	317.01
372.355	312.72
372.736	322.44
373.117	326.28
373.498	303.68
373.879	317.69
374.26	324.92
374.641	310.01
375.021	324.69
375.402	309.78
375.783	321.76
376.163	338.71
376.544	363.34
376.925	348.42
377.305	314.53
377.686	329.67
378.066	329.89
378.447	342.55
378.827	357.01
379.208	352.94
379.588	332.83
379.968	340.51
380.349	341.64
380.729	347.29
381.109	350.68
381.489	352.04
381.87	343.68
382.25	349.78
382.63	355.88
383.01	340.51
383.39	361.53
383.77	391.81
384.15	361.3
384.53	359.04
384.91	371.47
385.29	345.03
385.67	369.21
386.049	363.34
386.429	352.26
386.809	373.96
387.189	385.48
387.568	387.97
387.948	384.58
388.328	389.1
388.707	386.61
389.087	399.72
389.466	387.74
389.846	385.26
390.225	397.46
390.605	406.95
390.984	397.24
391.363	385.71
391.743	428.65
392.122	401.75
392.501	401.98
392.881	419.83
393.26	412.83
393.639	412.83
394.018	422.55
394.397	417.35
394.776	411.47
395.155	445.6
395.534	419.61
395.913	411.02
396.292	414.86
396.671	415.09
397.05	449.44
397.429	426.16
397.808	427.29
398.186	458.48
398.565	433.62
398.944	454.18
399.323	451.47
399.701	447.63
400.08	451.7
400.458	437.69
400.837	457.12
401.215	461.87
401.594	460.96
401.972	456.67
402.351	457.12
402.729	438.59
403.107	459.83
403.486	471.58
403.864	466.61
404.242	482.88
404.62	457.12
404.999	485.14
405.377	490.57
405.755	490.57
406.133	500.51
406.511	507.29
406.889	484.92
407.267	474.97
407.645	505.71
408.023	527.63
408.401	508.87
408.779	509.32
409.156	513.16
409.534	526.95
409.912	530.57
410.29	542.09
410.667	541.86
411.045	536.89
411.422	550.68
411.8	579.15
412.178	553.84
412.555	575.54
412.933	576.44
413.31	566.5
413.687	564.69
414.065	577.34
414.442	605.82
414.819	608.53
415.197	606.5
415.574	617.79
415.951	611.02
416.328	617.79
416.705	611.24
417.082	614.4
417.46	628.42
417.837	619.83
418.214	630.68
418.591	635.2
418.967	628.87
419.344	652.37
419.721	634.74
420.098	660.28
420.475	668.87
420.852	652.37
421.228	657.79
421.605	668.64
421.982	698.02
422.358	674.97
422.735	688.08
423.111	690.33
423.488	699.6
423.864	705.93
424.241	706.83
424.617	725.59
424.994	724.01
425.37	707.28
425.746	726.27
426.123	732.37
426.499	700.28
426.875	739.15
427.251	740.05
427.627	781.63
428.003	749.09
428.379	744.8
428.756	788.19
429.132	784.34
429.507	781.86
429.883	780.05
430.259	832.25
430.635	806.94
431.011	835.87
431.387	823.66
431.763	828.41
432.138	825.7
432.514	879.93
432.89	874.51
433.265	875.64
433.641	891.46
434.016	892.14
434.392	910.22
434.767	913.83
435.143	901.63
435.518	925.81
435.894	914.96
436.269	944.79
436.644	952.7
437.02	962.19
437.395	942.98
437.77	952.02
438.145	979.59
438.52	1006.26
438.895	983.43
439.271	987.5
439.646	1009.87
440.021	1025.47
440.395	1036.77
440.77	1025.92
441.145	1011.23
441.52	1076.09
441.895	1071.12
442.27	1066.82
442.645	1069.31
443.019	1083.32
443.394	1078.57
443.769	1068.4
444.143	1067.05
444.518	1090.1
444.892	1075.64
445.267	1103.21
445.641	1139.14
446.016	1128.06
446.39	1112.24
446.764	1113.83
447.139	1135.75
447.513	1139.36
447.887	1123.77
448.262	1141.85
448.636	1158.57
449.01	1172.81
449.384	1171
449.758	1167.61
450.132	1203.77
450.506	1185.24
450.88	1212.81
451.254	1169.42
451.628	1230.43
452.002	1235.86
452.376	1253.94
452.75	1249.64
453.123	1231.34
453.497	1279.7
453.871	1293.48
454.244	1291.45
454.618	1289.64
454.992	1331.22
455.365	1329.87
455.739	1351.56
456.112	1361.96
456.486	1374.84
456.859	1409.64
457.232	1406.47
457.606	1407.83
457.979	1432.01
458.352	1459.35
458.725	1475.17
459.099	1491.67
459.472	1502.52
459.845	1540.03
460.218	1521.95
460.591	1521.5
460.964	1556.07
461.337	1572.57
461.71	1606.92
462.083	1621.38
462.456	1627.26
462.829	1624.55
463.201	1674.49
463.574	1648.5
463.947	1685.11
464.32	1708.61
464.692	1745.45
465.065	1749.06
465.438	1744.09
465.81	1756.52
466.183	1771.21
466.555	1809.85
466.928	1811.66
467.3	1839.23
467.672	1820.93
468.045	1901.83
468.417	1895.28
468.789	1937.76
469.161	1933.47
469.534	1968.04
469.906	1966.69
470.278	2022.05
470.65	2042.62
471.022	2081.03
471.394	2113.35
471.766	2135.27
472.138	2133.01
472.51	2178.43
472.882	2206.91
473.253	2263.85
473.625	2255.72
473.997	2328.03
474.369	2333.23
474.74	2337.98
475.112	2395.15
475.484	2425.2
475.855	2482.6
476.227	2461.81
476.598	2523.96
476.97	2566.67
477.341	2596.27
477.713	2633.33
478.084	2678.08
478.455	2729.6
478.827	2747.23
479.198	2798.75
479.569	2841.24
479.94	2899.09
480.311	2895.93
480.682	2961.46
481.053	3018.64
481.424	3060.67
481.795	3097.05
482.166	3119.65
482.537	3168.69
482.908	3225.86
483.279	3218.4
483.65	3332.3
484.021	3376.82
484.391	3390.6
484.762	3452.07
485.133	3451.84
485.503	3505.85
485.874	3554.44
486.244	3595.34
486.615	3682.35
486.985	3722.12
487.356	3752.85
487.726	3783.59
488.097	3828.78
488.467	3879.4
488.837	3965.28
489.207	3987.2
489.578	4062.68
489.948	4016.8
490.318	4081.21
490.688	4133.86
491.058	4184.93
491.428	4201.43
491.798	4240.52
492.168	4375.66
492.538	4333.63
492.908	4385.15
493.278	4495.88
493.648	4471.93
494.017	4540.86
494.387	4562.1
494.757	4586.5
495.126	4666.28
495.496	4634.86
495.866	4661.76
496.235	4724.13
496.605	4766.16
496.974	4760.28
497.344	4833.28
497.713	4846.84
498.082	4870.11
498.452	4931.58
498.821	4956.66
499.19	4950.56
499.559	5019.71
499.928	5082.08
500.298	5067.62
500.667	5103.55
501.036	5110.56
501.405	5153.49
501.774	5200.05
502.143	5245.02
502.512	5264.9
502.88	5313.26
503.249	5279.82
503.618	5386.71
503.987	5411.34
504.356	5407.5
504.724	5488.17
505.093	5457.22
505.462	5505.35
505.83	5513.48
506.199	5601.39
506.567	5645.46
506.936	5628.51
507.304	5689.98
507.672	5749.18
508.041	5771.56
508.409	5812.91
508.777	5880.48
509.145	5875.74
509.514	5863.98
509.882	5940.59
510.25	5932.01
510.618	6026.01
510.986	6029.63
511.354	6064.66
511.722	6153.47
512.09	6225.1
512.458	6186.01
512.826	6290.41
513.193	6259.68
513.561	6303.52
513.929	6275.72
514.297	6396.85
514.664	6474.59
515.032	6420.13
515.4	6512.1
515.767	6602.72
516.135	6655.15
516.502	6603.85
516.869	6686.34
517.237	6731.08
517.604	6747.58
517.972	6823.96
518.339	6897.86
518.706	6908.25
519.073	6950.51
519.44	6981.92
519.808	7055.82
520.175	7075.03
520.542	7101.24
520.909	7186.44
521.276	7211.97
521.643	7315.7
522.009	7296.04
522.376	7456.94
522.743	7476.82
523.11	7525.18
523.477	7605.41
523.843	7610.15
524.21	7712.52
524.577	7773.99
524.943	7812.86
525.31	7836.36
525.676	7920.43
526.043	7952.29
526.409	8093.08
526.776	8107.32
527.142	8061.89
527.508	8139.63
527.874	8232.06
528.241	8284.49
528.607	8330.36
528.973	8454.2
529.339	8428.44
529.705	8439.96
530.071	8579.62
530.437	8563.12
530.803	8716.56
531.169	8677.02
531.535	8704.36
531.901	8712.27
532.267	8797.01
532.632	8785.04
532.998	8950.23
533.364	8935.09
533.73	8969.44
534.095	9031.58
534.461	9102.32
534.826	9125.14
535.192	9194.74
535.557	9338.24
535.923	9229.77
536.288	9293.27
536.653	9354.97
537.019	9291.01
537.384	9366.94
537.749	9449.2
538.114	9465.47
538.479	9491.01
538.845	9552.02
539.21	9545.02
539.575	9601.51
539.94	9601.97
540.305	9749.31
540.67	9676.54
541.034	9747.05
541.399	9784.56
541.764	9788.4
542.129	9871.11
542.494	9879.25
542.858	9957.21
543.223	9950.2
543.587	9986.81
543.952	9974.38
544.316	10092.57
544.681	10021.16
545.045	10136.64
545.41	10126.47
545.774	10193.59
546.138	10250.31
546.503	10305.22
546.867	10300.25
547.231	10389.06
547.595	10390.19
547.959	10429.97
548.324	10430.19
548.688	10455.5
549.052	10509.74
549.416	10549.51
549.779	10587.7
550.143	10561.94
550.507	10686.23
550.871	10710.18
551.235	10748.83
551.599	10852.78
551.962	10882.16
552.326	10945.88
552.689	10985.66
553.053	10904.3
553.417	10973
553.78	11171.19
554.143	11048.71
554.507	11195.6
554.87	11269.04
555.234	11398.75
555.597	11269.49
555.96	11336.83
556.323	11387
556.686	11425.65
557.05	11530.05
557.413	11648.24
557.776	11712.19
558.139	11694.57
558.502	11745.64
558.865	11864.73
559.228	11859.08
559.59	12007.33
559.953	12054.33
560.316	12180.2
560.679	12188.79
561.041	12252.06
561.404	12239.86
561.767	12463.81
562.129	12419.07
562.492	12526.18
562.854	12490.48
563.217	12513.98
563.579	12597.14
563.941	12792.62
564.304	12816.57
564.666	12864.7
565.028	12880.97
565.39	12855.44
565.753	13024.93
566.115	13057.92
566.477	13061.31
566.839	13125.94
567.201	13361.64
567.563	13307.86
567.925	13290.46
568.287	13438.7
568.648	13520.51
569.01	13568.87
569.372	13636.44
569.734	13690.45
570.095	13680.5
570.457	13758.69
570.819	13802.76
571.18	13846.6
571.542	13905.35
571.903	13969.76
572.265	14049.31
572.626	14078.91
572.987	14032.58
573.349	14076.2
573.71	14239.58
574.071	14202.07
574.432	14214.73
574.794	14364.78
575.155	14296.76
575.516	14325.91
575.877	14423.31
576.238	14413.59
576.599	14593.02
576.96	14538.56
577.32	14514.38
577.681	14641.15
578.042	14658.33
578.403	14698.78
578.763	14676.18
579.124	14778.78
579.485	14791.89
579.845	14745.33
580.206	14779.23
580.566	14844.99
580.927	14802.96
581.287	14931.99
581.648	14871.88
582.008	14961.6
582.368	14931.99
582.728	14946.23
583.089	14957.3
583.449	14917.76
583.809	14933.35
584.169	14916.63
584.529	14916.85
584.889	15000.02
585.249	15047.47
585.609	15017.87
585.969	15041.14
586.329	15029.84
586.688	15157.07
587.048	15124.08
587.408	15099.45
587.768	15063.29
588.127	15049.73
588.487	14982.16
588.846	15210.41
589.206	15011.77
589.565	15071.65
589.925	15265.32
590.284	15027.59
590.643	15267.8
591.003	15138.54
591.362	15183.74
591.721	15195.94
592.08	15215.15
592.44	15215.6
592.799	15210.86
593.158	15147.13
593.517	15270.97
593.876	15207.02
594.235	15187.58
594.593	15201.14
594.952	15271.42
595.311	15169.95
595.67	15234.81
596.029	15282.27
596.387	15399.78
596.746	15397.52
597.104	15266.67
597.463	15206.11
597.822	15450.4
598.18	15289.73
598.538	15337.63
598.897	15423.28
599.255	15338.76
599.613	15501.7
599.972	15521.36
600.33	15534.01
600.688	15512.54
601.046	15478.87
601.404	15528.14
601.762	15516.39
602.12	15707.57
602.478	15600.9
602.836	15606.33
603.194	15440.23
603.552	15531.75
603.91	15602.49
604.268	15568.81
604.625	15565.88
604.983	15616.72
605.341	15526.78
605.698	15688.81
606.056	15669.38
606.413	15688.36
606.771	15726.32
607.128	15708.92
607.485	15588.93
607.843	15705.99
608.2	15814.46
608.557	15724.52
608.914	15709.6
609.272	15824.4
609.629	15914.12
609.986	16034.56
610.343	15877.28
610.7	15990.72
611.057	15888.81
611.414	15922.93
611.771	15983.72
612.127	16049.71
612.484	15985.98
612.841	15990.95
613.198	15945.08
613.554	15995.7
613.911	16050.16
614.267	16007.67
614.624	16069.82
614.98	15983.27
615.337	16107.78
615.693	16086.54
616.05	16077.28
616.406	16194.56
616.762	16112.3
617.118	16190.49
617.475	16098.52
617.831	16282.24
618.187	16262.35
618.543	16207.44
618.899	16301.45
619.255	16302.58
619.611	16218.74
619.967	16224.39
620.323	16315.91
620.678	16336.48
621.034	16254.45
621.39	16262.13
621.746	16243.82
622.101	16460.09
622.457	16284.05
622.812	16355.91
623.168	16399.07
623.523	16262.81
623.879	16392.07
624.234	16250.6
624.589	16410.6
624.945	16393.65
625.3	16401.33
625.655	16312.07
626.01	16382.13
626.365	16394.78
626.72	16439.75
627.075	16278.63
627.43	16272.75
627.785	16263.03
628.14	16339.87
628.495	16343.03
628.85	16327.66
629.205	16325.63
629.559	16340.09
629.914	16283.15
630.269	16325.4
630.623	16303.48
630.978	16218.06
631.332	16291.73
631.687	16279.08
632.041	16272.07
632.396	16137.16
632.75	16209.25
633.104	16126.09
633.459	16141.68
633.813	16155.01
634.167	16139.19
634.521	16149.59
634.875	16198.63
635.229	16153.88
635.583	16142.13
635.937	16051.51
636.291	16041.57
636.645	16070.72
636.999	15971.52
637.352	16006.32
637.706	15972.42
638.06	15953.89
638.413	15983.49
638.767	15920.22
639.121	15929.03
639.474	15819.43
639.828	15897.39
640.181	15903.49
640.534	15977.84
640.888	15783.72
641.241	15785.53
641.594	15864.63
641.947	15808.13
642.301	15761.35
642.654	15762.26
643.007	15694.01
643.36	15685.87
643.713	15709.83
644.066	15762.71
644.419	15591.19
644.771	15483.62
645.124	15267.13
645.477	15241.14
645.83	15254.92
646.182	15187.81
646.535	15191.42
646.888	15187.13
647.24	15078.66
647.593	15223.51
647.945	15169.73
648.298	15052.22
648.65	15064.87
649.002	14981.03
649.355	15033.69
649.707	14927.25
650.059	15033.69
650.411	15137.64
650.763	15175.6
651.115	15339.44
651.467	15257.64
651.819	15273.45
652.171	15207.24
652.523	15187.81
652.875	15276.39
653.227	15153.91
653.578	15159.56
653.93	15234.36
654.282	15193.46
654.633	15068.71
654.985	15138.09
655.337	15183.51
655.688	15221.25
656.039	15161.14
656.391	14983.29
656.742	15057.64
657.094	15069.17
657.445	15147.13
657.796	15153.01
658.147	15150.07
658.498	15101.93
658.849	14946.91
659.2	15074.82
659.551	15015.61
659.902	15036.4
660.253	15004.76
660.604	14970.86
660.955	14929.06
661.306	15015.61
661.656	14957.08
662.007	15013.8
662.358	14976.06
662.708	15019.45
663.059	14911.88
663.409	14758.89
663.76	14893.8
664.11	14881.15
664.461	14930.41
664.811	14888.61
665.161	14956.85
665.511	14840.02
665.862	14888.83
666.212	14910.98
666.562	14958.43
666.912	14883.18
667.262	14854.03
667.612	14863.07
667.962	14896.97
668.312	14842.73
668.662	14984.42
669.011	14841.83
669.361	14786.46
669.711	14808.61
670.06	14785.56
670.41	14795.73
670.76	14756.63
671.109	14818.1
671.459	14795.73
671.808	14750.98
672.157	14894.03
672.507	14760.7
672.856	14719.57
673.205	14746.01
673.554	14792.34
673.904	14822.62
674.253	14835.05
674.602	14724.99
674.951	14478.9
675.3	14415.17
675.649	14694.71
675.998	14629.4
676.346	14606.58
676.695	14686.8
677.044	14578.56
677.393	14574.72
677.741	14625.11
678.09	14555.06
678.438	14520.48
678.787	14613.58
679.135	14594.15
679.484	14454.27
679.832	14573.36
680.181	14470.09
680.529	14503.98
680.877	14367.49
681.225	14438.67
681.573	14432.8
681.922	14262.41
682.27	14289.07
682.618	14247.72
682.966	14252.92
683.314	14357.77
683.661	14275.06
684.009	14145.57
684.357	14145.12
684.705	14183.99
685.053	14084.11
685.4	14115.74
685.748	14086.14
686.095	14050.89
686.443	13964.34
686.79	14078.23
687.138	14108.97
687.485	13955.07
687.832	13954.39
688.18	13900.38
688.527	13882.98
688.874	13863.1
689.221	13831.46
689.568	13793.95
689.915	13672.59
690.262	13823.32
690.609	13697.45
690.956	13627.85
691.303	13649.32
691.65	13537.23
691.997	13547.62
692.344	13478.93
692.69	13385.59
693.037	13347.18
693.383	13365.93
693.73	13429.66
694.077	13239.16
694.423	13293.17
694.769	13330.23
695.116	13156.67
695.462	13125.26
695.808	13128.2
696.155	13152.61
696.501	12999.16
696.847	13010.69
697.193	12830.13
697.539	12895.89
697.885	12831.94
698.231	12807.76
698.577	12755.55
698.923	12835.1
699.269	12735.44
699.614	12696.12
699.96	12597.37
700.306	12677.14
700.651	12576.35
700.997	12492.06
701.342	12520.76
701.688	12474.43
702.033	12429.69
702.379	12484.38
702.724	12462.45
703.069	12417.26
703.415	12240.77
703.76	12287.77
704.105	12272.4
704.45	12249.81
704.795	12189.92
705.14	12151.05
705.485	12218.39
705.83	12113.54
706.175	12146.98
706.52	12059.08
706.865	12007.55
707.209	11967.1
707.554	11896.37
707.899	11919.42
708.243	11802.36
708.588	11945.18
708.932	11797.39
709.277	11675.13
709.621	11730.04
709.966	11580.67
710.31	11642.59
710.654	11606.43
710.998	11585.87
711.342	11609.6
711.687	11638.07
712.031	11570.5
712.375	11450.05
712.719	11474.01
713.063	11471.75
713.407	11489.15
713.75	11379.32
714.094	11388.13
714.438	11294.12
714.782	11382.48
715.125	11195.82
715.469	11264.07
715.812	11222.71
716.156	11102.72
716.499	11217.06
716.843	11118.76
717.186	11160.12
717.53	11236.72
717.873	11149.72
718.216	11149.04
718.559	11097.52
718.902	11018.2
719.246	11008.71
719.589	11040.8
719.932	10933.23
720.275	10903.4
720.617	10965.55
720.96	10942.49
721.303	10896.39
721.646	10859.11
721.989	10816.85
722.331	10875.38
722.674	10825.44
723.016	10806
723.359	10781.6
723.701	10788.15
724.044	10787.7
724.386	10685.1
724.729	10746.57
725.071	10728.26
725.413	10744.53
725.755	10642.84
726.097	10610.07
726.439	10577.98
726.782	10557.42
727.124	10620.7
727.465	10598.77
727.807	10551.32
728.149	10528.49
728.491	10526.69
728.833	10419.57
729.175	10486.01
729.516	10440.59
729.858	10427.71
730.199	10464.77
730.541	10375.5
730.882	10406.92
731.224	10409.63
731.565	10319.23
731.906	10328.73
732.248	10358.33
732.589	10210.31
732.93	10209.86
733.271	10221.61
733.612	10246.47
733.953	10250.54
734.294	10230.88
734.635	10241.95
734.976	10255.28
735.317	10162.4
735.658	10171.22
735.999	10145.68
736.339	10100.03
736.68	10143.19
737.021	10052.12
737.361	10029.3
737.702	10108.39
738.042	10065.91
738.383	10050.54
738.723	10080.37
739.063	9925.12
739.404	10065.46
739.744	9969.41
740.084	9995.4
740.424	9915.86
740.764	9940.49
741.104	9898.23
741.444	9892.8
741.784	9814.84
742.124	9934.84
742.464	9805.8
742.804	9810.32
743.143	9816.2
743.483	9894.39
743.823	9758.12
744.162	9718.8
744.502	9748.63
744.841	9733.49
745.181	9750.44
745.52	9713.15
745.86	9669.53
746.199	9630.21
746.538	9640.38
746.877	9653.72
747.216	9609.2
747.556	9534.17
747.895	9660.04
748.234	9573.72
748.573	9529.42
748.911	9569.2
749.25	9514.06
749.589	9512.25
749.928	9502.98
750.267	9510.89
750.605	9459.14
750.944	9437.22
751.283	9385.93
751.621	9394.06
751.96	9282.43
752.298	9267.51
752.636	9340.5
752.975	9310.9
753.313	9254.86
753.651	9285.36
753.989	9304.8
754.327	9222.09
754.666	9140.06
755.004	9187.74
755.342	9148.87
755.679	9185.25
756.017	9103.9
756.355	9109.1
756.693	9010.12
757.031	9030
757.368	9040.17
757.706	9020.06
758.044	8965.6
758.381	8968.76
758.719	8871.14
