Data from foam1_polythene_foam_FLMS001491_00074.txt Node
Date: Wed Feb 08 10:55:22 GMT 2017
User: dcchb
Spectrometer: FLMS00149
Trigger mode: 0
Integration Time (sec): 2.000000E-2
Scans to average: 10
Electric dark correction enabled: true
Nonlinearity correction enabled: false
Boxcar width: 0
XAxis mode: Wavelengths
Number of Pixels in Spectrum: 2048
>>>>>Begin Spectral Data<<<<<
341.393	-22.98
341.776	-22.98
342.16	-22.98
342.543	-41.28
342.927	-80.61
343.31	-74.96
343.693	-69.31
344.077	-77.89
344.46	-37.44
344.843	-48.97
345.226	-47.84
345.61	-26.14
345.993	-14.17
346.376	-8.52
346.759	-9.19
347.142	31.71
347.525	50.24
347.908	58.37
348.291	75.1
348.674	96.57
349.057	102.44
349.44	132.5
349.823	142.89
350.206	176.34
350.588	191.03
350.971	201.42
351.354	209.56
351.737	227.86
352.119	220.18
352.502	230.12
352.884	265.83
353.267	292.94
353.65	274.64
354.032	281.65
354.414	287.07
354.797	268.54
355.179	292.27
355.562	321.19
355.944	321.42
356.326	304.47
356.709	319.61
357.091	323.45
357.473	329.33
357.855	319.61
358.238	327.07
358.62	334.75
359.002	336.11
359.384	323.45
359.766	317.58
360.148	350.12
360.53	341.53
360.912	339.27
361.294	323.23
361.676	329.1
362.057	317.58
362.439	327.75
362.821	335.43
363.203	303.57
363.584	316.22
363.966	335.2
364.348	296.56
364.729	320.97
365.111	308.54
365.493	308.99
365.874	297.92
366.256	291.14
366.637	311.93
367.019	290.68
367.4	320.74
367.781	314.19
368.163	317.35
368.544	311.02
368.925	307.41
369.306	320.06
369.688	292.27
370.069	325.71
370.45	317.35
370.831	314.64
371.212	312.38
371.593	323.23
371.974	309.89
372.355	324.81
372.736	297.24
373.117	306.28
373.498	322.32
373.879	311.25
374.26	308.31
374.641	298.14
375.021	308.09
375.402	328.65
375.783	323
376.163	313.73
376.544	345.37
376.925	318.48
377.305	328.65
377.686	320.97
378.066	332.94
378.447	337.01
378.827	334.07
379.208	340.63
379.588	320.29
379.968	301.08
380.349	348.76
380.729	333.4
381.109	352.38
381.489	344.02
381.87	333.85
382.25	339.04
382.63	343.79
383.01	334.75
383.39	351.7
383.77	383.79
384.15	344.47
384.53	343.79
384.91	338.14
385.29	360.29
385.67	349.44
386.049	368.42
386.429	382.43
386.809	370.46
387.189	382.89
387.568	372.49
387.948	369.33
388.328	369.33
388.707	347.63
389.087	381.53
389.466	355.09
389.846	355.99
390.225	382.43
390.605	379.95
390.984	376.78
391.363	395.09
391.743	372.49
392.122	398.48
392.501	392.6
392.881	391.7
393.26	395.54
393.639	403.22
394.018	396.67
394.397	421.3
394.776	414.97
395.155	396.22
395.534	407.74
395.913	420.4
396.292	421.98
396.671	418.14
397.05	429.89
397.429	394.18
397.808	404.35
398.186	429.21
398.565	418.59
398.944	440.74
399.323	443.45
399.701	434.41
400.08	437.35
400.458	458.82
400.837	435.09
401.215	438.7
401.594	448.19
401.972	445.48
402.351	473.73
402.729	443
403.107	449.78
403.486	483.22
403.864	451.13
404.242	461.08
404.62	484.13
404.999	477.8
405.377	480.51
405.755	491.58
406.133	474.41
406.511	475.31
406.889	494.52
407.267	520.96
407.645	491.13
408.023	502.2
408.401	491.58
408.779	513.05
409.156	498.81
409.534	511.7
409.912	507.85
410.29	527.06
410.667	534.52
411.045	541.3
411.422	532.71
411.8	544.69
412.178	554.63
412.555	565.93
412.933	557.34
413.31	531.58
413.687	565.48
414.065	585.14
414.442	574.29
414.819	574.74
415.197	573.84
415.574	602.54
415.951	594.41
416.328	593.5
416.705	604.8
417.082	588.3
417.46	608.64
417.837	614.07
418.214	610.45
418.591	588.76
418.967	609.09
419.344	640.96
419.721	619.49
420.098	626.72
420.475	651.58
420.852	647.51
421.228	646.83
421.605	661.75
421.982	641.86
422.358	670.11
422.735	686.83
423.111	694.97
423.488	688.41
423.864	697.23
424.241	711.69
424.617	701.3
424.994	692.93
425.37	715.31
425.746	729.77
426.123	715.31
426.499	719.6
426.875	750.33
427.251	747.62
427.627	750.11
428.003	753.5
428.379	768.41
428.756	769.99
429.132	799.6
429.507	813.83
429.883	796.21
430.259	812.93
430.635	809.31
431.011	817.45
431.387	849.54
431.763	858.58
432.138	861.97
432.514	870.1
432.89	867.17
433.265	862.19
433.641	876.88
434.016	909.88
434.392	896.09
434.767	915.98
435.143	931.8
435.518	955.3
435.894	963.89
436.269	954.62
436.644	992.13
437.02	975.41
437.395	984.9
437.77	1003.66
438.145	1005.69
438.52	1017.22
438.895	1020.61
439.271	1037.33
439.646	1058.57
440.021	1068.52
440.395	1082.3
440.77	1058.8
441.145	1074.84
441.52	1089.99
441.895	1120.04
442.27	1092.7
442.645	1091.57
443.019	1129.31
443.394	1137.89
443.769	1125.01
444.143	1157.1
444.518	1161.85
444.892	1164.11
445.267	1152.36
445.641	1199.14
446.016	1181.28
446.39	1211.79
446.764	1205.24
447.139	1221.06
447.513	1261.96
447.887	1245.01
448.262	1254.73
448.636	1261.73
449.01	1263.54
449.384	1266.93
449.758	1291.34
450.132	1305.57
450.506	1290.66
450.88	1298.79
451.254	1330.43
451.628	1364.55
452.002	1351.45
452.376	1369.75
452.75	1392.58
453.123	1393.25
453.497	1393.71
453.871	1419.47
454.244	1444.1
454.618	1447.04
454.992	1473.7
455.365	1466.7
455.739	1490.2
456.112	1511.9
456.486	1502.63
456.859	1526.13
457.232	1538.11
457.606	1526.81
457.979	1561.84
458.352	1590.99
458.725	1621.95
459.099	1625.11
459.472	1658.33
459.845	1655.39
460.218	1669.41
460.591	1686.81
460.964	1635.73
461.337	1717.31
461.71	1756.86
462.083	1768.84
462.456	1769.74
462.829	1749.63
463.201	1799.8
463.574	1817.88
463.947	1809.51
464.32	1868.72
464.692	1861.49
465.065	1886.8
465.438	1908.27
465.81	1956.4
466.183	1926.35
466.555	2006.8
466.928	2009.74
467.3	1990.07
467.672	2004.54
468.045	2064.2
468.417	2072.78
468.789	2096.29
469.161	2121.82
469.534	2114.37
469.906	2195.27
470.278	2216.28
470.65	2236.4
471.022	2274.36
471.394	2285.89
471.766	2317.07
472.138	2335.15
472.51	2374.02
472.882	2404.3
473.253	2477.29
473.625	2491.98
473.997	2533.79
474.369	2534.02
474.74	2571.3
475.112	2609.72
475.484	2639.55
475.855	2699.21
476.227	2710.28
476.598	2745.31
476.97	2798.19
477.341	2889.71
477.713	2912.08
478.084	2889.03
478.455	2965.87
478.827	2977.62
479.198	3099.2
479.569	3142.13
479.94	3196.14
480.311	3211.51
480.682	3291.74
481.053	3309.81
481.424	3385.52
481.795	3479.3
482.166	3452.41
482.537	3518.85
482.908	3550.49
483.279	3622.57
483.65	3680.2
484.021	3789.35
484.391	3766.98
484.762	3855.79
485.133	3843.13
485.503	3900.98
485.874	4006.29
486.244	4001.32
486.615	4112.28
486.985	4157.7
487.356	4253.07
487.726	4297.36
488.097	4364.93
488.467	4371.26
488.837	4465.94
489.207	4555.21
489.578	4617.35
489.948	4625.49
490.318	4644.24
490.688	4719.04
491.058	4763.56
491.428	4801.53
491.798	4854.18
492.168	4981.86
492.538	4971.92
492.908	5016.21
493.278	5115.87
493.648	5173.95
494.017	5251.01
494.387	5273.15
494.757	5260.72
495.126	5353.6
495.496	5398.8
495.866	5380.95
496.235	5432.47
496.605	5517.44
496.974	5577.33
497.344	5598.57
497.713	5686.93
498.082	5691.67
498.452	5799.24
498.821	5829.07
499.19	5833.82
499.559	5860.26
499.928	5898.22
500.298	5928.05
500.667	6015.28
501.036	6011.89
501.405	6135.28
501.774	6106.12
502.143	6185.44
502.512	6259.79
502.88	6235.84
503.249	6297.31
503.618	6342.95
503.987	6347.47
504.356	6355.38
504.724	6394.7
505.093	6460.69
505.462	6505.44
505.83	6651.65
506.199	6674.25
506.567	6762.83
506.936	6741.81
507.304	6799.21
507.672	6823.85
508.041	6807.58
508.409	6952.88
508.777	7017.29
509.145	7055.03
509.514	7040.11
509.882	7156.04
510.25	7135.25
510.618	7255.7
510.986	7277.17
511.354	7298.64
511.722	7324.17
512.09	7431.29
512.458	7451.85
512.826	7490.27
513.193	7535.92
513.561	7655.46
513.929	7619.53
514.297	7769.58
514.664	7826.98
515.032	7806.65
515.4	7891.61
515.767	7948.79
516.135	7931.39
516.502	7984.95
516.869	8073.98
517.237	8168.22
517.604	8168.9
517.972	8270.59
518.339	8351.72
518.706	8357.36
519.073	8350.13
519.44	8460.64
519.808	8540.19
520.175	8516.91
520.542	8719.39
520.909	8690.24
521.276	8779.73
521.643	8831.7
522.009	8957.58
522.376	9001.87
522.743	9121.41
523.11	9139.27
523.477	9197.57
523.843	9224.91
524.21	9391.01
524.577	9416.55
524.943	9492.7
525.31	9490.44
525.676	9696.99
526.043	9704.67
526.409	9758.46
526.776	9858.34
527.142	9917.55
527.508	9986.25
527.874	9986.93
528.241	10044.55
528.607	10091.33
528.973	10216.75
529.339	10146.02
529.705	10381.49
530.071	10412.68
530.437	10489.06
530.803	10546.23
531.169	10666
531.535	10562.5
531.901	10628.04
532.267	10701.71
532.632	10728.6
532.998	10802.27
533.364	10881.59
533.73	10886.34
534.095	11079.55
534.461	11059.67
534.826	11090.85
535.192	11149.61
535.557	11229.61
535.923	11259.21
536.288	11299.21
536.653	11343.73
537.019	11302.6
537.384	11407.45
537.749	11390.96
538.114	11502.82
538.479	11602.48
538.845	11642.48
539.21	11590.95
539.575	11637.5
539.94	11653.1
540.305	11818.06
540.67	11738.29
541.034	11792.53
541.399	11823.04
541.764	11829.36
542.129	11883.37
542.494	11918.4
542.858	12051.96
543.223	12078.4
543.587	12153.88
543.952	12140.99
544.316	12233.42
544.681	12161.78
545.045	12334.21
545.41	12388.67
545.774	12398.61
546.138	12349.58
546.503	12400.87
546.867	12435.68
547.231	12464.83
547.595	12483.58
547.959	12641.77
548.324	12644.48
548.688	12673.64
549.052	12647.2
549.416	12842.22
549.779	12823.01
550.143	12828.21
550.507	12844.48
550.871	12943.69
551.235	12932.84
551.599	13023.01
551.962	13070.91
552.326	13153.62
552.689	13166.96
553.053	13184.58
553.417	13246.5
553.78	13452.37
554.143	13371.92
554.507	13398.14
554.87	13459.6
555.234	13603.33
555.597	13550.45
555.96	13550.45
556.323	13700.73
556.686	13784.34
557.05	13815.3
557.413	13762.65
557.776	13944.79
558.139	14011.23
558.502	14011
558.865	14052.58
559.228	14141.85
559.59	14198.57
559.953	14238.57
560.316	14408.96
560.679	14335.29
561.041	14370.99
561.404	14538.67
561.767	14589.29
562.129	14517.43
562.492	14697.31
562.854	14688.95
563.217	14749.51
563.579	14792
563.941	14788.83
564.304	14945.89
564.666	14974.37
565.028	15052.33
565.39	15089.39
565.753	15333.9
566.115	15279.44
566.477	15390.17
566.839	15389.27
567.201	15467.69
567.563	15511.98
567.925	15611.19
568.287	15600.56
568.648	15722.37
569.01	15682.82
569.372	15869.03
569.734	15782.71
570.095	15956.71
570.457	15931.86
570.819	16016.6
571.18	16017.95
571.542	16147.67
571.903	16098.18
572.265	16092.53
572.626	16203.26
572.987	16219.31
573.349	16360.09
573.71	16437.83
574.071	16471.73
574.432	16473.08
574.794	16686.86
575.155	16564.38
575.516	16577.04
575.877	16636.02
576.238	16589.01
576.599	16689.58
576.96	16781.78
577.32	16736.81
577.681	16794.88
578.042	16844.83
578.403	16864.71
578.763	16871.27
579.124	16969.79
579.485	17007.76
579.845	17000.98
580.206	17028.78
580.566	17024.71
580.927	16970.02
581.287	17120.07
581.648	17046.4
582.008	17113.52
582.368	17023.35
582.728	17110.13
583.089	17117.81
583.449	17077.59
583.809	17141.54
584.169	17180.41
584.529	17165.27
584.889	17276.68
585.249	17209.56
585.609	17120.07
585.969	17179.51
586.329	17257.47
586.688	17117.81
587.048	17076.01
587.408	17077.81
587.768	17039.17
588.127	17085.5
588.487	17161.43
588.846	17316
589.206	17227.19
589.565	17134.54
589.925	17297.02
590.284	17295.89
590.643	17268.32
591.003	17294.31
591.362	17290.01
591.721	17195.78
592.08	17246.4
592.44	17241.2
592.799	17299.5
593.158	17300.18
593.517	17172.05
593.876	17246.62
594.235	17324.36
594.593	17215.89
594.952	17314.87
595.311	17273.51
595.67	17358.26
596.029	17346.96
596.387	17444.58
596.746	17425.83
597.104	17349.9
597.463	17329.56
597.822	17412.49
598.18	17280.52
598.538	17315.32
598.897	17441.87
599.255	17295.89
599.613	17635.54
599.972	17423.79
600.33	17493.4
600.688	17395.09
601.046	17539.5
601.404	17531.81
601.762	17540.85
602.12	17668.53
602.478	17583.79
602.836	17596.9
603.194	17476
603.552	17546.28
603.91	17490.23
604.268	17598.03
604.625	17498.14
604.983	17585.82
605.341	17467.41
605.698	17648.19
606.056	17687.06
606.413	17660.4
606.771	17706.72
607.128	17687.29
607.485	17561.87
607.843	17744.69
608.2	17874.4
608.557	17940.84
608.914	17850.9
609.272	17875.31
609.629	17879.15
609.986	17934.29
610.343	17826.95
610.7	17935.87
611.057	17990.11
611.414	17933.61
611.771	17963.44
612.127	18000.5
612.484	17946.04
612.841	17950.56
613.198	17844.57
613.554	17996.43
613.911	18077.34
614.267	18122.53
614.624	17993.95
614.98	18054.06
615.337	18184.9
615.693	18120.72
616.05	18123.89
616.406	18196.88
616.762	18117.56
617.118	18133.38
617.475	18184.68
617.831	18233.94
618.187	18205.69
618.543	18255.64
618.899	18433.71
619.255	18219.7
619.611	18300.61
619.967	18272.13
620.323	18386.25
620.678	18297.22
621.034	18292.02
621.39	18284.11
621.746	18254.73
622.101	18459.7
622.457	18228.52
622.812	18406.59
623.168	18406.37
623.523	18328.85
623.879	18316.2
624.234	18237.56
624.589	18266.71
624.945	18394.16
625.3	18389.19
625.655	18396.65
626.01	18426.25
626.365	18541.5
626.72	18300.61
627.075	18362.07
627.43	18265.13
627.785	18305.8
628.14	18357.78
628.495	18363.66
628.85	18263.55
629.205	18174.96
629.559	18248.18
629.914	18167.28
630.269	18162.3
630.623	18226.94
630.978	18163.66
631.332	18233.26
631.687	18308.29
632.041	18120.95
632.396	18167.95
632.75	18165.24
633.104	18176.99
633.459	18098.35
633.813	18104
634.167	17953.04
634.521	17971.35
634.875	18058.35
635.229	17974.97
635.583	17898.13
635.937	17909.88
636.291	17896.1
636.645	17937
636.999	17808.64
637.352	17913.05
637.706	17872.6
638.06	17926.38
638.413	17801.18
638.767	17797.12
639.121	17744.24
639.474	17624.01
639.828	17729.55
640.181	17658.14
640.534	17593.05
640.888	17589.21
641.241	17476.67
641.594	17494.53
641.947	17519.84
642.301	17431.02
642.654	17514.64
643.007	17562.32
643.36	17531.81
643.713	17462.44
644.066	17551.47
644.419	17360.97
644.771	17374.08
645.124	17325.49
645.477	17209.79
645.83	17080.98
646.182	16939.06
646.535	16835.33
646.888	16856.58
647.24	16646.41
647.593	16684.15
647.945	16637.15
648.298	16575.23
648.65	16659.75
649.002	16537.26
649.355	16676.69
649.707	16647.09
650.059	16707.88
650.411	17025.84
650.763	16893.64
651.115	17189.22
651.467	17089.56
651.819	17032.39
652.171	16953.75
652.523	16894.77
652.875	16846.63
653.227	16830.59
653.578	16848.22
653.93	16776.58
654.282	16795.79
654.633	16644.83
654.985	16791.27
655.337	16701.33
655.688	16849.57
656.039	16787.65
656.391	16692.51
656.742	16740.87
657.094	16752.4
657.445	16750.82
657.796	16813.87
658.147	16690.48
658.498	16624.04
658.849	16711.04
659.2	16608.45
659.551	16633.31
659.902	16579.52
660.253	16612.52
660.604	16618.84
660.955	16529.13
661.306	16466.98
661.656	16464.72
662.007	16575.45
662.358	16593.08
662.708	16637.6
663.059	16527.55
663.409	16509.47
663.76	16587.21
664.11	16612.29
664.461	16551.27
664.811	16472.41
665.161	16422.69
665.511	16471.28
665.862	16514.44
666.212	16413.88
666.562	16511.95
666.912	16398.06
667.262	16292.3
667.612	16345.86
667.962	16450.26
668.312	16293.88
668.662	16441.45
669.011	16422.24
669.361	16506.76
669.711	16491.16
670.06	16461.11
670.41	16409.81
670.76	16346.31
671.109	16481.45
671.459	16325.74
671.808	16342.92
672.157	16369.13
672.507	16219.76
672.856	16314.44
673.205	16128.01
673.554	16199.42
673.904	16117.84
674.253	16224.28
674.602	16120.55
674.951	15892.53
675.3	15903.61
675.649	16126.88
675.998	16111.06
676.346	16246.65
676.695	16163.71
677.044	16157.39
677.393	16128.91
677.741	16092.3
678.09	16083.04
678.438	16020.67
678.787	16131.17
679.135	16008.24
679.484	15915.36
679.832	16077.16
680.181	15868.81
680.529	15989.71
680.877	15917.17
681.225	15861.8
681.573	15922.36
681.922	15746.55
682.27	15756.72
682.618	15789.71
682.966	15613.9
683.314	15803.04
683.661	15683.5
684.009	15644.41
684.357	15585.42
684.705	15645.53
685.053	15686.66
685.4	15615.93
685.748	15562.83
686.095	15537.06
686.443	15494.35
686.79	15443.05
687.138	15452.77
687.485	15445.31
687.832	15404.64
688.18	15340.01
688.527	15209.16
688.874	15263.62
689.221	15136.4
689.568	15180.01
689.915	15108.15
690.262	15091.43
690.609	15111.31
690.956	15023.18
691.303	15069.05
691.65	14994.7
691.997	14967.13
692.344	14864.31
692.69	14910.64
693.037	14935.95
693.383	14796.97
693.73	14903.63
694.077	14775.28
694.423	14748.16
694.769	14579.35
695.116	14581.61
695.462	14551.1
695.808	14477.66
696.155	14551.33
696.501	14362.18
696.847	14317.66
697.193	14290.09
697.539	14288.06
697.885	14258.9
698.231	14189.98
698.577	14209.87
698.923	14181.17
699.269	14139.81
699.614	14094.62
699.96	14008.74
700.306	14111.34
700.651	13951.34
700.997	13960.38
701.342	13936.2
701.688	13957.44
702.033	13923.77
702.379	13757.22
702.724	13739.6
703.069	13906.6
703.415	13627.73
703.76	13653.04
704.105	13698.24
704.45	13528.75
704.795	13431.58
705.14	13413.05
705.485	13465.03
705.83	13362.66
706.175	13414.86
706.52	13405.82
706.865	13380.96
707.209	13426.16
707.554	13300.74
707.899	13424.8
708.243	13318.59
708.588	13265.26
708.932	13235.2
709.277	13261.42
709.621	13202.44
709.966	13059.16
710.31	13089.44
710.654	12947.07
710.998	12932.84
711.342	12917.02
711.687	12841.77
712.031	12837.7
712.375	12730.13
712.719	12728.78
713.063	12771.26
713.407	12738.04
713.75	12685.84
714.094	12744.59
714.438	12637.7
714.782	12672.73
715.125	12672.96
715.469	12666.4
715.812	12740.53
716.156	12605.61
716.499	12602.9
716.843	12690.58
717.186	12668.66
717.53	12574.43
717.873	12557.25
718.216	12517.26
718.559	12444.26
718.902	12312.29
719.246	12272.74
719.589	12332.18
719.932	12137.83
720.275	12184.61
720.617	12177.38
720.96	12136.47
721.303	12181.9
721.646	12188.22
721.989	12099.19
722.331	12151.16
722.674	12091.73
723.016	12137.83
723.359	12173.76
723.701	12146.19
724.044	12208.34
724.386	12041.56
724.729	12120.2
725.071	12148.45
725.413	12119.07
725.755	12041.79
726.097	11941.9
726.439	11882.24
726.782	11877.27
727.124	11872.3
727.465	11790.04
727.807	11765.18
728.149	11609.48
728.491	11636.37
728.833	11683.83
729.175	11658.97
729.516	11669.14
729.858	11657.62
730.199	11625.75
730.541	11720.67
730.882	11639.09
731.224	11734.23
731.565	11614.23
731.906	11634.34
732.248	11678.18
732.589	11518.19
732.93	11606.32
733.271	11639.31
733.612	11546.43
733.953	11566.32
734.294	11431.18
734.635	11424.85
734.976	11445.65
735.317	11346.66
735.658	11365.42
735.999	11324.52
736.339	11298.76
736.68	11305.31
737.021	11274.12
737.361	11157.74
737.702	11282.71
738.042	11190.28
738.383	11158.65
738.723	11263.5
739.063	11246.55
739.404	11302.6
739.744	11242.71
740.084	11226.22
740.424	11246.33
740.764	11140.57
741.104	11209.04
741.444	11126.33
741.784	11154.35
742.124	11120.23
742.464	11114.35
742.804	11028.93
743.143	11064.41
743.483	10971.53
743.823	10926.79
744.162	10855.83
744.502	10843.4
744.841	10817.87
745.181	10867.13
745.52	10872.33
745.86	10805.21
746.199	10851.54
746.538	10822.16
746.877	10882.72
747.216	10824.64
747.556	10827.81
747.895	10809.5
748.234	10736.06
748.573	10691.31
748.911	10755.72
749.25	10802.27
749.589	10706.46
749.928	10733.57
750.267	10790.97
750.605	10616.97
750.944	10634.37
751.283	10612.22
751.621	10579.91
751.96	10497.2
752.298	10413.36
752.636	10466.69
752.975	10361.83
753.313	10320.7
753.651	10357.54
753.989	10352.79
754.327	10338.56
754.666	10257.2
755.004	10286.13
755.342	10309.86
755.679	10274.6
756.017	10222.63
756.355	10271.89
756.693	10252.23
757.031	10256.3
