Data from foam2_polystyrene_foam_FLMS001491_00065.txt Node
Date: Wed Feb 08 10:58:20 GMT 2017
User: dcchb
Spectrometer: FLMS00149
Trigger mode: 0
Integration Time (sec): 2.000000E-2
Scans to average: 10
Electric dark correction enabled: true
Nonlinearity correction enabled: false
Boxcar width: 0
XAxis mode: Wavelengths
Number of Pixels in Spectrum: 2048
>>>>>Begin Spectral Data<<<<<
341.393	8.19
341.776	8.19
342.16	8.19
342.543	-65.7
342.927	-60.73
343.31	-53.73
343.693	-62.54
344.077	-69.09
344.46	-45.14
344.843	-52.6
345.226	-39.04
345.61	-28.87
345.993	-19.38
346.376	-7.85
346.759	-2.88
347.142	27.85
347.525	36.67
347.908	53.84
348.291	86.38
348.674	86.61
349.057	89.77
349.44	120.05
349.823	153.72
350.206	189.43
350.588	198.7
350.971	215.42
351.354	231.69
351.737	223.55
352.119	255.42
352.502	258.81
352.884	259.48
353.267	273.04
353.65	282.31
354.032	295.64
354.414	320.73
354.797	311.01
355.179	325.7
355.562	315.75
355.944	319.37
356.326	331.57
356.709	344.23
357.091	360.95
357.473	352.36
357.855	350.56
358.238	333.38
358.62	351.01
359.002	353.04
359.384	347.84
359.766	333.83
360.148	335.87
360.53	340.16
360.912	345.81
361.294	345.58
361.676	327.73
362.057	366.6
362.439	339.48
362.821	342.87
363.203	326.15
363.584	356.43
363.966	350.33
364.348	313.04
364.729	343.1
365.111	321.86
365.493	343.1
365.874	332.7
366.256	346.71
366.637	330.44
367.019	338.58
367.4	341.52
367.781	321.4
368.163	327.28
368.544	334.06
368.925	334.06
369.306	346.49
369.688	322.99
370.069	344.23
370.45	319.6
370.831	333.38
371.212	336.09
371.593	357.34
371.974	332.03
372.355	329.77
372.736	338.58
373.117	337
373.498	329.54
373.879	347.84
374.26	322.31
374.641	337.67
375.021	343.1
375.402	364.79
375.783	363.21
376.163	353.95
376.544	358.47
376.925	365.47
377.305	358.01
377.686	369.09
378.066	368.63
378.447	368.63
378.827	381.74
379.208	379.71
379.588	381.06
379.968	372.7
380.349	382.87
380.729	387.39
381.109	381.74
381.489	362.98
381.87	385.36
382.25	388.07
382.63	411.12
383.01	390.55
383.39	394.4
383.77	391.91
384.15	393.94
384.53	416.77
384.91	391.46
385.29	387.84
385.67	410.89
386.049	412.93
386.429	410.44
386.809	412.48
387.189	421.74
387.568	435.98
387.948	412.48
388.328	414.06
388.707	422.64
389.087	424.45
389.466	430.78
389.846	438.92
390.225	453.6
390.605	447.05
390.984	447.28
391.363	439.59
391.743	457.45
392.122	467.16
392.501	463.1
392.881	448.63
393.26	453.38
393.639	457.67
394.018	467.84
394.397	478.46
394.776	485.92
395.155	463.55
395.534	457.22
395.913	464.45
396.292	475.98
396.671	497.67
397.05	487.95
397.429	475.3
397.808	489.99
398.186	505.81
398.565	515.07
398.944	482.3
399.323	525.01
399.701	522.53
400.08	515.3
400.458	504.45
400.837	538.8
401.215	539.03
401.594	529.08
401.972	544.22
402.351	546.26
402.729	550.32
403.107	544.45
403.486	548.97
403.864	546.03
404.242	556.65
404.62	542.19
404.999	544
405.377	579.48
405.755	562.53
406.133	583.54
406.511	594.17
406.889	602.53
407.267	602.53
407.645	580.15
408.023	600.49
408.401	616.54
408.779	599.59
409.156	607.95
409.534	604.11
409.912	628.51
410.29	632.81
410.667	632.36
411.045	651.34
411.422	664.67
411.8	677.1
412.178	678.23
412.555	676.65
412.933	676.65
413.31	686.82
413.687	683.65
414.065	689.76
414.442	696.31
414.819	692.24
415.197	698.12
415.574	729.98
415.951	728.62
416.328	727.49
416.705	758
417.082	735.86
417.46	749.19
417.837	739.7
418.214	766.59
418.591	773.37
418.967	751.45
419.344	779.47
419.721	791.22
420.098	789.19
420.475	804.33
420.852	779.92
421.228	811.33
421.605	805.46
421.982	825.57
422.358	820.83
422.735	847.49
423.111	838
423.488	842.75
423.864	848.17
424.241	854.95
424.617	876.42
424.994	875.51
425.37	897.66
425.746	877.77
426.123	914.16
426.499	862.86
426.875	928.62
427.251	922.07
427.627	954.38
428.003	927.26
428.379	962.07
428.756	955.51
429.132	969.52
429.507	994.83
429.883	1002.74
430.259	996.64
430.635	1000.71
431.011	1017.43
431.387	1042.97
431.763	1050.2
432.138	1064.21
432.514	1065.57
432.89	1078.22
433.265	1089.97
433.641	1110.76
434.016	1140.37
434.392	1131.55
434.767	1146.69
435.143	1159.12
435.518	1167.26
435.894	1183.08
436.269	1192.79
436.644	1188.5
437.02	1210.65
437.395	1221.49
437.77	1249.97
438.145	1275.28
438.52	1268.72
438.895	1286.8
439.271	1268.5
439.646	1304.2
440.021	1317.76
440.395	1319.12
440.77	1312.56
441.145	1327.93
441.52	1357.76
441.895	1378.55
442.27	1378.78
442.645	1391.66
443.019	1414.48
443.394	1390.08
443.769	1407.03
444.143	1424.88
444.518	1428.49
444.892	1450.41
445.267	1433.69
445.641	1463.75
446.016	1481.6
446.39	1471.66
446.764	1481.83
447.139	1479.57
447.513	1510.07
447.887	1520.69
448.262	1553.69
448.636	1547.13
449.01	1533.35
449.384	1597.08
449.758	1607.92
450.132	1613.57
450.506	1623.74
450.88	1632.1
451.254	1607.02
451.628	1641.6
452.002	1664.19
452.376	1675.49
452.75	1705.32
453.123	1721.14
453.497	1717.3
453.871	1738.77
454.244	1780.8
454.618	1781.25
454.992	1797.98
455.365	1817.64
455.739	1806.11
456.112	1841.36
456.486	1863.51
456.859	1877.52
457.232	1925.43
457.606	1888.82
457.979	1938.31
458.352	1933.79
458.725	1957.97
459.099	1983.06
459.472	2014.69
459.845	1988.03
460.218	2038.87
460.591	2063.96
460.964	2084.07
461.337	2116.16
461.71	2160.68
462.083	2131.07
462.456	2172.65
462.829	2168.36
463.201	2214.69
463.574	2182.82
463.947	2235.48
464.32	2280.67
464.692	2284.06
465.065	2286.1
465.438	2316.83
465.81	2356.6
466.183	2370.39
466.555	2451.74
466.928	2438.86
467.3	2414.46
467.672	2439.77
468.045	2529.48
468.417	2522.7
468.789	2543.72
469.161	2585.07
469.534	2635.02
469.906	2679.31
470.278	2696.03
470.65	2696.03
471.022	2747.55
471.394	2799.53
471.766	2796.14
472.138	2882.47
472.51	2896.25
472.882	2965.85
473.253	2994.78
473.625	2959.53
473.997	3105.29
474.369	3090.82
474.74	3166.3
475.112	3189.58
475.484	3197.03
475.855	3257.15
476.227	3314.09
476.598	3354.32
476.97	3429.57
477.341	3441.32
477.713	3522.9
478.084	3531.26
478.455	3643.12
478.827	3668.21
479.198	3729.68
479.569	3761.77
479.94	3879.05
480.311	3845.15
480.682	3982.32
481.053	4045.83
481.424	4117.69
481.795	4111.13
482.166	4152.94
482.537	4274.07
482.908	4355.42
483.279	4382.09
483.65	4484.91
484.021	4545.93
484.391	4592.25
484.762	4612.82
485.133	4640.61
485.503	4747.73
485.874	4804.9
486.244	4854.62
486.615	4964.67
486.985	4971.45
487.356	5067.49
487.726	5106.14
488.097	5241.73
488.467	5242.63
488.837	5364.44
489.207	5408.73
489.578	5549.74
489.948	5550.19
490.318	5592.23
490.688	5665.9
491.058	5738.44
491.428	5804.65
491.798	5829.73
492.168	5980.24
492.538	5970.52
492.908	6029.28
493.278	6099.11
493.648	6145.43
494.017	6217.29
494.387	6266.33
494.757	6277.86
495.126	6326.9
495.496	6409.83
495.866	6462.71
496.235	6512.88
496.605	6586.78
496.974	6618.87
497.344	6652.31
497.713	6705.19
498.082	6782.25
498.452	6841.46
498.821	6878.52
499.19	6880.1
499.559	6968.46
499.928	7066.76
500.298	7052.98
500.667	7140.21
501.036	7133.65
501.405	7217.95
501.774	7237.38
502.143	7289.36
502.512	7366.64
502.88	7393.76
503.249	7370.48
503.618	7469.92
503.987	7474.21
504.356	7575.68
504.724	7624.94
505.093	7712.17
505.462	7715.79
505.83	7791.49
506.199	7801.66
506.567	7945.84
506.936	7953.07
507.304	8052.95
507.672	8067.19
508.041	8113.52
508.409	8192.61
508.777	8250.24
509.145	8299.95
509.514	8313.96
509.882	8350.12
510.25	8471.02
510.618	8465.37
510.986	8524.13
511.354	8588.98
511.722	8746.72
512.09	8797.57
512.458	8762.31
512.826	8813.38
513.193	8828.07
513.561	8882.08
513.929	8993.94
514.297	9098.12
514.664	9172.24
515.032	9228.51
515.4	9259.93
515.767	9298.57
516.135	9378.34
516.502	9356.65
516.869	9534.27
517.237	9642.97
517.604	9533.14
517.972	9704.66
518.339	9745.11
518.706	9798.22
519.073	9851.55
519.44	9951.43
519.808	9979.68
520.175	9992.11
520.542	10177.19
520.909	10199.79
521.276	10230.07
521.643	10393.91
522.009	10390.07
522.376	10443.85
522.743	10605.88
523.11	10617.18
523.477	10752.32
523.843	10904.4
524.21	10952.31
524.577	11076.38
524.943	11005.64
525.31	11143.49
525.676	11221.68
526.043	11223.72
526.409	11369.7
526.776	11504.16
527.142	11488.12
527.508	11600.43
527.874	11660.09
528.241	11717.26
528.607	11810.14
528.973	11921.1
529.339	11868.9
529.705	12052.39
530.071	12098.72
530.437	12174.2
530.803	12256.01
531.169	12378.71
531.535	12357.02
531.901	12423.46
532.267	12408.54
532.632	12460.29
532.998	12601.31
533.364	12712.94
533.73	12775.54
534.095	12885.82
534.461	12861.41
534.826	12883.79
535.192	12968.3
535.557	13062.99
535.923	13111.12
536.288	13155.42
536.653	13270.22
537.019	13223.44
537.384	13249.65
537.749	13368.29
538.114	13374.62
538.479	13389.76
538.845	13508.63
539.21	13402.87
539.575	13594.05
539.94	13547.04
540.305	13743.88
540.67	13628.85
541.034	13759.47
541.399	13841.27
541.764	13870.2
542.129	13965.11
542.494	14037.43
542.858	14032
543.223	14058.67
543.587	14154.26
543.952	14125.33
544.316	14148.39
544.681	14249.85
545.045	14343.86
545.41	14343.41
545.774	14391.99
546.138	14329.85
546.503	14417.76
546.867	14427.02
547.231	14565.32
547.595	14561.03
547.959	14684.87
548.324	14670.18
548.688	14745.43
549.052	14784.3
549.416	14921.02
549.779	14903.62
550.143	14893.68
550.507	15027.01
550.871	15089.83
551.235	15075.37
551.599	15257.28
551.962	15190.39
552.326	15227.45
552.689	15349.03
553.053	15351.29
553.417	15295.25
553.78	15537.05
554.143	15506.54
554.507	15617.95
554.87	15653.2
555.234	15843.71
555.597	15740.21
555.96	15863.37
556.323	15952.63
556.686	15967.55
557.05	16168.67
557.413	16146.07
557.776	16122.57
558.139	16231.49
558.502	16285.05
558.865	16387.87
559.228	16457.48
559.59	16629.9
559.953	16639.39
560.316	16827.41
560.679	16806.39
561.041	17003.9
561.404	17008.87
561.767	17163.9
562.129	17171.81
562.492	17284.12
562.854	17229.89
563.217	17233.5
563.579	17386.94
563.941	17386.72
564.304	17460.39
564.666	17611.8
565.028	17742.19
565.39	17734.28
565.753	17915.07
566.115	17835.07
566.477	18016.08
566.839	18000.49
567.201	18159.58
567.563	18230.99
567.925	18393.02
568.287	18292.68
568.648	18356.41
569.01	18497.88
569.372	18578.33
569.734	18592.11
570.095	18635.72
570.457	18742.61
570.819	18844.31
571.18	18826.91
571.542	18962.95
571.903	19025.09
572.265	19052.66
572.626	19211.53
572.987	19233.68
573.349	19191.87
573.71	19264.63
574.071	19372.43
574.432	19430.73
574.794	19563.84
575.155	19513.22
575.516	19470.96
575.877	19597.51
576.238	19604.74
576.599	19768.8
576.96	19770.84
577.32	19619.43
577.681	19865.07
578.042	19857.16
578.403	19919.76
578.763	19864.39
579.124	19962.92
579.485	19992.98
579.845	20115.23
580.206	20077.04
580.566	20025.29
580.927	20117.27
581.287	20165.85
581.648	20095.57
582.008	20137.38
582.368	20228.45
582.728	20186.19
583.089	20195.91
583.449	20188.9
583.809	20258.28
584.169	20232.52
584.529	20187.55
584.889	20343.25
585.249	20232.97
585.609	20126.98
585.969	20244.5
586.329	20207.66
586.688	20223.03
587.048	20218.28
587.408	20206.98
587.768	20294.21
588.127	20250.15
588.487	20149.36
588.846	20395.68
589.206	20249.69
589.565	20258.28
589.925	20369.01
590.284	20332.4
590.643	20378.05
591.003	20277.72
591.362	20484.72
591.721	20235.23
592.08	20349.8
592.44	20426.19
592.799	20480.87
593.158	20350.71
593.517	20364.72
593.876	20452.63
594.235	20399.52
594.593	20417.37
594.952	20376.02
595.311	20364.04
595.67	20480.65
596.029	20533.53
596.387	20497.37
596.746	20582.79
597.104	20473.64
597.463	20573.53
597.822	20516.13
598.18	20486.3
598.538	20553.64
598.897	20766.06
599.255	20458.73
599.613	20780.98
599.972	20554.77
600.33	20711.6
600.688	20623.47
601.046	20677.93
601.404	20742.56
601.762	20702.56
602.12	20780.08
602.478	20705.27
602.836	20815.1
603.194	20663.69
603.552	20631.83
603.91	20647.42
604.268	20721.77
604.625	20736.69
604.983	20784.82
605.341	20750.47
605.698	20773.07
606.056	20771.94
606.413	20819.4
606.771	20903.46
607.128	20936.46
607.485	20842.9
607.843	20811.49
608.2	20982.33
608.557	21075.89
608.914	20934.42
609.272	21026.62
609.629	21059.84
609.986	21070.69
610.343	20989.11
610.7	21162.89
611.057	21223.23
611.414	21132.83
611.771	21161.08
612.127	21209.22
612.484	21318.37
612.841	21274.53
613.198	21274.75
613.554	21270.68
613.911	21340.29
614.267	21382.77
614.624	21346.61
614.98	21402.88
615.337	21432.26
615.693	21521.52
616.05	21454.18
616.406	21548.19
616.762	21377.57
617.118	21500.51
617.475	21439.72
617.831	21566.72
618.187	21570.11
618.543	21624.8
618.899	21518.36
619.255	21628.87
619.611	21589.09
619.967	21587.74
620.323	21745.25
620.678	21594.06
621.034	21577.79
621.39	21514.75
621.746	21567.62
622.101	21818.69
622.457	21574.18
622.812	21599.26
623.168	21695.08
623.523	21672.26
623.879	21611.01
624.234	21428.87
624.589	21609.21
624.945	21646.27
625.3	21477.46
625.655	21712.71
626.01	21673.16
626.365	21645.36
626.72	21598.13
627.075	21531.69
627.43	21632.93
627.785	21543.67
628.14	21690.11
628.495	21586.83
628.85	21625.7
629.205	21411.92
629.559	21585.25
629.914	21499.15
630.269	21477.23
630.623	21398.36
630.978	21404.47
631.332	21432.26
631.687	21538.47
632.041	21467.97
632.396	21350.23
632.75	21356.78
633.104	21342.09
633.459	21285.37
633.813	21221.42
634.167	21145.04
634.521	21214.64
634.875	21252.83
635.229	21252.15
635.583	21046.51
635.937	21061.42
636.291	21133.06
636.645	20971.03
636.999	21024.36
637.352	21005.38
637.706	20822.11
638.06	20973.74
638.413	20847.19
638.767	20887.42
639.121	20876.12
639.474	20739.4
639.828	20811.94
640.181	20721.09
640.534	20655.78
640.888	20638.38
641.241	20599.97
641.594	20665.5
641.947	20641.77
642.301	20532.17
642.654	20513.19
643.007	20581.21
643.36	20529.69
643.713	20481.1
644.066	20541.66
644.419	20390.48
644.771	20181.22
645.124	19984.39
645.477	19955.92
645.83	19800.21
646.182	19803.83
646.535	19768.35
646.888	19896.03
647.24	19766.54
647.593	19916.37
647.945	19806.99
648.298	19741.01
648.65	19665.98
649.002	19544.4
649.355	19693.78
649.707	19603.83
650.059	19668.69
650.411	19861.23
650.763	19926.76
651.115	20076.14
651.467	20032.52
651.819	20028.68
652.171	19912.75
652.523	19929.7
652.875	19823.72
653.227	19824.39
653.578	19915.92
653.93	19787.78
654.282	19777.62
654.633	19705.3
654.985	19752.98
655.337	19730.39
655.688	19782.59
656.039	19668.47
656.391	19562.93
656.742	19674.12
657.094	19665.75
657.445	19711.4
657.796	19676.38
658.147	19650.84
658.498	19578.98
658.849	19658.07
659.2	19612.2
659.551	19475.02
659.902	19593.44
660.253	19492.2
660.604	19489.94
660.955	19374.24
661.306	19449.71
661.656	19498.53
662.007	19488.13
662.358	19530.84
662.708	19396.61
663.059	19390.51
663.409	19344.18
663.76	19389.83
664.11	19285.2
664.461	19415.59
664.811	19316.61
665.161	19334.01
665.511	19219.89
665.862	19195.94
666.212	19369.94
666.562	19324.52
666.912	19273
667.262	19267.8
667.612	19185.99
667.962	19230.06
668.312	19206.33
668.662	19331.98
669.011	19221.7
669.361	19139.44
669.711	19199.1
670.06	19204.3
670.41	19082.72
670.76	19084.75
671.109	19190.06
671.459	19075.26
671.808	19104.64
672.157	19149.84
672.507	19105.99
672.856	19025.09
673.205	18982.61
673.554	19125.43
673.904	18938.09
674.253	19127.01
674.602	18965.21
674.951	18776.96
675.3	18702.16
675.649	18907.58
675.998	18941.93
676.346	19000.23
676.695	18985.55
677.044	18820.35
677.393	18929.73
677.741	18953.91
678.09	18834.59
678.438	18811.77
678.787	18852.67
679.135	18805.21
679.484	18738.09
679.832	18720.47
680.181	18685.21
680.529	18616.52
680.877	18635.5
681.225	18585.78
681.573	18741.94
681.922	18545.33
682.27	18482.06
682.618	18514.15
682.966	18502.17
683.314	18483.41
683.661	18448.38
684.009	18320.7
684.357	18348.27
684.705	18263.08
685.053	18286.58
685.4	18216.07
685.748	18135.85
686.095	18155.06
686.443	18071.9
686.79	18073.25
687.138	18031.67
687.485	18033.25
687.832	17915.29
688.18	18009.07
688.527	17880.72
688.874	17933.14
689.221	17841.17
689.568	17735.41
689.915	17732.7
690.262	17713.94
690.609	17669.87
690.956	17617.22
691.303	17484.57
691.65	17522.08
691.997	17531.8
692.344	17328.87
692.69	17461.97
693.037	17435.76
693.383	17277.57
693.73	17280.96
694.077	17132.71
694.423	17161.87
694.769	17162.09
695.116	17196.21
695.462	17036.67
695.808	17010.68
696.155	17033.05
696.501	16979.72
696.847	16868.99
697.193	16794.87
697.539	16800.29
697.885	16686.4
698.231	16609.79
698.577	16591.03
698.923	16604.59
699.269	16626.51
699.614	16472.39
699.96	16498.38
700.306	16464.26
700.651	16306.75
700.997	16382.68
701.342	16255.22
701.688	16198.73
702.033	16129.8
702.379	16221.55
702.724	16094.77
703.069	16131.16
703.415	15992.4
703.76	16025.85
704.105	16029.47
704.45	15856.59
704.795	15883.93
705.14	15822.92
705.485	15807.55
705.83	15725.52
706.175	15696.37
706.52	15673.32
706.865	15672.41
707.209	15648.23
707.554	15512.42
707.899	15577.95
708.243	15454.34
708.588	15416.15
708.932	15371.18
709.277	15424.74
709.621	15376.15
709.966	15198.07
710.31	15242.14
710.654	15209.6
710.998	15196.04
711.342	15203.95
711.687	15142.26
712.031	15095.48
712.375	15031.53
712.719	15009.83
713.063	15018.19
713.407	14979.78
713.75	14934.81
714.094	14940.23
714.438	14822.04
714.782	14842.38
715.125	14806.9
715.469	14816.84
715.812	14721.03
716.156	14702.49
716.499	14682.83
716.843	14645.77
717.186	14592.89
717.53	14677.64
717.873	14624.3
718.216	14565.78
718.559	14557.64
718.902	14396.74
719.246	14339.57
719.589	14422.95
719.932	14302.73
720.275	14303.86
720.617	14363.52
720.96	14350.19
721.303	14263.64
721.646	14251.21
721.989	14145.67
722.331	14222.28
722.674	14198.1
723.016	14224.54
723.359	14113.81
723.701	14234.26
724.044	14058.67
724.386	14011.21
724.729	14072.68
725.071	14093.02
725.413	13985.9
725.755	14000.59
726.097	13890.54
726.439	13900.48
726.782	13878.34
727.124	13936.87
727.465	13838.79
727.807	13857.77
728.149	13814.61
728.491	13767.83
728.833	13757.43
729.175	13699.81
729.516	13756.76
729.858	13655.97
730.199	13790.2
730.541	13641.05
730.882	13623.65
731.224	13616.42
731.565	13555.86
731.906	13683.31
732.248	13595.86
732.589	13466.37
732.93	13392.25
733.271	13543.43
733.612	13504.79
733.953	13415.75
734.294	13412.81
734.635	13338.69
734.976	13373.04
735.317	13369.87
735.658	13405.13
735.999	13345.24
736.339	13327.62
736.68	13259.82
737.021	13286.26
737.361	13186.38
737.702	13253.04
738.042	13233.61
738.383	13251.46
738.723	13142.08
739.063	13181.86
739.404	13159.48
739.744	13138.92
740.084	13101.63
740.424	13039.26
740.764	12985.93
741.104	13026.61
741.444	12945.25
741.784	12962.43
742.124	12964.91
742.464	12943.22
742.804	12893.28
743.143	12861.64
743.483	12894.41
743.823	12878.59
744.162	12793.17
744.502	12768.31
744.841	12738.93
745.181	12794.75
745.52	12750.68
745.86	12772.6
746.199	12745.71
746.538	12667.97
746.877	12717.69
747.216	12639.72
747.556	12631.81
747.895	12656.9
748.234	12560.86
748.573	12517.69
748.911	12536.68
749.25	12526.28
749.589	12474.98
749.928	12402.67
750.267	12481.54
750.605	12443.8
750.944	12372.61
751.283	12332.16
751.621	12416.68
751.96	12334.2
752.298	12325.16
752.636	12218.27
752.975	12203.58
753.313	12129.68
753.651	12218.27
753.989	12181.88
754.327	12146.4
754.666	12059.17
755.004	12045.39
755.342	12118.83
755.679	12063.69
