Data from foam1_polythene_foam_FLMS001491_00053.txt Node
Date: Wed Feb 08 10:55:03 GMT 2017
User: dcchb
Spectrometer: FLMS00149
Trigger mode: 0
Integration Time (sec): 2.000000E-2
Scans to average: 10
Electric dark correction enabled: true
Nonlinearity correction enabled: false
Boxcar width: 0
XAxis mode: Wavelengths
Number of Pixels in Spectrum: 2048
>>>>>Begin Spectral Data<<<<<
341.393	-8.9
341.776	-8.9
342.16	-8.9
342.543	-57.71
342.927	-64.04
343.31	-66.07
343.693	-54.09
344.077	-51.16
344.46	-73.98
344.843	-37.15
345.226	-43.25
345.61	-17.03
345.993	-15.9
346.376	-17.26
346.759	14.6
347.142	21.16
347.525	32
347.908	54.6
348.291	65.45
348.674	91.44
349.057	96.64
349.44	145.22
349.823	150.65
350.206	155.62
350.588	193.81
350.971	218.89
351.354	203.3
351.737	219.8
352.119	223.41
352.502	261.6
352.884	270.64
353.267	263.41
353.65	279.68
354.032	283.52
354.414	306.12
354.797	299.12
355.179	293.01
355.562	310.64
355.944	309.74
356.326	313.13
356.709	301.15
357.091	328.49
357.473	345.44
357.855	336.63
358.238	323.3
358.62	323.07
359.002	335.73
359.384	324.65
359.766	328.04
360.148	331.66
360.53	343.64
360.912	303.86
361.294	335.27
361.676	305.9
362.057	315.61
362.439	322.62
362.821	317.2
363.203	304.77
363.584	298.44
363.966	336.86
364.348	315.84
364.729	341.6
365.111	291.21
365.493	328.95
365.874	304.09
366.256	304.09
366.637	295.95
367.019	319.45
367.4	316.07
367.781	328.27
368.163	321.04
368.544	304.31
368.925	323.75
369.306	299.12
369.688	288.04
370.069	276.52
370.45	297.53
370.831	311.55
371.212	297.53
371.593	307.03
371.974	302.28
372.355	312.68
372.736	297.76
373.117	283.75
373.498	289.4
373.879	312.9
374.26	314.26
374.641	309.96
375.021	307.03
375.402	302.96
375.783	315.84
376.163	323.52
376.544	322.17
376.925	318.78
377.305	306.12
377.686	334.37
378.066	321.94
378.447	298.21
378.827	305.9
379.208	328.72
379.588	324.88
379.968	312.45
380.349	337.53
380.729	326.23
381.109	317.2
381.489	326.46
381.87	333.47
382.25	329.4
382.63	342.05
383.01	347.93
383.39	338.21
383.77	334.14
384.15	345.89
384.53	337.08
384.91	333.47
385.29	345.22
385.67	327.59
386.049	338.66
386.429	340.47
386.809	353.8
387.189	355.39
387.568	381.15
387.948	356.74
388.328	354.26
388.707	337.53
389.087	362.62
389.466	361.04
389.846	359.68
390.225	343.18
390.605	369.4
390.984	369.17
391.363	368.49
391.743	386.35
392.122	366.91
392.501	358.32
392.881	366.91
393.26	353.35
393.639	378.66
394.018	392.45
394.397	373.24
394.776	378.21
395.155	372.56
395.534	391.09
395.913	388.83
396.292	388.61
396.671	389.96
397.05	401.26
397.429	407.81
397.808	383.41
398.186	386.57
398.565	406.91
398.944	413.01
399.323	402.84
399.701	404.2
400.08	383.63
400.458	392.45
400.837	400.36
401.215	402.39
401.594	421.37
401.972	402.84
402.351	410.75
402.729	427.7
403.107	419.11
403.486	436.29
403.864	409.85
404.242	439.68
404.62	435.61
404.999	409.85
405.377	436.97
405.755	430.19
406.133	454.14
406.511	441.94
406.889	423.63
407.267	432.45
407.645	455.27
408.023	460.69
408.401	449.85
408.779	455.72
409.156	469.06
409.534	442.84
409.912	476.06
410.29	455.95
410.667	483.97
411.045	473.35
411.422	461.6
411.8	469.06
412.178	479
412.555	500.69
412.933	489.39
413.31	491.43
413.687	498.21
414.065	517.19
414.442	495.5
414.819	502.73
415.197	516.96
415.574	503.18
415.951	516.96
416.328	533.91
416.705	516.51
417.082	512.22
417.46	512.44
417.837	552.67
418.214	542.5
418.591	524.87
418.967	519.45
419.344	541.6
419.721	540.92
420.098	553.8
420.475	559
420.852	557.64
421.228	534.36
421.605	564.87
421.982	551.77
422.358	574.82
422.735	571.88
423.111	583.18
423.488	583.4
423.864	595.38
424.241	601.48
424.617	578.43
424.994	586.57
425.37	596.96
425.746	598.77
426.123	604.42
426.499	604.42
426.875	628.6
427.251	625.44
427.627	648.71
428.003	622.72
428.379	649.16
428.756	671.54
429.132	640.58
429.507	658.2
429.883	665.89
430.259	676.28
430.635	677.86
431.011	671.99
431.387	686.45
431.763	721.48
432.138	679.9
432.514	695.49
432.89	715.15
433.265	727.58
433.641	733.23
434.016	755.83
434.392	758.77
434.767	749.73
435.143	759.9
435.518	758.77
435.894	779.78
436.269	786.11
436.644	808.48
437.02	801.7
437.395	812.1
437.77	824.98
438.145	792.66
438.52	820.01
438.895	833.79
439.271	838.31
439.646	834.7
440.021	854.58
440.395	876.73
440.77	857.97
441.145	857.97
441.52	896.61
441.895	861.81
442.27	923.96
442.645	895.94
443.019	916.05
443.394	887.35
443.769	928.03
444.143	925.54
444.518	910.85
444.892	933
445.267	959.44
445.641	957.18
446.016	965.77
446.39	956.95
446.764	962.6
447.139	971.64
447.513	975.48
447.887	1021.36
448.262	986.78
448.636	1027.01
449.01	1027.68
449.384	1032.66
449.758	1056.84
450.132	1047.57
450.506	1037.85
450.88	1057.97
451.254	1068.14
451.628	1069.94
452.002	1102.03
452.376	1106.55
452.75	1105.2
453.123	1129.15
453.497	1116.95
453.871	1132.99
454.244	1151.98
454.618	1165.53
454.992	1179.32
455.365	1178.87
455.739	1179.32
456.112	1186.55
456.486	1189.49
456.859	1226.32
457.232	1267.45
457.606	1217.51
457.979	1242.59
458.352	1240.79
458.725	1265.42
459.099	1254.12
459.472	1290.73
459.845	1285.53
460.218	1297.51
460.591	1310.39
460.964	1303.16
461.337	1321.69
461.71	1357.39
462.083	1381.57
462.456	1346.32
462.829	1386.55
463.201	1385.19
463.574	1392.42
463.947	1398.75
464.32	1458.18
464.692	1429.93
465.065	1481.23
465.438	1436.94
465.81	1481.23
466.183	1511.06
466.555	1515.58
466.928	1515.13
467.3	1550.16
467.672	1519.88
468.045	1599.87
468.417	1590.61
468.789	1591.74
469.161	1599.65
469.534	1633.77
469.906	1700.89
470.278	1648.69
470.65	1706.99
471.022	1715.58
471.394	1739.3
471.766	1776.82
472.138	1750.15
472.51	1810.49
472.882	1825.18
473.253	1818.17
473.625	1872.18
473.997	1908.57
474.369	1877.61
474.74	1917.38
475.112	1952.63
475.484	1975.46
475.855	1990.37
476.227	2044.16
476.598	2031.05
476.97	2107.66
477.341	2153.53
477.713	2187.88
478.084	2170.71
478.455	2191.5
478.827	2212.06
479.198	2307.2
479.569	2297.71
479.94	2342.9
480.311	2390.36
480.682	2444.14
481.053	2479.17
481.424	2492.96
481.795	2525.5
482.166	2578.83
482.537	2610.92
482.908	2595.78
483.279	2663.8
483.65	2711.71
484.021	2753.74
484.391	2812.04
484.762	2811.82
485.133	2847.3
485.503	2837.58
485.874	2936.56
486.244	2957.13
486.615	3004.36
486.985	3053.85
487.356	3106.95
487.726	3123.67
488.097	3182.2
488.467	3177.46
488.837	3246.16
489.207	3311.01
489.578	3314.86
489.948	3337.91
490.318	3415.42
490.688	3454.06
491.058	3497.22
491.428	3510.56
491.798	3580.16
492.168	3625.58
492.538	3645.24
492.908	3680.27
493.278	3733.83
493.648	3746.71
494.017	3754.17
494.387	3814.73
494.757	3908.29
495.126	3889.08
495.496	3917.55
495.866	3957.55
496.235	3975.63
496.605	3996.87
496.974	4023.09
497.344	4059.24
497.713	4085.91
498.082	4180.82
498.452	4175.85
498.821	4210.2
499.19	4243.42
499.559	4297.66
499.928	4320.93
500.298	4331.78
500.667	4395.05
501.036	4393.47
501.405	4483.87
501.774	4426.01
502.143	4461.27
502.512	4497.2
502.88	4526.8
503.249	4515.95
503.618	4557.54
503.987	4632.34
504.356	4655.16
504.724	4689.96
505.093	4705.55
505.462	4734.93
505.83	4771.99
506.199	4805.89
506.567	4894.93
506.936	4879.56
507.304	4922.72
507.672	4971.08
508.041	4984.87
508.409	5042.95
508.777	5051.99
509.145	5126.56
509.514	5070.52
509.882	5164.53
510.25	5181.47
510.618	5208.37
510.986	5179.21
511.354	5310.28
511.722	5301.92
512.09	5360.68
512.458	5325.65
512.826	5424.18
513.193	5467.57
513.561	5512.09
513.929	5528.81
514.297	5585.98
514.664	5646.09
515.032	5663.27
515.4	5690.61
515.767	5734.91
516.135	5806.54
516.502	5761.8
516.869	5844.06
517.237	5906.65
517.604	5863.49
517.972	5938.52
518.339	6002.02
518.706	6027.55
519.073	6043.6
519.44	6091.73
519.808	6165.85
520.175	6209.92
520.542	6269.35
520.909	6306.64
521.276	6342.35
521.643	6377.6
522.009	6439.97
522.376	6474.1
522.743	6546.64
523.11	6590.48
523.477	6658.27
523.843	6682.68
524.21	6667.99
524.577	6802.45
524.943	6828.66
525.31	6874.76
525.676	6909.34
526.043	6968.09
526.409	6995.66
526.776	7034.98
527.142	7107.07
527.508	7187.97
527.874	7204.47
528.241	7263.23
528.607	7221.65
528.973	7322.66
529.339	7314.3
529.705	7428.87
530.071	7472.49
530.437	7514.75
530.803	7540.28
531.169	7641.07
531.535	7624.12
531.901	7694.85
532.267	7690.56
532.632	7722.88
532.998	7820.5
533.364	7831.57
533.73	7840.61
534.095	7943.21
534.461	7997.45
534.826	7982.76
535.192	8031.79
535.557	8109.98
535.923	8035.18
536.288	8133.94
536.653	8167.38
537.019	8175.52
537.384	8208.29
537.749	8235.18
538.114	8339.58
538.479	8331.9
538.845	8343.2
539.21	8309.98
539.575	8412.12
539.94	8403.99
540.305	8519.47
540.67	8459.35
541.034	8503.87
541.399	8547.26
541.764	8594.04
542.129	8608.05
542.494	8683.75
542.858	8692.57
543.223	8705.9
543.587	8759.23
543.952	8719.46
544.316	8730.76
544.681	8805.33
545.045	8855.73
545.41	8898.66
545.774	8892.11
546.138	8905.22
546.503	8969.17
546.867	9054.37
547.231	9060.92
547.595	9099.34
547.959	9056.85
548.324	9155.83
548.688	9147.25
549.052	9199.45
549.416	9229.96
549.779	9236.96
550.143	9194.25
550.507	9343.17
550.871	9319.67
551.235	9296.39
551.599	9410.06
551.962	9443.73
552.326	9420.91
552.689	9543.39
553.053	9455.03
553.417	9554.01
553.78	9627.46
554.143	9646.22
554.507	9734.57
554.87	9784.74
555.234	9804.86
555.597	9802.82
555.96	9796.72
556.323	9831.75
556.686	9859.77
557.05	9985.64
557.413	10052.31
557.776	10082.81
558.139	10124.39
558.502	10085.53
558.865	10145.86
559.228	10236.71
559.59	10185.64
559.953	10238.74
560.316	10385.63
560.679	10273.77
561.041	10463.59
561.404	10444.84
561.767	10488.45
562.129	10473.09
562.492	10731.84
562.854	10562.12
563.217	10607.32
563.579	10648
563.941	10737.26
564.304	10778.39
564.666	10840.53
565.028	10906.97
565.39	10973.41
565.753	10992.62
566.115	11147.87
566.477	11135.44
566.839	11144.93
567.201	11254.76
567.563	11203.24
567.925	11303.57
568.287	11327.98
568.648	11326.85
569.01	11352.84
569.372	11423.12
569.734	11461.99
570.095	11457.47
570.457	11564.58
570.819	11615.2
571.18	11664.92
571.542	11693.62
571.903	11723.45
572.265	11764.58
572.626	11770.68
572.987	11797.57
573.349	11814.29
573.71	11832.82
574.071	11865.59
574.432	11925.93
574.794	12045.02
575.155	11983.78
575.516	12004.35
575.877	12061.29
576.238	12060.84
576.599	12118.47
576.96	12185.58
577.32	12122.99
577.681	12272.81
578.042	12218.35
578.403	12186.49
578.763	12200.05
579.124	12191.01
579.485	12259.03
579.845	12362.98
580.206	12297.9
580.566	12394.17
580.927	12339.7
581.287	12455.41
581.648	12369.76
582.008	12439.36
582.368	12399.82
582.728	12418.12
583.089	12400.49
583.449	12442.53
583.809	12384.9
584.169	12405.92
584.529	12395.97
584.889	12515.07
585.249	12442.98
585.609	12477.33
585.969	12536.08
586.329	12474.16
586.688	12603.2
587.048	12539.25
587.408	12482.3
587.768	12451.11
588.127	12486.82
588.487	12483.43
588.846	12486.37
589.206	12389.65
589.565	12469.87
589.925	12508.96
590.284	12481.17
590.643	12455.41
591.003	12510.09
591.362	12653.59
591.721	12615.18
592.08	12600.04
592.44	12579.7
592.799	12617.21
593.158	12533.15
593.517	12506.93
593.876	12555.07
594.235	12513.26
594.593	12572.24
594.952	12630.32
595.311	12560.26
595.67	12595.29
596.029	12660.15
596.387	12800.03
596.746	12788.51
597.104	12645.23
597.463	12651.11
597.822	12732.46
598.18	12666.25
598.538	12595.97
598.897	12703.31
599.255	12611.11
599.613	12812.23
599.972	12724.33
600.33	12699.69
600.688	12726.81
601.046	12816.53
601.404	12943.08
601.762	12808.62
602.12	12884.77
602.478	12893.14
602.836	12764.33
603.194	12783.99
603.552	12766.36
603.91	12718.9
604.268	12825.79
604.625	12781.5
604.983	12882.06
605.341	12785.57
605.698	12948.95
606.056	13008.84
606.413	12923.64
606.771	12950.99
607.128	13047.03
607.485	12923.87
607.843	12949.18
608.2	12972.91
608.557	13047.48
608.914	12967.48
609.272	13001.16
609.629	13079.12
609.986	13164.54
610.343	13026.92
610.7	13094.49
611.057	13116.63
611.414	13059.91
611.771	13172.45
612.127	13195.05
612.484	13187.37
612.841	13179.46
613.198	13169.96
613.554	13200.92
613.911	13266.01
614.267	13264.65
614.624	13163.86
614.98	13250.19
615.337	13236.63
615.693	13215.16
616.05	13257.19
616.406	13422.39
616.762	13221.26
617.118	13313.46
617.475	13343.97
617.831	13447.02
618.187	13354.37
618.543	13374.7
618.899	13409.51
619.255	13406.79
619.611	13391.65
619.967	13333.35
620.323	13416.74
620.678	13363.18
621.034	13342.84
621.39	13336.74
621.746	13228.95
622.101	13536.73
622.457	13350.75
622.812	13458.32
623.168	13438.43
623.523	13425.1
623.879	13521.37
624.234	13385.55
624.589	13442.73
624.945	13402.95
625.3	13377.19
625.655	13376.74
626.01	13362.28
626.365	13455.15
626.72	13363.41
627.075	13334.48
627.43	13459.9
627.785	13346.91
628.14	13376.51
628.495	13377.42
628.85	13315.95
629.205	13266.23
629.559	13403.63
629.914	13284.31
630.269	13309.62
630.623	13272.33
630.978	13280.02
631.332	13298.1
631.687	13341.03
632.041	13289.28
632.396	13250.87
632.75	13221.04
633.104	13246.12
633.459	13223.3
633.813	13230.98
634.167	13175.16
634.521	13253.35
634.875	13235.73
635.229	13186.46
635.583	13181.04
635.937	13191.66
636.291	13062.17
636.645	13153.02
636.999	13079.57
637.352	13112.56
637.706	13042.96
638.06	13066.92
638.413	13001.16
638.767	12954.15
639.121	13083.87
639.474	12868.96
639.828	12911.21
640.181	13042.28
640.534	12834.83
640.888	12950.99
641.241	12835.51
641.594	12932.68
641.947	12957.09
642.301	12938.78
642.654	12922.97
643.007	12808.84
643.36	12883.42
643.713	12821.73
644.066	12759.58
644.419	12686.36
644.771	12702.63
645.124	12660.83
645.477	12573.14
645.83	12514.16
646.182	12487.72
646.535	12419.02
646.888	12378.8
647.24	12323.66
647.593	12411.11
647.945	12324.79
648.298	12240.95
648.65	12245.24
649.002	12217.9
649.355	12356.2
649.707	12264.9
650.059	12346.71
650.411	12461.51
650.763	12393.94
651.115	12540.15
651.467	12498.34
651.819	12488.4
652.171	12561.17
652.523	12395.52
652.875	12435.29
653.227	12414.5
653.578	12442.75
653.93	12403.88
654.282	12390.32
654.633	12368.86
654.985	12352.81
655.337	12365.69
655.688	12350.78
656.039	12284.56
656.391	12252.47
656.742	12334.51
657.094	12290.44
657.445	12361.62
657.796	12258.8
658.147	12264.23
658.498	12282.98
658.849	12357.33
659.2	12292.02
659.551	12288.18
659.902	12293.83
660.253	12324.56
660.604	12275.3
660.955	12271.23
661.306	12341.29
661.656	12229.2
662.007	12223.77
662.358	12207.05
662.708	12177.45
663.059	12188.52
663.409	12186.94
663.76	12136.32
664.11	12171.8
664.461	12167.5
664.811	12134.96
665.161	12118.01
665.511	12111.69
665.862	12245.69
666.212	12213.61
666.562	12219.03
666.912	12112.14
667.262	12112.14
667.612	12175.87
667.962	12211.35
668.312	12107.17
668.662	12186.94
669.011	12174.28
669.361	12078.92
669.711	12094.29
670.06	12085.25
670.41	12024.46
670.76	11989.88
671.109	12073.27
671.459	12022.88
671.808	11975.42
672.157	12033.72
672.507	11888.64
672.856	11963.67
673.205	12065.59
673.554	11987.62
673.904	12057
674.253	12074.17
674.602	12046.6
674.951	11784.01
675.3	11763.22
675.649	12056.1
675.998	11986.27
676.346	11924.12
676.695	11936.55
677.044	11865.82
677.393	11882.77
677.741	11890.45
678.09	11874.41
678.438	11811.81
678.787	11829.21
679.135	11897
679.484	11821.3
679.832	11890.22
680.181	11775.65
680.529	11815.88
680.877	11785.37
681.225	11798.25
681.573	11801.19
681.922	11757.57
682.27	11704.01
682.618	11748.08
682.966	11671.7
683.314	11679.38
683.661	11599.61
684.009	11564.58
684.357	11537.69
684.705	11593.28
685.053	11567.07
685.4	11470.12
685.748	11551.93
686.095	11473.29
686.443	11503.79
686.79	11360.29
687.138	11468.31
687.485	11405.49
687.832	11365.49
688.18	11384.25
688.527	11328.2
688.874	11312.84
689.221	11287.75
689.568	11299.05
689.915	11248.43
690.262	11256.12
690.609	11180.86
690.956	11125.5
691.303	11094.76
691.65	11037.59
691.997	11042.79
692.344	10973.41
692.69	11001.66
693.037	10965.5
693.383	10869.23
693.73	10949.68
694.077	10927.54
694.423	10882.57
694.769	10881.66
695.116	10844.38
695.462	10896.35
695.808	10818.39
696.155	10865.84
696.501	10793.76
696.847	10691.61
697.193	10658.17
697.539	10664.04
697.885	10586.53
698.231	10560.99
698.577	10447.78
698.923	10508.79
699.269	10468.11
699.614	10425.18
699.96	10368.91
700.306	10403.71
700.651	10328.01
700.997	10344.95
701.342	10363.26
701.688	10390.38
702.033	10277.61
702.379	10302.47
702.724	10257.95
703.069	10332.75
703.415	10143.15
703.76	10179.53
704.105	10157.16
704.45	10136.6
704.795	10124.85
705.14	9989.48
705.485	10023.61
705.83	9978.18
706.175	9944.51
706.52	9932.99
706.865	9929.6
707.209	9960.56
707.554	9972.99
707.899	10022.7
708.243	9948.35
708.588	9810.96
708.932	9880.33
709.277	9876.49
709.621	9771.18
709.966	9748.36
710.31	9779.32
710.654	9698.87
710.998	9720.34
711.342	9675.14
711.687	9636.72
712.031	9563.05
712.375	9525.77
712.719	9560.57
713.063	9527.12
713.407	9650.28
713.75	9554.47
714.094	9507.01
714.438	9480.34
714.782	9509.27
715.125	9474.47
715.469	9484.64
715.812	9471.53
716.156	9395.37
716.499	9430.4
716.843	9373
717.186	9373
717.53	9418.2
717.873	9388.37
718.216	9394.7
718.559	9292.1
718.902	9207.36
719.246	9255.72
719.589	9268.6
719.932	9216.85
720.275	9201.03
720.617	9135.04
720.96	9138.66
721.303	9163.52
721.646	9105.66
721.989	9071.99
722.331	9129.39
722.674	9107.7
723.016	9057.3
723.359	9098.43
723.701	9186.34
724.044	9020.47
724.386	8996.06
724.729	9073.57
725.071	9075.61
725.413	8968.49
725.755	8950.41
726.097	8915.16
726.439	8901.38
726.782	8896.86
727.124	8890.75
727.465	8837.87
727.807	8799.46
728.149	8793.81
728.491	8768.72
728.833	8832.9
729.175	8761.49
729.516	8744.54
729.858	8704.32
730.199	8767.59
730.541	8737.31
730.882	8758.56
731.224	8771.89
731.565	8710.19
731.906	8720.59
732.248	8781.15
732.589	8729.4
732.93	8687.37
733.271	8690.31
733.612	8651.21
733.953	8704.32
734.294	8650.54
734.635	8596.53
734.976	8595.85
735.317	8577.77
735.658	8542.97
735.999	8569.41
736.339	8503.87
736.68	8589.07
737.021	8517.66
737.361	8396.08
737.702	8519.47
738.042	8433.37
738.383	8509.3
738.723	8468.39
739.063	8480.82
739.404	8445.57
739.744	8456.19
740.084	8395.17
740.424	8411.9
740.764	8422.97
741.104	8439.24
741.444	8328.74
741.784	8381.84
742.124	8378.68
742.464	8321.73
742.804	8314.95
743.143	8258.23
743.483	8258.23
743.823	8226.59
744.162	8226.82
744.502	8219.36
744.841	8174.16
745.181	8231.79
745.52	8202.64
745.86	8143.88
746.199	8202.86
746.538	8214.16
746.877	8197.44
747.216	8209.19
747.556	8180.94
747.895	8194.95
748.234	8102.3
748.573	8103.66
748.911	8131.9
749.25	8115.63
749.589	8077.22
749.928	8035.86
750.267	8079.48
750.605	8060.72
750.944	8004.22
751.283	7997.45
751.621	7999.25
751.96	7913.61
752.298	7889.2
752.636	7904.11
752.975	7890.1
753.313	7831.35
753.651	7924.9
753.989	7808.52
754.327	7814.4
754.666	7784.8
755.004	7839.26
755.342	7885.81
755.679	7862.76
756.017	7744.12
756.355	7774.17
756.693	7757.9
757.031	7770.56
757.368	7706.38
757.706	7703.44
758.044	7725.36
758.381	7682.2
758.719	7617.79
759.056	7647.85
759.394	7548.19
759.731	7557.68
760.068	7565.37
760.405	7501.41
760.743	7397.01
761.08	7506.38
761.417	7437.46
761.754	7399.95
762.091	7439.04
