Data from foam2_polystyrene_foam_FLMS001491_00015.txt Node
Date: Wed Feb 08 10:57:35 GMT 2017
User: dcchb
Spectrometer: FLMS00149
Trigger mode: 0
Integration Time (sec): 2.000000E-2
Scans to average: 10
Electric dark correction enabled: true
Nonlinearity correction enabled: false
Boxcar width: 0
XAxis mode: Wavelengths
Number of Pixels in Spectrum: 2048
>>>>>Begin Spectral Data<<<<<
341.393	-18.3
341.776	-18.3
342.16	-18.3
342.543	-72.09
342.927	-75.03
343.31	-68.92
343.693	-58.53
344.077	-92.65
344.46	-36.61
344.843	-48.81
345.226	-42.71
345.61	-21.24
345.993	-31.41
346.376	-12.88
346.759	7.01
347.142	36.38
347.525	23.73
347.908	75.93
348.291	75.7
348.674	85.2
349.057	109.83
349.44	111.86
349.823	150.73
350.206	160
350.588	182.37
350.971	236.15
351.354	229.6
351.737	235.02
352.119	244.29
352.502	258.75
352.884	270.73
353.267	284.74
353.65	327.22
354.032	313.89
354.414	308.24
354.797	309.82
355.179	329.03
355.562	309.82
355.944	325.19
356.326	342.59
356.709	345.53
357.091	335.58
357.473	348.24
357.855	356.37
358.238	370.84
358.62	348.24
359.002	341.46
359.384	368.58
359.766	315.7
360.148	371.06
360.53	351.86
360.912	334.45
361.294	341.91
361.676	331.29
362.057	352.53
362.439	354.79
362.821	338.3
363.203	356.15
363.584	351.18
363.966	355.24
364.348	341.01
364.729	355.47
365.111	356.37
365.493	351.86
365.874	343.95
366.256	340.1
366.637	351.86
367.019	367.22
367.4	336.49
367.781	358.18
368.163	345.98
368.544	362.48
368.925	356.37
369.306	356.15
369.688	334
370.069	363.83
370.45	379.43
370.831	359.31
371.212	334.91
371.593	340.56
371.974	360.89
372.355	350.27
372.736	363.83
373.117	342.59
373.498	353.89
373.879	341.91
374.26	379.65
374.641	343.72
375.021	367.67
375.402	358.86
375.783	377.17
376.163	385.75
376.544	401.57
376.925	380.1
377.305	369.93
377.686	371.97
378.066	380.33
378.447	371.97
378.827	408.58
379.208	374.91
379.588	394.79
379.968	392.98
380.349	401.8
380.729	420.55
381.109	424.4
381.489	417.16
381.87	440.44
382.25	425.75
382.63	406.99
383.01	412.19
383.39	436.37
383.77	426.43
384.15	431.85
384.53	458.52
384.91	432.98
385.29	451.97
385.67	447.67
386.049	461.91
386.429	462.36
386.809	457.39
387.189	481.57
387.568	459.87
387.948	460.1
388.328	451.51
388.707	483.6
389.087	478.41
389.466	496.26
389.846	502.36
390.225	460.78
390.605	479.31
390.984	517.5
391.363	516.6
391.743	504.39
392.122	512.3
392.501	537.39
392.881	523.6
393.26	509.82
393.639	526.09
394.018	524.96
394.397	523.15
394.776	533.55
395.155	531.51
395.534	527.9
395.913	514.79
396.292	566.54
396.671	572.19
397.05	574
397.429	540.55
397.808	574.67
398.186	561.79
398.565	586.43
398.944	574.45
399.323	572.19
399.701	607.89
400.08	592.53
400.458	602.92
400.837	611.28
401.215	613.77
401.594	633.66
401.972	634.79
402.351	641.11
402.729	645.41
403.107	639.53
403.486	651.28
403.864	665.29
404.242	669.81
404.62	650.38
404.999	661.9
405.377	688.57
405.755	681.56
406.133	686.99
406.511	701.68
406.889	701
407.267	717.27
407.645	722.47
408.023	722.24
408.401	769.92
408.779	759.98
409.156	757.49
409.534	773.54
409.912	773.99
410.29	784.39
410.667	810.83
411.045	805.18
411.422	819.87
411.8	826.64
412.178	824.16
412.555	854.89
412.933	848.11
413.31	838.4
413.687	865.97
414.065	882.46
414.442	906.64
414.819	903.25
415.197	886.98
415.574	925.85
415.951	913.65
416.328	903.25
416.705	947.32
417.082	931.27
417.46	953.42
417.837	974.21
418.214	977.83
418.591	1003.82
418.967	962.23
419.344	999.07
419.721	1017.83
420.098	995
420.475	1052.4
420.852	1040.42
421.228	1025.96
421.605	1041.33
421.982	1078.84
422.358	1065.96
422.735	1104.38
423.111	1110.03
423.488	1125.17
423.864	1119.52
424.241	1150.93
424.617	1132.85
424.994	1151.61
425.37	1180.76
425.746	1173.98
426.123	1194.54
426.499	1187.54
426.875	1218.05
427.251	1223.47
427.627	1258.5
428.003	1266.63
428.379	1287.65
428.756	1311.83
429.132	1324.48
429.507	1329.23
429.883	1372.62
430.259	1387.31
430.635	1363.58
431.011	1380.3
431.387	1407.65
431.763	1440.19
432.138	1440.87
432.514	1489.23
432.89	1481.32
433.265	1491.71
433.641	1540.07
434.016	1536
434.392	1552.28
434.767	1594.76
435.143	1563.8
435.518	1631.37
435.894	1632.27
436.269	1661.88
436.644	1675.21
437.02	1709.56
437.395	1705.94
437.77	1703.23
438.145	1739.16
438.52	1750.69
438.895	1772.38
439.271	1805.38
439.646	1869.1
440.021	1869.33
440.395	1862.32
440.77	1842.21
441.145	1872.27
441.52	1925.37
441.895	1912.27
442.27	1947.29
442.645	1943.23
443.019	1973.06
443.394	1974.19
443.769	2014.18
444.143	1975.77
444.518	2022.32
444.892	2047.63
445.267	2066.61
445.641	2065.93
446.016	2104.58
446.39	2110.23
446.764	2147.97
447.139	2154.75
447.513	2138.7
447.887	2153.39
448.262	2178.93
448.636	2189.09
449.01	2230.9
449.384	2234.97
449.758	2267.96
450.132	2289.88
450.506	2291.24
450.88	2308.19
451.254	2310.45
451.628	2349.77
452.002	2390.22
452.376	2385.7
452.75	2436.55
453.123	2438.13
453.497	2507.73
453.871	2511.12
454.244	2550.67
454.618	2568.52
454.992	2622.76
455.365	2589.08
455.739	2643.32
456.112	2698.91
456.486	2704.56
456.859	2736.2
457.232	2795.41
457.606	2761.28
457.979	2825.69
458.352	2846.48
458.725	2879.92
459.099	2961.96
459.472	2965.8
459.845	3025.46
460.218	3024.55
460.591	3046.25
460.964	3054.16
461.337	3192.01
461.71	3204.21
462.083	3260.71
462.456	3182.06
462.829	3262.29
463.201	3314.49
463.574	3329.4
463.947	3355.84
464.32	3441.27
464.692	3484.2
465.065	3502.28
465.438	3554.26
465.81	3615.72
466.183	3639
466.555	3715.38
466.928	3684.87
467.3	3761.71
467.672	3778.66
468.045	3872.67
468.417	3868.82
468.789	3928.26
469.161	4008.93
469.534	4067.69
469.906	4117.86
470.278	4150.17
470.65	4209.38
471.022	4270.17
471.394	4373.9
471.766	4402.82
472.138	4468.36
472.51	4541.8
472.882	4641.23
473.253	4644.62
473.625	4708.35
473.997	4848.91
474.369	4820.21
474.74	4927.33
475.112	4996.25
475.484	5095.46
475.855	5208.22
476.227	5194.44
476.598	5341.55
476.97	5366.86
477.341	5515.34
477.713	5574.32
478.084	5632.85
478.455	5821.77
478.827	5880.07
479.198	6016.79
479.569	6060.18
479.94	6192.15
480.311	6265.15
480.682	6360.06
481.053	6502.88
481.424	6603.89
481.795	6646.15
482.166	6735.64
482.537	6878.01
482.908	7019.02
483.279	7120.49
483.65	7240.26
484.021	7381.05
484.391	7428.05
484.762	7487.71
485.133	7576.07
485.503	7723.86
485.874	7909.17
486.244	7925.22
486.615	8041.6
486.985	8191.88
487.356	8351.87
487.726	8353.68
488.097	8571.07
488.467	8600.45
488.837	8820.11
489.207	8837.73
489.578	9056.49
489.948	9102.81
490.318	9256.03
490.688	9265.29
491.058	9430.03
491.428	9513.87
491.798	9609.24
492.168	9715.68
492.538	9863.24
492.908	10022.79
493.278	10138.94
493.648	10207.19
494.017	10329.67
494.387	10374.42
494.757	10493.06
495.126	10648.76
495.496	10620.06
495.866	10712.94
496.235	10869.09
496.605	10986.15
496.974	11059.37
497.344	11151.12
497.713	11157.45
498.082	11281.96
498.452	11390.43
498.821	11458.46
499.19	11542.07
499.559	11662.97
499.928	11671.33
500.298	11806.02
500.667	11980.48
501.036	11974.15
501.405	12095.5
501.774	12119.68
502.143	12201.04
502.512	12354.25
502.88	12429.5
503.249	12463.18
503.618	12533.46
503.987	12598.99
504.356	12724.64
504.724	12776.39
505.093	12866.1
505.462	12925.54
505.83	13050.28
506.199	13286.43
506.567	13365.98
506.936	13357.61
507.304	13511.51
507.672	13585.41
508.041	13669.02
508.409	13779.3
508.777	13955.79
509.145	14060.42
509.514	13970.25
509.882	14179.29
510.25	14218.61
510.618	14330.92
510.986	14365.72
511.354	14510.58
511.722	14610.69
512.09	14805.26
512.458	14748.54
512.826	14902.21
513.193	15002.32
513.561	15085.25
513.929	15308.75
514.297	15502.64
514.664	15477.11
515.032	15581.29
515.4	15707.38
515.767	15813.37
516.135	15875.97
516.502	15778.57
516.869	16031.22
517.237	16099.69
517.604	16140.14
517.972	16354.37
518.339	16537.19
518.706	16464.88
519.073	16637.3
519.44	16724.31
519.808	17046.56
520.175	17069.38
520.542	17243.39
520.909	17385.53
521.276	17435.25
521.643	17643.6
522.009	17667.78
522.376	17820.32
522.743	17908
523.11	18168.34
523.477	18303.93
523.843	18353.64
524.21	18715.21
524.577	18719.51
524.943	18743.69
525.31	18915.89
525.676	19152.26
526.043	19249.44
526.409	19312.71
526.776	19588.19
527.142	19646.72
527.508	19774.17
527.874	19877.67
528.241	20000.15
528.607	20101.62
528.973	20339.13
529.339	20423.87
529.705	20644.88
530.071	20761.49
530.437	20830.86
530.803	21031.54
531.169	21142.49
531.535	21050.52
531.901	21198.76
532.267	21337.97
532.632	21585.87
532.998	21643.5
533.364	21749.71
533.73	21789.71
534.095	22000.1
534.461	22126.65
534.826	22100.21
535.192	22272.63
535.557	22506.75
535.923	22432.4
536.288	22508.56
536.653	22585.17
537.019	22649.12
537.384	22654.32
537.749	22897.25
538.114	22869
538.479	23084.14
538.845	23187.19
539.21	23139.05
539.575	23332.95
539.94	23428.76
540.305	23540.62
540.67	23433.51
541.034	23671.92
541.399	23761.41
541.764	23887.06
542.129	24010.44
542.494	24009.99
542.858	24054.28
543.223	24100.84
543.587	24233.26
543.952	24286.59
544.316	24300.6
544.681	24421.05
545.045	24648.39
545.41	24750.54
545.774	24774.49
546.138	24727.94
546.503	24866.01
546.867	24902.85
547.231	25182.61
547.595	25174.93
547.959	25323.63
548.324	25318.66
548.688	25414.92
549.052	25502.83
549.416	25588.48
549.779	25732.66
550.143	25854.91
550.507	25937.17
550.871	26146.88
551.235	26043.38
551.599	26319.53
551.962	26417.16
552.326	26383.71
552.689	26587.32
553.053	26511.39
553.417	26722.46
553.78	26946.86
554.143	26977.14
554.507	27070.02
554.87	27111.83
555.234	27293.07
555.597	27142.34
555.96	27385.27
556.323	27564.7
556.686	27461.2
557.05	27885.37
557.413	27875.65
557.776	27881.53
558.139	28084.91
558.502	28156.1
558.865	28334.62
559.228	28463.66
559.59	28551.34
559.953	28626.37
560.316	28954.49
560.679	29044.21
561.041	29167.14
561.404	29210.53
561.767	29356.06
562.129	29431.99
562.492	29870.18
562.854	29744.98
563.217	29774.81
563.579	29882.38
563.941	30274.23
564.304	30305.42
564.666	30535.24
565.028	30444.85
565.39	30538.18
565.753	30741.56
566.115	30929.36
566.477	31036.02
566.839	31131.84
567.201	31235.56
567.563	31252.06
567.925	31597.81
568.287	31627.42
568.648	31670.58
569.01	31749.22
569.372	31996.45
569.734	31840.29
570.095	32104.69
570.457	32298.36
570.819	32336.78
571.18	32385.59
571.542	32514.17
571.903	32581.06
572.265	32741.06
572.626	32792.36
572.987	32894.05
573.349	32972.47
573.71	33149.86
574.071	33198
574.432	33350.54
574.794	33532.68
575.155	33427.82
575.516	33476.86
575.877	33561.38
576.238	33664.88
576.599	33799.11
576.96	33729.06
577.32	33863.97
577.681	34025.77
578.042	34086.79
578.403	34175.15
578.763	34189.38
579.124	34141.93
579.485	34178.99
579.845	34249.95
580.206	34325.88
580.566	34432.09
580.927	34414.46
581.287	34567.9
581.648	34354.12
582.008	34598.41
582.368	34599.32
582.728	34584.18
583.089	34630.95
583.449	34668.47
583.809	34602.93
584.169	34716.38
584.529	34557.96
584.889	34808.35
585.249	34619.2
585.609	34613.78
585.969	34814
586.329	34692.42
586.688	34797.05
587.048	34665.53
587.408	34784.17
587.768	34803.38
588.127	34750.95
588.487	34866.2
588.846	35000.44
589.206	34739.43
589.565	34841.57
589.925	34919.53
590.284	34857.39
590.643	34973.77
591.003	34963.37
591.362	35216.93
591.721	34969.93
592.08	34968.8
592.44	35164.27
592.799	35162.47
593.158	34919.08
593.517	35028.23
593.876	35086.54
594.235	34929.48
594.593	35037.72
594.952	35058.51
595.311	35065.52
595.67	35160.88
596.029	35339.41
596.387	35402.46
596.746	35453.31
597.104	35113.65
597.463	35380.76
597.822	35479.07
598.18	35303.25
598.538	35355.45
598.897	35621.44
599.255	35198.17
599.613	35703.02
599.972	35478.62
600.33	35662.79
600.688	35362.01
601.046	35589.8
601.404	35695.11
601.762	35666.18
602.12	35807.19
602.478	35940.07
602.836	35806.29
603.194	35683.81
603.552	35792.96
603.91	35765.39
604.268	35940.3
604.625	35844.26
604.983	35821.88
605.341	35760.64
605.698	35918.38
606.056	36064.59
606.413	36030.47
606.771	36132.16
607.128	36038.83
607.485	36004.25
607.843	36039.5
608.2	36245.15
608.557	36320.85
608.914	36171.03
609.272	36395.88
609.629	36375.31
609.986	36433.62
610.343	36379.38
610.7	36622.09
611.057	36655.53
611.414	36629.55
611.771	36502.54
612.127	36681.07
612.484	36624.57
612.841	36723.78
613.198	36747.51
613.554	36693.95
613.911	36875.64
614.267	36896.43
614.624	36782.99
614.98	36911.8
615.337	37195.63
615.693	37140.94
616.05	37008.74
616.406	37245.57
616.762	37165.35
617.118	37231.11
617.475	36999.25
617.831	37300.94
618.187	37323.31
618.543	37278.34
618.899	37489.41
619.255	37325.57
619.611	37396.08
619.967	37419.58
620.323	37488.51
620.678	37331.9
621.034	37263.43
621.39	37274.95
621.746	37192.47
622.101	37599.92
622.457	37291
622.812	37463.65
623.168	37382.75
623.523	37523.31
623.879	37586.81
624.234	37351.79
624.589	37504.78
624.945	37419.81
625.3	37325.35
625.655	37357.89
626.01	37459.13
626.365	37289.41
626.72	37451.9
627.075	37326.25
627.43	37405.57
627.785	37272.24
628.14	37384.78
628.495	37480.37
628.85	37375.29
629.205	37222.98
629.559	37359.02
629.914	37176.88
630.269	37325.12
630.623	37112.47
630.978	36921.52
631.332	37175.75
631.687	37197.21
632.041	36949.54
632.396	37088.97
632.75	36958.12
633.104	36975.75
633.459	36719.26
633.813	36855.3
634.167	36644.46
634.521	36613.95
634.875	36653.73
635.229	36707.06
635.583	36347.52
635.937	36328.54
636.291	36382.77
636.645	36334.19
636.999	36339.61
637.352	36318.14
637.706	36168.77
638.06	36305.26
638.413	36105.72
638.767	36039.05
639.121	36178.03
639.474	35866.63
639.828	35757.93
640.181	35926.51
640.534	35867.76
640.888	35757.93
641.241	35583.92
641.594	35636.58
641.947	35715.45
642.301	35539.18
642.654	35496.24
643.007	35543.02
643.36	35452.18
643.713	35388.45
644.066	35495.11
644.419	35136.7
644.771	35037.27
645.124	34761.35
645.477	34607.68
645.83	34322.94
646.182	34324.75
646.535	34200.46
646.888	34151.42
647.24	33944.64
647.593	34203.17
647.945	33996.85
648.298	33819.68
648.65	33765.67
649.002	33766.12
649.355	33801.15
649.707	33725.44
650.059	33952.33
650.411	34150.51
650.763	34346.67
651.115	34642.25
651.467	34572.65
651.819	34499.66
652.171	34376.72
652.523	34349.15
652.875	34351.19
653.227	34020.35
653.578	34314.58
653.93	34180.57
654.282	34206.33
654.633	34082.27
654.985	34129.95
655.337	33973.57
655.688	34050.86
656.039	34182.15
656.391	33848.38
656.742	33822.84
657.094	33895.83
657.445	34040.01
657.796	33855.61
658.147	33859.67
658.498	33635.27
658.849	33867.58
659.2	33536.52
659.551	33543.52
659.902	33645.22
660.253	33617.65
660.604	33504.2
660.955	33500.14
661.306	33656.06
661.656	33449.97
662.007	33473.92
662.358	33568.16
662.708	33606.12
663.059	33455.17
663.409	33293.59
663.76	33404.32
664.11	33420.82
664.461	33435.05
664.811	33374.04
665.161	33258.11
665.511	33313.93
665.862	33400.93
666.212	33238.45
666.562	33424.21
666.912	33244.55
667.262	33298.79
667.612	33145.57
667.962	33208.17
668.312	32960.72
668.662	33262.18
669.011	33216.08
669.361	33030.32
669.711	33011.79
670.06	32977.66
670.41	32871.9
670.76	32962.3
671.109	33079.81
671.459	32915.74
671.808	32741.96
672.157	32907.38
672.507	32655.64
672.856	32792.58
673.205	32774.96
673.554	32812.7
673.904	32652.7
674.253	32847.72
674.602	32701.29
674.951	32213.84
675.3	32048.87
675.649	32480.5
675.998	32608.63
676.346	32586.94
676.695	32634.62
677.044	32457.23
677.393	32471.69
677.741	32385.59
678.09	32414.51
678.438	32245.03
678.787	32322.99
679.135	32306.72
679.484	32064.69
679.832	32255.42
680.181	31997.35
680.529	32138.14
680.877	32086.16
681.225	32028.08
681.573	32174.52
681.922	31871.93
682.27	31831.93
682.618	31848.43
682.966	31799.84
683.314	31829.22
683.661	31666.96
684.009	31496.57
684.357	31461.55
684.705	31478.27
685.053	31617.02
685.4	31312.4
685.748	31221.33
686.095	31144.04
686.443	30963.25
686.79	30998.51
687.138	31105.4
687.485	30955.57
687.832	30752.19
688.18	30808.23
688.527	30644.62
688.874	30571.63
689.221	30497.28
689.568	30472.19
689.915	30310.39
690.262	30179.09
690.609	30175.48
690.956	30186.55
691.303	30090.51
691.65	29998.99
691.997	30068.36
692.344	29830.18
692.69	29709.95
693.037	29847.58
693.383	29653.01
693.73	29746.56
694.077	29577.53
694.423	29476.97
694.769	29380.47
695.116	29450.3
695.462	29286.24
695.808	29117.43
696.155	29116.75
696.501	28995.4
696.847	28999.69
697.193	28661.85
697.539	28768.28
697.885	28582.53
698.231	28639.7
698.577	28530.1
698.923	28553.6
699.269	28277.67
699.614	28286.71
699.96	28230.9
700.306	28242.42
700.651	28063.89
700.997	28066.38
701.342	28071.8
701.688	27983.44
702.033	27901.64
702.379	27818.7
702.724	27686.5
703.069	27769.89
703.415	27485.6
703.76	27608.54
704.105	27441.99
704.45	27460.52
704.795	27257.59
705.14	27187.08
705.485	27184.14
705.83	26981.66
706.175	27240.19
706.52	27062.11
706.865	26933.76
707.209	26987.76
707.554	26838.84
707.899	26868.22
708.243	26569.02
708.588	26635.01
708.932	26518.62
709.277	26472.3
709.621	26469.81
709.966	26362.92
710.31	26362.92
710.654	26040.45
710.998	26174
711.342	26204.96
711.687	26071.18
712.031	26085.19
712.375	26023.27
712.719	25988.7
713.063	25865.99
713.407	25862.82
713.75	25767.91
714.094	25817.4
714.438	25507.8
714.782	25734.46
715.125	25569.27
715.469	25655.14
715.812	25449.73
716.156	25227.13
716.499	25294.7
716.843	25439.56
717.186	25235.95
717.53	25306.45
717.873	25246.57
718.216	25197.3
718.559	25034.6
718.902	24858.1
719.246	25089.28
719.589	24966.12
719.932	24901.72
720.275	24942.62
720.617	24803.19
720.96	24799.12
721.303	24747.82
721.646	24755.51
721.989	24610.43
722.331	24715.06
722.674	24538.34
723.016	24537.43
723.359	24515.74
723.701	24591.67
724.044	24411.56
724.386	24338.34
724.729	24310.32
725.071	24280.27
725.413	24237.78
725.755	24182.87
726.097	24181.96
726.439	23985.36
726.782	24015.87
727.124	24249.76
727.465	24035.98
727.807	23993.04
728.149	23838.02
728.491	23831.46
728.833	23913.72
729.175	23936.09
729.516	23726.38
729.858	23849.32
730.199	23771.58
730.541	23654.52
730.882	23680.51
731.224	23630.34
731.565	23584.92
731.906	23572.71
732.248	23580.4
732.589	23478.25
732.93	23386.96
733.271	23416.56
733.612	23448.87
733.953	23438.03
734.294	23329.1
734.635	23221.31
734.976	23276.9
735.317	23173.18
735.658	23129.56
735.999	23214.3
736.339	23001.43
736.68	23105.16
737.021	23092.27
737.361	22920.53
737.702	23063.12
738.042	22941.09
738.383	22930.92
738.723	22842.34
739.063	22727.76
739.404	22873.97
739.744	22814.32
740.084	22737.71
740.424	22741.77
740.764	22692.74
741.104	22713.3
741.444	22547.43
741.784	22486.64
742.124	22630.82
742.464	22521.89
742.804	22385.17
743.143	22314.67
743.483	22350.6
743.823	22273.09
744.162	22362.58
744.502	22347.66
744.841	22207.1
745.181	22263.14
745.52	22178.85
745.86	22127.1
746.199	22180.21
746.538	22090.04
746.877	21953.1
747.216	22061.57
747.556	22001.46
747.895	22024.73
748.234	21811.63
748.573	21844.17
748.911	21794.91
749.25	21773.66
749.589	21689.37
749.928	21757.17
750.267	21609.38
750.605	21547
750.944	21608.25
751.283	21584.29
751.621	21521.92
751.96	21400.57
752.298	21450.06
752.636	21333
752.975	21255.49
753.313	21231.31
753.651	21324.64
753.989	21161.93
