Data from foam2_polystyrene_foam_FLMS001491_00079.txt Node
Date: Wed Feb 08 10:58:29 GMT 2017
User: dcchb
Spectrometer: FLMS00149
Trigger mode: 0
Integration Time (sec): 2.000000E-2
Scans to average: 10
Electric dark correction enabled: true
Nonlinearity correction enabled: false
Boxcar width: 0
XAxis mode: Wavelengths
Number of Pixels in Spectrum: 2048
>>>>>Begin Spectral Data<<<<<
341.393	-16.96
341.776	-16.96
342.16	-16.96
342.543	-49.96
342.927	-49.05
343.31	-85.89
343.693	-80.69
344.077	-55.38
344.46	-62.39
344.843	-41.14
345.226	-53.12
345.61	-15.83
345.993	-8.83
346.376	-24.87
346.759	2.7
347.142	32.3
347.525	47.89
347.908	72.07
348.291	83.15
348.674	95.8
349.057	94.22
349.44	97.38
349.823	150.94
350.206	173.54
350.588	217.83
350.971	232.3
351.354	217.61
351.737	265.52
352.119	264.39
352.502	254.44
352.884	264.39
353.267	284.5
353.65	319.07
354.032	315.01
354.414	320.2
354.797	330.15
355.179	346.64
355.562	342.12
355.944	366.98
356.326	349.13
356.709	362.69
357.091	348.9
357.473	366.53
357.855	369.92
358.238	356.13
358.62	365.4
359.002	364.95
359.384	356.13
359.766	381.67
360.148	373.08
360.53	376.02
360.912	365.4
361.294	370.82
361.676	367.21
362.057	358.85
362.439	370.6
362.821	344.38
363.203	370.37
363.584	352.97
363.966	355
364.348	347.32
364.729	357.72
365.111	363.59
365.493	369.24
365.874	359.98
366.256	357.04
366.637	349.81
367.019	373.08
367.4	361.56
367.781	350.26
368.163	382.35
368.544	374.67
368.925	357.04
369.306	382.35
369.688	343.93
370.069	371.73
370.45	374.44
370.831	365.85
371.212	362.24
371.593	391.61
371.974	370.6
372.355	370.82
372.736	357.94
373.117	354.1
373.498	387.32
373.879	385.74
374.26	367.43
374.641	372.63
375.021	395
375.402	378.73
375.783	400.88
376.163	424.38
376.544	402.91
376.925	398.62
377.305	390.94
377.686	385.96
378.066	403.59
378.447	409.24
378.827	417.83
379.208	408.79
379.588	400.43
379.968	402.69
380.349	421.9
380.729	426.19
381.109	428.68
381.489	409.69
381.87	433.19
382.25	438.62
382.63	422.8
383.01	426.87
383.39	449.01
383.77	438.39
384.15	437.26
384.53	444.72
384.91	438.17
385.29	472.74
385.67	472.74
386.049	461.67
386.429	478.17
386.809	450.37
387.189	467.09
387.568	494.66
387.948	514.55
388.328	492.4
388.707	490.37
389.087	495.34
389.466	470.71
389.846	523.81
390.225	501.44
390.605	534.66
390.984	527.43
391.363	521.1
391.743	538.73
392.122	531.72
392.501	553.64
392.881	557.49
393.26	542.57
393.639	593.64
394.018	580.31
394.397	560.42
394.776	559.97
395.155	580.54
395.534	583.93
395.913	570.14
396.292	582.12
396.671	610.14
397.05	593.19
397.429	612.63
397.808	610.14
398.186	628.22
398.565	628.9
398.944	633.42
399.323	617.82
399.701	623.92
400.08	627.77
400.458	658.73
400.837	648.56
401.215	667.76
401.594	676.58
401.972	659.18
402.351	689.91
402.729	706.18
403.107	695.33
403.486	703.47
403.864	720.42
404.242	707.54
404.62	727.88
404.999	713.19
405.377	728.1
405.755	740.08
406.133	734.43
406.511	744.15
406.889	763.36
407.267	770.81
407.645	786.86
408.023	798.16
408.401	806.07
408.779	810.13
409.156	810.59
409.534	795.22
409.912	846.29
410.29	855.78
410.667	865.5
411.045	861.66
411.422	869.57
411.8	871.83
412.178	893.3
412.555	907.53
412.933	909.34
413.31	916.12
413.687	924.48
414.065	957.25
414.442	939.62
414.819	952.96
415.197	969.68
415.574	965.61
415.951	970.58
416.328	997.93
416.705	1001.54
417.082	1051.03
417.46	1028.89
417.837	1051.26
418.214	1041.31
418.591	1059.39
418.967	1088.54
419.344	1083.35
419.721	1091.71
420.098	1092.84
420.475	1103.23
420.852	1118.15
421.228	1136.68
421.605	1141.42
421.982	1145.49
422.358	1161.99
422.735	1186.4
423.111	1195.43
423.488	1211.48
423.864	1234.98
424.241	1216.68
424.617	1246.28
424.994	1251.7
425.37	1251.03
425.746	1257.58
426.123	1281.31
426.499	1298.71
426.875	1314.08
427.251	1329.89
427.627	1376.67
428.003	1367.86
428.379	1404.47
428.756	1402.43
429.132	1423.9
429.507	1405.15
429.883	1446.5
430.259	1477.24
430.635	1489.21
431.011	1494.86
431.387	1540.51
431.763	1573.96
432.138	1578.48
432.514	1586.38
432.89	1628.87
433.265	1671.35
433.641	1660.96
434.016	1674.97
434.392	1685.59
434.767	1704.57
435.143	1717
435.518	1757.45
435.894	1771.01
436.269	1789.77
436.644	1814.63
437.02	1858.92
437.395	1858.47
437.77	1859.15
438.145	1924.68
438.52	1957.9
438.895	1951.12
439.271	1959.26
439.646	1992.25
440.021	2002.42
440.395	2032.02
440.77	1992.48
441.145	2017.33
441.52	2071.57
441.895	2093.04
442.27	2087.61
442.645	2095.07
443.019	2144.79
443.394	2131.91
443.769	2159.93
444.143	2135.07
444.518	2203.32
444.892	2204
445.267	2232.47
445.641	2233.15
446.016	2257.33
446.39	2275.41
446.764	2320.38
447.139	2302.98
447.513	2336.42
447.887	2339.81
448.262	2364.9
448.636	2364.67
449.01	2421.39
449.384	2437.89
449.758	2469.75
450.132	2472.01
450.506	2484.21
450.88	2476.76
451.254	2503.65
451.628	2555.85
452.002	2560.14
452.376	2641.95
452.75	2634.04
453.123	2680.82
453.497	2646.92
453.871	2675.62
454.244	2770.99
454.618	2740.7
454.992	2827.03
455.365	2834.26
455.739	2905.67
456.112	2909.74
456.486	2946.8
456.859	2962.39
457.232	3035.61
457.606	3034.26
457.979	3071.32
458.352	3129.4
458.725	3161.26
459.099	3175.27
459.472	3235.61
459.845	3274.7
460.218	3285.55
460.591	3318.32
460.964	3334.14
461.337	3415.04
461.71	3459.33
462.083	3514.92
462.456	3519.22
462.829	3556.28
463.201	3590.85
463.574	3597.18
463.947	3654.58
464.32	3744.07
464.692	3754.01
465.065	3818.87
465.438	3892.09
465.81	3891.63
466.183	3899.54
466.555	4019.09
466.928	4066.77
467.3	4040.56
467.672	4159.88
468.045	4210.95
468.417	4210.04
468.789	4218.63
469.161	4325.97
469.534	4397.84
469.906	4501.11
470.278	4505.18
470.65	4544.73
471.022	4692.07
471.394	4728.45
471.766	4808.67
472.138	4811.84
472.51	4922.79
472.882	4973.87
473.253	5016.58
473.625	5120.98
473.997	5201.43
474.369	5228.1
474.74	5314.65
475.112	5449.11
475.484	5532.95
475.855	5624.02
476.227	5671.25
476.598	5835.76
476.97	5856.56
477.341	5993.73
477.713	6101.29
478.084	6157.56
478.455	6275.75
478.827	6349.65
479.198	6498.12
479.569	6528.18
479.94	6705.35
480.311	6775.85
480.682	6919.13
481.053	7068.95
481.424	7200.7
481.795	7204.09
482.166	7392.56
482.537	7401.83
482.908	7538.54
483.279	7657.64
483.65	7828.25
484.021	7914.13
484.391	8092.65
484.762	8181.92
485.133	8216.94
485.503	8319.09
485.874	8557.73
486.244	8590.95
486.615	8817.38
486.985	8855.12
487.356	9041.33
487.726	9082.46
488.097	9288.78
488.467	9355.9
488.837	9471.83
489.207	9660.97
489.578	9761.54
489.948	9864.36
490.318	10034.52
490.688	10032.26
491.058	10206.27
491.428	10253.95
491.798	10485.36
492.168	10645.58
492.538	10665.24
492.908	10825.69
493.278	11022.52
493.648	10937.55
494.017	11122.63
494.387	11274.04
494.757	11379.35
495.126	11456.86
495.496	11498.67
495.866	11642.84
496.235	11737.76
496.605	11829.73
496.974	11909.05
497.344	11998.99
497.713	12149.04
498.082	12309.04
498.452	12374.12
498.821	12411.86
499.19	12462.26
499.559	12640.33
499.928	12732.98
500.298	12880.55
500.667	12963.26
501.036	12884.17
501.405	13048.23
501.774	13056.14
502.143	13303.14
502.512	13346.3
502.88	13418.16
503.249	13451.61
503.618	13592.4
503.987	13604.15
504.356	13776.12
504.724	13827.64
505.093	13921.88
505.462	13928.66
505.83	14224.02
506.199	14210.69
506.567	14426.27
506.936	14424.69
507.304	14558.25
507.672	14713.72
508.041	14736.55
508.409	14889.31
508.777	15050.21
509.145	15146.93
509.514	15181.96
509.882	15347.15
510.25	15365.46
510.618	15422.63
510.986	15581.5
511.354	15710.99
511.722	15790.08
512.09	16045.44
512.458	16038.43
512.826	16183.74
513.193	16196.17
513.561	16311.65
513.929	16493.56
514.297	16621.47
514.664	16695.59
515.032	16837.06
515.4	16942.37
515.767	16965.87
516.135	17133.09
516.502	17114.34
516.869	17522.91
517.237	17463.48
517.604	17570.82
517.972	17728.33
518.339	17927.88
518.706	17943.24
519.073	18078.38
519.44	18098.27
519.808	18406.28
520.175	18458.94
520.542	18693.05
520.909	18760.17
521.276	18767.18
521.643	19111.57
522.009	19179.37
522.376	19365.8
522.743	19357.44
523.11	19589.98
523.477	19805.57
523.843	20030.19
524.21	20148.61
524.577	20287.14
524.943	20413.23
525.31	20540.91
525.676	20737.07
526.043	20815.94
526.409	21018.87
526.776	21144.74
527.142	21201.01
527.508	21372.08
527.874	21608.23
528.241	21740.88
528.607	21774.33
528.973	22130.03
529.339	22074.43
529.705	22351.04
530.071	22446.63
530.437	22438.94
530.803	22823.34
531.169	22920.29
531.535	22794.41
531.901	22983.56
532.267	23102.2
532.632	23302.2
532.998	23237.57
533.364	23544.68
533.73	23541.29
534.095	23704.67
534.461	23844.56
534.826	23996.64
535.192	24148.05
535.557	24381.04
535.923	24334.94
536.288	24512.11
536.653	24628.04
537.019	24563.63
537.384	24710.3
537.749	24860.35
538.114	24850.63
538.479	24965.43
538.845	25317.74
539.21	25107.57
539.575	25275.48
539.94	25243.39
540.305	25518.18
540.67	25424.18
541.034	25622.81
541.399	25733.09
541.764	25858.29
542.129	25906.42
542.494	26091.28
542.858	26087.21
543.223	26281.78
543.587	26364.49
543.952	26309.12
544.316	26326.3
544.681	26393.19
545.045	26572.85
545.41	26782.33
545.774	26746.85
546.138	26818.26
546.503	26905.27
546.867	27004.47
547.231	27175.09
547.595	27215.99
547.959	27427.29
548.324	27340.51
548.688	27482.65
549.052	27562.88
549.416	27711.57
549.779	27705.7
550.143	27757.67
550.507	27960.15
550.871	28158.57
551.235	28017.55
551.599	28346.13
551.962	28304.33
552.326	28467.71
552.689	28537.31
553.053	28526.02
553.417	28742.73
553.78	29068.83
554.143	28916.29
554.507	29019.34
554.87	29229.95
555.234	29434.92
555.597	29241.93
555.96	29451.64
556.323	29551.3
556.686	29772.31
557.05	30024.96
557.413	29984.73
557.776	30075.35
558.139	30311.51
558.502	30386.53
558.865	30576.81
559.228	30744.94
559.59	30834.88
559.953	30996.46
560.316	31331.14
560.679	31258.82
561.041	31473.73
561.404	31711.47
561.767	31740.62
562.129	31734.07
562.492	32025.36
562.854	32090.67
563.217	32109.65
563.579	32258.35
563.941	32548.96
564.304	32628.05
564.666	32924.54
565.028	32905.56
565.39	33056.29
565.753	33148.27
566.115	33385.77
566.477	33471.65
566.839	33715.94
567.201	33859.43
567.563	33767.23
567.925	34063.5
568.287	34159.99
568.648	34254.45
569.01	34508.46
569.372	34625.29
569.734	34543.26
570.095	34883.14
570.457	35051.49
570.819	35099.4
571.18	34966.3
571.542	35288.78
571.903	35381.2
572.265	35356.8
572.626	35444.03
572.987	35537.13
573.349	35670.23
573.71	35741.87
574.071	35834.75
574.432	35963.33
574.794	36249.43
575.155	36130.56
575.516	36060.05
575.877	36382.76
576.238	36374.62
576.599	36609.19
576.96	36485.13
577.32	36535.75
577.681	36577.1
578.042	36824.78
578.403	36799.92
578.763	36828.17
579.124	36823.88
579.485	36983.42
579.845	37070.42
580.206	37011.44
580.566	37016.19
580.927	37068.39
581.287	37281.49
581.648	37256.86
582.008	37384.54
582.368	37239.91
582.728	37385.67
583.089	37243.53
583.449	37439.91
583.809	37402.39
584.169	37478.77
584.529	37354.48
584.889	37660.24
585.249	37367.82
585.609	37297.99
585.969	37479
586.329	37417.99
586.688	37573.46
587.048	37539.34
587.408	37431.32
587.768	37463.86
588.127	37316.97
588.487	37339.8
588.846	37538.66
589.206	37269.29
589.565	37309.06
589.925	37526.46
590.284	37565.1
590.643	37546.12
591.003	37526.68
591.362	37585.66
591.721	37625.66
592.08	37646.68
592.44	37731.42
592.799	37582.05
593.158	37530.98
593.517	37519.45
593.876	37711.54
594.235	37516.74
594.593	37623.63
594.952	37791.76
595.311	37581.6
595.67	37750.63
596.029	37855.71
596.387	37749.73
596.746	37906.11
597.104	37720.35
597.463	37666.34
597.822	37937.07
598.18	37752.89
598.538	37705.89
598.897	37865.43
599.255	37540.02
599.613	38155.37
599.972	37932.32
600.33	38044.41
600.688	37872.66
601.046	38099.78
601.404	38202.37
601.762	38185.87
602.12	38241.01
602.478	38238.75
602.836	38349.94
603.194	38169.15
603.552	38276.04
603.91	38282.14
604.268	38272.88
604.625	38262.93
604.983	38396.04
605.341	38331.41
605.698	38532.08
606.056	38549.48
606.413	38501.8
606.771	38632.42
607.128	38596.94
607.485	38534.79
607.843	38556.26
608.2	38776.37
608.557	38794.67
608.914	38757.61
609.272	38943.37
609.629	39062.01
609.986	39106.08
610.343	38890.49
610.7	39138.39
611.057	39085.06
611.414	39028.79
611.771	39186.75
612.127	39252.51
612.484	39119.41
612.841	39377.03
613.198	39200.99
613.554	39093.42
613.911	39401.21
614.267	39311.49
614.624	39304.26
614.98	39370.25
615.337	39485.5
615.693	39502
616.05	39391.04
616.406	39604.82
616.762	39640.75
617.118	39575.67
617.475	39624.93
617.831	39603.46
618.187	39637.36
618.543	39880.97
618.899	40104.47
619.255	39881.42
619.611	39891.37
619.967	40064.7
620.323	40085.03
620.678	40089.33
621.034	39992.15
621.39	39968.43
621.746	39880.29
622.101	40353.95
622.457	40069.67
622.812	40121.64
623.168	40113.73
623.523	40164.13
623.879	40322.54
624.234	40054.53
624.589	40140.85
624.945	40194.86
625.3	40126.16
625.655	40051.59
626.01	40095.43
626.365	40170.91
626.72	40099.04
627.075	40169.78
627.43	40045.49
627.785	39917.13
628.14	40083.23
628.495	40086.16
628.85	40028.54
629.205	39984.02
629.559	40048.42
629.914	39944.47
630.269	39818.6
630.623	39814.08
630.978	39796.68
631.332	39978.6
631.687	39993.28
632.041	39924.81
632.396	39922.33
632.75	39676
633.104	39681.43
633.459	39569.34
633.813	39597.14
634.167	39665.38
634.521	39567.31
634.875	39432.85
635.229	39423.36
635.583	39060.88
635.937	39259.74
636.291	39236.47
636.645	39089.35
636.999	38989.02
637.352	39083.03
637.706	38922.35
638.06	39089.13
638.413	38795.12
638.767	38761.9
639.121	38778.63
639.474	38582.7
639.828	38651.4
640.181	38683.94
640.534	38693.66
640.888	38608.01
641.241	38351.52
641.594	38468.35
641.947	38597.62
642.301	38277.17
642.654	38329.15
643.007	38368.02
643.36	38369.82
643.713	38151.3
644.066	38332.76
644.419	38017.52
644.771	37774.36
645.124	37488.49
645.477	37313.58
645.83	37185.22
646.182	37098.22
646.535	36841.05
646.888	36978.9
647.24	36699.13
647.593	36990.43
647.945	36876.08
648.298	36559.25
648.65	36584.79
649.002	36476.09
649.355	36613.94
649.707	36520.61
650.059	36698.46
650.411	37182.74
650.763	37149.29
651.115	37603.52
651.467	37436.06
651.819	37453.92
652.171	37324.88
652.523	37188.61
652.875	37291.66
653.227	37078.11
653.578	37240.81
653.93	37213.24
654.282	37024.32
654.633	37004.89
654.985	37031.78
655.337	37033.81
655.688	37050.99
656.039	37130.08
656.391	36859.81
656.742	36852.8
657.094	36836.08
657.445	37068.39
657.796	36933.25
658.147	36699.81
658.498	36860.94
658.849	36735.52
659.2	36654.16
659.551	36667.95
659.902	36759.02
660.253	36636.54
660.604	36672.02
660.955	36445.13
661.306	36801.5
661.656	36689.87
662.007	36596.09
662.358	36721.73
662.708	36652.36
663.059	36576.2
663.409	36370.1
663.76	36766.25
664.11	36781.39
664.461	36692.13
664.811	36707.5
665.161	36722.86
665.511	36486.26
665.862	36509.99
666.212	36485.81
666.562	36598.57
666.912	36535.07
667.262	36610.1
667.612	36458.24
667.962	36541.85
668.312	36331.23
668.662	36577.78
669.011	36464.56
669.361	36559.7
669.711	36408.52
670.06	36430.89
670.41	36421.63
670.76	36325.81
671.109	36458.69
671.459	36343.89
671.808	36250.33
672.157	36274.51
672.507	35983.22
672.856	36002.88
673.205	36090.11
673.554	36067.74
673.904	36032.26
674.253	36154.74
674.602	35977.12
674.951	35581.88
675.3	35339.85
675.649	36038.81
675.998	35881.08
676.346	35982.99
676.695	36088.53
677.044	35767.41
677.393	35982.54
677.741	35959.49
678.09	35752.94
678.438	35720.18
678.787	35781.87
679.135	35760.4
679.484	35458.49
679.832	35639.95
680.181	35443.12
680.529	35479.05
680.877	35425.95
681.225	35349.11
681.573	35384.82
681.922	35234.31
682.27	35150.93
682.618	35157.71
682.966	35091.04
683.314	35109.35
683.661	34988.9
684.009	34881.33
684.357	34788.68
684.705	34690.37
685.053	34748.45
685.4	34632.52
685.748	34498.51
686.095	34472.98
686.443	34330.38
686.79	34353.21
687.138	34293.77
687.485	34399.53
687.832	34175.36
688.18	34225.3
688.527	34047.68
688.874	34050.62
689.221	33931.07
689.568	33934.46
689.915	33774.24
690.262	33798.65
690.609	33576.05
690.956	33538.09
691.303	33531.08
691.65	33418.32
691.997	33399.56
692.344	33321.82
692.69	33227.59
693.037	33251.77
693.383	33010.42
693.73	33133.35
694.077	32792.57
694.423	32779.01
694.769	32694.49
695.116	32589.86
695.462	32459.47
695.808	32310.32
696.155	32503.31
696.501	32296.99
696.847	32261.74
697.193	32087.5
697.539	32242.98
697.885	31884.8
698.231	31765.48
698.577	31808.64
698.923	31816.1
699.269	31532.26
699.614	31517.58
699.96	31422.44
700.306	31368.65
700.651	31168.43
700.997	31206.85
701.342	31250.46
701.688	31150.35
702.033	30925.73
702.379	30926.18
702.724	30827.88
703.069	30975.89
703.415	30644.6
703.76	30566.19
704.105	30520.54
704.45	30411.62
704.795	30305.18
705.14	30071.74
705.485	30181.79
705.83	29999.88
706.175	30184.05
706.52	30053.43
706.865	29915.58
707.209	29883.04
707.554	29751.97
707.899	29840.11
708.243	29590.39
708.588	29563.95
708.932	29391.53
709.277	29408.48
709.621	29394.47
709.966	29215.71
710.31	29190.86
710.654	28872.45
710.998	29058.2
711.342	29148.6
711.687	29034.02
712.031	28775.95
712.375	28803.97
712.719	28737.76
713.063	28680.59
713.407	28768.27
713.75	28668.84
714.094	28690.76
714.438	28428.39
714.782	28457.54
715.125	28319.24
715.469	28342.29
715.812	28182.52
716.156	27961.28
716.499	28106.59
716.843	28014.39
717.186	28042.64
717.53	27944.56
717.873	27947.5
718.216	27961.74
718.559	27677.22
718.902	27488.3
719.246	27555.19
719.589	27468.87
719.932	27510
720.275	27373.05
720.617	27356.55
720.96	27300.06
721.303	27317.46
721.646	27312.49
721.989	27010.35
722.331	27164.24
722.674	27128.31
723.016	27203.56
723.359	27105.49
723.701	27066.84
724.044	26911.59
724.386	26834.99
724.729	26872.95
725.071	26875.44
725.413	26785.27
725.755	26836.34
726.097	26709.57
726.439	26491.49
726.782	26545.5
727.124	26611.26
727.465	26509.12
727.807	26415.56
728.149	26419.4
728.491	26316.36
728.833	26368.56
729.175	26352.97
729.516	26191.39
729.858	26139.41
730.199	26261.67
730.541	26087.66
730.882	26078.85
731.224	26022.35
731.565	25885.86
731.906	25861.23
732.248	25936.48
732.589	25793.21
732.93	25825.75
733.271	25707.33
733.612	25729.93
733.953	25619.2
734.294	25652.87
734.635	25504.17
734.976	25600.22
735.317	25567
735.658	25368.13
735.999	25460.33
736.339	25402.26
736.68	25401.35
737.021	25327.91
737.361	25288.36
737.702	25378.75
738.042	25154.35
738.383	25061.02
738.723	25156.61
739.063	25078.42
739.404	25145.77
739.744	25041.14
740.084	24892.89
740.424	24922.04
740.764	24896.51
741.104	24922.27
741.444	24845.89
741.784	24845.66
742.124	24906.68
742.464	24785.32
742.804	24632.11
743.143	24540.36
743.483	24592.56
743.823	24440.7
744.162	24406.35
744.502	24402.96
744.841	24414.71
745.181	24530.41
745.52	24348.27
745.86	24357.31
746.199	24384.2
746.538	24215.85
746.877	24298.33
747.216	24301.49
747.556	24194.83
747.895	24213.59
748.234	24136.3
748.573	23922.97
748.911	23991.45
749.25	23948.06
749.589	23903.31
749.928	23799.13
750.267	23806.59
750.605	23824.67
750.944	23690.89
751.283	23544.9
751.621	23608.63
751.96	23578.8
752.298	23499.71
752.636	23525.02
752.975	23339.49
753.313	23271.69
