Data from foam_black_FLMS001491_00051.txt Node
Date: Wed Feb 08 10:44:07 GMT 2017
User: dcchb
Spectrometer: FLMS00149
Trigger mode: 0
Integration Time (sec): 2.000000E-2
Scans to average: 10
Electric dark correction enabled: true
Nonlinearity correction enabled: false
Boxcar width: 0
XAxis mode: Wavelengths
Number of Pixels in Spectrum: 2048
>>>>>Begin Spectral Data<<<<<
341.393	-6.62
341.776	-6.62
342.16	-6.62
342.543	-59.96
342.927	-60.63
343.31	-61.31
343.693	-78.03
344.077	-51.59
344.46	-76.9
344.843	-49.11
345.226	-48.43
345.61	-21.31
345.993	-22.22
346.376	-1.65
346.759	-16.57
347.142	38.35
347.525	37.44
347.908	60.94
348.291	82.87
348.674	94.62
349.057	112.92
349.44	117.21
349.823	135.75
350.206	158.57
350.588	185.46
350.971	187.5
351.354	205.8
351.737	235.86
352.119	242.18
352.502	238.57
352.884	258.23
353.267	278.79
353.65	278.34
354.032	276.53
354.414	266.36
354.797	285.8
355.179	301.62
355.562	299.13
355.944	282.63
356.326	313.82
356.709	314.72
357.091	298.9
357.473	337.55
357.855	317.66
358.238	314.95
358.62	313.14
359.002	323.99
359.384	318.79
359.766	310.2
360.148	321.05
360.53	327.6
360.912	324.21
361.294	344.1
361.676	300.94
362.057	319.92
362.439	328.73
362.821	328.28
363.203	302.52
363.584	304.78
363.966	312.92
364.348	333.93
364.729	307.27
365.111	300.26
365.493	307.72
365.874	313.82
366.256	317.44
366.637	299.81
367.019	299.58
367.4	312.69
367.781	279.47
368.163	277.21
368.544	274.95
368.925	293.03
369.306	308.17
369.688	307.27
370.069	309.98
370.45	285.8
370.831	302.29
371.212	305.23
371.593	304.78
371.974	311.33
372.355	294.16
372.736	303.88
373.117	299.81
373.498	295.51
373.879	294.16
374.26	298.45
374.641	295.97
375.021	295.74
375.402	314.27
375.783	292.58
376.163	299.58
376.544	298.45
376.925	312.46
377.305	330.32
377.686	304.33
378.066	307.94
378.447	311.11
378.827	312.01
379.208	327.15
379.588	337.32
379.968	334.84
380.349	315.4
380.729	313.82
381.109	327.15
381.489	305.23
381.87	332.58
382.25	322.41
382.63	318.11
383.01	308.17
383.39	336.42
383.77	322.63
384.15	338.68
384.53	324.21
384.91	326.7
385.29	338.45
385.67	329.41
386.049	318.11
386.429	323.08
386.809	324.21
387.189	302.29
387.568	361.28
387.948	329.41
388.328	342.75
388.707	324.89
389.087	338.9
389.466	359.69
389.846	344.1
390.225	327.38
390.605	345.46
390.984	355.85
391.363	336.19
391.743	367.38
392.122	354.27
392.501	334.16
392.881	367.38
393.26	348.39
393.639	349.07
394.018	360.82
394.397	370.99
394.776	361.95
395.155	372.12
395.534	358.79
395.913	364.89
396.292	364.89
396.671	392.46
397.05	377.09
397.429	382.29
397.808	387.49
398.186	367.6
398.565	370.77
398.944	372.12
399.323	383.65
399.701	388.39
400.08	374.83
400.458	383.42
400.837	381.16
401.215	399.47
401.594	382.74
401.972	372.35
402.351	393.82
402.729	394.5
403.107	381.61
403.486	399.47
403.864	391.33
404.242	405.57
404.62	411.67
404.999	381.16
405.377	400.82
405.755	406.47
406.133	385.91
406.511	368.73
406.889	412.35
407.267	404.89
407.645	379.35
408.023	417.09
408.401	418.45
408.779	420.94
409.156	418.45
409.534	406.02
409.912	407.38
410.29	433.14
410.667	423.2
411.045	425.23
411.422	434.04
411.8	440.37
412.178	439.69
412.555	450.54
412.933	420.71
413.31	440.37
413.687	472.91
414.065	443.08
414.442	423.65
414.819	432.46
415.197	442.4
415.574	448.73
415.951	458.9
416.328	441.73
416.705	453.25
417.082	475.4
417.46	460.93
417.837	478.33
418.214	488.96
418.591	481.5
418.967	485.34
419.344	460.26
419.721	496.19
420.098	474.04
420.475	485.79
420.852	494.15
421.228	478.79
421.605	479.24
421.982	486.02
422.358	494.15
422.735	501.61
423.111	516.75
423.488	503.19
423.864	498.67
424.241	514.94
424.617	511.33
424.994	507.94
425.37	509.07
425.746	513.14
426.123	522.18
426.499	523.31
426.875	502.74
427.251	510.42
427.627	527.15
428.003	539.8
428.379	539.12
428.756	545.23
429.132	523.53
429.507	561.04
429.883	577.32
430.259	535.96
430.635	533.25
431.011	552.46
431.387	578.45
431.763	554.04
432.138	574.15
432.514	582.96
432.89	558.56
433.265	594.04
433.641	592.46
434.016	610.99
434.392	587.26
434.767	589.97
435.143	619.57
435.518	623.19
435.894	606.24
436.269	644.43
436.644	613.47
437.02	629.07
437.395	625
437.77	607.6
438.145	641.27
438.52	639.23
438.895	649.18
439.271	614.6
439.646	652.12
440.021	647.14
440.395	639.01
440.77	637.65
441.145	647.14
441.52	673.81
441.895	658.44
442.27	667.03
442.645	683.75
443.019	669.97
443.394	667.93
443.769	694.37
444.143	677.88
444.518	667.93
444.892	718.78
445.267	691.21
445.641	682.85
446.016	675.17
446.39	688.72
446.764	687.14
447.139	700.02
447.513	690.98
447.887	714.71
448.262	721.04
448.636	749.74
449.01	733.47
449.384	740.7
449.758	732.57
450.132	746.12
450.506	750.19
450.88	750.64
451.254	748.61
451.628	742.51
452.002	768.04
452.376	758.1
452.75	754.71
453.123	770.98
453.497	765.33
453.871	784.54
454.244	797.42
454.618	771.21
454.992	801.94
455.365	790.87
455.739	800.81
456.112	789.97
456.486	812.79
456.859	813.92
457.232	833.58
457.606	852.11
457.979	838.33
458.352	854.6
458.725	857.31
459.099	857.76
459.472	859.79
459.845	894.37
460.218	893.69
460.591	888.04
460.964	890.3
461.337	914.48
461.71	944.99
462.083	915.16
462.456	951.99
462.829	935.5
463.201	937.53
463.574	925.33
463.947	961.49
464.32	969.17
464.692	981.37
465.065	972.56
465.438	973.24
465.81	991.99
466.183	988.38
466.555	1027.02
466.928	1010.75
467.3	1027.25
467.672	1042.39
468.045	1048.94
468.417	1064.08
468.789	1046.91
469.161	1058.43
469.534	1077.87
469.906	1122.16
470.278	1096.4
470.65	1125.78
471.022	1124.87
471.394	1167.13
471.766	1166.45
472.138	1182.5
472.51	1167.36
472.882	1204.87
473.253	1211.87
473.625	1234.25
473.997	1203.29
474.369	1249.16
474.74	1262.27
475.112	1261.59
475.484	1255.04
475.855	1318.76
476.227	1295.04
476.598	1349.72
476.97	1342.27
477.341	1373.9
477.713	1366.9
478.084	1391.31
478.455	1440.34
478.827	1433.11
479.198	1477.86
479.569	1475.37
479.94	1506.33
480.311	1511.98
480.682	1532.77
481.053	1543.84
481.424	1587.23
481.795	1601.7
482.166	1637.63
482.537	1608.7
482.908	1660.9
483.279	1664.07
483.65	1682.15
484.021	1709.26
484.391	1730.51
484.762	1715.36
485.133	1768.02
485.503	1795.81
485.874	1801.46
486.244	1859.99
486.615	1840.33
486.985	1850.05
487.356	1916.49
487.726	1911.97
488.097	1966.88
488.467	1948.13
488.837	1977.28
489.207	1992.19
489.578	2032.19
489.948	2045.3
490.318	2081
490.688	2090.04
491.058	2085.75
491.428	2108.12
491.798	2136.14
492.168	2140.89
492.538	2154
492.908	2189.93
493.278	2201.91
493.648	2215.69
494.017	2267.21
494.387	2280.77
494.757	2283.03
495.126	2308.8
495.496	2337.04
495.866	2315.12
496.235	2325.52
496.605	2352.41
496.974	2358.06
497.344	2388.12
497.713	2394.89
498.082	2437.61
498.452	2420.43
498.821	2434.67
499.19	2436.25
499.559	2474.44
499.928	2500.2
500.298	2539.52
500.667	2548.79
501.036	2524.61
501.405	2582.01
501.774	2529.81
502.143	2593.31
502.512	2579.07
502.88	2644.83
503.249	2627.66
503.618	2663.14
503.987	2644.38
504.356	2657.49
504.724	2689.58
505.093	2695.9
505.462	2708.78
505.83	2730.71
506.199	2768.22
506.567	2777.94
506.936	2801.66
507.304	2777.26
507.672	2827.65
508.041	2798.05
508.409	2842.57
508.777	2861.55
509.145	2884.37
509.514	2896.12
509.882	2898.38
510.25	2923.24
510.618	2985.84
510.986	2967.76
511.354	2962.11
511.722	3049.34
512.09	3035.78
512.458	3005.05
512.826	3062.22
513.193	3066.52
513.561	3109.68
513.929	3096.35
514.297	3145.61
514.664	3179.05
515.032	3193.97
515.4	3196.23
515.767	3214.76
516.135	3231.93
516.502	3219.05
516.869	3229.22
517.237	3291.59
517.604	3299.5
517.972	3335.21
518.339	3334.08
518.706	3346.96
519.073	3361.42
519.44	3359.39
519.808	3470.8
520.175	3405.72
520.542	3439.84
520.909	3473.96
521.276	3470.12
521.643	3498.82
522.009	3508.31
522.376	3519.84
522.743	3565.26
523.11	3576.78
523.477	3641.42
523.843	3639.16
524.21	3656.33
524.577	3711.7
524.943	3723.67
525.31	3754.86
525.676	3805.93
526.043	3811.58
526.409	3814.52
526.776	3878.25
527.142	3894.52
527.508	3938.36
527.874	3979.49
528.241	3949.66
528.607	3973.61
528.973	3993.04
529.339	4009.54
529.705	4047.96
530.071	4097.45
530.437	4129.54
530.803	4099.71
531.169	4181.74
531.535	4158.01
531.901	4178.12
532.267	4185.58
532.632	4222.42
532.998	4229.42
533.364	4250.21
533.73	4246.37
534.095	4307.39
534.461	4287.73
534.826	4302.64
535.192	4309.19
535.557	4353.26
535.923	4318.91
536.288	4359.14
536.653	4385.8
537.019	4362.3
537.384	4420.38
537.749	4413.15
538.114	4434.16
538.479	4418.57
538.845	4505.35
539.21	4439.36
539.575	4495.63
539.94	4523.43
540.305	4557.78
540.67	4587.61
541.034	4522.52
541.399	4599.13
541.764	4612.69
542.129	4632.8
542.494	4620.37
542.858	4630.54
543.223	4670.99
543.587	4691.33
543.952	4676.42
544.316	4706.47
544.681	4739.24
545.045	4763.65
545.41	4796.41
545.774	4767.04
546.138	4852.68
546.503	4775.4
546.867	4799.35
547.231	4869.63
547.595	4838.45
547.959	4933.58
548.324	4927.26
548.688	4974.04
549.052	4928.16
549.416	4909.86
549.779	4966.35
550.143	5009.06
550.507	5017.2
550.871	5011.55
551.235	5036.86
551.599	5045.67
551.962	5021.94
552.326	5063.07
552.689	5113.92
553.053	5123.86
553.417	5098.55
553.78	5113.24
554.143	5102.62
554.507	5147.14
554.87	5134.03
555.234	5230.75
555.597	5192.79
555.96	5204.76
556.323	5262.39
556.686	5284.76
557.05	5277.08
557.413	5313.91
557.776	5340.81
558.139	5376.96
558.502	5370.86
558.865	5404.08
559.228	5418.77
559.59	5467.36
559.953	5438.43
560.316	5524.3
560.679	5487.24
561.041	5515.49
561.404	5588.26
561.767	5644.75
562.129	5632.78
562.492	5705.77
562.854	5692.44
563.217	5703.06
563.579	5700.12
563.941	5813.34
564.304	5805.88
564.666	5859.89
565.028	5904.41
565.39	5922.49
565.753	5903.5
566.115	5938.76
566.477	5976.27
566.839	6006.55
567.201	6046.1
567.563	6011.3
567.925	6021.92
568.287	6057.4
568.648	6047.23
569.01	6115.7
569.372	6158.64
569.734	6144.17
570.095	6222.36
570.457	6177.39
570.819	6187.11
571.18	6244.06
571.542	6244.51
571.903	6236.83
572.265	6240.9
572.626	6291.97
572.987	6320.89
573.349	6339.65
573.71	6296.49
574.071	6351.4
574.432	6356.37
574.794	6425.98
575.155	6408.12
575.516	6387.33
575.877	6422.81
576.238	6414.22
576.599	6496.71
576.96	6443.83
577.32	6477.95
577.681	6484.05
578.042	6514.11
578.403	6490.38
578.763	6512.3
579.124	6558.4
579.485	6549.14
579.845	6598.63
580.206	6585.07
580.566	6583.26
580.927	6609.93
581.287	6669.36
581.648	6621.68
582.008	6633.65
582.368	6624.84
582.728	6634.56
583.089	6591.17
583.449	6630.94
583.809	6698.96
584.169	6662.58
584.529	6700.77
584.889	6711.39
585.249	6679.53
585.609	6653.77
585.969	6718.62
586.329	6663.03
586.688	6672.07
587.048	6633.88
587.408	6639.3
587.768	6684.5
588.127	6639.75
588.487	6670.26
588.846	6706.65
589.206	6611.96
589.565	6645.18
589.925	6714.56
590.284	6709.13
590.643	6637.27
591.003	6656.93
591.362	6722.24
591.721	6655.35
592.08	6670.04
592.44	6707.32
592.799	6736.25
593.158	6643.6
593.517	6642.47
593.876	6702.13
594.235	6664.84
594.593	6733.54
594.952	6684.27
595.311	6640.43
595.67	6738.96
596.029	6697.61
596.387	6707.78
596.746	6757.72
597.104	6746.19
597.463	6698.74
597.822	6733.54
598.18	6693.54
598.538	6729.47
598.897	6749.36
599.255	6675.01
599.613	6769.02
599.972	6771.73
600.33	6794.33
600.688	6748.68
601.046	6842.91
601.404	6797.72
601.762	6818.51
602.12	6872.52
602.478	6852.4
602.836	6818.51
603.194	6830.48
603.552	6875.68
603.91	6879.52
604.268	6882.01
604.625	6822.12
604.983	6878.17
605.341	6915.91
605.698	6850.14
606.056	6903.02
606.413	6912.74
606.771	6901.44
607.128	6948.9
607.485	6918.39
607.843	6933.31
608.2	6982.34
608.557	6966.53
608.914	6918.84
609.272	6956.36
609.629	6957.26
609.986	7021.89
610.343	6954.77
610.7	6991.84
611.057	6991.84
611.414	6953.19
611.771	6983.7
612.127	6986.41
612.484	6969.92
612.841	7024.83
613.198	6915
613.554	6983.25
613.911	6982.34
614.267	7023.02
614.624	7022.34
614.98	6965.4
615.337	7016.92
615.693	7056.24
616.05	6993.64
616.406	7020.08
616.762	7004.04
617.118	6984.83
617.475	7031.83
617.831	7090.82
618.187	7020.54
618.543	7073.87
618.899	7081.55
619.255	7088.33
619.611	7093.53
619.967	7076.35
620.323	7157.71
620.678	7147.31
621.034	7081.78
621.39	7136.24
621.746	7059.18
622.101	7151.83
622.457	7166.97
622.812	7200.87
623.168	7124.94
623.523	7242.68
623.879	7108.67
624.234	7126.07
624.589	7209.91
624.945	7201.77
625.3	7145.5
625.655	7226.86
626.01	7201.55
626.365	7172.62
626.72	7187.31
627.075	7158.16
627.43	7153.87
627.785	7187.31
628.14	7184.6
628.495	7224.15
628.85	7143.7
629.205	7165.62
629.559	7257.59
629.914	7204.26
630.269	7200.64
630.623	7105.96
630.978	7118.61
631.332	7146.63
631.687	7177.14
632.041	7139.4
632.396	7170.14
632.75	7109.8
633.104	7093.08
633.459	7017.82
633.813	7026.41
634.167	7057.82
634.521	6992.51
634.875	7070.93
635.229	6999.75
635.583	6972.4
635.937	6983.47
636.291	6970.82
636.645	6914.78
636.999	6905.51
637.352	6968.79
637.706	6890.14
638.06	6941.89
638.413	6869.58
638.767	6854.66
639.121	6805.4
639.474	6802.24
639.828	6838.17
640.181	6870.71
640.534	6868.9
640.888	6761.11
641.241	6785.74
641.594	6795.91
641.947	6827.77
642.301	6772.63
642.654	6785.06
643.007	6806.3
643.36	6722.24
643.713	6782.8
644.066	6794.78
644.419	6670.26
644.771	6659.87
645.124	6554.56
645.477	6600.21
645.83	6589.36
646.182	6595.69
646.535	6512.98
646.888	6598.63
647.24	6576.03
647.593	6575.35
647.945	6573.99
648.298	6611.05
648.65	6582.13
649.002	6494.67
649.355	6555.01
649.707	6524.28
650.059	6527.22
650.411	6618.96
650.763	6612.86
651.115	6707.78
651.467	6672.75
651.819	6705.52
652.171	6682.24
652.523	6657.83
652.875	6677.04
653.227	6643.37
653.578	6701.67
653.93	6704.84
654.282	6645.63
654.633	6624.61
654.985	6656.7
655.337	6599.53
655.688	6631.85
656.039	6607.44
656.391	6585.97
656.742	6621.9
657.094	6617.61
657.445	6642.01
657.796	6583.71
658.147	6567.21
658.498	6557.5
658.849	6599.3
659.2	6543.03
659.551	6555.24
659.902	6574.9
660.253	6496.03
660.604	6554.33
660.955	6465.3
661.306	6502.36
661.656	6512.98
662.007	6468.91
662.358	6502.13
662.708	6499.42
663.059	6419.65
663.409	6417.84
663.76	6455.8
664.11	6441.79
664.461	6489.7
664.811	6484.05
665.161	6482.47
665.511	6387.78
665.862	6413.09
666.212	6472.53
666.562	6432.08
666.912	6441.57
667.262	6441.34
667.612	6423.26
667.962	6428.23
668.312	6406.99
668.662	6426.2
669.011	6442.25
669.361	6425.75
669.711	6413.32
670.06	6417.16
670.41	6471.17
670.76	6417.84
671.109	6399.99
671.459	6421.23
671.808	6433.66
672.157	6369.48
672.507	6354.79
672.856	6371.29
673.205	6409.48
673.554	6430.95
673.904	6430.95
674.253	6387.56
674.602	6444.05
674.951	6317.96
675.3	6322.7
675.649	6412.19
675.998	6403.83
676.346	6406.31
676.695	6422.81
677.044	6339.42
677.393	6363.38
677.741	6373.77
678.09	6353.43
678.438	6323.83
678.787	6356.37
679.135	6390.95
679.484	6314.79
679.832	6347.56
680.181	6260.1
680.529	6323.83
680.877	6290.16
681.225	6317.73
681.573	6330.16
681.922	6248.13
682.27	6245.64
682.618	6274.57
682.966	6162.25
683.314	6240.9
683.661	6218.07
684.009	6201.8
684.357	6209.71
684.705	6208.81
685.053	6143.5
685.4	6148.24
685.748	6159.77
686.095	6129.26
686.443	6117.51
686.79	6114.12
687.138	6043.61
687.485	6098.53
687.832	6056.04
688.18	6087.45
688.527	6053.56
688.874	6014.46
689.221	5999.77
689.568	5964.97
689.915	5906.44
690.262	5965.42
690.609	5903.95
690.956	5919.1
691.303	5907.57
691.65	5911.41
691.997	5832.54
692.344	5859.44
692.69	5817.63
693.037	5842.04
693.383	5778.08
693.73	5825.99
694.077	5786.9
694.423	5773.79
694.769	5780.34
695.116	5712.32
695.462	5726.11
695.808	5729.04
696.155	5741.47
696.501	5679.33
696.847	5693.79
697.193	5628.71
697.539	5630.97
697.885	5601.14
698.231	5571.31
698.577	5658.99
698.923	5588.48
699.269	5552.1
699.614	5555.26
699.96	5586
700.306	5553.91
700.651	5531.54
700.997	5532.44
701.342	5498.77
701.688	5531.99
702.033	5454.02
702.379	5522.04
702.724	5529.73
703.069	5456.74
703.415	5394.36
703.76	5456.74
704.105	5486.11
704.45	5445.21
704.795	5382.61
705.14	5379.22
705.485	5391.88
705.83	5335.38
706.175	5405.44
706.52	5347.13
706.865	5353.69
707.209	5355.95
707.554	5267.81
707.899	5279.79
708.243	5285.89
708.588	5240.7
708.932	5247.25
709.277	5244.54
709.621	5248.83
709.966	5173.35
710.31	5202.5
710.654	5175.84
710.998	5142.17
711.342	5174.71
711.687	5128.38
712.031	5135.84
712.375	5116.63
712.719	5074.37
713.063	5081.83
713.407	5124.99
713.75	5084.99
714.094	5106.69
714.438	5072.11
714.782	5048.16
715.125	5068.95
715.469	5074.37
715.812	5000.93
716.156	4941.72
716.499	5005.9
716.843	4962.28
717.186	4962.06
717.53	4967.71
717.873	4983.75
718.216	4936.07
718.559	4936.75
718.902	4922.51
719.246	4888.39
719.589	4847.71
719.932	4915.73
720.275	4897.65
720.617	4922.51
720.96	4936.52
721.303	4901.27
721.646	4882.96
721.989	4825.11
722.331	4874.6
722.674	4833.47
723.016	4826.92
723.359	4799.58
723.701	4845.68
724.044	4746.7
724.386	4777.88
724.729	4755.06
725.071	4753.02
725.413	4778.33
725.755	4779.69
726.097	4760.26
726.439	4767.49
726.782	4729.07
727.124	4776.3
727.465	4731.56
727.807	4694.72
728.149	4733.14
728.491	4653.82
728.833	4669.19
729.175	4685.23
729.516	4643.2
729.858	4714.83
730.199	4655.4
730.541	4665.57
730.882	4630.77
731.224	4639.81
731.565	4630.99
731.906	4619.47
732.248	4646.81
732.589	4580.15
732.93	4614.95
733.271	4624.67
733.612	4635.29
733.953	4627.15
734.294	4590.54
734.635	4544.22
734.976	4576.76
735.317	4563.43
735.658	4516.65
735.999	4599.13
736.339	4542.86
736.68	4545.8
737.021	4563.2
737.361	4546.7
737.702	4569.3
738.042	4552.35
738.383	4524.1
738.723	4582.18
739.063	4500.83
739.404	4522.75
739.744	4492.69
740.084	4465.12
740.424	4457.21
740.764	4456.31
741.104	4435.52
741.444	4463.54
741.784	4423.99
742.124	4437.55
742.464	4435.29
742.804	4429.64
743.143	4358.23
743.483	4403.2
743.823	4448.4
744.162	4398.68
744.502	4419.02
744.841	4386.93
745.181	4401.62
745.52	4355.97
745.86	4385.8
746.199	4362.07
746.538	4382.64
746.877	4358.68
747.216	4353.26
747.556	4286.37
747.895	4261.51
748.234	4299.7
748.573	4280.72
748.911	4295.86
749.25	4272.59
749.589	4220.16
749.928	4235.98
750.267	4255.41
750.605	4231.91
750.944	4225.36
751.283	4194.85
751.621	4210.67
751.96	4175.19
752.298	4263.32
752.636	4167.28
752.975	4203.89
753.313	4160.5
753.651	4190.33
753.989	4148.97
754.327	4152.59
754.666	4158.69
755.004	4182.87
755.342	4128.63
755.679	4200.27
756.017	4106.71
756.355	4119.6
756.693	4138.13
757.031	4068.52
757.368	4103.55
757.706	4064.46
758.044	4041.86
758.381	4079.6
758.719	4094.74
759.056	4057.68
759.394	4050.9
759.731	4015.42
760.068	4014.29
760.405	4043.44
760.743	3980.62
761.08	3949.66
761.417	3985.14
761.754	3984.68
762.091	4014.29
762.428	3921.63
762.765	3909.88
763.102	3911.69
763.438	3917.34
763.775	3878.25
764.112	3897.91
764.449	3859.94
764.785	3857.23
765.122	3800.51
765.458	3836.66
765.795	3793.28
766.131	3803.67
766.467	3762.54
766.804	3781.3
767.14	3764.58
767.476	3751.7
767.812	3736.55
768.148	3789.21
768.485	3705.14
768.821	3712.37
769.157	3697.91
769.492	3683.45
769.828	3665.6
770.164	3672.83
770.5	3646.84
770.836	3659.27
771.171	3631.02
