Data from foam2_polystyrene_foam_FLMS001491_00027.txt Node
Date: Wed Feb 08 10:57:44 GMT 2017
User: dcchb
Spectrometer: FLMS00149
Trigger mode: 0
Integration Time (sec): 2.000000E-2
Scans to average: 10
Electric dark correction enabled: true
Nonlinearity correction enabled: false
Boxcar width: 0
XAxis mode: Wavelengths
Number of Pixels in Spectrum: 2048
>>>>>Begin Spectral Data<<<<<
341.393	-13.88
341.776	-13.88
342.16	-13.88
342.543	-71.96
342.927	-65.63
343.31	-52.98
343.693	-63.6
344.077	-58.63
344.46	-64.5
344.843	-59.53
345.226	-43.71
345.61	-33.32
345.993	-8.23
346.376	-14.34
346.759	17.53
347.142	43.52
347.525	23.4
347.908	49.17
348.291	68.15
348.674	87.13
349.057	109.95
349.44	130.29
349.823	154.93
350.206	163.51
350.588	185.43
350.971	231.31
351.354	243.51
351.737	241.7
352.119	272.44
352.502	267.46
352.884	290.51
353.267	304.3
353.65	301.59
354.032	297.97
354.414	310.4
354.797	348.14
355.179	338.88
355.562	364.19
355.944	359.21
356.326	358.99
356.709	354.69
357.091	367.12
357.473	366.45
357.855	359.67
358.238	366.67
358.62	362.38
359.002	375.26
359.384	366.22
359.766	335.94
360.148	354.24
360.53	365.77
360.912	382.94
361.294	372.09
361.676	365.09
362.057	361.02
362.439	391.76
362.821	363.28
363.203	371.64
363.584	378.2
363.966	338.65
364.348	347.01
364.729	362.38
365.111	347.24
365.493	366.9
365.874	361.93
366.256	356.28
366.637	354.02
367.019	334.58
367.4	364.19
367.781	363.51
368.163	350.17
368.544	347.01
368.925	352.21
369.306	373.9
369.688	374.13
370.069	371.87
370.45	375.03
370.831	394.47
371.212	384.3
371.593	382.26
371.974	382.94
372.355	386.33
372.736	377.74
373.117	378.87
373.498	372.09
373.879	372.55
374.26	365.32
374.641	360.8
375.021	380.91
375.402	361.02
375.783	385.88
376.163	404.18
376.544	408.48
376.925	405.54
377.305	405.54
377.686	408.03
378.066	414.58
378.447	409.83
378.827	396.27
379.208	413.22
379.588	402.6
379.968	433.56
380.349	424.75
380.729	421.58
381.109	434.92
381.489	443.51
381.87	419.78
382.25	451.41
382.63	468.36
383.01	434.47
383.39	449.15
383.77	456.39
384.15	450.96
384.53	466.33
384.91	471.53
385.29	466.33
385.67	457.52
386.049	467.46
386.429	493.67
386.809	473.56
387.189	497.74
387.568	475.14
387.948	471.53
388.328	485.31
388.707	477.63
389.087	505.42
389.466	514.92
389.846	519.21
390.225	531.64
390.605	515.14
390.984	504.07
391.363	508.36
391.743	547.01
392.122	540.9
392.501	513.33
392.881	534.8
393.26	553.11
393.639	567.34
394.018	550.4
394.397	572.32
394.776	560.79
395.155	586.55
395.534	565.08
395.913	567.8
396.292	585.65
396.671	593.33
397.05	599.21
397.429	599.43
397.808	592.88
398.186	588.59
398.565	621.13
398.944	612.31
399.323	625.42
399.701	619.09
400.08	644.86
400.458	648.02
400.837	661.35
401.215	634.69
401.594	655.93
401.972	651.18
402.351	678.75
402.729	660.22
403.107	653.9
403.486	697.06
403.864	676.27
404.242	691.41
404.62	697.51
404.999	711.75
405.377	701.8
405.755	735.25
406.133	767.56
406.511	709.94
406.889	755.36
407.267	763.5
407.645	733.89
408.023	771.86
408.401	771.18
408.779	781.58
409.156	781.8
409.534	808.47
409.912	800.78
410.29	822.48
410.667	819.31
411.045	827.45
411.422	847.56
411.8	857.28
412.178	858.64
412.555	874.23
412.933	892.31
413.31	921.46
413.687	894.11
414.065	931.85
414.442	915.58
414.819	925.3
415.197	929.59
415.574	959.65
415.951	954.23
416.328	963.94
416.705	966.43
417.082	958.97
417.46	1006.2
417.837	1014.56
418.214	1038.07
418.591	1010.72
418.967	1027.44
419.344	1041
419.721	1047.56
420.098	1057.73
420.475	1088.01
420.852	1071.74
421.228	1094.56
421.605	1109.7
421.982	1129.59
422.358	1135.24
422.735	1154.45
423.111	1151.74
423.488	1149.02
423.864	1173.2
424.241	1179.31
424.617	1153.54
424.994	1187.44
425.37	1215.69
425.746	1212.98
426.123	1247.78
426.499	1225.86
426.875	1255.69
427.251	1260.43
427.627	1300.21
428.003	1282.13
428.379	1300.43
428.756	1367.77
429.132	1352.63
429.507	1409.13
429.883	1398.51
430.259	1399.86
430.635	1436.93
431.011	1414.78
431.387	1465.4
431.763	1518.96
432.138	1490.94
432.514	1547.21
432.89	1506.98
433.265	1544.72
433.641	1578.16
434.016	1589.92
434.392	1630.14
434.767	1641.44
435.143	1643.25
435.518	1664.26
435.894	1675.79
436.269	1697.48
436.644	1756.24
437.02	1738.61
437.395	1744.26
437.77	1768.89
438.145	1786.29
438.52	1801.44
438.895	1828.1
439.271	1830.14
439.646	1861.32
440.021	1890.92
440.395	1918.04
440.77	1905.61
441.145	1891.83
441.52	1942.22
441.895	1925.27
442.27	1953.3
442.645	1967.53
443.019	2032.62
443.394	2015.44
443.769	2047.3
444.143	2000.07
444.518	2056.12
444.892	2075.78
445.267	2089.56
445.641	2082.11
446.016	2100.86
446.39	2100.18
446.764	2126.4
447.139	2146.06
447.513	2151.93
447.887	2188.77
448.262	2198.04
448.636	2199.17
449.01	2251.82
449.384	2266.28
449.758	2291.37
450.132	2316.68
450.506	2344.92
450.88	2325.49
451.254	2344.25
451.628	2357.81
452.002	2429.67
452.376	2411.36
452.75	2466.95
453.123	2463.34
453.497	2519.38
453.871	2525.03
454.244	2619.04
454.618	2592.38
454.992	2600.28
455.365	2577.69
455.739	2674.18
456.112	2687.06
456.486	2720.06
456.859	2744.69
457.232	2789.43
457.606	2798.7
457.979	2808.64
458.352	2894.74
458.725	2931.12
459.099	2920.95
459.472	3002.99
459.845	3017.67
460.218	3038.47
460.591	3075.53
460.964	3085.47
461.337	3146.49
461.71	3178.35
462.083	3226.03
462.456	3253.6
462.829	3262.64
463.201	3306.93
463.574	3314.62
463.947	3390.32
464.32	3449.98
464.692	3448.17
465.065	3496.08
465.438	3523.42
465.81	3577.43
466.183	3649.97
466.555	3726.13
466.928	3733.36
467.3	3732.68
467.672	3754.38
468.045	3861.49
468.417	3867.6
468.789	3953.7
469.161	3940.81
469.534	4059.68
469.906	4093.35
470.278	4146.91
470.65	4216.06
471.022	4285.44
471.394	4359.33
471.766	4360.24
472.138	4412.44
472.51	4529.05
472.882	4590.97
473.253	4609.27
473.625	4735.14
473.997	4784.18
474.369	4834.58
474.74	4905.08
475.112	5023.72
475.484	5071.63
475.855	5103.04
476.227	5194.79
476.598	5299.65
476.97	5392.53
477.341	5464.62
477.713	5557.95
478.084	5589.13
478.455	5746.42
478.827	5798.39
479.198	5930.37
479.569	5938.05
479.94	6097.14
480.311	6167.2
480.682	6274.09
481.053	6412.39
481.424	6547.98
481.795	6616.45
482.166	6718.82
482.537	6843.56
482.908	6935.99
483.279	7020.51
483.65	7158.58
484.021	7250.56
484.391	7444.68
484.762	7428.86
485.133	7503.88
485.503	7678.12
485.874	7751.56
486.244	7901.39
486.615	7954.49
486.985	8104.77
487.356	8216.86
487.726	8313.58
488.097	8541.82
488.467	8491.66
488.837	8678.54
489.207	8761.7
489.578	9008.93
489.948	8948.37
490.318	9084.18
490.688	9196.72
491.058	9308.81
491.428	9431.07
491.798	9561.91
492.168	9655.92
492.538	9685.97
492.908	9894.1
493.278	9980.2
493.648	9990.15
494.017	10181.1
494.387	10218.39
494.757	10283.92
495.126	10495.44
495.496	10493.86
495.866	10585.84
496.235	10644.37
496.605	10784.02
496.974	10796.91
497.344	10971.82
497.713	11021.08
498.082	11096.78
498.452	11251.58
498.821	11267.85
499.19	11342.43
499.559	11382.65
499.928	11508.53
500.298	11607.05
500.667	11786.48
501.036	11656.32
501.405	11878.46
501.774	11856.99
502.143	12031
502.512	12114.16
502.88	12183.31
503.249	12195.29
503.618	12275.28
503.987	12299.01
504.356	12414.04
504.724	12576.97
505.093	12604.54
505.462	12746.68
505.83	12798.21
506.199	12842.05
506.567	13066.45
506.936	13099.9
507.304	13241.59
507.672	13226.45
508.041	13400.68
508.409	13484.29
508.777	13554.35
509.145	13641.8
509.514	13657.85
509.882	13712.76
510.25	13828.01
510.618	13946.65
510.986	14063.49
511.354	14129.25
511.722	14296.47
512.09	14376.25
512.458	14403.82
512.826	14545.96
513.193	14735.56
513.561	14658.72
513.929	14912.96
514.297	15021.43
514.664	15128.54
515.032	15222.1
515.4	15232.72
515.767	15361.98
516.135	15408.76
516.502	15377.35
516.869	15755.87
517.237	15829.99
517.604	15845.13
517.972	15994.06
518.339	16112.25
518.706	16165.13
519.073	16267.72
519.44	16364.22
519.808	16546.13
520.175	16693.02
520.542	16789.52
520.909	16970.53
521.276	16980.02
521.643	17151.77
522.009	17281.48
522.376	17465.66
522.743	17587.24
523.11	17656.61
523.477	17876.49
523.843	17936.15
524.21	18169.59
524.577	18245.07
524.943	18471.28
525.31	18542.46
525.676	18703.82
526.043	18824.04
526.409	18960.76
526.776	19185.16
527.142	19171.37
527.508	19237.36
527.874	19463.57
528.241	19506.05
528.607	19606.39
528.973	19758.25
529.339	19795.76
529.705	20075.31
530.071	20231.01
530.437	20355.07
530.803	20369.54
531.169	20536.54
531.535	20545.12
531.901	20584.9
532.267	20793.25
532.632	21000.03
532.998	21081.61
533.364	21048.16
533.73	21160.25
534.095	21244.09
534.461	21320.02
534.826	21560.69
535.192	21658.54
535.557	21819.67
535.923	21774.47
536.288	21934.69
536.653	22009.72
537.019	21956.16
537.384	22149.15
537.749	22251.07
538.114	22281.58
538.479	22383.95
538.845	22537.39
539.21	22504.39
539.575	22705.74
539.94	22629.81
540.305	22879.98
540.67	22895.57
541.034	23105.51
541.399	23102.34
541.764	23197.03
542.129	23326.29
542.494	23399.51
542.858	23444.03
543.223	23517.25
543.587	23672.05
543.952	23620.75
544.316	23700.29
544.681	23721.76
545.045	23824.59
545.41	23887.18
545.774	23929.44
546.138	24095.31
546.503	24180.96
546.867	24270
547.231	24560.39
547.595	24630.89
547.959	24686.71
548.324	24626.37
548.688	24750.21
549.052	24930.32
549.416	24915.63
549.779	24987.94
550.143	25045.57
550.507	25226.36
550.871	25318.56
551.235	25283.76
551.599	25378.44
551.962	25529.4
552.326	25645.1
552.689	25791.09
553.053	25602.17
553.417	25849.16
553.78	26149.72
554.143	26044.64
554.507	26266.1
554.87	26392.43
555.234	26585.19
555.597	26574.12
555.96	26660.22
556.323	26761.46
556.686	26944.96
557.05	27055.23
557.413	27104.05
557.776	27157.83
558.139	27388.79
558.502	27333.87
558.865	27502.91
559.228	27716.91
559.59	27813.86
559.953	27844.14
560.316	28093.63
560.679	28140.4
561.041	28299.5
561.404	28436.22
561.767	28698.81
562.129	28565.7
562.492	28839.37
562.854	28954.39
563.217	29022.19
563.579	29194.61
563.941	29331.11
564.304	29420.37
564.666	29645.68
565.028	29762.51
565.39	29878.21
565.753	29953.69
566.115	30140.35
566.477	30238.65
566.839	30297.86
567.201	30480.68
567.563	30463.51
567.925	30767.68
568.287	30698.3
568.648	30868.69
569.01	31011.52
569.372	31139.65
569.734	31023.72
570.095	31320.43
570.457	31486.3
570.819	31563.82
571.18	31630.48
571.542	31685.62
571.903	31691.72
572.265	31884.49
572.626	31937.37
572.987	32009.45
573.349	32077.93
573.71	32297.81
574.071	32359.5
574.432	32393.63
574.794	32608.76
575.155	32648.31
575.516	32549.55
575.877	32719.94
576.238	32777.34
576.599	32876.32
576.96	32974.4
577.32	33114.06
577.681	33035.64
578.042	33062.53
578.403	33212.81
578.763	33244.45
579.124	33336.2
579.485	33423.88
579.845	33344.34
580.206	33302.75
580.566	33366.93
580.927	33416.65
581.287	33554.5
581.648	33331
582.008	33718.34
582.368	33524.9
582.728	33702.29
583.089	33620.94
583.449	33637.21
583.809	33718.11
584.169	33840.82
584.529	33620.94
584.889	34031.77
585.249	33708.62
585.609	33822.29
585.969	33907.94
586.329	33805.11
586.688	33887.6
587.048	33896.41
587.408	33836.53
587.768	33862.74
588.127	33756.08
588.487	33812.57
588.846	34105.45
589.206	33762.86
589.565	33942.51
589.925	33973.7
590.284	33871.55
590.643	33882.85
591.003	34056.86
591.362	34036.97
591.721	33975.73
592.08	33927.6
592.44	33988.39
592.799	34036.29
593.158	33892.34
593.517	34018.89
593.876	34102.73
594.235	34033.36
594.593	33952.91
594.952	34200.58
595.311	34016.18
595.67	34020.48
596.029	34380.47
596.387	34239.23
596.746	34289.85
597.104	34173.69
597.463	34139.12
597.822	34423.4
598.18	34337.98
598.538	34246.46
598.897	34553.34
599.255	34163.75
599.613	34609.16
599.972	34290.75
600.33	34550.41
600.688	34323.29
601.046	34417.75
601.404	34498.43
601.762	34397.41
602.12	34643.74
602.478	34632.44
602.836	34674.24
603.194	34668.59
603.552	34615.94
603.91	34424.98
604.268	34741.59
604.625	34646.9
604.983	34716.73
605.341	34575.26
605.698	34753.34
606.056	34831.98
606.413	34871.3
606.771	34971.18
607.128	35077.85
607.485	34823.84
607.843	34959.66
608.2	35205.3
608.557	35184.06
608.914	35117.4
609.272	35262.93
609.629	35165.3
609.986	35322.59
610.343	35118.07
610.7	35521.23
611.057	35317.16
611.414	35171.41
611.771	35450.72
612.127	35453.88
612.484	35335.92
612.841	35699.75
613.198	35361.91
613.554	35488.23
613.911	35699.08
614.267	35635.35
614.624	35531.4
614.98	35685.06
615.337	35905.62
615.693	35759.86
616.05	35769.13
616.406	35969.8
616.762	35877.6
617.118	35831.28
617.475	35885.51
617.831	36038.5
618.187	35977.71
618.543	36031.5
618.899	36244.15
619.255	36119.86
619.611	36106.75
619.967	36319.85
620.323	36404.14
620.678	36074.66
621.034	36121.44
621.39	36186.29
621.746	36063.59
622.101	36511.71
622.457	36217.71
622.812	36427.64
623.168	36431.71
623.523	36423.8
623.879	36592.61
624.234	36189.91
624.589	36412.95
624.945	36471.71
625.3	36393.52
625.655	36374.76
626.01	36467.42
626.365	36428.1
626.72	36447.53
627.075	36392.16
627.43	36297.7
627.785	36256.57
628.14	36360.3
628.495	36439.85
628.85	36334.99
629.205	36233.3
629.559	36522.33
629.914	36314.88
630.269	36237.14
630.623	36077.6
630.978	36085.51
631.332	36239.17
631.687	36249.12
632.041	36103.58
632.396	36145.62
632.75	35974.1
633.104	35883.25
633.459	35794.67
633.813	35874.21
634.167	35748.11
634.521	35821.11
634.875	35758.06
635.229	35709.24
635.583	35555.58
635.937	35584.5
636.291	35513.54
636.645	35703.37
636.999	35493.43
637.352	35645.52
637.706	35304.28
638.06	35554.67
638.413	35427.44
638.767	35230.16
639.121	35381.57
639.474	35140.67
639.828	35227.68
640.181	35247.56
640.534	35257.28
640.888	35114.01
641.241	34854.58
641.594	35039.66
641.947	35119.66
642.301	34946.33
642.654	34950.17
643.007	34830.4
643.36	34778.65
643.713	34601.7
644.066	34865.2
644.419	34609.84
644.771	34291.88
645.124	33993.81
645.477	33837.88
645.83	33678.56
646.182	33550.21
646.535	33460.94
646.888	33654.38
647.24	33472.92
647.593	33734.16
647.945	33669.07
648.298	33431.56
648.65	33316.09
649.002	33327.84
649.355	33473.82
649.707	33131.23
650.059	33330.32
650.411	33804.89
650.763	33817.99
651.115	34261.37
651.467	34039.46
651.819	33974.83
652.171	33910.42
652.523	33857.54
652.875	33869.52
653.227	33854.6
653.578	33890.31
653.93	33863.87
654.282	33616.42
654.633	33655.06
654.985	33709.07
655.337	33655.06
655.688	33635.63
656.039	33801.05
656.391	33491.22
656.742	33572.58
657.094	33639.24
657.445	33599.7
657.796	33501.39
658.147	33555.18
658.498	33446.25
658.849	33460.49
659.2	33372.36
659.551	33284.22
659.902	33477.89
660.253	33336.43
660.604	33346.59
660.955	33175.53
661.306	33346.82
661.656	33245.58
662.007	33195.19
662.358	33187.73
662.708	33326.03
663.059	33105.92
663.409	32979.6
663.76	33144.79
664.11	32988.86
664.461	33165.13
664.811	33054.63
665.161	33032.03
665.511	32902.09
665.862	32959.71
666.212	33042.65
666.562	32979.37
666.912	32953.61
667.262	32870.9
667.612	32916.1
667.962	32912.03
668.312	32833.16
668.662	33010.78
669.011	32901.41
669.361	32840.62
669.711	32857.79
670.06	32848.98
670.41	32728.31
670.76	32636.33
671.109	32846.5
671.459	32682.66
671.808	32674.97
672.157	32731.24
672.507	32568.54
672.856	32507.97
673.205	32451.25
673.554	32588.2
673.904	32390.01
674.253	32617.12
674.602	32385.94
674.951	32045.39
675.3	31805.84
675.649	32360.41
675.998	32225.95
676.346	32406.28
676.695	32306.4
677.044	32025.73
677.393	32032.96
677.741	32275.44
678.09	32012.62
678.438	32008.33
678.787	32076.35
679.135	31992.05
679.484	31923.13
679.832	31961.77
680.181	31759.97
680.529	31904.15
680.877	31784.83
681.225	31791.61
681.573	31946.41
681.922	31860.08
682.27	31651.95
682.618	31882
682.966	31712.74
683.314	31833.64
683.661	31699.86
684.009	31563.82
684.357	31543.93
684.705	31428
685.053	31496.7
685.4	31481.11
685.748	31351.62
686.095	31185.07
686.443	31015.13
686.79	31049.03
687.138	31063.04
687.485	31009.71
687.832	30823.5
688.18	30847.23
688.527	30746.21
688.874	30636.16
689.221	30654.01
689.568	30513.9
689.915	30338.76
690.262	30258.09
690.609	30306.67
690.956	30237.52
691.303	30217.64
691.65	30124.76
691.997	30089.28
692.344	29888.38
692.69	29758.21
693.037	29859.23
693.383	29679.35
693.73	29689.97
694.077	29614.26
694.423	29604.55
694.769	29542.85
695.116	29439.81
695.462	29402.29
695.808	29402.52
696.155	29289.75
696.501	29082.07
696.847	29100.15
697.193	29074.16
697.539	28944.9
697.885	28758.69
698.231	28831.69
698.577	28701.75
698.923	28682.08
699.269	28591.69
699.614	28484.35
699.96	28471.92
700.306	28460.85
700.651	28346.05
700.997	28121.2
701.342	28070.8
701.688	27970.01
702.033	27849.56
702.379	27984.7
702.724	27744.93
703.069	27843.24
703.415	27469.46
703.76	27527.99
704.105	27451.83
704.45	27466.52
704.795	27226.98
705.14	27125.06
705.485	27237.15
705.83	27075.8
706.175	27082.8
706.52	27027.44
706.865	26898.4
707.209	27033.99
707.554	26761.91
707.899	26811.85
708.243	26726.66
708.588	26615.02
708.932	26525.08
709.277	26438.3
709.621	26432.88
709.966	26384.74
710.31	26376.38
710.654	26155.37
710.998	26222.71
711.342	26247.12
711.687	26135.49
712.031	26105.88
712.375	26022.49
712.719	25964.64
713.063	26005.55
713.407	25982.04
713.75	25813.91
714.094	25842.61
714.438	25725.78
714.782	25652.79
715.125	25532.79
715.469	25560.81
715.812	25401.04
716.156	25303.42
716.499	25363.3
716.843	25472.45
717.186	25180.03
717.53	25185.68
717.873	25368.05
718.216	25104.55
718.559	25091.67
718.902	24934.61
719.246	24942.75
719.589	24933.48
719.932	24744.34
720.275	24747.05
720.617	24703.21
720.96	24774.39
721.303	24801.96
721.646	24757.67
721.989	24576.2
722.331	24673.6
722.674	24652.36
723.016	24677.9
723.359	24530.56
723.701	24714.73
724.044	24435.19
724.386	24430.22
724.729	24387.28
725.071	24307.28
725.413	24343.89
725.755	24234.52
726.097	24203.33
726.439	24098.48
726.782	24088.08
727.124	24220.96
727.465	23966.5
727.807	24041.08
728.149	23966.28
728.491	23878.14
728.833	23966.73
729.175	23714.98
729.516	23691.03
729.858	23747.75
730.199	23704.36
730.541	23688.09
730.882	23700.52
731.224	23665.04
731.565	23555.67
731.906	23516.8
732.248	23611.03
732.589	23398.83
732.93	23425.05
733.271	23351.38
733.612	23377.59
733.953	23395.22
734.294	23267.31
734.635	23199.07
734.976	23230.7
735.317	23036.81
735.658	23172.63
735.999	23176.69
736.339	23060.99
736.68	23110.93
737.021	22982.57
737.361	22972.86
737.702	23051.95
738.042	22972.86
738.383	23008.56
738.723	22956.36
739.063	22837.04
739.404	22884.27
739.744	22821.9
740.084	22807.21
740.424	22714.56
740.764	22705.29
741.104	22857.83
741.444	22661.68
741.784	22545.07
742.124	22603.83
742.464	22641.79
742.804	22583.04
743.143	22447.67
743.483	22497.84
743.823	22412.87
744.162	22441.34
744.502	22495.58
744.841	22336.26
745.181	22472.98
745.52	22333.33
745.86	22281.58
746.199	22145.76
746.538	22272.31
746.877	22130.17
747.216	22200.45
747.556	22058.76
747.895	22088.36
748.234	22042.03
748.573	21951.64
748.911	21909.61
749.25	21771.53
749.589	21732.89
749.928	21822.38
750.267	21856.28
750.605	21624.64
750.944	21580.8
751.283	21536.96
751.621	21568.83
751.96	21473.46
752.298	21409.96
752.636	21427.81
752.975	21301.26
753.313	21230.3
753.651	21482.5
