Data from foam_black_FLMS001491_00033.txt Node
Date: Wed Feb 08 10:43:48 GMT 2017
User: dcchb
Spectrometer: FLMS00149
Trigger mode: 0
Integration Time (sec): 2.000000E-2
Scans to average: 10
Electric dark correction enabled: true
Nonlinearity correction enabled: false
Boxcar width: 0
XAxis mode: Wavelengths
Number of Pixels in Spectrum: 2048
>>>>>Begin Spectral Data<<<<<
341.393	-4.94
341.776	-4.94
342.16	-4.94
342.543	-54.66
342.927	-68.22
343.31	-59.41
343.693	-67.09
344.077	-72.06
344.46	-63.47
344.843	-58.05
345.226	-31.84
345.61	-46.98
345.993	-37.94
346.376	-0.42
346.759	7.71
347.142	31.44
347.525	52.46
347.908	64.89
348.291	79.8
348.674	92.23
349.057	108.73
349.44	128.39
349.823	140.59
350.206	181.04
350.588	193.47
350.971	194.37
351.354	216.29
351.737	223.07
352.119	242.51
352.502	256.52
352.884	272.56
353.267	269.85
353.65	257.65
354.032	291.32
354.414	287.7
354.797	308.95
355.179	308.72
355.562	300.81
355.944	324.09
356.326	326.57
356.709	317.76
357.091	323.18
357.473	312.79
357.855	328.38
358.238	308.72
358.62	319.57
359.002	321.83
359.384	343.07
359.766	304.2
360.148	339.68
360.53	319.79
360.912	317.31
361.294	330.19
361.676	321.6
362.057	322.05
362.439	317.08
362.821	301.72
363.203	318.44
363.584	277.76
363.966	336.29
364.348	308.04
364.729	319.79
365.111	295.84
365.493	311.43
365.874	281.83
366.256	300.81
366.637	312.79
367.019	300.59
367.4	307.59
367.781	303.75
368.163	304.65
368.544	300.81
368.925	308.04
369.306	327.7
369.688	295.16
370.069	296.52
370.45	310.3
370.831	292.9
371.212	287.03
371.593	280.7
371.974	309.62
372.355	300.81
372.736	303.75
373.117	287.03
373.498	294.48
373.879	290.42
374.26	282.51
374.641	307.36
375.021	289.74
375.402	297.65
375.783	310.08
376.163	310.08
376.544	326.8
376.925	312.34
377.305	316.63
377.686	316.4
378.066	314.82
378.447	303.52
378.827	299.46
379.208	310.08
379.588	319.12
379.968	329.29
380.349	308.72
380.729	315.73
381.109	316.4
381.489	332.67
381.87	315.05
382.25	328.38
382.63	311.88
383.01	312.56
383.39	342.84
383.77	314.37
384.15	306.01
384.53	321.38
384.91	327.03
385.29	327.7
385.67	340.58
386.049	330.87
386.429	349.62
386.809	331.32
387.189	346.91
387.568	324.77
387.948	327.48
388.328	331.32
388.707	340.81
389.087	340.13
389.466	324.77
389.846	318.21
390.225	312.11
390.605	337.42
390.984	345.78
391.363	341.04
391.743	355.73
392.122	335.16
392.501	344.65
392.881	350.08
393.26	345.78
393.639	351.21
394.018	332.9
394.397	369.51
394.776	360.02
395.155	360.47
395.534	355.05
395.913	367.93
396.292	360.02
396.671	379.91
397.05	363.63
397.429	355.73
397.808	348.72
398.186	373.35
398.565	369.28
398.944	380.58
399.323	361.15
399.701	371.54
400.08	363.63
400.458	366.35
400.837	383.3
401.215	368.61
401.594	379.91
401.972	369.51
402.351	379.68
402.729	376.74
403.107	363.18
403.486	382.39
403.864	381.94
404.242	402.96
404.62	399.11
404.999	370.64
405.377	402.05
405.755	393.46
406.133	397.31
406.511	388.94
406.889	391.43
407.267	409.73
407.645	403.63
408.023	406.8
408.401	385.33
408.779	402.5
409.156	409.06
409.534	395.05
409.912	398.21
410.29	416.06
410.667	418.77
411.045	434.37
411.422	418.55
411.8	432.11
412.178	429.62
412.555	429.4
412.933	428.49
413.31	415.84
413.687	447.02
414.065	444.54
414.442	434.82
414.819	437.98
415.197	461.26
415.574	451.77
415.951	440.92
416.328	422.16
416.705	447.93
417.082	455.84
417.46	451.09
417.837	440.02
418.214	444.08
418.591	478.43
418.967	473.01
419.344	464.65
419.721	469.39
420.098	460.36
420.475	464.42
420.852	456.97
421.228	466.46
421.605	465.33
421.982	489.96
422.358	463.52
422.735	477.3
423.111	460.13
423.488	469.17
423.864	483.41
424.241	498.77
424.617	477.98
424.994	491.54
425.37	467.81
425.746	488.15
426.123	488.38
426.499	501.26
426.875	505.1
427.251	487.7
427.627	510.52
428.003	508.49
428.379	513.46
428.756	514.59
429.132	541.26
429.507	524.08
429.883	531.54
430.259	531.09
430.635	532.67
431.011	516.4
431.387	541.03
431.763	534.48
432.138	528.15
432.514	560.69
432.89	528.15
433.265	550.52
433.641	581.03
434.016	562.05
434.392	553.69
434.767	544.19
435.143	561.6
435.518	564.76
435.894	592.78
436.269	588.71
436.644	563.63
437.02	584.87
437.395	599.56
437.77	595.04
438.145	593.23
438.52	600.01
438.895	598.88
439.271	599.11
439.646	605.21
440.021	595.27
440.395	605.21
440.77	609.96
441.145	623.74
441.52	615.83
441.895	631.88
442.27	625.1
442.645	622.38
443.019	636.17
443.394	632.78
443.769	640.24
444.143	639.79
444.518	621.93
444.892	661.48
445.267	650.63
445.641	640.01
446.016	637.98
446.39	628.03
446.764	677.07
447.139	682.27
447.513	659.45
447.887	657.41
448.262	638.2
448.636	674.13
449.01	654.7
449.384	689.73
449.758	700.8
450.132	683.17
450.506	677.07
450.88	705.77
451.254	683.17
451.628	714.13
452.002	699.44
452.376	712.33
452.75	682.95
453.123	685.21
453.497	700.12
453.871	712.33
454.244	738.99
454.618	733.57
454.992	736.28
455.365	730.86
455.739	736.05
456.112	745.55
456.486	765.88
456.859	760.91
457.232	761.59
457.606	771.08
457.979	780.57
458.352	789.16
458.725	806.33
459.099	818.54
459.472	804.98
459.845	808.59
460.218	818.99
460.591	811.98
460.964	805.88
461.337	821.93
461.71	845.66
462.083	875.03
462.456	850.18
462.829	870.97
463.201	888.14
463.574	880.01
463.947	882.49
464.32	886.56
464.692	885.2
465.065	894.92
465.438	922.72
465.81	911.87
466.183	938.08
466.555	958.2
466.928	949.16
467.3	949.61
467.672	950.06
468.045	984.41
468.417	971.3
468.789	964.75
469.161	970.4
469.534	982.83
469.906	1042.49
470.278	1012.43
470.65	1023.05
471.022	1040.9
471.394	1071.64
471.766	1051.3
472.138	1074.12
472.51	1080.9
472.882	1092.65
473.253	1098.98
473.625	1127.23
473.997	1134.01
474.369	1114.35
474.74	1141.92
475.112	1159.55
475.484	1178.53
475.855	1186.44
476.227	1181.92
476.598	1218.53
476.97	1232.31
477.341	1232.54
477.713	1231.41
478.084	1273.22
478.455	1316.6
478.827	1335.59
479.198	1327.68
479.569	1338.3
479.94	1368.35
480.311	1358.86
480.682	1391.4
481.053	1425.75
481.424	1426.88
481.795	1442.48
482.166	1446.09
482.537	1459.88
482.908	1484.06
483.279	1501.23
483.65	1528.58
484.021	1558.18
484.391	1550.95
484.762	1562.25
485.133	1584.85
485.503	1605.41
485.874	1646.76
486.244	1652.64
486.615	1652.87
486.985	1673.43
487.356	1725.41
487.726	1735.58
488.097	1748.46
488.467	1762.24
488.837	1797.27
489.207	1805.18
489.578	1802.69
489.948	1835.91
490.318	1856.7
490.688	1863.03
491.058	1906.87
491.428	1914.1
491.798	1915.91
492.168	1913.65
492.538	1953.88
492.908	1976.25
493.278	1992.74
493.648	1992.07
494.017	2016.7
494.387	2054.21
494.757	2063.7
495.126	2056.47
495.496	2078.17
495.866	2060.09
496.235	2084.04
496.605	2080.65
496.974	2110.93
497.344	2128.56
497.713	2145.28
498.082	2166.52
498.452	2207.88
498.821	2193.64
499.19	2240.42
499.559	2242.23
499.928	2256.24
500.298	2244.49
500.667	2262.12
501.036	2250.14
501.405	2270.25
501.774	2277.26
502.143	2327.88
502.512	2321.32
502.88	2277.26
503.249	2380.98
503.618	2311.83
503.987	2362
504.356	2391.38
504.724	2352.73
505.093	2410.59
505.462	2440.42
505.83	2411.26
506.199	2449.23
506.567	2447.65
506.936	2499.85
507.304	2514.99
507.672	2506.18
508.041	2535.78
508.409	2553.18
508.777	2562.67
509.145	2570.58
509.514	2576.68
509.882	2584.14
510.25	2593.86
510.618	2628.21
510.986	2659.85
511.354	2663.24
511.722	2669.34
512.09	2703.01
512.458	2697.36
512.826	2703.91
513.193	2719.73
513.561	2718.83
513.929	2756.34
514.297	2752.27
514.664	2800.86
515.032	2801.31
515.4	2828.65
515.767	2796.56
516.135	2832.27
516.502	2803.8
516.869	2921.99
517.237	2856.45
517.604	2926.05
517.972	2903.23
518.339	2981.42
518.706	2928.76
519.073	2988.65
519.44	2994.98
519.808	3026.39
520.175	2995.43
520.542	3056.45
520.909	3108.87
521.276	3106.84
521.643	3104.81
522.009	3123.11
522.376	3145.26
522.743	3169.89
523.11	3220.51
523.477	3244.24
523.843	3228.64
524.21	3300.51
524.577	3276.78
524.943	3302.77
525.31	3329.88
525.676	3375.08
526.043	3352.48
526.409	3424.8
526.776	3406.49
527.142	3427.28
527.508	3455.76
527.874	3490.56
528.241	3511.35
528.607	3475.64
528.973	3553.61
529.339	3537.79
529.705	3569.65
530.071	3578.01
530.437	3593.15
530.803	3600.39
531.169	3686.03
531.535	3644.68
531.901	3703.43
532.267	3708.41
532.632	3662.76
532.998	3712.92
533.364	3772.58
533.73	3753.83
534.095	3764
534.461	3790.66
534.826	3821.17
535.192	3820.27
535.557	3839.25
535.923	3897.78
536.288	3849.42
536.653	3889.64
537.019	3891.68
537.384	3953.6
537.749	3965.57
538.114	3942.98
538.479	3986.14
538.845	3994.05
539.21	3995.86
539.575	3988.62
539.94	4002.18
540.305	4031.79
540.67	4051.9
541.034	4028.4
541.399	4044.22
541.764	4077.44
542.129	4105.23
542.494	4103.88
542.858	4091.67
543.223	4142.52
543.587	4147.94
543.952	4148.39
544.316	4152.01
544.681	4139.35
545.045	4188.17
545.41	4223.42
545.774	4255.74
546.138	4200.37
546.503	4239.01
546.867	4266.58
547.231	4306.36
547.595	4290.31
547.959	4323.08
548.324	4326.92
548.688	4323.08
549.052	4339.35
549.416	4363.08
549.779	4408.27
550.143	4388.16
550.507	4400.82
550.871	4439.01
551.235	4456.63
551.599	4456.63
551.962	4475.62
552.326	4476.29
552.689	4534.6
553.053	4523.75
553.417	4502.96
553.78	4566.46
554.143	4570.3
554.507	4610.3
554.87	4628.61
555.234	4651.88
555.597	4615.73
555.96	4659.79
556.323	4694.82
556.686	4710.64
557.05	4683.75
557.413	4769.17
557.776	4703.41
558.139	4803.97
558.502	4787.02
558.865	4797.64
559.228	4886.91
559.59	4862.95
559.953	4905.66
560.316	4938.43
560.679	4931.2
561.041	4979.11
561.404	5010.07
561.767	4992.21
562.129	4971.65
562.492	5089.84
562.854	5060.01
563.217	5093
563.579	5076.96
563.941	5140.23
564.304	5153.79
564.666	5202.6
565.028	5192.21
565.39	5252.09
565.753	5244.18
566.115	5225.2
566.477	5289.15
566.839	5337.52
567.201	5332.09
567.563	5331.87
567.925	5394.69
568.287	5323.73
568.648	5372.99
569.01	5420.68
569.372	5451.41
569.734	5446.21
570.095	5492.99
570.457	5521.46
570.819	5511.75
571.18	5523.27
571.542	5549.03
571.903	5542.71
572.265	5578.41
572.626	5659.09
572.987	5617.96
573.349	5634.91
573.71	5622.48
574.071	5694.79
574.432	5697.96
574.794	5720.33
575.155	5704.06
575.516	5744.28
575.877	5756.49
576.238	5758.29
576.599	5764.4
576.96	5747
577.32	5808.01
577.681	5831.74
578.042	5835.36
578.403	5815.92
578.763	5855.24
579.124	5827.22
579.485	5831.29
579.845	5879.42
580.206	5896.82
580.566	5778.63
580.927	5843.72
581.287	5925.75
581.648	5936.14
582.008	5957.39
582.368	5936.82
582.728	5972.07
583.089	5865.41
583.449	5919.19
583.809	5942.02
584.169	5947.89
584.529	5932.75
584.889	6031.51
585.249	5942.92
585.609	5908.12
585.969	5939.53
586.329	5904.28
586.688	6019.76
587.048	5954.67
587.408	5973.66
587.768	5924.62
588.127	5933.43
588.487	5916.48
588.846	5994.45
589.206	5894.11
589.565	5949.93
589.925	5976.14
590.284	5941.34
590.643	5977.95
591.003	5964.84
591.362	6001.68
591.721	5912.87
592.08	5991.96
592.44	5983.15
592.799	5956.48
593.158	5991.74
593.517	5962.58
593.876	5961.23
594.235	5972.07
594.593	5990.38
594.952	5951.74
595.311	5940.89
595.67	5949.02
596.029	5947.44
596.387	6049.36
596.746	6039.42
597.104	6037.84
597.463	6027.89
597.822	6046.65
598.18	5975.24
598.538	6008.91
598.897	6059.53
599.255	6082.35
599.613	6070.38
599.972	6045.97
600.33	6064.05
600.688	6062.92
601.046	6061.11
601.404	6106.31
601.762	6099.08
602.12	6122.58
602.478	6073.77
602.836	6087.1
603.194	6092.98
603.552	6088.68
603.91	6065.18
604.268	6170.71
604.625	6078.51
604.983	6134.1
605.341	6109.47
605.698	6147.21
606.056	6079.64
606.413	6094.78
606.771	6116.25
607.128	6152.18
607.485	6064.05
607.843	6137.27
608.2	6169.58
608.557	6179.98
608.914	6161.45
609.272	6184.95
609.629	6231.28
609.986	6180.66
610.343	6209.13
610.7	6215.68
611.057	6200.77
611.414	6186.53
611.771	6226.53
612.127	6238.96
612.484	6200.77
612.841	6254.1
613.198	6291.16
613.554	6264.27
613.911	6322.8
614.267	6308.79
614.624	6320.09
614.98	6296.59
615.337	6373.19
615.693	6381.56
616.05	6357.15
616.406	6387.43
616.762	6431.27
617.118	6427.43
617.475	6410.93
617.831	6443.02
618.187	6453.87
618.543	6416.81
618.899	6503.59
619.255	6466.3
619.611	6425.17
619.967	6487.77
620.323	6511.27
620.678	6455
621.034	6468.33
621.39	6420.42
621.746	6401.67
622.101	6494.32
622.457	6475.56
622.812	6431.95
623.168	6424.94
623.523	6434.21
623.879	6403.48
624.234	6327.32
624.589	6341.1
624.945	6304.72
625.3	6372.74
625.655	6347.88
626.01	6325.06
626.365	6315.79
626.72	6318.05
627.075	6282.57
627.43	6320.54
627.785	6226.31
628.14	6235.12
628.495	6331.16
628.85	6277.83
629.205	6207.32
629.559	6287.32
629.914	6309.24
630.269	6269.24
630.623	6292.74
630.978	6304.72
631.332	6275.8
631.687	6304.5
632.041	6361.44
632.396	6283.25
632.75	6273.54
633.104	6346.3
633.459	6319.41
633.813	6320.31
634.167	6294.55
634.521	6328.45
634.875	6374.55
635.229	6336.36
635.583	6385.85
635.937	6323.93
636.291	6330.94
636.645	6311.73
636.999	6302.01
637.352	6363.7
637.706	6301.11
638.06	6327.55
638.413	6300.88
638.767	6307.66
639.121	6274.89
639.474	6255.23
639.828	6256.36
640.181	6337.71
640.534	6298.85
640.888	6295.68
641.241	6243.03
641.594	6255.46
641.947	6220.66
642.301	6223.14
642.654	6160.77
643.007	6182.69
643.36	6163.48
643.713	6168.45
644.066	6213.2
644.419	6100.66
644.771	6003.26
645.124	5973.88
645.477	6008.68
645.83	5939.53
646.182	5955.58
646.535	5923.26
646.888	5956.71
647.24	5947.89
647.593	5899.31
647.945	5891.85
648.298	5915.58
648.65	5860.67
649.002	5861.8
649.355	5898.18
649.707	5882.81
650.059	5839.42
650.411	5892.98
650.763	5973.2
651.115	6027.44
651.467	5973.66
651.819	6016.82
652.171	5955.13
652.523	6005.52
652.875	5987.89
653.227	5966.65
653.578	6019.31
653.93	5967.55
654.282	5986.76
654.633	5950.15
654.985	5954.67
655.337	5978.18
655.688	5972.07
656.039	5982.02
656.391	5976.14
656.742	5966.65
657.094	5996.93
657.445	6044.62
657.796	6002.81
658.147	5988.8
658.498	5998.51
658.849	5997.61
659.2	5960.32
659.551	5973.43
659.902	5936.14
660.253	5930.04
660.604	5904.96
660.955	5869.93
661.306	5883.94
661.656	5885.52
662.007	5904.73
662.358	5855.24
662.708	5883.49
663.059	5897.27
663.409	5792.19
663.76	5889.36
664.11	5856.82
664.461	5848.01
664.811	5831.74
665.161	5849.14
665.511	5809.59
665.862	5818.18
666.212	5804.62
666.562	5834.23
666.912	5766.2
667.262	5811.63
667.612	5842.13
667.962	5772.98
668.312	5779.54
668.662	5848.69
669.011	5793.32
669.361	5815.02
669.711	5811.4
670.06	5847.78
670.41	5842.36
670.76	5835.58
671.109	5836.03
671.459	5795.13
671.808	5908.8
672.157	5819.76
672.507	5814.34
672.856	5786.99
673.205	5786.99
673.554	5871.51
673.904	5812.53
674.253	5901.12
674.602	5832.19
674.951	5784.96
675.3	5782.7
675.649	5875.13
675.998	5874.68
676.346	5881.68
676.695	5839.42
677.044	5819.76
677.393	5867.22
677.741	5850.04
678.09	5819.76
678.438	5847.78
678.787	5834.45
679.135	5858.18
679.484	5790.61
679.832	5775.7
680.181	5780.89
680.529	5755.13
680.877	5763.27
681.225	5759.65
681.573	5798.52
681.922	5682.82
682.27	5666.77
682.618	5700.67
682.966	5655.47
683.314	5612.99
683.661	5554.46
684.009	5572.76
684.357	5604.85
684.705	5557.17
685.053	5553.78
685.4	5585.64
685.748	5466.55
686.095	5549.71
686.443	5503.84
686.79	5504.06
687.138	5474.91
687.485	5500.45
687.832	5420.45
688.18	5430.62
688.527	5465.42
688.874	5426.78
689.221	5421.35
689.568	5405.08
689.915	5356.05
690.262	5380.45
690.609	5379.1
690.956	5390.62
691.303	5344.75
691.65	5366.21
691.997	5344.52
692.344	5319.21
692.69	5335.93
693.037	5337.97
693.383	5321.7
693.73	5314.69
694.077	5280.79
694.423	5273.11
694.769	5326.22
695.116	5267.46
695.462	5283.05
695.808	5269.04
696.155	5350.17
696.501	5240.57
696.847	5230.85
697.193	5236.73
697.539	5262.04
697.885	5228.14
698.231	5210.96
698.577	5182.04
698.923	5252.32
699.269	5167.12
699.614	5191.76
699.96	5143.17
700.306	5133
700.651	5148.14
700.997	5082.61
701.342	5062.49
701.688	5092.1
702.033	5095.71
702.379	5068.14
702.724	5037.41
703.069	5071.53
703.415	4990.41
703.76	4979.33
704.105	4977.52
704.45	4958.32
704.795	4975.72
705.14	4928.03
705.485	5007.35
705.83	4939.56
706.175	4899.79
706.52	4884.65
706.865	4868.6
707.209	4884.65
707.554	4815.95
707.899	4839.45
708.243	4773.46
708.588	4767.81
708.932	4784.08
709.277	4781.82
709.621	4770.07
709.966	4768.94
710.31	4745.21
710.654	4746.34
710.998	4707.25
711.342	4739.56
711.687	4697.76
712.031	4719
712.375	4660.24
712.719	4662.28
713.063	4663.18
713.407	4676.06
713.75	4650.98
714.094	4642.39
714.438	4634.93
714.782	4643.3
715.125	4662.5
715.469	4626.57
715.812	4582.51
716.156	4575.05
716.499	4591.77
716.843	4621.15
717.186	4587.48
717.53	4637.87
717.873	4586.57
718.216	4591.77
718.559	4560.13
718.902	4515.84
719.246	4566.91
719.589	4540.02
719.932	4546.58
720.275	4585.9
720.617	4535.28
720.96	4533.69
721.303	4525.11
721.646	4512.45
721.989	4474.03
722.331	4550.87
722.674	4547.48
723.016	4475.16
723.359	4515.39
723.701	4435.39
724.044	4484.43
724.386	4465.22
724.729	4479.68
725.071	4453.7
725.413	4429.97
725.755	4432.23
726.097	4402.17
726.439	4420.48
726.782	4380.03
727.124	4401.04
727.465	4378.22
727.807	4390.87
728.149	4408.27
728.491	4356.75
728.833	4344.55
729.175	4300.71
729.516	4342.96
729.858	4258
730.199	4319.24
730.541	4330.54
730.882	4330.08
731.224	4277.43
731.565	4278.56
731.906	4243.98
732.248	4264.32
732.589	4236.75
732.93	4272.01
733.271	4276.07
733.612	4211.44
733.953	4244.89
734.294	4197.21
734.635	4197.66
734.976	4219.35
735.317	4222.74
735.658	4218.67
735.999	4208.05
736.339	4168.28
736.68	4209.18
737.021	4182.74
737.361	4174.61
737.702	4212.8
738.042	4170.09
738.383	4153.37
738.723	4155.17
739.063	4155.4
739.404	4153.37
739.744	4112.01
740.084	4072.46
740.424	4085.8
740.764	4135.06
741.104	4125.57
741.444	4087.6
741.784	4098.23
742.124	4132.12
742.464	4128.96
742.804	4092.8
743.143	4090.99
743.483	4087.15
743.823	4094.61
744.162	4080.82
744.502	4040.6
744.841	4064.55
745.181	4055.97
745.52	4025.23
745.86	4082.63
746.199	4062.97
746.538	4058
746.877	4033.82
747.216	4080.15
747.556	4048.06
747.895	4057.1
748.234	4037.44
748.573	4008.28
748.911	4017.55
749.25	4019.13
749.589	4036.31
749.928	4035.85
750.267	4028.85
750.605	4016.65
750.944	3968.96
751.283	3971.9
751.621	4020.94
751.96	3911.79
752.298	3949.98
752.636	3958.79
752.975	3911.79
753.313	3922.19
753.651	3919.7
753.989	3948.17
754.327	3952.01
754.666	3892.81
755.004	3889.64
755.342	3904.33
755.679	3897.55
756.017	3857.1
756.355	3901.17
756.693	3831.57
757.031	3840.38
757.368	3864.11
757.706	3811.23
758.044	3828.4
758.381	3828.18
758.719	3809.65
759.056	3794.5
759.394	3799.48
759.731	3768.74
760.068	3785.47
760.405	3721.96
760.743	3735.3
761.08	3755.18
761.417	3716.77
761.754	3682.64
762.091	3723.55
762.428	3698.69
762.765	3697.78
763.102	3709.08
763.438	3676.77
763.775	3651.46
764.112	3630.22
764.449	3637.45
764.785	3648.75
765.122	3604.91
765.458	3615.07
765.795	3561.74
766.131	3625.47
766.467	3573.27
766.804	3557.67
767.14	3544.12
767.476	3539.82
767.812	3511.57
768.148	3502.31
768.485	3513.61
768.821	3490.78
769.157	3480.39
769.492	3472.48
769.828	3460.28
770.164	3427.51
770.5	3412.82
770.836	3394.52
771.171	3443.78
