Data from foam_black_FLMS001491_00099.txt Node
Date: Wed Feb 08 10:45:06 GMT 2017
User: dcchb
Spectrometer: FLMS00149
Trigger mode: 0
Integration Time (sec): 2.000000E-2
Scans to average: 10
Electric dark correction enabled: true
Nonlinearity correction enabled: false
Boxcar width: 0
XAxis mode: Wavelengths
Number of Pixels in Spectrum: 2048
>>>>>Begin Spectral Data<<<<<
341.393	-11.58
341.776	-11.58
342.16	-11.58
342.543	-58.36
342.927	-58.59
343.31	-54.97
343.693	-83.9
344.077	-59.72
344.46	-70.34
344.843	-51.13
345.226	-33.95
345.61	-32.15
345.993	-7.29
346.376	1.98
346.759	-1.19
347.142	21.64
347.525	40.39
347.908	62.31
348.291	91.01
348.674	74.52
349.057	102.77
349.44	127.62
349.823	131.92
350.206	156.55
350.588	188.87
350.971	197.68
351.354	204.68
351.737	208.07
352.119	212.14
352.502	235.19
352.884	254.4
353.267	264.57
353.65	276.09
354.032	272.25
354.414	256.21
354.797	309.77
355.179	281.74
355.562	293.27
355.944	323.1
356.326	307.51
356.709	297.11
357.091	300.73
357.473	322.87
357.855	325.36
358.238	294.63
358.62	311.8
359.002	325.13
359.384	304.34
359.766	316.55
360.148	326.94
360.53	325.81
360.912	322.87
361.294	316.09
361.676	282.42
362.057	298.01
362.439	302.08
362.821	307.51
363.203	324.68
363.584	305.92
363.966	302.31
364.348	307.51
364.729	303.21
365.111	305.25
365.493	312.93
365.874	292.37
366.256	288.52
366.637	280.39
367.019	298.47
367.4	274.96
367.781	293.95
368.163	293.5
368.544	284.68
368.925	286.26
369.306	291.01
369.688	284.23
370.069	283.78
370.45	277
370.831	272.48
371.212	286.26
371.593	294.17
371.974	279.03
372.355	293.95
372.736	295.98
373.117	283.33
373.498	287.62
373.879	282.87
374.26	288.75
374.641	291.46
375.021	296.88
375.402	288.52
375.783	295.08
376.163	253.95
376.544	288.3
376.925	300.73
377.305	300.95
377.686	280.84
378.066	291.91
378.447	293.95
378.827	292.37
379.208	293.72
379.588	285.36
379.968	283.33
380.349	296.21
380.729	294.17
381.109	319.94
381.489	289.88
381.87	288.3
382.25	300.95
382.63	309.09
383.01	291.24
383.39	297.34
383.77	298.01
384.15	293.27
384.53	317.22
384.91	278.58
385.29	284.91
385.67	315.42
386.049	316.55
386.429	303.89
386.809	297.56
387.189	311.12
387.568	304.57
387.948	299.6
388.328	290.56
388.707	306.15
389.087	311.57
389.466	317.68
389.846	297.34
390.225	303.21
390.605	304.12
390.984	317.45
391.363	312.48
391.743	308.64
392.122	303.44
392.501	312.03
392.881	312.25
393.26	302.76
393.639	330.1
394.018	311.8
394.397	346.6
394.776	305.92
395.155	325.58
395.534	322.65
395.913	308.86
396.292	326.04
396.671	316.09
397.05	304.34
397.429	321.07
397.808	331.23
398.186	321.07
398.565	305.7
398.944	315.87
399.323	305.7
399.701	327.84
400.08	318.58
400.458	305.92
400.837	331.69
401.215	320.84
401.594	319.71
401.972	326.71
402.351	337.56
402.729	350.22
403.107	330.56
403.486	317.9
403.864	334.4
404.242	328.75
404.62	334.4
404.999	327.39
405.377	331.69
405.755	333.04
406.133	322.42
406.511	327.62
406.889	310.44
407.267	335.75
407.645	315.42
408.023	345.25
408.401	336.21
408.779	333.27
409.156	341.4
409.534	324.45
409.912	342.76
410.29	328.97
410.667	355.64
411.045	337.79
411.422	361.29
411.8	340.05
412.178	361.06
412.555	336.66
412.933	354.96
413.31	347.28
413.687	351.8
414.065	356.09
414.442	347.5
414.819	342.99
415.197	338.01
415.574	342.31
415.951	350.22
416.328	346.6
416.705	362.87
417.082	373.49
417.46	362.19
417.837	360.16
418.214	372.36
418.591	360.84
418.967	378.24
419.344	354.28
419.721	374.85
420.098	370.33
420.475	364.91
420.852	360.39
421.228	368.75
421.605	362.19
421.982	373.94
422.358	371.23
422.735	385.7
423.111	387.96
423.488	371.01
423.864	368.07
424.241	395.41
424.617	393.15
424.994	356.77
425.37	377.11
425.746	357.67
426.123	390.44
426.499	390.67
426.875	399.93
427.251	403.1
427.627	385.47
428.003	395.87
428.379	392.02
428.756	400.61
429.132	398.13
429.507	374.85
429.883	377.33
430.259	390.44
430.635	412.81
431.011	393.61
431.387	412.14
431.763	403.77
432.138	395.87
432.514	407.39
432.89	404.45
433.265	401.74
433.641	409.65
434.016	399.71
434.392	396.09
434.767	420.27
435.143	397.45
435.518	393.15
435.894	411.91
436.269	429.76
436.644	427.73
437.02	398.35
437.395	418.46
437.77	406.26
438.145	442.19
438.52	415.3
438.895	444.68
439.271	418.46
439.646	429.31
440.021	413.94
440.395	430.67
440.77	425.02
441.145	455.3
441.52	440.16
441.895	442.42
442.27	449.88
442.645	426.37
443.019	446.71
443.394	451.46
443.769	425.02
444.143	439.03
444.518	451.68
444.892	460.27
445.267	450.55
445.641	444.68
446.016	456.65
446.39	450.55
446.764	455.07
447.139	446.49
447.513	475.64
447.887	467.28
448.262	455.98
448.636	443.32
449.01	458.01
449.384	468.41
449.758	459.14
450.132	467.5
450.506	457.33
450.88	465.24
451.254	455.75
451.628	458.01
452.002	476.77
452.376	466.82
452.75	477.45
453.123	463.66
453.497	478.35
453.871	476.54
454.244	492.13
454.618	488.07
454.992	486.71
455.365	481.96
455.739	489.2
456.112	487.61
456.486	498.91
456.859	474.73
457.232	500.95
457.606	503.21
457.979	507.5
458.352	489.87
458.725	505.47
459.099	514.96
459.472	503.43
459.845	506.82
460.218	514.05
460.591	514.51
460.964	513.83
461.337	531.91
461.71	507.73
462.083	551.34
462.456	529.65
462.829	545.24
463.201	544.34
463.574	534.84
463.947	552.02
464.32	552.25
464.692	542.08
465.065	538.69
465.438	551.12
465.81	580.04
466.183	572.36
466.555	569.65
466.928	577.56
467.3	553.38
467.672	589.31
468.045	606.93
468.417	592.47
468.789	578.69
469.161	602.19
469.534	583.66
469.906	595.18
470.278	597.44
470.65	608.74
471.022	625.92
471.394	629.31
471.766	620.72
472.138	629.53
472.51	629.31
472.882	652.13
473.253	641.51
473.625	645.58
473.997	643.09
474.369	649.19
474.74	648.06
475.112	649.64
475.484	657.1
475.855	679.02
476.227	672.47
476.598	672.24
476.97	682.64
477.341	699.36
477.713	682.64
478.084	707.95
478.455	706.14
478.827	698.91
479.198	725.35
479.569	725.57
479.94	713.37
480.311	755.63
480.682	736.2
481.053	756.76
481.424	793.37
481.795	786.36
482.166	758.79
482.537	787.27
482.908	801.96
483.279	804.67
483.65	806.48
484.021	830.43
484.391	805.12
484.762	835.4
485.133	832.01
485.503	844.89
485.874	851.45
486.244	866.36
486.615	879.02
486.985	887.15
487.356	866.14
487.726	886.25
488.097	893.93
488.467	907.94
488.837	914.95
489.207	920.15
489.578	905.46
489.948	937.32
490.318	945.68
490.688	953.36
491.058	962.86
491.428	961.05
491.798	992.69
492.168	998.79
492.538	985.68
492.908	1003.31
493.278	1007.6
493.648	1007.83
494.017	996.75
494.387	1041.27
494.757	1028.84
495.126	1033.14
495.496	1043.76
495.866	1028.62
496.235	1039.92
496.605	1064.55
496.974	1079.01
497.344	1052.57
497.713	1088.95
498.082	1064.1
498.452	1081.72
498.821	1072.01
499.19	1089.41
499.559	1094.6
499.928	1081.05
500.298	1069.97
500.667	1128.73
501.036	1137.77
501.405	1104.32
501.774	1121.27
502.143	1145.45
502.512	1128.28
502.88	1120.14
503.249	1128.28
503.618	1173.47
503.987	1153.59
504.356	1151.1
504.724	1150.2
505.093	1134.6
505.462	1181.83
505.83	1156.07
506.199	1178.22
506.567	1173.47
506.936	1195.17
507.304	1201.72
507.672	1201.95
508.041	1213.02
508.409	1213.47
508.777	1206.47
509.145	1221.38
509.514	1244.66
509.882	1231.32
510.25	1248.72
510.618	1236.97
510.986	1222.74
511.354	1256.86
511.722	1266.8
512.09	1281.72
512.458	1259.35
512.826	1272.45
513.193	1305.22
513.561	1324.65
513.929	1344.99
514.297	1347.93
514.664	1333.02
515.032	1370.08
515.4	1366.69
515.767	1352.68
516.135	1367.82
516.502	1371.66
516.869	1382.51
517.237	1397.19
517.604	1368.04
517.972	1430.41
518.339	1408.95
518.706	1398.32
519.073	1449.85
519.44	1418.21
519.808	1449.85
520.175	1432
520.542	1444.2
520.909	1490.75
521.276	1453.46
521.643	1477.19
522.009	1485.78
522.376	1492.11
522.743	1481.26
523.11	1523.29
523.477	1507.02
523.843	1539.11
524.21	1547.02
524.577	1543.41
524.943	1571.88
525.31	1570.98
525.676	1549.28
526.043	1547.47
526.409	1588.6
526.776	1603.52
527.142	1554.7
527.508	1584.31
527.874	1572.78
528.241	1573.91
528.607	1608.71
528.973	1638.09
529.339	1614.14
529.705	1655.04
530.071	1618.88
530.437	1608.26
530.803	1651.43
531.169	1643.29
531.535	1669.05
531.901	1659.11
532.267	1689.62
532.632	1686.9
532.998	1682.39
533.364	1673.57
533.73	1703.85
534.095	1731.42
534.461	1711.54
534.826	1712.44
535.192	1730.97
535.557	1746.56
535.923	1773.46
536.288	1764.64
536.653	1776.62
537.019	1793.12
537.384	1778.43
537.749	1775.04
538.114	1780.46
538.479	1814.13
538.845	1773.91
539.21	1793.79
539.575	1810.74
539.94	1869.27
540.305	1847.35
540.67	1865.88
541.034	1835.15
541.399	1864.98
541.764	1898.42
542.129	1897.97
542.494	1876.96
542.858	1938.42
543.223	1920.8
543.587	1949.5
543.952	1940.23
544.316	1915.6
544.681	1944.98
545.045	1901.14
545.41	1942.72
545.774	1964.41
546.138	1949.27
546.503	1966.9
546.867	1966.67
547.231	2014.58
547.595	2014.13
547.959	1961.47
548.324	2002.83
548.688	2027.01
549.052	2017.29
549.416	1984.98
549.779	2016.61
550.143	2030.62
550.507	2053.9
550.871	2045.77
551.235	2032.21
551.599	2021.81
551.962	2078.53
552.326	2024.98
552.689	2047.8
553.053	2053.9
553.417	2040.57
553.78	2069.49
554.143	2073.34
554.507	2080.11
554.87	2069.04
555.234	2096.39
555.597	2069.27
555.96	2090.96
556.323	2083.5
556.686	2086.44
557.05	2100.91
557.413	2098.65
557.776	2102.49
558.139	2118.08
558.502	2103.62
558.865	2104.97
559.228	2140.23
559.59	2134.58
559.953	2116.27
560.316	2140
560.679	2133.45
561.041	2158.76
561.404	2147.91
561.767	2190.17
562.129	2168.93
562.492	2224.74
562.854	2202.82
563.217	2204.18
563.579	2215.48
563.941	2208.47
564.304	2222.48
564.666	2231.75
565.028	2284.18
565.39	2281.69
565.753	2304.74
566.115	2315.36
566.477	2299.09
566.839	2325.53
567.201	2332.54
567.563	2349.49
567.925	2351.97
568.287	2399.65
568.648	2381.12
569.01	2384.51
569.372	2429.03
569.734	2375.7
570.095	2447.56
570.457	2408.02
570.819	2447.34
571.18	2469.03
571.542	2468.35
571.903	2515.36
572.265	2491.86
572.626	2536.83
572.987	2546.54
573.349	2558.97
573.71	2576.82
574.071	2564.85
574.432	2563.27
574.794	2574.34
575.155	2602.81
575.516	2585.41
575.877	2602.59
576.238	2604.85
576.599	2627.22
576.96	2598.75
577.32	2621.34
577.681	2615.02
578.042	2646.88
578.403	2634.68
578.763	2605.3
579.124	2603.94
579.485	2660.44
579.845	2673.09
580.206	2635.58
580.566	2646.88
580.927	2636.71
581.287	2642.81
581.648	2634.68
582.008	2614.34
582.368	2611.17
582.728	2636.48
583.089	2648.46
583.449	2632.19
583.809	2631.51
584.169	2635.13
584.529	2623.83
584.889	2652.3
585.249	2614.34
585.609	2669.25
585.969	2625.19
586.329	2623.38
586.688	2608.01
587.048	2608.24
587.408	2584.73
587.768	2615.92
588.127	2556.26
588.487	2572.53
588.846	2597.62
589.206	2552.64
589.565	2600.1
589.925	2560.1
590.284	2574.79
590.643	2598.29
591.003	2604.85
591.362	2622.47
591.721	2588.8
592.08	2575.92
592.44	2590.38
592.799	2589.25
593.158	2527.33
593.517	2566.43
593.876	2571.18
594.235	2557.62
594.593	2561.01
594.952	2549.71
595.311	2548.35
595.67	2585.41
596.029	2585.19
596.387	2586.54
596.746	2614.34
597.104	2589.25
597.463	2613.21
597.822	2604.17
598.18	2582.47
598.538	2646.2
598.897	2640.78
599.255	2597.62
599.613	2656.14
599.972	2634.45
600.33	2627.22
600.688	2614.56
601.046	2690.27
601.404	2666.09
601.762	2651.63
602.12	2670.16
602.478	2709.02
602.836	2675.35
603.194	2659.53
603.552	2699.53
603.91	2675.81
604.268	2712.41
604.625	2717.16
604.983	2672.87
605.341	2699.99
605.698	2692.53
606.056	2753.77
606.413	2754.67
606.771	2779.08
607.128	2712.41
607.485	2729.82
607.843	2770.94
608.2	2749.48
608.557	2840.09
608.914	2771.17
609.272	2749.25
609.629	2783.6
609.986	2816.82
610.343	2802.58
610.7	2791.06
611.057	2805.97
611.414	2789.47
611.771	2808.01
612.127	2815.69
612.484	2803.03
612.841	2791.51
613.198	2769.81
613.554	2817.27
613.911	2824.28
614.267	2837.83
614.624	2823.6
614.98	2826.31
615.337	2843.71
615.693	2841.45
616.05	2816.14
616.406	2845.07
616.762	2840.32
617.118	2838.51
617.475	2831.51
617.831	2853.65
618.187	2824.73
618.543	2787.89
618.899	2808.91
619.255	2796.71
619.611	2806.88
619.967	2780.66
620.323	2878.06
620.678	2816.82
621.034	2810.49
621.39	2789.7
621.746	2824.5
622.101	2794.67
622.457	2803.49
622.812	2802.81
623.168	2771.4
623.523	2776.59
623.879	2806.88
624.234	2784.96
624.589	2794.67
624.945	2789.7
625.3	2770.94
625.655	2813.65
626.01	2795.58
626.365	2795.58
626.72	2761
627.075	2771.4
627.43	2781.34
627.785	2744.05
628.14	2827.44
628.495	2775.92
628.85	2778.18
629.205	2740.89
629.559	2777.72
629.914	2762.36
630.269	2768.46
630.623	2756.93
630.978	2755.8
631.332	2754.45
631.687	2777.72
632.041	2773.66
632.396	2769.59
632.75	2739.76
633.104	2688.69
633.459	2742.92
633.813	2742.47
634.167	2722.81
634.521	2744.5
634.875	2722.81
635.229	2704.28
635.583	2742.7
635.937	2712.19
636.291	2746.09
636.645	2710.15
636.999	2704.28
637.352	2703.15
637.706	2747.89
638.06	2736.59
638.413	2685.97
638.767	2720.1
639.121	2715.8
639.474	2687.33
639.828	2705.64
640.181	2721.91
640.534	2714
640.888	2707.22
641.241	2694.11
641.594	2719.87
641.947	2676.71
642.301	2713.32
642.654	2734.56
643.007	2718.97
643.36	2678.74
643.713	2687.1
644.066	2716.03
644.419	2705.41
644.771	2656.82
645.124	2668.8
645.477	2657.27
645.83	2583.6
646.182	2661.12
646.535	2634.68
646.888	2661.57
647.24	2627.22
647.593	2671.06
647.945	2648.69
648.298	2671.51
648.65	2635.58
649.002	2622.47
649.355	2622.25
649.707	2636.03
650.059	2659.53
650.411	2666.77
650.763	2693.43
651.115	2680.33
651.467	2652.08
651.819	2685.75
652.171	2657.95
652.523	2665.64
652.875	2694.34
653.227	2666.31
653.578	2678.74
653.93	2662.47
654.282	2693.21
654.633	2643.72
654.985	2662.02
655.337	2684.39
655.688	2661.79
656.039	2652.08
656.391	2625.64
656.742	2663.38
657.094	2681.45
657.445	2668.8
657.796	2619.54
658.147	2633.32
658.498	2634.9
658.849	2625.86
659.2	2601.68
659.551	2615.92
659.902	2611.17
660.253	2632.19
660.604	2631.29
660.955	2600.78
661.306	2595.13
661.656	2644.62
662.007	2617.95
662.358	2604.85
662.708	2593.32
663.059	2590.84
663.409	2586.54
663.76	2645.75
664.11	2613.21
664.461	2584.96
664.811	2596.94
665.161	2588.12
665.511	2585.64
665.862	2574.57
666.212	2596.94
666.562	2601.91
666.912	2605.52
667.262	2601.46
667.612	2549.26
667.962	2576.82
668.312	2615.47
668.662	2580.67
669.011	2563.94
669.361	2597.16
669.711	2586.54
670.06	2550.61
670.41	2538.41
670.76	2573.44
671.109	2547.9
671.459	2627.67
671.808	2523.04
672.157	2571.85
672.507	2529.14
672.856	2541.57
673.205	2585.41
673.554	2547
673.904	2582.25
674.253	2547.22
674.602	2571.4
674.951	2528.24
675.3	2500.44
675.649	2566.88
675.998	2563.49
676.346	2551.51
676.695	2551.51
677.044	2549.71
677.393	2536.83
677.741	2535.7
678.09	2514.68
678.438	2554
678.787	2543.61
679.135	2517.17
679.484	2524.4
679.832	2546.32
680.181	2522.36
680.529	2540.44
680.877	2519.2
681.225	2501.8
681.573	2517.39
681.922	2490.05
682.27	2495.25
682.618	2475.13
682.966	2515.81
683.314	2535.02
683.661	2513.78
684.009	2450.95
684.357	2486.66
684.705	2491.86
685.053	2499.54
685.4	2494.34
685.748	2502.25
686.095	2452.31
686.443	2478.3
686.79	2481.46
687.138	2486.43
687.485	2440.11
687.832	2467
688.18	2447.56
688.527	2455.92
688.874	2452.99
689.221	2417.96
689.568	2457.05
689.915	2458.86
690.262	2423.61
690.609	2393.1
690.956	2417.06
691.303	2383.38
691.65	2423.61
691.997	2382.71
692.344	2377.51
692.69	2410.95
693.037	2375.02
693.383	2378.64
693.73	2386.1
694.077	2357.62
694.423	2362.82
694.769	2363.05
695.116	2370.73
695.462	2328.92
695.808	2285.08
696.155	2341.12
696.501	2337.51
696.847	2309.71
697.193	2325.98
697.539	2317.62
697.885	2306.55
698.231	2327.34
698.577	2308.81
698.923	2285.99
699.269	2287.57
699.614	2292.31
699.96	2284.18
700.306	2281.92
700.651	2286.44
700.997	2266.78
701.342	2268.81
701.688	2245.99
702.033	2221.35
702.379	2247.12
702.724	2239.88
703.069	2240.34
703.415	2223.84
703.76	2237.85
704.105	2239.88
704.45	2235.59
704.795	2204.86
705.14	2189.26
705.485	2180.23
705.83	2206.89
706.175	2164.18
706.52	2173.67
706.865	2196.95
707.209	2170.06
707.554	2158.08
707.899	2180.45
708.243	2163.95
708.588	2169.6
708.932	2163.5
709.277	2147.46
709.621	2170.51
709.966	2142.26
710.31	2145.2
710.654	2093
710.998	2097.29
711.342	2164.18
711.687	2126.44
712.031	2112.43
712.375	2125.99
712.719	2103.39
713.063	2085.54
713.407	2128.02
713.75	2114.46
714.094	2091.41
714.438	2101.13
714.782	2079.89
715.125	2086.89
715.469	2080.57
715.812	2055.26
716.156	2084.63
716.499	2039.44
716.843	2067.01
717.186	2087.57
717.53	2078.98
717.873	2107.01
718.216	2039.44
718.559	2058.42
718.902	2057.29
719.246	2045.09
719.589	2058.87
719.932	2029.49
720.275	2048.7
720.617	2054.8
720.96	2020.91
721.303	2065.2
721.646	2049.61
721.989	2044.86
722.331	2057.06
722.674	2047.35
723.016	2037.18
723.359	2027.69
723.701	2064.97
724.044	2044.18
724.386	2035.14
724.729	2012.32
725.071	2038.99
725.413	2003.73
725.755	2017.74
726.097	2025.88
726.439	2005.31
726.782	1992.43
727.124	2015.26
727.465	1987.01
727.807	2005.77
728.149	2002.6
728.491	1980.46
728.833	1983.39
729.175	1975.71
729.516	2005.77
729.858	1994.02
730.199	1967.8
730.541	1982.26
730.882	1976.39
731.224	1972.32
731.565	1984.75
731.906	1949.95
732.248	1963.96
732.589	1960.34
732.93	1939.55
733.271	1937.52
733.612	1974.58
733.953	1918.31
734.294	1921.25
734.635	1944.07
734.976	1962.6
735.317	1925.99
735.658	1931.19
735.999	1926.9
736.339	1898.42
736.68	1933.23
737.021	1930.29
737.361	1914.24
737.702	1917.86
738.042	1890.06
738.383	1909.5
738.723	1919.44
739.063	1916.96
739.404	1905.2
739.744	1914.24
740.084	1918.54
740.424	1904.98
740.764	1869.95
741.104	1908.37
741.444	1871.08
741.784	1898.2
742.124	1894.81
742.464	1899.55
742.804	1878.99
743.143	1919.22
743.483	1872.89
743.823	1902.27
744.162	1860.01
744.502	1867.69
744.841	1866.11
745.181	1873.79
745.52	1852.55
745.86	1870.4
746.199	1832.44
746.538	1847.8
746.877	1850.97
747.216	1851.42
747.556	1872.21
747.895	1861.82
748.234	1833.12
748.573	1811.65
748.911	1832.21
749.25	1836.96
749.589	1814.59
749.928	1815.49
750.267	1840.12
750.605	1823.62
750.944	1804.64
751.283	1818.43
751.621	1814.13
751.96	1793.57
752.298	1787.92
752.636	1797.18
752.975	1769.16
753.313	1803.51
753.651	1809.84
753.989	1794.47
754.327	1794.25
754.666	1769.84
755.004	1773.46
755.342	1798.31
755.679	1811.2
756.017	1735.94
756.355	1775.04
756.693	1779.56
757.031	1754.7
757.368	1758.99
757.706	1757.19
758.044	1747.69
758.381	1723.29
758.719	1740.46
759.056	1746.34
759.394	1726.23
759.731	1723.06
760.068	1732.55
760.405	1712.44
760.743	1732.1
761.08	1697.53
761.417	1699.79
761.754	1700.92
762.091	1701.82
762.428	1688.26
762.765	1680.8
763.102	1697.3
763.438	1672.22
763.775	1705.89
764.112	1692.1
764.449	1673.35
764.785	1660.24
765.122	1665.66
765.458	1663.85
765.795	1628.38
766.131	1664.08
766.467	1663.18
766.804	1625.89
767.14	1643.97
767.476	1614.14
767.812	1639.9
768.148	1633.35
768.485	1605.1
768.821	1625.66
769.157	1590.41
769.492	1601.03
769.828	1594.25
770.164	1565.33
770.5	1584.08
770.836	1597.87
771.171	1593.35
771.507	1588.38
771.842	1571.65
772.178	1584.53
772.513	1569.39
772.849	1580.47
