Data from foam2_polystyrene_foam_FLMS001491_00060.txt Node
Date: Wed Feb 08 10:58:11 GMT 2017
User: dcchb
Spectrometer: FLMS00149
Trigger mode: 0
Integration Time (sec): 2.000000E-2
Scans to average: 10
Electric dark correction enabled: true
Nonlinearity correction enabled: false
Boxcar width: 0
XAxis mode: Wavelengths
Number of Pixels in Spectrum: 2048
>>>>>Begin Spectral Data<<<<<
341.393	-30.08
341.776	-30.08
342.16	-30.08
342.543	-44.32
342.927	-59.46
343.31	-70.76
343.693	-55.17
344.077	-55.39
344.46	-68.73
344.843	-52.23
345.226	-40.48
345.61	-23.3
345.993	-13.81
346.376	-13.59
346.759	3.59
347.142	42.91
347.525	46.3
347.908	47.65
348.291	69.57
348.674	77.03
349.057	106.41
349.44	120.19
349.823	147.31
350.206	180.98
350.588	192.96
350.971	221.21
351.354	240.64
351.737	259.4
352.119	256.69
352.502	272.05
352.884	284.94
353.267	303.92
353.65	313.18
354.032	288.55
354.414	310.92
354.797	329.23
355.179	325.61
355.562	318.38
355.944	341.88
356.326	347.76
356.709	352.96
357.091	350.7
357.473	362.9
357.855	335.33
358.238	345.95
358.62	344.37
359.002	364.71
359.384	345.05
359.766	360.64
360.148	357.48
360.53	357.25
360.912	327.42
361.294	345.95
361.676	359.06
362.057	343.92
362.439	351.15
362.821	345.95
363.203	353.18
363.584	354.31
363.966	346.4
364.348	347.99
364.729	366.97
365.111	359.51
365.493	326.97
365.874	339.62
366.256	336.23
366.637	336.01
367.019	338.95
367.4	342.11
367.781	333.97
368.163	357.93
368.544	338.95
368.925	357.93
369.306	326.52
369.688	362.67
370.069	360.64
370.45	331.94
370.831	360.41
371.212	365.61
371.593	356.35
371.974	363.8
372.355	366.52
372.736	354.99
373.117	363.35
373.498	344.82
373.879	364.48
374.26	361.77
374.641	355.44
375.021	361.54
375.402	365.39
375.783	371.04
376.163	386.63
376.544	367.87
376.925	371.94
377.305	375.1
377.686	383.46
378.066	378.04
378.447	392.28
378.827	361.09
379.208	397.25
379.588	390.92
379.968	390.92
380.349	387.53
380.729	398.61
381.109	391.83
381.489	401.77
381.87	412.62
382.25	394.09
382.63	408.32
383.01	392.5
383.39	411.03
383.77	407.64
384.15	418.27
384.53	418.27
384.91	430.92
385.29	413.97
385.67	430.92
386.049	416.91
386.429	417.36
386.809	434.31
387.189	437.25
387.568	428.21
387.948	439.28
388.328	456.91
388.707	435.44
389.087	455.1
389.466	466.85
389.846	453.52
390.225	451.03
390.605	459.62
390.984	472.05
391.363	461.2
391.743	462.56
392.122	486.51
392.501	476.8
392.881	485.38
393.26	494.65
393.639	508.66
394.018	500.75
394.397	512.05
394.776	525.83
395.155	517.25
395.534	514.76
395.913	512.95
396.292	518.83
396.671	537.13
397.05	523.35
397.429	530.13
397.808	550.92
398.186	535.55
398.565	535.55
398.944	535.1
399.323	544.59
399.701	555.21
400.08	551.14
400.458	533.29
400.837	564.7
401.215	544.36
401.594	581.65
401.972	582.78
402.351	559.96
402.729	584.14
403.107	588.88
403.486	596.79
403.864	582.56
404.242	593.63
404.62	625.72
404.999	617.13
405.377	634.98
405.755	619.16
406.133	648.32
406.511	631.82
406.889	637.24
407.267	652.16
407.645	670.24
408.023	674.53
408.401	672.27
408.779	669.33
409.156	677.47
409.534	695.09
409.912	709.11
410.29	700.07
410.667	699.39
411.045	705.72
411.422	732.83
411.8	704.36
412.178	757.24
412.555	738.26
412.933	738.94
413.31	771.25
413.687	781.65
414.065	797.01
414.442	786.39
414.819	790.91
415.197	790.01
415.574	802.89
415.951	795.88
416.328	808.31
416.705	823.23
417.082	842.89
417.46	844.02
417.837	873.4
418.214	863.23
418.591	872.27
418.967	876.56
419.344	880.17
419.721	880.17
420.098	908.87
420.475	910.68
420.852	928.31
421.228	925.37
421.605	908.42
421.982	921.08
422.358	900.97
422.735	954.3
423.111	950.68
423.488	992.71
423.864	961.98
424.241	986.61
424.617	980.06
424.994	1012.37
425.37	1023.67
425.746	1027.74
426.123	1070.68
426.499	1029.55
426.875	1040.17
427.251	1048.53
427.627	1084.01
428.003	1109.32
428.379	1124.69
428.756	1085.37
429.132	1118.81
429.507	1148.19
429.883	1152.48
430.259	1170.56
430.635	1200.84
431.011	1194.29
431.387	1213.27
431.763	1228.87
432.138	1229.77
432.514	1244.01
432.89	1255.08
433.265	1281.97
433.641	1303.44
434.016	1324
434.392	1310.67
434.767	1358.13
435.143	1352.48
435.518	1375.3
435.894	1375.08
436.269	1388.86
436.644	1422.53
437.02	1410.1
437.395	1452.59
437.77	1443.55
438.145	1470.89
438.52	1453.72
438.895	1496.2
439.271	1486.26
439.646	1561.29
440.021	1569.2
440.395	1586.14
440.77	1566.03
441.145	1575.07
441.52	1625.47
441.895	1585.69
442.27	1596.99
442.645	1618.23
443.019	1655.97
443.394	1637.44
443.769	1656.43
444.143	1644
444.518	1676.99
444.892	1685.58
445.267	1671.57
445.641	1749.98
446.016	1740.72
446.39	1754.73
446.764	1794.95
447.139	1758.34
447.513	1801.96
447.887	1836.31
448.262	1802.18
448.636	1854.84
449.01	1846.02
449.384	1870.66
449.758	1862.07
450.132	1921.5
450.506	1926.93
450.88	1945.68
451.254	1943.2
451.628	1963.54
452.002	2005.12
452.376	2015.96
452.75	2022.29
453.123	2043.99
453.497	2040.14
453.871	2072.01
454.244	2103.42
454.618	2126.92
454.992	2171.89
455.365	2168.5
455.739	2240.14
456.112	2231.55
456.486	2226.35
456.859	2280.59
457.232	2274.49
457.606	2289.4
457.979	2328.05
458.352	2378.67
458.725	2365.79
459.099	2403.98
459.472	2473.58
459.845	2443.3
460.218	2458.44
460.591	2492.11
460.964	2516.97
461.337	2601.94
461.71	2591.77
462.083	2636.29
462.456	2645.1
462.829	2666.12
463.201	2709.05
463.574	2684.65
463.947	2722.84
464.32	2730.3
464.692	2800.8
465.065	2828.15
465.438	2895.26
465.81	2872.44
466.183	2911.53
466.555	3020.68
466.928	3006.45
467.3	3022.72
467.672	3053
468.045	3127.35
468.417	3146.78
468.789	3174.13
469.161	3236.04
469.534	3247.12
469.906	3337.51
470.278	3334.12
470.65	3411.18
471.022	3402.14
471.394	3506.77
471.766	3502.93
472.138	3589.71
472.51	3615.24
472.882	3683.04
473.253	3711.96
473.625	3720.1
473.997	3841.9
474.369	3865.41
474.74	3864.95
475.112	3945.4
475.484	4033.76
475.855	4142.91
476.227	4118.06
476.598	4241.44
476.97	4229.01
477.341	4394.66
477.713	4438.27
478.084	4502.68
478.455	4578.83
478.827	4607.76
479.198	4729.79
479.569	4737.93
479.94	4913.29
480.311	4915.55
480.682	5041.65
481.053	5117.35
481.424	5186.95
481.795	5241.42
482.166	5341.98
482.537	5371.81
482.908	5508.75
483.279	5537.91
483.65	5659.26
484.021	5790.1
484.391	5789.2
484.762	5892.92
485.133	5915.97
485.503	6023.77
485.874	6124.33
486.244	6199.81
486.615	6315.06
486.985	6414.72
487.356	6499.91
487.726	6517.77
488.097	6670.53
488.467	6671.43
488.837	6791.66
489.207	6883.63
489.578	7001.14
489.948	7048.37
490.318	7179.44
490.688	7206.11
491.058	7315.26
491.428	7420.57
491.798	7513.9
492.168	7608.59
492.538	7635.03
492.908	7785.53
493.278	7844.06
493.648	7871.86
494.017	7976.71
494.387	8039.08
494.757	8124.73
495.126	8192.07
495.496	8307.55
495.866	8361.11
496.235	8427.32
496.605	8519.75
496.974	8576.47
497.344	8618.28
497.713	8646.3
498.082	8708.44
498.452	8857.37
498.821	8889.46
499.19	8906.18
499.559	8955.44
499.928	9058.26
500.298	9151.82
500.667	9186.85
501.036	9272.5
501.405	9327.64
501.774	9352.04
502.143	9507.52
502.512	9533.05
502.88	9652.37
503.249	9622.09
503.618	9674.29
503.987	9717.68
504.356	9879.71
504.724	9826.83
505.093	9907.28
505.462	10007.17
505.83	10020.95
506.199	10123.55
506.567	10295.75
506.936	10275.86
507.304	10378.68
507.672	10458
508.041	10489.87
508.409	10588.39
508.777	10662.74
509.145	10707.03
509.514	10766.69
509.882	10901.15
510.25	10875.62
510.618	11035.84
510.986	11061.15
511.354	11159.23
511.722	11231.99
512.09	11320.13
512.458	11327.13
512.826	11444.42
513.193	11484.19
513.561	11565.77
513.929	11721.92
514.297	11781.58
514.664	11887.79
515.032	11943.61
515.4	12048.24
515.767	12071.97
516.135	12168.01
516.502	12105.42
516.869	12437.61
517.237	12405.75
517.604	12400.78
517.972	12511.96
518.339	12619.3
518.706	12711.73
519.073	12766.19
519.44	12899.75
519.808	12981.33
520.175	12963.7
520.542	13207.53
520.909	13202.79
521.276	13277.36
521.643	13466.74
522.009	13616.79
522.376	13689.56
522.743	13711.93
523.11	13831.7
523.477	13986.5
523.843	14064.91
524.21	14268.3
524.577	14344.23
524.943	14447.5
525.31	14518.01
525.676	14693.6
526.043	14714.39
526.409	14854.5
526.776	14955.06
527.142	15067.37
527.508	15160.93
527.874	15219.68
528.241	15366.8
528.607	15446.35
528.973	15567.92
529.339	15567.02
529.705	15685.66
530.071	15878.88
530.437	15851.76
530.803	16044.07
531.169	16077.06
531.535	16123.84
531.901	16148.25
532.267	16290.62
532.632	16322.48
532.998	16467.56
533.364	16555.69
533.73	16674.79
534.095	16762.24
534.461	16779.42
534.826	16798.85
535.192	16933.76
535.557	17094.21
535.923	17094.89
536.288	17171.27
536.653	17266.64
537.019	17296.47
537.384	17351.38
537.749	17472.28
538.114	17494.2
538.479	17503.24
538.845	17640.64
539.21	17671.6
539.575	17794.76
539.94	17799.05
540.305	17911.59
540.67	17926.05
541.034	17986.62
541.399	18061.19
541.764	18100.51
542.129	18232.71
542.494	18268.42
542.858	18296.21
543.223	18321.52
543.587	18489.2
543.952	18397.68
544.316	18581.4
544.681	18534.4
545.045	18693.27
545.41	18822.75
545.774	18816.2
546.138	18858.01
546.503	18990.66
546.867	18918.12
547.231	19141.39
547.595	19081.05
547.959	19262.06
548.324	19290.76
548.688	19280.14
549.052	19333.25
549.416	19462.06
549.779	19449.4
550.143	19521.04
550.507	19729.85
550.871	19862.95
551.235	19672.45
551.599	19860.92
551.962	19939.56
552.326	20018.43
552.689	20222.26
553.053	20158.54
553.417	20194.69
553.78	20457.06
554.143	20345.43
554.507	20516.27
554.87	20522.6
555.234	20800.78
555.597	20693.21
555.96	20771.4
556.323	20903.15
556.686	20964.62
557.05	21061.79
557.413	21114.9
557.776	21189.7
558.139	21300.88
558.502	21366.87
558.865	21329.13
559.228	21404.61
559.59	21583.13
559.953	21734.32
560.316	21896.57
560.679	21913.75
561.041	22046.17
561.404	22235.32
561.767	22353.06
562.129	22197.58
562.492	22487.74
562.854	22559.38
563.217	22559.6
563.579	22546.95
563.941	22747.62
564.304	22789.2
564.666	23029.65
565.028	23040.04
565.39	23158.91
565.753	23291.56
566.115	23395.51
566.477	23520.94
566.839	23532.23
567.201	23722.96
567.563	23732.91
567.925	23872.11
568.287	23991.43
568.648	23994.14
569.01	24137.64
569.372	24325.43
569.734	24216.74
570.095	24412.44
570.457	24442.94
570.819	24475.03
571.18	24538.99
571.542	24717.51
571.903	24665.31
572.265	24807
572.626	24816.95
572.987	24830.05
573.349	24985.08
573.71	25012.87
574.071	25082.02
574.432	25259.87
574.794	25339.64
575.155	25271.4
575.516	25254.45
575.877	25493.99
576.238	25477.27
576.599	25713.65
576.96	25564.27
577.32	25646.76
577.681	25748.67
578.042	25777.83
578.403	25735.79
578.763	25777.15
579.124	25879.07
579.485	25939.85
579.845	26058.5
580.206	25814.43
580.566	26008.33
580.927	25909.57
581.287	26155.67
581.648	25981.89
582.008	26147.31
582.368	26241.09
582.728	26172.84
583.089	26161.54
583.449	26164.71
583.809	26289.68
584.169	26181.2
584.529	25995.67
584.889	26265.27
585.249	26047.65
585.609	25968.78
585.969	26135.1
586.329	26167.42
586.688	26249.68
587.048	26267.3
587.408	26106.18
587.768	26158.61
588.127	26124.93
588.487	26067.31
588.846	26278.38
589.206	26128.1
589.565	26210.58
589.925	26290.81
590.284	26178.27
590.643	26393.18
591.003	26323.57
591.362	26298.04
591.721	26357.47
592.08	26347.98
592.44	26404.7
592.799	26320.64
593.158	26402.22
593.517	26334.42
593.876	26500.97
594.235	26398.83
594.593	26426.62
594.952	26446.06
595.311	26325.83
595.67	26374.65
596.029	26514.98
596.387	26472.04
596.746	26608.99
597.104	26405.61
597.463	26505.49
597.822	26522.44
598.18	26449.9
598.538	26552.95
598.897	26689.21
599.255	26503.68
599.613	26654.64
599.972	26639.72
600.33	26728.31
600.688	26610.57
601.046	26697.57
601.404	26817.57
601.762	26721.98
602.12	26868.64
602.478	27014.85
602.836	26961.3
603.194	26786.84
603.552	26885.14
603.91	26831.58
604.268	27059.83
604.625	26819.83
604.983	27063.67
605.341	26918.13
605.698	26994.74
606.056	27149.99
606.413	26948.87
606.771	27145.47
607.128	27229.99
607.485	27093.95
607.843	27002.88
608.2	27135.08
608.557	27291.23
608.914	27185.7
609.272	27336.43
609.629	27340.5
609.986	27411
610.343	27245.58
610.7	27573.71
611.057	27316.77
611.414	27387.27
611.771	27499.81
612.127	27532.36
612.484	27557.44
612.841	27607.16
613.198	27625.23
613.554	27568.96
613.911	27586.59
614.267	27674.27
614.624	27730.09
614.98	27705.91
615.337	27764.67
615.693	27844.89
616.05	27802.18
616.406	27904.1
616.762	27881.5
617.118	27878.33
617.475	27950.42
617.831	27985.45
618.187	27924.66
618.543	28023.19
618.899	28142.28
619.255	28087.59
619.611	28032
619.967	28166.01
620.323	28204.2
620.678	28072.68
621.034	28036.52
621.39	28075.84
621.746	28135.96
622.101	28289.62
622.457	28069.06
622.812	28105.9
623.168	28071.1
623.523	28003.76
623.879	28238.33
624.234	27976.86
624.589	27906.13
624.945	28196.97
625.3	28210.53
625.655	28055.28
626.01	28051.89
626.365	28042.62
626.72	27993.36
627.075	28024.32
627.43	28063.19
627.785	28069.06
628.14	27981.16
628.495	28031.33
628.85	27960.14
629.205	28080.59
629.559	28155.16
629.914	27965.79
630.269	27996.98
630.623	27952.46
630.978	27819.13
631.332	27927.15
631.687	27997.88
632.041	27862.97
632.396	27830.2
632.75	27803.31
633.104	27733.03
633.459	27604.67
633.813	27498.91
634.167	27625.23
634.521	27551.34
634.875	27632.24
635.229	27546.59
635.583	27438.57
635.937	27435.41
636.291	27491
636.645	27376.88
636.999	27281.51
637.352	27451.45
637.706	27265.47
638.06	27336.2
638.413	27206.71
638.767	27232.93
639.121	27201.74
639.474	27131.69
639.828	27143.21
640.181	27097.79
640.534	27115.42
640.888	27053.5
641.241	26830
641.594	26848.31
641.947	26964.01
642.301	26933.5
642.654	26800.62
643.007	26887.4
643.36	26737.12
643.713	26777.8
644.066	26749.1
644.419	26578.03
644.771	26470.91
645.124	26139.17
645.477	26202.45
645.83	25898.95
646.182	25872.96
646.535	25770.14
646.888	25938.95
647.24	25754.77
647.593	25829.12
647.945	25768.33
648.298	25653.08
648.65	25671.39
649.002	25531.73
649.355	25645.4
649.707	25548.23
650.059	25647.21
650.411	25867.09
650.763	25877.03
651.115	26229.11
651.467	26125.61
651.819	25993.41
652.171	26059.4
652.523	26003.36
652.875	26020.3
653.227	25844.26
653.578	26003.13
653.93	26002
654.282	25876.13
654.633	25831.38
654.985	25847.2
655.337	25863.47
655.688	25933.08
656.039	26077.48
656.391	25697.38
656.742	25817.37
657.094	25806.75
657.445	25966.52
657.796	25751.84
658.147	25637.94
658.498	25692.18
658.849	25700.31
659.2	25685.17
659.551	25675
659.902	25684.95
660.253	25558.85
660.604	25588.23
660.955	25603.37
661.306	25576.93
661.656	25601.78
662.007	25578.28
662.358	25516.59
662.708	25488.79
663.059	25398.63
663.409	25361.11
663.76	25524.5
664.11	25484.73
664.461	25446.08
664.811	25493.99
665.161	25417.38
665.511	25393.65
665.862	25356.37
666.212	25545.51
666.562	25382.36
666.912	25328.35
667.262	25433.43
667.612	25310.04
667.962	25408.8
668.312	25193.89
668.662	25449.92
669.011	25397.72
669.361	25416.7
669.711	25308.91
670.06	25246.54
670.41	25200.67
670.76	25101.01
671.109	25173.1
671.459	25220.1
671.808	25166.54
672.157	25284.28
672.507	25005.19
672.856	25124.28
673.205	25080.89
673.554	25112.76
673.904	24993.89
674.253	25152.76
674.602	25042.93
674.951	24627.57
675.3	24579.21
675.649	24946.21
675.998	24901.01
676.346	24915.25
676.695	25062.59
677.044	24800.68
677.393	24918.19
677.741	24959.99
678.09	24962.93
678.438	24840
678.787	24818.08
679.135	24865.76
679.484	24788.02
679.832	24822.37
680.181	24598.42
680.529	24812.65
680.877	24645.65
681.225	24530.4
681.573	24670.28
681.922	24501.93
682.27	24462.38
682.618	24432.1
682.966	24335.15
683.314	24509.61
683.661	24399.33
684.009	24230.07
684.357	24203.4
684.705	24173.8
685.053	24227.81
685.4	24204.53
685.748	24078.43
686.095	24056.74
686.443	23890.87
686.79	23954.6
687.138	23852.9
687.485	23814.26
687.832	23954.82
688.18	23860.81
688.527	23687.94
688.874	23651.55
689.221	23727.71
689.568	23634.6
689.915	23515.51
690.262	23527.49
690.609	23488.17
690.956	23366.81
691.303	23410.2
691.65	23364.56
691.997	23353.26
692.344	23158.68
692.69	23230.55
693.037	23117.33
693.383	22961.18
693.73	22870.1
694.077	22849.99
694.423	22929.99
694.769	22712.14
695.116	22759.83
695.462	22597.57
695.808	22648.64
696.155	22561.41
696.501	22441.87
696.847	22425.37
697.193	22365.49
697.539	22399.38
697.885	22142.21
698.231	22186.96
698.577	22020.64
698.923	22082.33
699.269	21910.58
699.614	21888.21
699.96	21755.56
700.306	21749.23
700.651	21622.91
700.997	21619.74
701.342	21525.96
701.688	21591.49
702.033	21492.29
702.379	21524.15
702.724	21427.88
703.069	21474.44
703.415	21183.37
703.76	21298.85
704.105	21176.59
704.45	21256.81
704.795	21113.31
705.14	20981.11
705.485	20994.45
705.83	21002.36
706.175	20926.88
706.52	20899.08
706.865	20883.26
707.209	20770.95
707.554	20659.32
707.899	20687.79
708.243	20570.28
708.588	20495.48
708.932	20354.24
709.277	20324.64
709.621	20380.9
709.966	20248.03
710.31	20356.95
710.654	20106.79
710.998	20206.45
711.342	20100.01
711.687	20051.87
712.031	19935.49
712.375	19921.03
712.719	19931.88
713.063	19795.84
713.407	19916.06
713.75	19773.46
714.094	19825.89
714.438	19652.56
714.782	19628.83
715.125	19615.95
715.469	19616.86
715.812	19572.34
716.156	19460.48
716.499	19457.09
716.843	19413.47
717.186	19410.76
717.53	19451.21
717.873	19365.11
718.216	19345.68
718.559	19260.93
718.902	19163.99
719.246	19149.07
719.589	19134.16
719.932	19054.84
720.275	19090.32
720.617	19080.6
720.96	19031.34
721.303	19086.25
721.646	19079.47
721.989	18831.12
722.331	18872.7
722.674	18840.83
723.016	18852.36
723.359	18781.85
723.701	18864.11
724.044	18638.8
724.386	18498.24
724.729	18572.14
725.071	18654.85
725.413	18544.12
725.755	18532.82
726.097	18490.33
726.439	18460.96
726.782	18295.54
727.124	18372.14
727.465	18354.97
727.807	18241.3
728.149	18321.52
728.491	18166.73
728.833	18260.73
729.175	18114.98
729.516	18133.28
729.858	18039.95
730.199	18005.37
730.541	17987.3
730.882	17999.95
731.224	18095.54
731.565	17976.22
731.906	17950.01
732.248	17885.6
732.589	17830.69
732.93	17849.67
733.271	17807.41
733.612	17839.05
733.953	17813.74
734.294	17731.48
734.635	17634.99
734.976	17715.44
735.317	17613.97
735.658	17618.94
735.999	17673.86
736.339	17683.57
736.68	17539.4
737.021	17551.15
737.361	17503.47
737.702	17566.74
738.042	17505.05
738.383	17470.92
738.723	17389.12
739.063	17355.22
739.404	17382.79
739.744	17326.75
740.084	17312.51
740.424	17368.55
740.764	17258.28
741.104	17287.43
741.444	17180.76
741.784	17163.81
742.124	17222.34
742.464	17118.84
742.804	17148.9
743.143	17032.52
743.483	16926.08
743.823	16828.91
744.162	16983.93
744.502	16913.2
744.841	16808.34
745.181	16868.45
745.52	16836.14
745.86	16754.33
746.199	16777.38
746.538	16685.86
746.877	16738.06
747.216	16719.98
747.556	16656.03
747.895	16661.45
748.234	16535.36
748.573	16497.39
748.911	16494.68
749.25	16436.15
749.589	16499.88
749.928	16423.49
750.267	16433.89
750.605	16315.02
750.944	16318.41
751.283	16266.21
751.621	16361.35
751.96	16211.3
752.298	16175.14
752.636	16127.68
752.975	16124.07
753.313	16027.35
753.651	16085.2
753.989	15908.48
754.327	15952.55
754.666	15848.59
755.004	15915.94
