Data from foam_black_FLMS001491_00091.txt Node
Date: Wed Feb 08 10:45:04 GMT 2017
User: dcchb
Spectrometer: FLMS00149
Trigger mode: 0
Integration Time (sec): 2.000000E-2
Scans to average: 10
Electric dark correction enabled: true
Nonlinearity correction enabled: false
Boxcar width: 0
XAxis mode: Wavelengths
Number of Pixels in Spectrum: 2048
>>>>>Begin Spectral Data<<<<<
341.393	-6.64
341.776	-6.64
342.16	-6.64
342.543	-53.87
342.927	-67.43
343.31	-75.11
343.693	-50.93
344.077	-66.07
344.46	-59.07
344.843	-45.06
345.226	-64.72
345.61	-25.17
345.993	-22.68
346.376	2.85
346.759	15.28
347.142	25.68
347.525	36.52
347.908	55.06
348.291	60.03
348.674	103.64
349.057	109.74
349.44	119.01
349.823	139.12
350.206	161.49
350.588	182.51
350.971	183.87
351.354	219.12
351.737	229.97
352.119	222.73
352.502	228.84
352.884	248.5
353.267	251.43
353.65	263.19
354.032	277.65
354.414	261.6
354.797	276.07
355.179	293.69
355.562	288.95
355.944	307.7
356.326	312
356.709	306.57
357.091	309.96
357.473	329.62
357.855	313.58
358.238	311.32
358.62	328.95
359.002	310.87
359.384	288.95
359.766	320.81
360.148	308.38
360.53	309.29
360.912	284.65
361.294	295.73
361.676	319.91
362.057	291.66
362.439	317.65
362.821	295.05
363.203	309.06
363.584	318.55
363.966	305.9
364.348	290.3
364.729	296.86
365.111	285.78
365.493	293.92
365.874	283.52
366.256	287.82
366.637	257.76
367.019	295.5
367.4	292.56
367.781	278.78
368.163	299.34
368.544	296.86
368.925	287.14
369.306	282.17
369.688	295.27
370.069	278.33
370.45	286.91
370.831	273.81
371.212	305.67
371.593	288.72
371.974	266.8
372.355	297.08
372.736	290.98
373.117	286.24
373.498	283.75
373.879	280.81
374.26	289.17
374.641	280.13
375.021	278.55
375.402	285.11
375.783	286.46
376.163	281.49
376.544	290.53
376.925	276.07
377.305	263.86
377.686	283.07
378.066	299.12
378.447	301.83
378.827	287.37
379.208	293.69
379.588	291.88
379.968	273.58
380.349	290.98
380.729	297.53
381.109	312.45
381.489	294.82
381.87	291.43
382.25	296.4
382.63	288.72
383.01	283.98
383.39	309.29
383.77	299.79
384.15	287.14
384.53	312.68
384.91	309.74
385.29	307.03
385.67	318.78
386.049	313.58
386.429	305.22
386.809	308.38
387.189	311.32
387.568	318.32
387.948	317.87
388.328	321.71
388.707	300.7
389.087	323.07
389.466	300.7
389.846	326.69
390.225	316.74
390.605	317.65
390.984	309.06
391.363	319.91
391.743	314.03
392.122	310.42
392.501	322.39
392.881	308.61
393.26	289.4
393.639	322.39
394.018	310.87
394.397	305.9
394.776	335.05
395.155	321.49
395.534	320.13
395.913	308.38
396.292	317.42
396.671	321.04
397.05	309.74
397.429	326.23
397.808	304.99
398.186	316.74
398.565	334.14
398.944	314.48
399.323	319.23
399.701	320.58
400.08	330.98
400.458	345.44
400.837	331.21
401.215	334.6
401.594	330.3
401.972	349.51
402.351	345.44
402.729	338.44
403.107	320.58
403.486	354.71
403.864	311.32
404.242	340.92
404.62	321.49
404.999	344.09
405.377	307.93
405.755	349.28
406.133	355.16
406.511	345.22
406.889	335.73
407.267	349.51
407.645	339.79
408.023	329.62
408.401	341.6
408.779	345.44
409.156	337.08
409.534	344.99
409.912	352.9
410.29	346.57
410.667	361.71
411.045	344.54
411.422	339.57
411.8	349.28
412.178	354.48
412.555	362.17
412.933	371.88
413.31	351.54
413.687	371.2
414.065	370.98
414.442	362.39
414.819	368.72
415.197	378.44
415.574	359.68
415.951	369.4
416.328	383.63
416.705	364.65
417.082	370.53
417.46	354.71
417.837	361.94
418.214	351.54
418.591	381.15
418.967	362.17
419.344	372.33
419.721	374.59
420.098	386.35
420.475	393.8
420.852	386.57
421.228	398.32
421.605	387.7
421.982	382.96
422.358	367.59
422.735	358.1
423.111	383.18
423.488	385.44
423.864	369.4
424.241	384.54
424.617	396.29
424.994	396.06
425.37	401.26
425.746	400.13
426.123	406.46
426.499	406.01
426.875	396.29
427.251	410.3
427.627	385.22
428.003	398.1
428.379	410.3
428.756	413.46
429.132	410.3
429.507	418.44
429.883	414.37
430.259	402.84
430.635	406.91
431.011	405.78
431.387	415.72
431.763	415.72
432.138	437.19
432.514	430.41
432.89	416.85
433.265	410.53
433.641	427.7
434.016	433.35
434.392	441.26
434.767	438.77
435.143	443.29
435.518	424.31
435.894	450.3
436.269	453.91
436.644	443.97
437.02	438.32
437.395	422.73
437.77	436.74
438.145	427.25
438.52	443.75
438.895	438.77
439.271	440.36
439.646	451.88
440.021	451.88
440.395	448.72
440.77	443.29
441.145	475.38
441.52	468.38
441.895	452.56
442.27	423.41
442.645	474.71
443.019	464.54
443.394	462.5
443.769	448.27
444.143	488.49
444.518	460.92
444.892	468.6
445.267	453.24
445.641	479.22
446.016	465.67
446.39	462.28
446.764	477.19
447.139	456.85
447.513	501.82
447.887	495.04
448.262	488.72
448.636	479.45
449.01	493.24
449.384	500.02
449.758	491.65
450.132	490.75
450.506	481.48
450.88	465.67
451.254	500.69
451.628	477.19
452.002	489.39
452.376	479.68
452.75	498.43
453.123	521.26
453.497	506.79
453.871	488.49
454.244	496.17
454.618	519
454.992	531.88
455.365	522.39
455.739	514.25
456.112	535.95
456.486	525.1
456.859	528.26
457.232	517.19
457.606	520.35
457.979	544.76
458.352	559
458.725	542.95
459.099	540.92
459.472	563.74
459.845	541.82
460.218	566.23
460.591	530.52
460.964	558.77
461.337	553.12
461.71	569.17
462.083	566.45
462.456	566.23
462.829	589.96
463.201	570.52
463.574	584.08
463.947	562.16
464.32	592.22
464.692	589.05
465.065	580.01
465.438	601.93
465.81	602.39
466.183	617.75
466.555	626.34
466.928	632.89
467.3	622.27
467.672	608.71
468.045	636.73
468.417	635.15
468.789	641.71
469.161	650.29
469.534	639.22
469.906	629.5
470.278	655.94
470.65	655.49
471.022	657.3
471.394	658.65
471.766	658.43
472.138	677.41
472.51	690.74
472.882	708.37
473.253	684.19
473.625	688.26
473.997	688.71
474.369	690.52
474.74	721.48
475.112	726.22
475.484	747.24
475.855	716.96
476.227	737.97
476.598	744.3
476.97	766.67
477.341	797.86
477.713	777.07
478.084	774.81
478.455	797.18
478.827	791.98
479.198	770.52
479.569	798.76
479.94	803.96
480.311	850.06
480.682	844.86
481.053	850.51
481.424	826.33
481.795	835.15
482.166	854.58
482.537	883.73
482.908	847.8
483.279	876.05
483.65	903.85
484.021	897.74
484.391	930.29
484.762	903.39
485.133	883.28
485.503	924.64
485.874	930.06
486.244	975.03
486.615	1009.15
486.985	960.57
487.356	1004.18
487.726	979.32
488.097	998.31
488.467	1011.64
488.837	1037.4
489.207	1044.18
489.578	1042.6
489.948	1039.89
490.318	1085.31
490.688	1055.93
491.058	1073.56
491.428	1100.45
491.798	1093.22
492.168	1115.82
492.538	1132.31
492.908	1119.21
493.278	1140.9
493.648	1170.05
494.017	1140
494.387	1151.3
494.757	1159.43
495.126	1193.56
495.496	1206.66
495.866	1180.68
496.235	1194.46
496.605	1186.32
496.974	1214.35
497.344	1239.66
497.713	1228.36
498.082	1234.23
498.452	1235.36
498.821	1235.59
499.19	1215.7
499.559	1269.94
499.928	1253.67
500.298	1258.64
500.667	1264.06
501.036	1260.9
501.405	1278.53
501.774	1263.16
502.143	1271.52
502.512	1320.78
502.88	1279.43
503.249	1303.38
503.618	1340.44
503.987	1326.21
504.356	1283.72
504.724	1327.56
505.093	1307.45
505.462	1310.39
505.83	1334.8
506.199	1337.51
506.567	1355.81
506.936	1351.07
507.304	1359.2
507.672	1364.4
508.041	1358.75
508.409	1378.64
508.777	1402.59
509.145	1364.63
509.514	1383.61
509.882	1381.35
510.25	1410.05
510.618	1438.52
510.986	1437.39
511.354	1461.12
511.722	1436.71
512.09	1471.06
512.458	1456.15
512.826	1475.58
513.193	1491.4
513.561	1483.94
513.929	1513.32
514.297	1553.32
514.664	1539.31
515.032	1535.47
515.4	1532.76
515.767	1565.75
516.135	1580.66
516.502	1577.5
516.869	1581.79
517.237	1610.49
517.604	1635.8
517.972	1638.06
518.339	1650.49
518.706	1660.44
519.073	1647.56
519.44	1618.18
519.808	1680.1
520.175	1705.63
520.542	1698.18
520.909	1711.73
521.276	1712.19
521.643	1727.33
522.009	1721
522.376	1748.34
522.743	1710.6
523.11	1747.89
523.477	1760.32
523.843	1783.82
524.21	1761
524.577	1793.54
524.943	1787.44
525.31	1822.92
525.676	1807.1
526.043	1836.25
526.409	1801.9
526.776	1852.07
527.142	1841
527.508	1836.7
527.874	1872.86
528.241	1857.49
528.607	1852.75
528.973	1899.75
529.339	1866.98
529.705	1891.39
530.071	1904.05
530.437	1920.54
530.803	1899.3
531.169	1929.36
531.535	1925.74
531.901	1942.69
532.267	1934.1
532.632	1939.3
532.998	1965.74
533.364	1977.49
533.73	1973.42
534.095	1972.97
534.461	1956.47
534.826	2002.12
535.192	2012.52
535.557	1999.18
535.923	1987.89
536.288	2024.27
536.653	2060.43
537.019	2031.95
537.384	2051.61
537.749	2063.14
538.114	2069.92
538.479	2074.44
538.845	2091.16
539.21	2120.76
539.575	2127.77
539.94	2122.12
540.305	2136.36
540.67	2152.85
541.034	2180.42
541.399	2177.71
541.764	2165.28
542.129	2198.5
542.494	2181.1
542.858	2214.09
543.223	2181.55
543.587	2232.17
543.952	2187.88
544.316	2246.86
544.681	2241.21
545.045	2261.55
545.41	2277.37
545.774	2296.58
546.138	2232.85
546.503	2283.25
546.867	2302
547.231	2304.94
547.595	2292.06
547.959	2327.99
548.324	2327.99
548.688	2314.43
549.052	2336.35
549.416	2349.68
549.779	2328.89
550.143	2340.87
550.507	2360.98
550.871	2386.97
551.235	2374.99
551.599	2409.57
551.962	2389.23
552.326	2398.04
552.689	2409.12
553.053	2420.87
553.417	2396.24
553.78	2440.08
554.143	2384.03
554.507	2429.46
554.87	2407.31
555.234	2465.84
555.597	2400.76
555.96	2445.5
556.323	2438.5
556.686	2451.83
557.05	2471.26
557.413	2442.56
557.776	2496.8
558.139	2456.57
558.502	2500.87
558.865	2475.33
559.228	2522.33
559.59	2519.17
559.953	2502.22
560.316	2529.79
560.679	2536.57
561.041	2578.15
561.404	2573.63
561.767	2571.15
562.129	2577.02
562.492	2620.86
562.854	2580.64
563.217	2611.15
563.579	2620.41
563.941	2605.04
564.304	2646.17
564.666	2627.87
565.028	2665.38
565.39	2678.04
565.753	2680.52
566.115	2730.24
566.477	2702.44
566.839	2721.2
567.201	2757.81
567.563	2740.18
567.925	2771.82
568.287	2778.6
568.648	2810.69
569.01	2808.65
569.372	2820.41
569.734	2812.95
570.095	2845.94
570.457	2833.74
570.819	2860.18
571.18	2868.09
571.542	2866.05
571.903	2910.35
572.265	2901.99
572.626	2932.27
572.987	2940.85
573.349	2939.95
573.71	2948.54
574.071	2979.72
574.432	2947.86
574.794	2986.73
575.155	2980.4
575.516	2994.19
575.877	2984.92
576.238	3031.47
576.599	3019.27
576.96	3009.1
577.32	3049.33
577.681	3065.82
578.042	3049.33
578.403	3031.7
578.763	3072.83
579.124	3057.24
579.485	3077.8
579.845	3116.9
580.206	3081.64
580.566	3090.46
580.927	3101.75
581.287	3089.33
581.648	3102.43
582.008	3069.44
582.368	3077.8
582.728	3092.72
583.089	3085.48
583.449	3094.52
583.809	3100.17
584.169	3126.39
584.529	3088.65
584.889	3083.68
585.249	3114.86
585.609	3087.07
585.969	3102.88
586.329	3103.34
586.688	3124.35
587.048	3080.06
587.408	3104.69
587.768	3030.8
588.127	3087.07
588.487	3061.76
588.846	3077.35
589.206	3080.74
589.565	3081.87
589.925	3077.8
590.284	3095.88
590.643	3074.18
591.003	3065.15
591.362	3073.05
591.721	3039.38
592.08	3040.29
592.44	3034.64
592.799	3098.14
593.158	3063.34
593.517	3050.23
593.876	3022.21
594.235	3109.89
594.593	3070.57
594.952	3078.7
595.311	3059.95
595.67	3050
596.029	3110.79
596.387	3054.07
596.746	3088.87
597.104	3082.09
597.463	3085.03
597.822	3110.57
598.18	3083.68
598.538	3088.42
598.897	3098.36
599.255	3061.08
599.613	3120.51
599.972	3101.08
600.33	3101.08
600.688	3083.45
601.046	3139.04
601.404	3086.84
601.762	3103.79
602.12	3130.91
602.478	3108.31
602.836	3114.64
603.194	3106.73
603.552	3136.56
603.91	3115.54
604.268	3133.17
604.625	3136.33
604.983	3137.46
605.341	3127.06
605.698	3139.04
606.056	3174.97
606.413	3176.78
606.771	3182.88
607.128	3171.58
607.485	3182.43
607.843	3156.67
608.2	3243.22
608.557	3232.6
608.914	3200.06
609.272	3234.63
609.629	3230.34
609.986	3269.21
610.343	3207.97
610.7	3215.42
611.057	3269.89
611.414	3247.29
611.771	3252.49
612.127	3263.11
612.484	3269.89
612.841	3278.93
613.198	3262.2
613.554	3269.66
613.911	3283.67
614.267	3309.43
614.624	3292.26
614.98	3324.57
615.337	3286.61
615.693	3274.63
616.05	3314.18
616.406	3324.35
616.762	3333.84
617.118	3326.61
617.475	3326.16
617.831	3323.44
618.187	3327.51
618.543	3342.88
618.899	3286.16
619.255	3323.44
619.611	3323.9
619.967	3363.67
620.323	3351.47
620.678	3328.64
621.034	3304.01
621.39	3315.99
621.746	3319.6
622.101	3327.29
622.457	3322.09
622.812	3320.51
623.168	3317.34
623.523	3317.57
623.879	3308.08
624.234	3298.81
624.589	3344.69
624.945	3244.12
625.3	3334.29
625.655	3286.38
626.01	3329.77
626.365	3336.55
626.72	3322.77
627.075	3272.82
627.43	3280.96
627.785	3292.94
628.14	3308.08
628.495	3317.79
628.85	3281.86
629.205	3269.89
629.559	3294.97
629.914	3245.93
630.269	3304.69
630.623	3308.98
630.978	3282.31
631.332	3251.13
631.687	3227.85
632.041	3269.21
632.396	3224.01
632.75	3215.65
633.104	3235.54
633.459	3206.38
633.813	3219.27
634.167	3222.66
634.521	3195.76
634.875	3205.48
635.229	3214.52
635.583	3172.49
635.937	3174.75
636.291	3208.42
636.645	3231.92
636.999	3183.11
637.352	3204.8
637.706	3184.46
638.06	3183.33
638.413	3152.15
638.767	3200.28
639.121	3160.51
639.474	3156.44
639.828	3176.1
640.181	3151.7
640.534	3147.63
640.888	3152.37
641.241	3148.08
641.594	3154.86
641.947	3175.42
642.301	3174.07
642.654	3154.63
643.007	3142.66
643.36	3158.7
643.713	3134.07
644.066	3146.5
644.419	3135.65
644.771	3139.72
645.124	3078.93
645.477	3117.35
645.83	3042.55
646.182	3065.15
646.535	3073.96
646.888	3070.57
647.24	3094.52
647.593	3114.41
647.945	3044.81
648.298	3086.84
648.65	3020.85
649.002	3027.86
649.355	3092.94
649.707	3052.26
650.059	3086.84
650.411	3108.08
650.763	3115.77
651.115	3144.92
651.467	3128.87
651.819	3145.14
652.171	3112.38
652.523	3128.42
652.875	3121.19
653.227	3126.61
653.578	3175.65
653.93	3138.82
654.282	3126.39
654.633	3120.06
654.985	3161.64
655.337	3149.21
655.688	3136.78
656.039	3074.86
656.391	3083.9
656.742	3153.28
657.094	3140.17
657.445	3104.92
657.796	3116.22
658.147	3133.84
658.498	3079.61
658.849	3112.6
659.2	3098.82
659.551	3093.39
659.902	3116.9
660.253	3095.2
660.604	3094.3
660.955	3053.39
661.306	3102.66
661.656	3095.65
662.007	3070.12
662.358	3100.62
662.708	3085.94
663.059	3076.9
663.409	3033.73
663.76	3049.55
664.11	3093.62
664.461	3049.33
664.811	3070.12
665.161	3057.91
665.511	3084.35
665.862	3089.33
666.212	3050.46
666.562	3061.76
666.912	3070.12
667.262	3072.38
667.612	3051.59
667.962	3018.82
668.312	3041.87
668.662	3019.5
669.011	3024.92
669.361	3035.99
669.711	3018.82
670.06	2977.01
670.41	3008.65
670.76	2985.83
671.109	3027.41
671.459	2982.89
671.808	3030.12
672.157	3012.72
672.507	2987.86
672.856	3016.11
673.205	3016.33
673.554	3010.01
673.904	2983.34
674.253	3009.33
674.602	3026.28
674.951	2983.34
675.3	2938.6
675.649	2946.28
675.998	2960.29
676.346	2991.25
676.695	2968.42
677.044	2968.2
677.393	2974.75
677.741	2977.69
678.09	2964.36
678.438	2978.14
678.787	2965.71
679.135	2966.39
679.484	2938.37
679.832	2935.88
680.181	2951.48
680.529	2942.44
680.877	2911.25
681.225	2896.34
681.573	2946.73
681.922	2916.45
682.27	2927.52
682.618	2935.66
682.966	2909.22
683.314	2923.45
683.661	2892.72
684.009	2896.11
684.357	2904.47
684.705	2840.07
685.053	2892.49
685.4	2873.96
685.748	2840.97
686.095	2869.44
686.443	2892.49
686.79	2863.57
687.138	2883.68
687.485	2875.55
687.832	2821.76
688.18	2833.97
688.527	2859.5
688.874	2855.66
689.221	2858.6
689.568	2802.55
689.915	2825.38
690.262	2840.97
690.609	2869.67
690.956	2816.34
691.303	2788.32
691.65	2820.41
691.997	2817.69
692.344	2791.71
692.69	2810.01
693.037	2816.11
693.383	2778.37
693.73	2802.78
694.077	2749.9
694.423	2749.45
694.769	2781.76
695.116	2766.4
695.462	2738.83
695.808	2738.15
696.155	2740.18
696.501	2750.8
696.847	2728.43
697.193	2684.36
697.539	2734.53
697.885	2725.95
698.231	2678.71
698.577	2692.05
698.923	2698.15
699.269	2645.95
699.614	2652.73
699.96	2648.43
700.306	2665.83
700.651	2704.02
700.997	2666.96
701.342	2662.22
701.688	2641.2
702.033	2617.47
702.379	2641.2
702.724	2643.46
703.069	2632.16
703.415	2613.18
703.76	2626.96
704.105	2610.47
704.45	2614.99
704.795	2596.01
705.14	2599.39
705.485	2591.03
705.83	2600.52
706.175	2568.66
706.52	2606.4
706.865	2607.3
707.209	2591.71
707.554	2574.99
707.899	2590.81
708.243	2565.72
708.588	2541.54
708.932	2526.18
709.277	2519.4
709.621	2553.97
709.966	2533.63
710.31	2549.23
710.654	2535.44
710.998	2472.39
711.342	2509.68
711.687	2535.67
712.031	2516.69
712.375	2476.23
712.719	2499.74
713.063	2498.15
713.407	2509
713.75	2482.34
714.094	2475.56
714.438	2444.37
714.782	2474.2
715.125	2498.38
715.469	2426.07
715.812	2454.99
716.156	2449.34
716.499	2454.31
716.843	2463.13
717.186	2431.49
717.53	2422
717.873	2446.18
718.216	2427.2
718.559	2391.72
718.902	2400.76
719.246	2375.45
719.589	2404.6
719.932	2386.07
720.275	2377.25
720.617	2384.71
720.96	2365.5
721.303	2355.11
721.646	2376.58
721.989	2328.22
722.331	2365.73
722.674	2366.86
723.016	2383.13
723.359	2382.23
723.701	2335.22
724.044	2322.57
724.386	2327.76
724.729	2336.58
725.071	2354.66
725.413	2332.06
725.755	2312.62
726.097	2316.01
726.439	2311.27
726.782	2349.23
727.124	2354.2
727.465	2307.65
727.807	2307.43
728.149	2302
728.491	2278.73
728.833	2285.73
729.175	2277.6
729.516	2258.84
729.858	2265.62
730.199	2268.33
730.541	2274.66
730.882	2275.56
731.224	2273.53
731.565	2249.12
731.906	2266.97
732.248	2256.81
732.589	2264.04
732.93	2232.62
733.271	2232.4
733.612	2235.79
733.953	2233.3
734.294	2259.06
734.635	2235.34
734.976	2258.61
735.317	2234.88
735.658	2240.31
735.999	2263.58
736.339	2237.37
736.68	2249.12
737.021	2210.25
737.361	2215.9
737.702	2206.86
738.042	2206.64
738.383	2226.52
738.723	2220.42
739.063	2207.31
739.404	2202.57
739.744	2215.68
740.084	2170.93
740.424	2232.4
740.764	2183.59
741.104	2191.04
741.444	2192.4
741.784	2179.97
742.124	2193.98
742.464	2200.76
742.804	2145.4
743.143	2175.9
743.483	2184.94
743.823	2151.72
744.162	2153.08
744.502	2189.91
744.841	2167.99
745.181	2170.71
745.52	2155.56
745.86	2148.11
746.199	2158.73
746.538	2143.59
746.877	2147.43
747.216	2188.33
747.556	2159.41
747.895	2120.31
748.234	2100.88
748.573	2129.58
748.911	2133.64
749.25	2124.83
749.589	2144.04
749.928	2154.43
750.267	2099.3
750.605	2081.44
750.944	2109.92
751.283	2109.92
751.621	2071.73
751.96	2099.52
752.298	2124.83
752.636	2099.52
752.975	2097.71
753.313	2090.48
753.651	2105.17
753.989	2092.97
754.327	2082.57
754.666	2081.67
755.004	2090.03
755.342	2085.51
755.679	2079.41
756.017	2050.71
756.355	2047.32
756.693	2023.59
757.031	2043.48
757.368	2040.31
757.706	2040.09
758.044	2040.99
758.381	2027.88
758.719	2033.31
759.056	2032.86
759.394	2038.96
759.731	2006.87
760.068	2022.46
760.405	1990.15
760.743	2018.62
761.08	2008.9
761.417	2017.04
761.754	2012.52
762.091	1979.75
762.428	1956.93
762.765	1955.57
763.102	2005.51
763.438	1980.2
763.775	1951.95
764.112	1968.23
764.449	1952.63
764.785	1952.41
765.122	1944.72
765.458	1922.12
765.795	1937.94
766.131	1929.58
766.467	1896.59
766.804	1902.69
767.14	1916.7
767.476	1903.37
767.812	1901.56
768.148	1895.23
768.485	1875.8
768.821	1878.74
769.157	1873.76
769.492	1876.93
769.828	1878.51
770.164	1865.85
770.5	1837.83
770.836	1839.41
771.171	1842.35
771.507	1856.59
771.842	1815.23
772.178	1834.67
772.513	1813.43
772.849	1824.95
