Data from foam_black_FLMS001491_00050.txt Node
Date: Wed Feb 08 10:43:58 GMT 2017
User: dcchb
Spectrometer: FLMS00149
Trigger mode: 0
Integration Time (sec): 2.000000E-2
Scans to average: 10
Electric dark correction enabled: true
Nonlinearity correction enabled: false
Boxcar width: 0
XAxis mode: Wavelengths
Number of Pixels in Spectrum: 2048
>>>>>Begin Spectral Data<<<<<
341.393	-20.01
341.776	-20.01
342.16	-20.01
342.543	-81.03
342.927	-55.72
343.31	-71.99
343.693	-69.73
344.077	-68.6
344.46	-53.01
344.843	-39.9
345.226	-51.2
345.61	-33.57
345.993	-11.43
346.376	-2.84
346.759	3.49
347.142	10.72
347.525	47.1
347.908	53.66
348.291	87.55
348.674	90.04
349.057	109.7
349.44	132.3
349.823	131.62
350.206	172.07
350.588	178.4
350.971	195.12
351.354	217.49
351.737	244.16
352.119	250.26
352.502	244.61
352.884	269.7
353.267	251.62
353.65	283.93
354.032	268.79
354.414	299.53
354.797	300.88
355.179	322.58
355.562	328.45
355.944	310.15
356.326	337.49
356.709	324.84
357.091	326.19
357.473	333.42
357.855	346.98
358.238	324.38
358.62	354.67
359.002	323.03
359.384	339.52
359.766	335.46
360.148	323.71
360.53	337.94
360.912	300.43
361.294	310.15
361.676	313.54
362.057	336.59
362.439	326.64
362.821	318.96
363.203	317.38
363.584	309.47
363.966	326.64
364.348	333.2
364.729	317.15
365.111	332.97
365.493	323.71
365.874	313.54
366.256	320.32
366.637	319.86
367.019	316.25
367.4	306.76
367.781	332.75
368.163	313.31
368.544	300.2
368.925	327.32
369.306	306.08
369.688	331.62
370.069	319.41
370.45	329.81
370.831	303.82
371.212	319.86
371.593	325.06
371.974	313.99
372.355	304.5
372.736	327.1
373.117	308.57
373.498	323.03
373.879	310.83
374.26	327.55
374.641	309.02
375.021	338.62
375.402	333.42
375.783	356.47
376.163	344.95
376.544	318.73
376.925	326.42
377.305	329.81
377.686	332.07
378.066	357.6
378.447	333.2
378.827	326.42
379.208	342.69
379.588	330.71
379.968	335.91
380.349	337.72
380.729	348.79
381.109	341.33
381.489	371.39
381.87	347.89
382.25	359.19
382.63	348.34
383.01	348.79
383.39	360.77
383.77	351.05
384.15	361.45
384.53	370.48
384.91	349.47
385.29	353.08
385.67	369.81
386.049	344.04
386.429	373.65
386.809	364.38
387.189	374.78
387.568	380.88
387.948	381.11
388.328	373.2
388.707	385.4
389.087	392.63
389.466	363.71
389.846	369.81
390.225	394.89
390.605	400.99
390.984	397.6
391.363	395.79
391.743	373.87
392.122	379.07
392.501	397.15
392.881	410.03
393.26	408.68
393.639	404.16
394.018	399.18
394.397	410.71
394.776	412.29
395.155	422.46
395.534	397.6
395.913	419.3
396.292	419.3
396.671	430.82
397.05	426.08
397.429	433.99
397.808	407.09
398.186	419.97
398.565	447.77
398.944	436.7
399.323	415
399.701	439.18
400.08	419.75
400.458	438.28
400.837	459.52
401.215	447.77
401.594	447.54
401.972	449.8
402.351	437.38
402.729	455.68
403.107	471.72
403.486	427.21
403.864	459.52
404.242	467.43
404.62	477.15
404.999	447.09
405.377	488.9
405.755	447.09
406.133	470.14
406.511	480.09
406.889	498.16
407.267	485.96
407.645	498.39
408.023	506.07
408.401	499.07
408.779	513.98
409.156	497.03
409.534	504.72
409.912	504.49
410.29	501.78
410.667	542.68
411.045	526.86
411.422	545.62
411.8	523.47
412.178	535.68
412.555	530.25
412.933	545.62
413.31	571.38
413.687	548.33
414.065	556.02
414.442	553.08
414.819	581.78
415.197	563.93
415.574	557.6
415.951	564.15
416.328	589.91
416.705	565.73
417.082	590.37
417.46	594.21
417.837	586.3
418.214	600.99
418.591	588.56
418.967	579.74
419.344	608.44
419.721	612.74
420.098	622.91
420.475	626.07
420.852	639.86
421.228	628.1
421.605	633.53
421.982	623.13
422.358	636.69
422.735	623.81
423.111	668.78
423.488	677.14
423.864	650.7
424.241	669.23
424.617	657.26
424.994	670.14
425.37	655.22
425.746	672.62
426.123	669.46
426.499	670.36
426.875	689.35
427.251	703.81
427.627	706.07
428.003	704.71
428.379	738.61
428.756	726.63
429.132	720.31
429.507	738.16
429.883	739.97
430.259	746.07
430.635	745.16
431.011	773.86
431.387	769.57
431.763	767.54
432.138	800.98
432.514	803.92
432.89	775.9
433.265	814.31
433.641	792.62
434.016	816.12
434.392	823.58
434.767	829.91
435.143	834.65
435.518	804.82
435.894	838.27
436.269	840.53
436.644	856.8
437.02	893.18
437.395	885.5
437.77	883.92
438.145	899.96
438.52	902.45
438.895	923.92
439.271	898.38
439.646	925.05
440.021	932.96
440.395	943.58
440.77	922.79
441.145	924.37
441.52	968.66
441.895	939.51
442.27	938.61
442.645	967.31
443.019	955.55
443.394	961.2
443.769	985.84
444.143	980.86
444.518	997.81
444.892	991.49
445.267	984.93
445.641	1003.91
446.016	999.17
446.39	1024.48
446.764	1021.99
447.139	1023.35
447.513	1017.93
447.887	1032.61
448.262	1036.68
448.636	1051.6
449.01	1035.78
449.384	1049.34
449.758	1068.55
450.132	1067.42
450.506	1053.63
450.88	1064.7
451.254	1073.07
451.628	1109
452.002	1091.37
452.376	1096.34
452.75	1134.31
453.123	1128.66
453.497	1121.2
453.871	1143.57
454.244	1177.7
454.618	1171.59
454.992	1149.22
455.365	1201.42
455.739	1209.56
456.112	1248.43
456.486	1234.87
456.859	1250.69
457.232	1280.29
457.606	1262.66
457.979	1272.83
458.352	1321.87
458.725	1295.88
459.099	1295.43
459.472	1346.5
459.845	1369.55
460.218	1358.48
460.591	1355.54
460.964	1373.4
461.337	1394.41
461.71	1427.63
462.083	1454.52
462.456	1425.15
462.829	1433.28
463.201	1452.26
463.574	1472.15
463.947	1498.59
464.32	1521.87
464.692	1504.01
465.065	1528.42
465.438	1541.75
465.81	1567.52
466.183	1602.54
466.555	1619.27
466.928	1594.63
467.3	1626.04
467.672	1624.46
468.045	1645.48
468.417	1673.28
468.789	1659.49
469.161	1730.67
469.534	1732.03
469.906	1764.57
470.278	1794.85
470.65	1779.71
471.022	1826.94
471.394	1833.95
471.766	1869.65
472.138	1911.91
472.51	1939.26
472.882	1932.7
473.253	1978.58
473.625	1997.56
473.997	2045.24
474.369	2051.34
474.74	2031.68
475.112	2081.63
475.484	2095.64
475.855	2143.32
476.227	2172.7
476.598	2220.61
476.97	2253.6
477.341	2289.3
477.713	2298.12
478.084	2302.86
478.455	2355.97
478.827	2369.3
479.198	2445.91
479.569	2433.03
479.94	2524.1
480.311	2578.34
480.682	2545.34
481.053	2653.14
481.424	2659.01
481.795	2707.15
482.166	2748.73
482.537	2757.77
482.908	2836.18
483.279	2874.6
483.65	2879.8
484.021	2976.97
484.391	3004.77
484.762	2996.18
485.133	2990.53
485.503	3093.12
485.874	3100.58
486.244	3122.95
486.615	3225.32
486.985	3222.61
487.356	3275.04
487.726	3316.62
488.097	3393.91
488.467	3354.81
488.837	3404.76
489.207	3468.03
489.578	3510.52
489.948	3561.81
490.318	3565.65
490.688	3585.09
491.058	3630.74
491.428	3691.3
491.798	3712.32
492.168	3783.95
492.538	3765.65
492.908	3853.1
493.278	3921.58
493.648	3901.01
494.017	3942.37
494.387	3966.77
494.757	4021.69
495.126	4044.51
495.496	4080.9
495.866	4067.56
496.235	4174.23
496.605	4141.01
496.974	4250.61
497.344	4223.94
497.713	4256.26
498.082	4288.8
498.452	4360.89
498.821	4384.84
499.19	4391.4
499.559	4433.65
499.928	4490.38
500.298	4515.91
500.667	4514.78
501.036	4558.62
501.405	4646.3
501.774	4606.98
502.143	4620.99
502.512	4600.43
502.88	4713.42
503.249	4704.38
503.618	4784.15
503.987	4729.47
504.356	4777.15
504.724	4828.22
505.093	4879.74
505.462	4858.05
505.83	4902.34
506.199	4916.58
506.567	4954.32
506.936	5012.85
507.304	5009.01
507.672	4991.83
508.041	5052.17
508.409	5075.22
508.777	5117.25
509.145	5197.02
509.514	5157.03
509.882	5220.53
510.25	5247.64
510.618	5284.93
510.986	5343.24
511.354	5329.22
511.722	5373.97
512.09	5484.25
512.458	5493.51
512.826	5506.85
513.193	5478.37
513.561	5611.93
513.929	5620.52
514.297	5665.94
514.664	5753.85
515.032	5752.26
515.4	5830
515.767	5860.51
516.135	5892.15
516.502	5891.02
516.869	5994.97
517.237	5956.55
517.604	5973.5
517.972	6093.5
518.339	6111.8
518.706	6106.83
519.073	6186.6
519.44	6158.13
519.808	6279.03
520.175	6246.04
520.542	6338.92
520.909	6397.9
521.276	6406.03
521.643	6491
522.009	6569.42
522.376	6572.36
522.743	6625.69
523.11	6675.63
523.477	6716.98
523.843	6693.48
524.21	6863.2
524.577	6872.46
524.943	6940.93
525.31	6996.53
525.676	7009.18
526.043	7105.67
526.409	7103.64
526.776	7182.06
527.142	7234.94
527.508	7230.64
527.874	7317.19
528.241	7413.69
528.607	7400.81
528.973	7479
529.339	7558.54
529.705	7592.22
530.071	7619.33
530.437	7612.78
530.803	7713.12
531.169	7724.87
531.535	7713.12
531.901	7784.98
532.267	7867.69
532.632	7844.19
532.998	7886.9
533.364	7936.84
533.73	8001.7
534.095	8015.26
534.461	8073.33
534.826	8125.53
535.192	8099.55
535.557	8147.46
535.923	8219.32
536.288	8206.44
536.653	8296.83
537.019	8257.73
537.384	8272.42
537.749	8337.96
538.114	8391.74
538.479	8443.04
538.845	8497.95
539.21	8503.83
539.575	8612.98
539.94	8612.98
540.305	8662.24
540.67	8678.06
541.034	8704.5
541.399	8751.73
541.764	8712.19
542.129	8869.7
542.494	8814.1
542.858	8900.88
543.223	8948.11
543.587	8957.38
543.952	9011.84
544.316	8983.37
544.681	9033.08
545.045	9083.93
545.41	9126.86
545.774	9123.25
546.138	9198.95
546.503	9257.26
546.867	9199.18
547.231	9300.42
547.595	9349.23
547.959	9361.66
548.324	9406.86
548.688	9365.5
549.052	9393.75
549.416	9494.31
549.779	9460.64
550.143	9477.82
550.507	9592.39
550.871	9549.68
551.235	9589.9
551.599	9684.59
551.962	9695.66
552.326	9732.05
552.689	9827.19
553.053	9843.46
553.417	9820.86
553.78	9932.49
554.143	9938.37
554.507	10069.44
554.87	9986.05
555.234	10075.31
555.597	10072.15
555.96	10195.09
556.323	10142.21
556.686	10227.4
557.05	10329.54
557.413	10299.94
557.776	10405.25
558.139	10484.12
558.502	10432.14
558.865	10501.29
559.228	10624.23
559.59	10642.3
559.953	10682.53
560.316	10756.43
560.679	10798.46
561.041	10816.31
561.404	10788.52
561.767	10978.57
562.129	10946.48
562.492	11033.71
562.854	11023.09
563.217	11030.54
563.579	11054.95
563.941	11212.46
564.304	11253.36
564.666	11353.92
565.028	11382.85
565.39	11465.33
565.753	11560.92
566.115	11592.34
566.477	11632.34
566.839	11670.3
567.201	11771.77
567.563	11783.52
567.925	11921.37
568.287	11960.01
568.648	11978.54
569.01	11994.13
569.372	12174.02
569.734	12097.86
570.095	12219.66
570.457	12234.35
570.819	12240.23
571.18	12336.72
571.542	12359.32
571.903	12384.18
572.265	12493.56
572.626	12486.55
572.987	12578.53
573.349	12556.83
573.71	12631.41
574.071	12663.27
574.432	12758.63
574.794	12785.07
575.155	12706.88
575.516	12767.67
575.877	12786.66
576.238	12833.66
576.599	12816.94
576.96	12860.1
577.32	12905.97
577.681	12978.06
578.042	12994.33
578.403	13031.62
578.763	12969.48
579.124	12859.2
579.485	13122.01
579.845	13075.01
580.206	13087.44
580.566	13093.99
580.927	13060.77
581.287	13074.78
581.648	13055.12
582.008	13145.97
582.368	13128.34
582.728	13080.66
583.089	13164.95
583.449	13167.89
583.809	13232.75
584.169	13149.58
584.529	13132.63
584.889	13315.45
585.249	13225.74
585.609	13167.66
585.969	13238.85
586.329	13253.76
586.688	13190.94
587.048	13268.68
587.408	13206.31
587.768	13249.02
588.127	13226.64
588.487	13246.98
588.846	13290.6
589.206	13272.74
589.565	13395.68
589.925	13389.58
590.284	13420.76
590.643	13493.98
591.003	13438.62
591.362	13534.66
591.721	13403.59
592.08	13488.78
592.44	13568.33
592.799	13534.43
593.158	13516.58
593.517	13564.94
593.876	13550.03
594.235	13497.82
594.593	13526.07
594.952	13576.92
595.311	13573.75
595.67	13652.62
596.029	13674.09
596.387	13664.6
596.746	13599.52
597.104	13578.72
597.463	13583.24
597.822	13645.62
598.18	13651.72
598.538	13713.18
598.897	13799.96
599.255	13602.23
599.613	13898.72
599.972	13695.33
600.33	13789.57
600.688	13754.77
601.046	13656.69
601.404	13749.79
601.762	13801.77
602.12	13801.77
602.478	13803.35
602.836	13852.39
603.194	13680.87
603.552	13748.66
603.91	13775.78
604.268	13814.65
604.625	13818.94
604.983	13891.03
605.341	13792.05
605.698	13871.15
606.056	13933.74
606.413	13837.02
606.771	13944.59
607.128	13903.91
607.485	13852.39
607.843	13866.4
608.2	13995.66
608.557	14033.63
608.914	13984.82
609.272	13971.93
609.629	14074.98
609.986	14120.63
610.343	14061.65
610.7	14261.64
611.057	14119.95
611.414	14127.86
611.771	14115.89
612.127	14227.75
612.484	14151.59
612.841	14204.7
613.198	14175.77
613.554	14250.12
613.911	14350
614.267	14346.39
614.624	14331.47
614.98	14353.85
615.337	14340.74
615.693	14348.87
616.05	14265.71
616.406	14476.78
616.762	14420.74
617.118	14447.18
617.475	14473.84
617.831	14459.83
618.187	14513.16
618.543	14556.33
618.899	14648.75
619.255	14612.6
619.611	14510.45
619.967	14654.63
620.323	14709.77
620.678	14692.59
621.034	14616.44
621.39	14581.64
621.746	14642.88
622.101	14745.93
622.457	14537.8
622.812	14615.31
623.168	14619.83
623.523	14649.21
623.879	14775.53
624.234	14624.57
624.589	14673.84
624.945	14772.14
625.3	14641.52
625.655	14618.47
626.01	14661.63
626.365	14678.13
626.72	14695.53
627.075	14634.97
627.43	14615.31
627.785	14605.59
628.14	14696.89
628.495	14628.19
628.85	14629.77
629.205	14606.27
629.559	14731.24
629.914	14627.51
630.269	14586.16
630.623	14594.74
630.978	14545.03
631.332	14567.4
631.687	14564.24
632.041	14510
632.396	14491.92
632.75	14468.42
633.104	14537.12
633.459	14448.53
633.813	14498.25
634.167	14480.85
634.521	14425.93
634.875	14411.7
635.229	14324.92
635.583	14281.53
635.937	14452.83
636.291	14335.99
636.645	14359.5
636.999	14360.85
637.352	14349.33
637.706	14273.85
638.06	14295.32
638.413	14281.53
638.767	14198.6
639.121	14312.04
639.474	14178.71
639.828	14192.27
640.181	14275.2
640.534	14228.2
640.888	14200.63
641.241	14088.99
641.594	14159.5
641.947	14232.04
642.301	14210.12
642.654	14178.71
643.007	14194.75
643.36	14156.56
643.713	14117.02
644.066	14097.36
644.419	14078.37
644.771	13903.46
645.124	13850.13
645.477	13704.15
645.83	13681.77
646.182	13613.53
646.535	13671.6
646.888	13770.81
647.24	13671.15
647.593	13791.15
647.945	13749.79
648.298	13693.75
648.65	13616.46
649.002	13545.28
649.355	13598.16
649.707	13494.89
650.059	13533.98
650.411	13739.4
650.763	13736.23
651.115	13910.24
651.467	13920.64
651.819	13837.02
652.171	13798.38
652.523	13724.48
652.875	13821.88
653.227	13742.34
653.578	13752.05
653.93	13775.1
654.282	13677.71
654.633	13678.16
654.985	13686.07
655.337	13674.77
655.688	13696.46
656.039	13706.18
656.391	13555.9
656.742	13625.05
657.094	13657.14
657.445	13643.81
657.796	13637.03
658.147	13650.36
658.498	13592.74
658.849	13656.24
659.2	13545.28
659.551	13586.86
659.902	13618.72
660.253	13517.71
660.604	13609.68
660.955	13533.98
661.306	13615.79
661.656	13472.74
662.007	13487.43
662.358	13532.85
662.708	13574.66
663.059	13534.66
663.409	13562.68
663.76	13593.87
664.11	13547.99
664.461	13605.84
664.811	13576.24
665.161	13638.61
665.511	13521.1
665.862	13539.4
666.212	13589.57
666.562	13582.11
666.912	13578.95
667.262	13619.85
667.612	13504.6
667.962	13472.51
668.312	13580.76
668.662	13625.96
669.011	13583.24
669.361	13518.16
669.711	13495.11
670.06	13448.78
670.41	13450.59
670.76	13431.61
671.109	13501.44
671.459	13455.56
671.808	13346.64
672.157	13563.13
672.507	13424.6
672.856	13391.84
673.205	13445.17
673.554	13431.61
673.904	13446.07
674.253	13470.71
674.602	13352.97
674.951	13175.57
675.3	13048.8
675.649	13283.37
675.998	13360.65
676.346	13278.39
676.695	13387.09
677.044	13288.34
677.393	13211.95
677.741	13278.85
678.09	13229.58
678.438	13261.67
678.787	13270.71
679.135	13242.46
679.484	13107.78
679.832	13227.32
680.181	13201.11
680.529	13237.04
680.877	13120.43
681.225	13173.99
681.573	13187.32
681.922	13150.94
682.27	13032.75
682.618	12963.83
682.966	12992.3
683.314	13064.39
683.661	12995.01
684.009	12990.72
684.357	12911.85
684.705	13000.21
685.053	12941.91
685.4	12888.8
685.748	12869.14
686.095	12843.38
686.443	12755.24
686.79	12807.45
687.138	12840.89
687.485	12757.5
687.832	12735.13
688.18	12734.45
688.527	12604.06
688.874	12646.77
689.221	12665.3
689.568	12531.75
689.915	12576.04
690.262	12563.84
690.609	12529.26
690.956	12475.48
691.303	12424.86
691.65	12300.34
691.997	12376.27
692.344	12303.96
692.69	12299.21
693.037	12352.99
693.383	12219.66
693.73	12247.23
694.077	12153.9
694.423	12133.11
694.769	12136.28
695.116	12028.94
695.462	12061.02
695.808	12009.73
696.155	11966.34
696.501	11866.91
696.847	11921.82
697.193	11771.31
697.539	11828.04
697.885	11725.89
698.231	11726.8
698.577	11765.21
698.923	11760.69
699.269	11714.59
699.614	11625.56
699.96	11573.58
700.306	11640.02
700.651	11589.4
700.997	11573.58
701.342	11595.95
701.688	11502.17
702.033	11513.92
702.379	11591.21
702.724	11510.3
703.069	11607.48
703.415	11386.69
703.76	11438.89
704.105	11409.52
704.45	11387.37
704.795	11433.92
705.14	11339.24
705.485	11395.05
705.83	11344.43
706.175	11393.02
706.52	11273.25
706.865	11267.37
707.209	11252.01
707.554	11285.45
707.899	11294.94
708.243	11241.61
708.588	11155.74
708.932	11140.6
709.277	11121.84
709.621	11165.68
709.966	11091.33
710.31	11228.05
710.654	11001.17
710.998	11050.2
711.342	11096.08
711.687	10983.09
712.031	10982.41
712.375	10965.46
712.719	10875.29
713.063	10893.6
713.407	10884.11
713.75	10914.39
714.094	10882.98
714.438	10868.51
714.782	10850.66
715.125	10767.05
715.469	10724.56
715.812	10645.47
716.156	10652.7
716.499	10638.46
716.843	10560.95
717.186	10588.07
717.53	10579.03
717.873	10604.34
718.216	10528.41
718.559	10535.19
718.902	10405.47
719.246	10411.8
719.589	10405.93
719.932	10309.66
720.275	10294.07
720.617	10322.09
720.96	10337.23
721.303	10260.17
721.646	10247.06
721.989	10224.91
722.331	10188.98
722.674	10148.08
723.016	10199.15
723.359	10150.57
723.701	10112.15
724.044	10071.7
724.386	10044.35
724.729	10022.21
725.071	10062.66
725.413	9996.45
725.755	9972.04
726.097	9971.14
726.439	9911.02
726.782	9910.57
727.124	9894.3
727.465	9857.24
727.807	9830.8
728.149	9833.06
728.491	9785.38
728.833	9821.99
729.175	9832.38
729.516	9847.52
729.858	9737.7
730.199	9783.57
730.541	9802.55
730.882	9729.33
731.224	9778.82
731.565	9735.21
731.906	9777.24
732.248	9770.01
732.589	9714.87
732.93	9756.9
733.271	9754.64
733.612	9709.67
733.953	9837.35
734.294	9724.81
734.635	9750.58
734.976	9740.63
735.317	9722.78
735.658	9707.87
735.999	9711.26
736.339	9697.92
736.68	9695.66
737.021	9694.76
737.361	9585.84
737.702	9673.29
738.042	9660.86
738.383	9748.54
738.723	9704.25
739.063	9690.92
739.404	9699.05
739.744	9683.01
740.084	9586.97
740.424	9627.19
740.764	9607.76
741.104	9647.75
741.444	9585.16
741.784	9535.44
742.124	9546.06
742.464	9487.08
742.804	9482.34
743.143	9466.52
743.483	9491.15
743.823	9426.97
744.162	9397.14
744.502	9409.57
744.841	9375.9
745.181	9423.13
745.52	9395.78
745.86	9366.41
746.199	9326.41
746.538	9340.42
746.877	9360.76
747.216	9313.53
747.556	9279.18
747.895	9266.97
748.234	9266.75
748.573	9221.1
748.911	9163.02
749.25	9246.64
749.589	9161.21
749.928	9181.55
750.267	9172.74
750.605	9156.69
750.944	9084.83
751.283	9038.05
751.621	9101.33
751.96	9019.07
752.298	9027.88
752.636	9081.44
752.975	8952.63
753.313	8913.99
753.651	9017.04
753.989	8914.67
754.327	8934.55
754.666	8884.84
755.004	8896.59
755.342	8836.02
755.679	8866.31
756.017	8798.51
756.355	8793.31
756.693	8779.08
757.031	8773.65
757.368	8749.47
757.706	8691.85
758.044	8742.69
758.381	8751.28
758.719	8645.52
759.056	8706.76
759.394	8689.14
759.731	8556.26
760.068	8612.53
760.405	8534.79
