Data from foam2_polystyrene_foam_FLMS001491_00039.txt Node
Date: Wed Feb 08 10:57:53 GMT 2017
User: dcchb
Spectrometer: FLMS00149
Trigger mode: 0
Integration Time (sec): 2.000000E-2
Scans to average: 10
Electric dark correction enabled: true
Nonlinearity correction enabled: false
Boxcar width: 0
XAxis mode: Wavelengths
Number of Pixels in Spectrum: 2048
>>>>>Begin Spectral Data<<<<<
341.393	-1.68
341.776	-1.68
342.16	-1.68
342.543	-63.37
342.927	-63.6
343.31	-62.47
343.693	-70.38
344.077	-69.7
344.46	-53.43
344.843	-62.02
345.226	-55.24
345.61	-22.7
345.993	-25.63
346.376	11.88
346.759	27.92
347.142	32.44
347.525	33.8
347.908	67.24
348.291	59.33
348.674	81.03
349.057	107.92
349.44	109.05
349.823	136.17
350.206	156.96
350.588	200.12
350.971	212.78
351.354	225.21
351.737	230.63
352.119	261.59
352.502	262.95
352.884	271.31
353.267	293.23
353.65	282.61
354.032	304.3
354.414	330.74
354.797	327.12
355.179	326.45
355.562	335.26
355.944	341.59
356.326	343.17
356.709	347.01
357.091	328.93
357.473	352.66
357.855	350.85
358.238	345.88
358.62	342.49
359.002	364.64
359.384	355.6
359.766	344.98
360.148	337.97
360.53	366.67
360.912	361.93
361.294	349.95
361.676	357.63
362.057	354.69
362.439	335.49
362.821	340.01
363.203	358.31
363.584	316.05
363.966	352.66
364.348	357.63
364.729	335.03
365.111	333.23
365.493	357.63
365.874	322.83
366.256	363.28
366.637	315.83
367.019	326.22
367.4	336.62
367.781	337.97
368.163	333.9
368.544	322.83
368.925	346.11
369.306	353.34
369.688	341.14
370.069	326.45
370.45	348.59
370.831	357.18
371.212	353.56
371.593	363.06
371.974	351.76
372.355	332.77
372.736	357.86
373.117	333.68
373.498	360.34
373.879	352.21
374.26	334.58
374.641	337.97
375.021	368.7
375.402	333.45
375.783	344.52
376.163	364.86
376.544	399.66
376.925	373.68
377.305	364.41
377.686	361.25
378.066	374.13
378.447	346.56
378.827	376.39
379.208	388.59
379.588	368.03
379.968	387.01
380.349	396.95
380.729	384.75
381.109	384.52
381.489	382.94
381.87	379.78
382.25	396.27
382.63	377.52
383.01	396.73
383.39	376.39
383.77	419.33
384.15	385.43
384.53	407.12
384.91	403.51
385.29	393.56
385.67	430.4
386.049	419.55
386.429	404.18
386.809	446.9
387.189	422.94
387.568	437.63
387.948	446.9
388.328	439.66
388.707	451.87
389.087	444.86
389.466	436.5
389.846	453.9
390.225	435.37
390.605	440.79
390.984	457.97
391.363	473.11
391.743	469.72
392.122	474.46
392.501	463.84
392.881	481.47
393.26	498.19
393.639	485.99
394.018	482.15
394.397	448.7
394.776	498.87
395.155	507.91
395.534	499.32
395.913	507.68
396.292	518.98
396.671	524.86
397.05	502.49
397.429	507.91
397.808	517.18
398.186	513.79
398.565	522.6
398.944	529.15
399.323	553.33
399.701	547.68
400.08	547.46
400.458	558.53
400.837	525.54
401.215	562.82
401.594	549.94
401.972	547.91
402.351	573.45
402.729	565.76
403.107	579.32
403.486	598.53
403.864	583.16
404.242	564.86
404.62	565.76
404.999	596.5
405.377	604.18
405.755	610.96
406.133	613.9
406.511	628.36
406.889	638.98
407.267	629.04
407.645	637.17
408.023	636.72
408.401	641.24
408.779	669.71
409.156	656.83
409.534	657.74
409.912	665.87
410.29	685.98
410.667	682.37
411.045	689.37
411.422	691.41
411.8	700.9
412.178	710.84
412.555	726.44
412.933	740.22
413.31	723.5
413.687	739.99
414.065	757.17
414.442	749.26
414.819	788.58
415.197	794.23
415.574	783.61
415.951	792.65
416.328	799.2
416.705	819.99
417.082	821.8
417.46	820.67
417.837	823.38
418.214	844.62
418.591	859.54
418.967	851.86
419.344	858.86
419.721	873.32
420.098	867.9
420.475	892.08
420.852	883.04
421.228	899.09
421.605	880.1
421.982	903.61
422.358	911.52
422.735	930.27
423.111	930.05
423.488	946.54
423.864	921.68
424.241	970.5
424.617	984.51
424.994	967.11
425.37	977.95
425.746	977.5
426.123	1010.5
426.499	990.61
426.875	1026.99
427.251	1044.17
427.627	1049.82
428.003	1068.35
428.379	1081.45
428.756	1079.65
429.132	1102.25
429.507	1109.7
429.883	1115.8
430.259	1142.02
430.635	1133.43
431.011	1150.83
431.387	1166.88
431.763	1193.99
432.138	1191.06
432.514	1222.92
432.89	1214.11
433.265	1250.94
433.641	1258.17
434.016	1274.9
434.392	1293.2
434.767	1310.38
435.143	1313.76
435.518	1332.3
435.894	1350.15
436.269	1378.4
436.644	1402.8
437.02	1377.72
437.395	1393.08
437.77	1429.47
438.145	1435.57
438.52	1440.09
438.895	1470.6
439.271	1462.01
439.646	1478.96
440.021	1539.97
440.395	1563.02
440.77	1541.78
441.145	1543.36
441.52	1552.85
441.895	1555.79
442.27	1574.1
442.645	1538.84
443.019	1633.3
443.394	1620.42
443.769	1653.19
444.143	1621.33
444.518	1692.74
444.892	1653.87
445.267	1697.26
445.641	1670.37
446.016	1741.55
446.39	1747.43
446.764	1736.13
447.139	1719.86
447.513	1769.8
447.887	1766.86
448.262	1791.49
448.636	1790.59
449.01	1817.93
449.384	1839.4
449.758	1868.33
450.132	1873.98
450.506	1884.82
450.88	1890.7
451.254	1890.92
451.628	1946.06
452.002	1939.06
452.376	1967.31
452.75	1992.84
453.123	2020.64
453.497	2061.09
453.871	2064.48
454.244	2105.38
454.618	2080.07
454.992	2112.84
455.365	2101.31
455.739	2159.39
456.112	2197.13
456.486	2203.23
456.859	2240.52
457.232	2254.53
457.606	2259.05
457.979	2285.26
458.352	2319.16
458.725	2327.98
459.099	2357.81
459.472	2420.18
459.845	2440.97
460.218	2443.9
460.591	2455.2
460.964	2483.45
461.337	2562.55
461.71	2589.66
462.083	2585.6
462.456	2631.24
462.829	2629.21
463.201	2626.5
463.574	2639.15
463.947	2727.96
464.32	2725.71
464.692	2771.35
465.065	2803.9
465.438	2831.24
465.81	2868.53
466.183	2887.73
466.555	2951.01
466.928	2976.55
467.3	2973.83
467.672	3038.47
468.045	3085.7
468.417	3121.17
468.789	3147.84
469.161	3244.79
469.534	3201.17
469.906	3268.06
470.278	3304
470.65	3376.31
471.022	3411.34
471.394	3477.78
471.766	3469.64
472.138	3552.8
472.51	3542.41
472.882	3616.98
473.253	3674.15
473.625	3763.42
473.997	3808.84
474.369	3814.94
474.74	3892.45
475.112	3963.86
475.484	4007.93
475.855	4081.15
476.227	4102.84
476.598	4265.33
476.97	4221.94
477.341	4373.35
477.713	4438.43
478.084	4432.55
478.455	4562.72
478.827	4605.43
479.198	4678.87
479.569	4734.69
479.94	4843.62
480.311	4865.99
480.682	5019.2
481.053	5110.5
481.424	5186.21
481.795	5230.72
482.166	5338.97
482.537	5395.01
482.908	5476.82
483.279	5558.85
483.65	5628.45
484.021	5782.35
484.391	5801.33
484.762	5875.45
485.133	5926.07
485.503	6036.35
485.874	6144.15
486.244	6170.81
486.615	6333.52
486.985	6395.21
487.356	6475.44
487.726	6534.42
488.097	6661.19
488.467	6704.13
488.837	6887.4
489.207	6986.84
489.578	7051.47
489.948	7145.7
490.318	7182.54
490.688	7246.04
491.058	7358.35
491.428	7526.48
491.798	7521.96
492.168	7662.75
492.538	7691
492.908	7833.82
493.278	7869.75
493.648	7932.57
494.017	7995.62
494.387	8133.92
494.757	8182.74
495.126	8298.89
495.496	8288.27
495.866	8411.88
496.235	8487.36
496.605	8611.88
496.974	8576.17
497.344	8710.18
497.713	8750.41
498.082	8814.58
498.452	8903.4
498.821	8989.04
499.19	8980
499.559	9144.29
499.928	9207.34
500.298	9222.71
500.667	9330.5
501.036	9367.56
501.405	9441.23
501.774	9437.39
502.143	9531.63
502.512	9591.97
502.88	9663.83
503.249	9697.05
503.618	9775.92
503.987	9831.73
504.356	9943.82
504.724	9955.57
505.093	10045.29
505.462	10097.04
505.83	10229.24
506.199	10252.29
506.567	10414.09
506.936	10419.74
507.304	10604.14
507.672	10628.1
508.041	10636.68
508.409	10776.34
508.777	10780.86
509.145	10954.19
509.514	10989.89
509.882	11058.59
510.25	11013.62
510.618	11193.73
510.986	11207.52
511.354	11317.34
511.722	11426.72
512.09	11568.86
512.458	11510.78
512.826	11666.04
513.193	11778.12
513.561	11757.56
513.929	11767.28
514.297	11948.29
514.664	12040.26
515.032	12097.66
515.4	12204.33
515.767	12266.7
516.135	12333.81
516.502	12381.72
516.869	12612.22
517.237	12639.12
517.604	12667.14
517.972	12780.58
518.339	12925.66
518.706	12939.45
519.073	13058.09
519.44	13085.43
519.808	13240.23
520.175	13312.09
520.542	13480
520.909	13522.71
521.276	13580.34
521.643	13732.2
522.009	13832.98
522.376	13950.72
522.743	13932.19
523.11	14220.32
523.477	14311.84
523.843	14404.27
524.21	14459.18
524.577	14665.28
524.943	14730.81
525.31	14799.06
525.676	14954.54
526.043	15112.27
526.409	15143.68
526.776	15368.08
527.142	15250.35
527.508	15478.36
527.874	15567.4
528.241	15668.87
528.607	15770.56
528.973	15875.87
529.339	15844.91
529.705	16038.58
530.071	16088.97
530.437	16283.77
530.803	16432.46
531.169	16506.36
531.535	16345.01
531.901	16537.77
532.267	16597.43
532.632	16726.47
532.998	16792.68
533.364	16922.17
533.73	17040.58
534.095	17178.43
534.461	17219.34
534.826	17304.98
535.192	17279.45
535.557	17408.26
535.923	17465.88
536.288	17587.46
536.653	17605.31
537.019	17585.43
537.384	17761.69
537.749	17759.21
538.114	17850.73
538.479	17883.5
538.845	18048.69
539.21	17986.32
539.575	18158.97
539.94	18189.48
540.305	18314
540.67	18347.22
541.034	18390.15
541.399	18487.1
541.764	18516.7
542.129	18559.87
542.494	18615.91
542.858	18792.4
543.223	18846.86
543.587	19011.6
543.952	18998.05
544.316	18982.9
544.681	19068.1
545.045	19161.88
545.41	19300.18
545.774	19261.32
546.138	19277.81
546.503	19376.11
546.867	19446.17
547.231	19665.15
547.595	19682.55
547.959	19730.91
548.324	19735.2
548.688	19790.12
549.052	19924.57
549.416	19975.65
549.779	19945.82
550.143	20018.36
550.507	20147.39
550.871	20237.34
551.235	20287.96
551.599	20462.64
551.962	20405.01
552.326	20575.86
552.689	20627.83
553.053	20608.17
553.417	20617.44
553.78	20913.7
554.143	20822.86
554.507	20984.89
554.87	20990.31
555.234	21198.67
555.597	21174.26
555.96	21163.41
556.323	21346.46
556.686	21352.79
557.05	21685.21
557.413	21651.08
557.776	21738.54
558.139	21804.98
558.502	21889.27
558.865	21897.4
559.228	22157.06
559.59	22181.92
559.953	22180.33
560.316	22463.72
560.679	22509.59
561.041	22562.02
561.404	22738.51
561.767	22868
562.129	22809.92
562.492	23035
562.854	23043.36
563.217	23054.66
563.579	23166.98
563.941	23424.6
564.304	23443.13
564.666	23569.22
565.028	23636.34
565.39	23750.46
565.753	23934.64
566.115	23897.35
566.477	23990.91
566.839	24189.1
567.201	24193.84
567.563	24253.73
567.925	24495.3
568.287	24468.86
568.648	24545.92
569.01	24726.03
569.372	24959.47
569.734	24832.47
570.095	25016.19
570.457	25169.63
570.819	25262.74
571.18	25224.55
571.542	25303.87
571.903	25422.96
572.265	25397.65
572.626	25493.69
572.987	25637.19
573.349	25693.01
573.71	25766.46
574.071	25759.68
574.432	25791.99
574.794	26064.98
575.155	26117.41
575.516	26051.65
575.877	26121.7
576.238	26148.37
576.599	26311.53
576.96	26336.84
577.32	26280.34
577.681	26465.42
578.042	26516.94
578.403	26544.51
578.763	26502.03
579.124	26511.97
579.485	26718.07
579.845	26716.03
580.206	26591.52
580.566	26620.44
580.927	26835.58
581.287	26872.41
581.648	26626.09
582.008	26904.28
582.368	26896.6
582.728	26924.84
583.089	26830.83
583.449	26960.55
583.809	27012.07
584.169	27015.24
584.529	26857.27
584.889	27126.19
585.249	26866.31
585.609	26818.63
585.969	27004.39
586.329	26985.86
586.688	26961.68
587.048	26947.67
587.408	27003.71
587.768	26996.25
588.127	26952.19
588.487	26938.18
588.846	27166.19
589.206	26877.84
589.565	27011.62
589.925	27156.02
590.284	27023.37
590.643	27146.08
591.003	27178.85
591.362	27175.68
591.721	27091.84
592.08	27165.51
592.44	27254.78
592.799	27133.65
593.158	27070.83
593.517	27078.51
593.876	27150.83
594.235	27115.12
594.593	27280.99
594.952	27140.43
595.311	27096.14
595.67	27185.63
596.029	27345.85
596.387	27304.72
596.746	27311.5
597.104	27205.97
597.463	27340.65
597.822	27442.34
598.18	27364.38
598.538	27305.85
598.897	27432.4
599.255	27283.03
599.613	27706.97
599.972	27459.52
600.33	27574.09
600.688	27440.99
601.046	27589.68
601.404	27501.78
601.762	27507.2
602.12	27750.81
602.478	27717.82
602.836	27619.29
603.194	27600.31
603.552	27727.31
603.91	27632.17
604.268	27686.86
604.625	27731.15
604.983	27771.83
605.341	27715.78
605.698	27833.75
606.056	27967.53
606.413	27885.95
606.771	27906.74
607.128	27940.18
607.485	27757.82
607.843	27862.45
608.2	28018.37
608.557	28127.07
608.914	28033.74
609.272	28106.51
609.629	28137.92
609.986	28365.71
610.343	28078.94
610.7	28379.95
611.057	28336.11
611.414	28363.22
611.771	28331.36
612.127	28436.67
612.484	28512.6
612.841	28474.86
613.198	28413.84
613.554	28404.35
613.911	28653.84
614.267	28479.6
614.624	28593.05
614.98	28561.41
615.337	28737.22
615.693	28562.99
616.05	28541.75
616.406	28753.27
616.762	28601.41
617.118	28653.84
617.475	28638.02
617.831	28701.52
618.187	28717.56
618.543	28791.01
618.899	28885.47
619.255	28918.69
619.611	28760.73
619.967	28928.41
620.323	29021.96
620.678	28918.01
621.034	28904.9
621.39	28897.22
621.746	28775.87
622.101	29247.04
622.457	28962.76
622.812	28943.32
623.168	29095.86
623.523	28975.86
623.879	29127.27
624.234	28744.91
624.589	29007.73
624.945	28948.97
625.3	29092.24
625.655	29027.39
626.01	28992.36
626.365	28980.83
626.72	29060.15
627.075	28983.77
627.43	28850.89
627.785	28746.94
628.14	28946.03
628.495	28768.64
628.85	28844.57
629.205	28782.2
629.559	28968.63
629.914	28759.6
630.269	28820.16
630.623	28580.39
630.978	28703.78
631.332	28808.41
631.687	28716.66
632.041	28580.39
632.396	28612.03
632.75	28489.1
633.104	28541.52
633.459	28433.96
633.813	28408.42
634.167	28360.74
634.521	28405.48
634.875	28336.56
635.229	28363
635.583	28294.98
635.937	28358.03
636.291	28322.55
636.645	28253.4
636.999	28248.2
637.352	28115.77
637.706	28059.05
638.06	28225.37
638.413	28109.67
638.767	28080.52
639.121	27993.52
639.474	27805.27
639.828	27891.37
640.181	27954.87
640.534	27920.97
640.888	27861.09
641.241	27684.82
641.594	27686.4
641.947	27799.17
642.301	27570.48
642.654	27743.58
643.007	27622.9
643.36	27500.65
643.713	27615.45
644.066	27595.11
644.419	27367.54
644.771	27283.48
645.124	27091.62
645.477	27112.18
645.83	26805.07
646.182	26627
646.535	26678.97
646.888	26601.91
647.24	26482.82
647.593	26606.21
647.945	26484.18
648.298	26392.2
648.65	26319.89
649.002	26252.77
649.355	26224.52
649.707	26279.66
650.059	26365.54
650.411	26754.45
650.763	26799.42
651.115	27026.54
651.467	26853.88
651.819	26923.04
652.171	26891.4
652.523	26887.33
652.875	26817.95
653.227	26732.08
653.578	26932.98
653.93	26794.9
654.282	26796.03
654.633	26500.9
654.985	26666.09
655.337	26702.25
655.688	26721.91
656.039	26678.07
656.391	26462.48
656.742	26364.18
657.094	26487.11
657.445	26641.69
657.796	26499.09
658.147	26416.83
658.498	26357.85
658.849	26524.85
659.2	26437.85
659.551	26417.74
659.902	26336.61
660.253	26288.25
660.604	26368.47
660.955	26245.09
661.306	26445.08
661.656	26232.21
662.007	26418.64
662.358	26396.27
662.708	26256.61
663.059	26253.67
663.409	26144.52
663.76	26345.88
664.11	26284.86
664.461	26244.63
664.811	26358.08
665.161	26192.66
665.511	26015.94
665.862	26281.7
666.212	26231.3
666.562	26238.99
666.912	26054.81
667.262	26068.37
667.612	26041.7
667.962	26120.12
668.312	25887.36
668.662	26193.56
669.011	26069.5
669.361	26051.19
669.711	26014.81
670.06	25982.72
670.41	25923.97
670.76	25876.06
671.109	26128.25
671.459	25902.5
671.808	25950.63
672.157	26066.56
672.507	25839.9
672.856	25650.07
673.205	25730.07
673.554	25878.77
673.904	25787.7
674.253	25864.08
674.602	25736.85
674.951	25343.87
675.3	25255.73
675.649	25573.47
675.998	25686.01
676.346	25631.54
676.695	25753.12
677.044	25449.18
677.393	25575.73
677.741	25688.04
678.09	25561.71
678.438	25514.48
678.787	25498.67
679.135	25535.5
679.484	25404.2
679.832	25556.74
680.181	25201.05
680.529	25453.02
680.877	25234.49
681.225	25207.15
681.573	25330.31
681.922	25147.26
682.27	25087.38
682.618	25109.52
682.966	24951.34
683.314	24952.92
683.661	24821.62
684.009	24796.99
684.357	24773.04
684.705	24797.22
685.053	24607.62
685.4	24682.42
685.748	24498.92
686.095	24596.32
686.443	24490.78
686.79	24409.88
687.138	24396.77
687.485	24483.33
687.832	24276.1
688.18	24342.09
688.527	24240.85
688.874	24021.87
689.221	24138.02
689.568	24102.09
689.915	24026.16
690.262	23929.22
690.609	23893.06
690.956	23833.4
691.303	23789.78
691.65	23651.26
691.997	23591.37
692.344	23480.19
692.69	23589.11
693.037	23484.48
693.383	23262.79
693.73	23444.03
694.077	23217.14
694.423	23193.64
694.769	23140.54
695.116	23143.25
695.462	23080.2
695.808	23064.83
696.155	23093.08
696.501	22801.56
696.847	22863.48
697.193	22742.58
697.539	22777.61
697.885	22672.53
698.231	22612.64
698.577	22439.99
698.923	22502.36
699.269	22451.97
699.614	22280.9
699.96	22279.77
700.306	22138.53
700.651	22141.69
700.997	22150.96
701.342	22034.35
701.688	22021.02
702.033	21943.96
702.379	21952.77
702.724	21978.08
703.069	21909.61
703.415	21656.28
703.76	21761.81
704.105	21754.36
704.45	21713.23
704.795	21533.8
705.14	21366.34
705.485	21487.7
705.83	21415.84
706.175	21430.52
706.52	21390.98
706.865	21369.28
707.209	21192.79
707.554	21264.88
707.899	21157.76
708.243	20897.66
708.588	20933.36
708.932	20846.81
709.277	20783.31
709.621	20753.48
709.966	20548.51
710.31	20772.01
710.654	20482.3
710.998	20512.58
711.342	20624.44
711.687	20486.59
712.031	20466.48
712.375	20273.27
712.719	20453.6
713.063	20337.22
713.407	20355.3
713.75	20259.48
714.094	20296.09
714.438	20170.9
714.782	20207.05
715.125	20137.45
715.469	20033.5
715.812	20020.84
716.156	19952.82
716.499	19951.24
716.843	20005.93
717.186	19772.26
717.53	19942.65
717.873	19873.95
718.216	19765.03
718.559	19748.99
718.902	19607.97
719.246	19649.55
719.589	19463.12
719.932	19382.22
720.275	19560.29
720.617	19456.79
720.96	19414.08
721.303	19432.61
721.646	19377.24
721.989	19203.69
722.331	19292.73
722.674	19243.46
723.016	19258.83
723.359	19348.77
723.701	19271.26
724.044	19116.91
724.386	18941.1
724.729	19112.62
725.071	19012.51
725.413	18982.68
725.755	18901.78
726.097	18830.14
726.439	18868.56
726.782	18802.12
727.124	18958.5
727.465	18802.57
727.807	18729.8
728.149	18716.02
728.491	18661.11
728.833	18698.62
729.175	18577.72
729.516	18563.93
729.858	18516.48
730.199	18508.12
730.541	18582.24
730.882	18488.68
731.224	18436.03
731.565	18378.85
731.906	18364.84
732.248	18401.45
732.589	18254.11
732.93	18242.81
733.271	18342.92
733.612	18352.41
733.953	18187.45
734.294	18087.56
734.635	18079.2
734.976	18067
735.317	17959.88
735.658	17903.61
735.999	18024.51
736.339	17977.06
736.68	18048.92
737.021	17910.16
737.361	17773.67
737.702	17902.03
738.042	17817.74
738.383	17802.82
738.723	17833.56
739.063	17791.75
739.404	17833.33
739.744	17679.89
740.084	17700
740.424	17701.81
740.764	17610.29
741.104	17693.45
741.444	17536.16
741.784	17527.8
742.124	17531.19
742.464	17534.36
742.804	17549.27
743.143	17447.58
743.483	17466.79
743.823	17373.68
744.162	17402.38
744.502	17418.88
744.841	17312.67
745.181	17452.78
745.52	17252.78
745.86	17248.71
746.199	17211.65
746.538	17149.28
746.877	17215.27
747.216	17077.64
747.556	17171.65
747.895	17073.58
748.234	16937.99
748.573	16936.4
748.911	16931.89
749.25	16989.28
749.589	16813.24
749.928	16848.95
750.267	16873.58
750.605	16860.25
750.944	16893.92
751.283	16649.41
751.621	16813.7
751.96	16556.98
752.298	16729.18
752.636	16678.33
752.975	16552.69
753.313	16502.07
753.651	16605.11
753.989	16477.43
754.327	16420.94
754.666	16289.64
755.004	16334.84
755.342	16313.6
